#   1 NUMBER                 Running object number                                     
#   2 MAG_AUTO               Kron-like elliptical aperture magnitude                    [mag]
#   3 X_IMAGE                Object position along x                                    [pixel]
#   4 Y_IMAGE                Object position along y                                    [pixel]
#   5 X_WORLD                Barycenter position along world x axis                     [deg]
#   6 Y_WORLD                Barycenter position along world y axis                     [deg]
#   7 A_WORLD                Profile RMS along major axis (world units)                 [deg]
#   8 B_WORLD                Profile RMS along minor axis (world units)                 [deg]
#   9 THETA_WORLD            Position angle (CCW/world-x)                               [deg]
#  10 FWHM_WORLD             FWHM assuming a gaussian core                              [deg]
#  11 ELONGATION             A_IMAGE/B_IMAGE                                           
#  12 ELLIPTICITY            1 - B_IMAGE/A_IMAGE                                       
         1 -10.5224    103.9939     18.8027   8.7245426841e+01   5.6523154658e+01    0.4171555    0.1966579 -15.36  0.001517817    2.959    0.662
         2 -11.2538     25.2971     20.1968   1.1659335015e+02   6.8730352592e+01    0.4847294    0.2203152 -31.94  0.002261539    2.781    0.640
         3 -11.0974    217.4947     15.9530   6.6667481427e+01   2.8072195825e+01    0.5675744    0.2420183  47.48  0.001905769    2.521    0.603
         4 -10.5722    137.0131     20.0847   8.0040402516e+01   4.8635974514e+01    0.2418278    0.2114467  58.44 0.0003386423    1.177    0.151
         5 -11.0715     19.7661     18.4456   1.1849114991e+02   6.9565099013e+01    0.3247524    0.1763686 -54.35  0.001261168    1.451    0.311
         6 -10.8337    130.7531     15.0121   7.9297420834e+01   5.0809125705e+01    0.2629803    0.2375176  13.22  0.000874595    1.079    0.073
         7 -11.4031    133.3811     11.7405   7.7423722525e+01   5.0542760375e+01    0.3127576    0.2323047  -0.63  0.000872982    1.421    0.296
         8 -10.7502     99.5037     13.3574   8.6036331523e+01   5.8233758173e+01    0.4764574    0.1984341 -38.54  0.001918316    2.345    0.574
         9 -11.2195     26.2195     13.4828   1.1344568295e+02   6.9913600765e+01    0.2271253    0.1511721 -38.08  0.000464765    1.242    0.195
        10 -11.7734     81.0148      6.5670   8.8201510408e+01   6.2905235038e+01     0.404906    0.2556243   7.34 0.0005311184    1.992    0.498
        11  -9.4903      8.9194      8.3588   1.1996399191e+02   7.2357577564e+01    0.1997698     0.125827 -14.16  0.001267928    1.951    0.487
        12 -10.2249     75.2619      4.8740   8.9194192227e+01   6.4223483996e+01    0.2756421    0.1561955 -24.38  0.001378559    1.629    0.386
        13  -9.7502     59.9028      5.2415   9.4832923000e+01   6.6859994778e+01     0.325677    0.1023478  44.79  0.001289291    3.488    0.713
        14 -10.0107     91.6488      4.0186   8.3789318651e+01   6.1080604887e+01    0.1909848    0.1550596 -15.76 0.0003979315    1.128    0.113
        15 -11.5443     27.0160      3.1438   1.0820457462e+02   7.1670773193e+01    0.2882637    0.2286832  -0.44 0.0008615545    1.364    0.267
        16 -11.5486     74.0741    238.3694   1.3686616756e+02   2.1372226652e+01    0.4338274    0.1706251  48.39  0.002849686    1.770    0.435
        17 -10.0047    243.0533    247.4786   1.1276098433e+02  -2.7994136560e+00    0.1390077    0.1017789  22.88 0.0004906549    1.125    0.111
        18 -10.9949    247.5457    249.9619   1.1246138139e+02  -3.5767304649e+00    0.3947833    0.1090042  41.20  0.002167862    2.481    0.597
        19 -10.7471    250.3080    244.6006   1.1140196788e+02  -3.5688262219e+00    0.2542393    0.1375127 -20.61  0.001891993    2.201    0.546
        20 -12.4864    226.7333    246.2071   1.1486659828e+02  -4.7029158085e-01    0.7061896    0.3657508  25.70  0.004835776    1.769    0.435
        21  -9.4917    168.2325    250.6301   1.2378167277e+02   7.3705584139e+00     0.138446   0.06760428  39.08 0.0003388244    1.552    0.356
        22 -10.3447    127.9201    249.6375   1.2963513928e+02   1.3046646280e+01    0.1373696    0.1242274  50.06  0.001080572    1.342    0.255
        23  -9.6157     72.8943    250.0008   1.3774632155e+02   1.9964831712e+01    0.1198709    0.1052873  36.59  0.001116469    1.716    0.417
        24  -9.2401     45.7057    250.6598   1.4166673530e+02   2.2916908929e+01   0.07130831   0.06503763  61.66 0.0007029431    1.655    0.396
        25 -11.6744     27.8905    246.0679   1.4398060933e+02   2.5368180645e+01    0.2692127    0.1427174 -87.46   0.00202248    1.792    0.442
        26 -12.4660     21.3904    248.9377   1.4498633777e+02   2.5613244824e+01    0.4134841    0.1174018  48.80  0.002814492    2.094    0.522
        27 -11.7712     14.2330    244.3139   1.4582176799e+02   2.6925300258e+01    0.1853823   0.08813624  70.81  0.001513793    1.534    0.348
        28  -9.5297     50.0393    240.4889   1.4056010814e+02   2.3830280376e+01    0.1327598    0.0666217  46.62 0.0006236411    1.500    0.333
        29 -10.6373    174.7788    238.6003   1.2154256393e+02   7.6660069478e+00    0.2701095    0.1344886  38.09  0.001755516    1.581    0.368
        30 -11.4282    177.5573    234.9796   1.2071752693e+02   7.6371515363e+00    0.2510099    0.1629663  25.49  0.001247284    1.658    0.397
        31 -11.4735     20.0987    238.1213   1.4478870639e+02   2.7235064115e+01    0.3645299   0.08886449  44.31  0.002260202    2.547    0.607
        32 -10.7943    159.8210    235.7418   1.2350308471e+02   1.0155349345e+01    0.1923108    0.1243457  32.89 0.0007794717    1.478    0.323
        33 -11.0933     73.6619    232.9033   1.3657719626e+02   2.2176751546e+01    0.1921343    0.1370441  69.86  0.000819756    1.148    0.129
        34 -10.5717    167.0830    233.8623   1.2218806038e+02   9.3003795276e+00    0.1829642    0.1324994  43.38 0.0007928534    1.013    0.013
        35 -11.0113    153.2543    233.8709   1.2431544579e+02   1.1323992424e+01    0.1629215    0.1349718   9.54  0.001281849    1.651    0.394
        36 -10.4267     86.2067    233.7334   1.3470374559e+02   2.0518846359e+01    0.1754462   0.09671068  85.35  0.001202472    2.153    0.536
        37  -9.7952     53.6671    234.7026   1.3972043687e+02   2.4240508110e+01   0.07694606    0.0691622  46.01 0.0006236688    1.645    0.392
        38  -9.2117     62.3389    233.3061   1.3833183139e+02   2.3455148541e+01   0.07909112   0.07096136  39.45 0.0007041453    1.679    0.404
        39  -9.5813    240.9250    231.3055   1.1094074219e+02  -1.2804149706e+00    0.1449787   0.09721175  30.46  0.000458098    1.053    0.050
        40 -10.0668     79.5289    231.2933   1.3556404564e+02   2.1687148958e+01    0.1775074   0.09843899  48.31 0.0005758321    1.348    0.258
        41  -9.6930    236.0071    230.3212   1.1150527876e+02  -5.0082910462e-01    0.1478628   0.09684252  31.11 0.0005343158    1.092    0.084
        42 -10.1970    169.8752    228.8896   1.2119887530e+02   9.4362570684e+00    0.1621904    0.1163908  33.76  0.001218466    1.248    0.199
        43  -9.1026    159.3098    229.3430   1.2289119113e+02   1.0958323653e+01    0.1008626   0.07117387  23.57 0.0004129975    1.697    0.411
        44  -9.2638     93.6819    229.3511   1.3321316122e+02   2.0167879151e+01     0.106708   0.05743004  65.19 0.0007047557    1.739    0.425
        45  -9.3784     59.2892    229.3752   1.3856524846e+02   2.4366886825e+01    0.0759576   0.07429948 -83.99 0.0003222901    1.727    0.421
        46 -10.1955    178.3065    228.3267   1.1983107097e+02   8.2335497288e+00    0.1034758   0.06890617  24.01 0.0007036471    1.651    0.394
        47 -10.4219    129.8012    226.8387   1.2727748088e+02   1.5571031436e+01     0.314414     0.130912  54.99  0.001500269    2.237    0.553
        48 -10.4418    190.5090    226.4909   1.1773582504e+02   6.5871862411e+00    0.1826289    0.1465731  32.94 0.0007086708    1.107    0.097
        49  -9.8366    144.4685    226.9653   1.2496545712e+02   1.3430982787e+01    0.1264175   0.08290517  83.47  0.000620079    2.344    0.573
        50 -10.4955     88.1103    226.9367   1.3390513342e+02   2.1221355250e+01    0.1543677    0.1299214 -87.71  0.001347912    1.372    0.271
        51 -10.7015     66.5977    226.4995   1.3725545392e+02   2.3932215434e+01    0.2391154    0.1108699  50.66  0.001585714    1.551    0.355
        52  -9.7401      6.6793    227.3104   1.4635361840e+02   3.0044981558e+01   0.09690335    0.0398163  62.38 0.0005846118    1.647    0.393
        53 -10.5930     81.4323    224.8836   1.3480889155e+02   2.2358450421e+01    0.1940432    0.1412479  71.97 0.0008610704    1.174    0.149
        54  -9.6488    115.6672    225.3364   1.2938774772e+02   1.7761766170e+01    0.1087042   0.06268005  64.89 0.0007052105    1.739    0.425
        55 -10.7143    181.8782    223.2343   1.1866295655e+02   8.2450629196e+00     0.208995    0.1557057 -38.81  0.001588752    1.775    0.437
        56  -8.9507    109.3531    223.3097   1.3021669578e+02   1.8909589427e+01   0.09411568   0.07508032  26.57 0.0002658706    1.722    0.419
        57 -10.8325     13.1445    222.2083   1.4522903694e+02   3.0214698511e+01    0.1476915     0.114165  73.42 0.0003637346    1.269    0.212
        58 -11.0844    143.3429    220.1243   1.2441468065e+02   1.4454619284e+01    0.5579847    0.2957623  24.55  0.002652682    3.809    0.737
        59  -9.1666    134.8663    223.0000   1.2608357711e+02   1.5334819561e+01    0.1735498   0.04660789  43.75 0.0007853594    2.825    0.646
        60 -10.9890    123.4474    221.4324   1.2776659537e+02   1.7189752164e+01    0.2287773    0.1619467  47.46  0.001062963    1.124    0.110
        61  -9.1872     51.6594    222.6947   1.3935787115e+02   2.6209491260e+01   0.07797638    0.0736766  46.90 0.0006339821    1.681    0.405
        62 -10.0544    165.8385    220.4120   1.2084250086e+02   1.1018245921e+01    0.1389921    0.1285128 -11.73 0.0001658839    1.401    0.286
        63  -9.0126     41.6833    221.3109   1.4083704968e+02   2.7505969572e+01    0.1025764   0.04832977  63.64 0.0007033232    1.639    0.390
        64 -10.4848    174.1795    219.9529   1.1946561238e+02   9.7919493179e+00    0.1956968    0.1282858  37.10 0.0006674068    1.250    0.200
        65 -10.0650     21.9744    220.2538   1.4382144421e+02   2.9673009253e+01    0.1267096   0.08276114  60.89 0.0003491837    1.088    0.081
        66  -9.9260    250.2336    219.1585   1.0791493605e+02  -1.6411116267e+00     0.159023    0.1052621  21.54 0.0006384143    1.184    0.156
        67  -9.1705    233.5005    219.4951   1.1036645435e+02   7.7865490638e-01    0.1076144   0.07823755  28.97 0.0008106769    1.003    0.003
        68 -11.0088    192.5854    216.4624   1.1612978072e+02   7.3266581833e+00    0.3186634    0.1913756  20.75  0.001954719    2.032    0.508
        69 -10.8061     10.2274    216.8594   1.4547500433e+02   3.1295213870e+01    0.2454987     0.131652  60.25  0.001656551    1.261    0.207
        70 -10.6836    201.6161    215.9373   1.1465802199e+02   5.9761129082e+00    0.2086595    0.1256596  36.24  0.001391072    1.297    0.229
        71  -9.7886     50.4610    218.3057   1.3929162374e+02   2.7003951126e+01    0.1652536   0.06884811  42.59 0.0008165321    1.965    0.491
        72  -9.5623    137.2112    215.6301   1.2492318924e+02   1.5954209221e+01    0.1559209   0.08216471  38.91 0.0009422281    1.685    0.406
        73  -9.2973    115.0000    214.9617   1.2851501572e+02   1.9284624628e+01    0.1401398   0.05998915 -58.98 0.0005817997    2.878    0.653
        74  -9.7702     30.9998    215.1706   1.4219697521e+02   2.9556985209e+01    0.1700712   0.06305249  57.59  0.001082426    1.977    0.494
        75 -11.0481    208.9954    212.1740   1.1300083262e+02   5.2112742807e+00    0.2069212    0.1407841  31.17 0.0004765023    1.189    0.159
        76 -10.0891    170.3051    213.0329   1.1922347843e+02   1.1204376974e+01    0.1484122    0.1244522  45.54 0.0007542646    1.098    0.089
        77  -9.5822    142.8053    213.1966   1.2373268582e+02   1.5434754173e+01    0.1420975    0.1118171  33.53 0.0005072427    1.331    0.248
        78 -11.1680    217.8066    207.7397   1.1101240107e+02   4.2754646559e+00    0.2914364    0.1515981 -11.62  0.001548754    3.039    0.671
        79 -11.4580      5.2676    207.6568   1.4590863648e+02   3.3173256111e+01    0.3552866    0.1353976  82.71  0.002321076    2.241    0.554
        80  -9.9379      1.4729    207.4886   1.4649211002e+02   3.3529774191e+01    0.1581917   0.09026754  86.57 0.0009254394    1.395    0.283
        81 -10.2426     10.6085    208.7038   1.4511369558e+02   3.2530530266e+01    0.1644226    0.1100566 -52.15   0.00115372    2.666    0.625
        82 -11.2538     20.5812    211.4447   1.4366242676e+02   3.1167210437e+01    0.2503771    0.1103603  70.02 0.0007407775    1.804    0.446
        83  -9.2939    247.6714    207.3704   1.0651784762e+02  -2.8569543157e-01   0.09155587   0.08483882  68.03 0.0007031582    1.822    0.451
        84  -9.4870     27.5517    205.4754   1.4227174497e+02   3.1433463686e+01   0.09940348   0.06572811  67.71 0.0006017609    1.051    0.048
        85  -9.5009    238.7790    201.1952   1.0686123933e+02   1.6219813175e+00    0.1560606    0.1003654  22.33  0.000528144    1.338    0.253
        86 -10.9550    210.4659    200.9895   1.1114767021e+02   6.1424788368e+00    0.1514655    0.1477672 -78.55 0.0007375612    1.471    0.320
        87 -11.6917    215.4901    193.9693   1.0928232439e+02   6.0731095653e+00    0.3258771    0.1621198 -30.12  0.001846956    2.371    0.578
        88  -9.6945     19.6786    199.9984   1.4329187654e+02   3.3088811520e+01    0.1366037   0.04842652 -58.40 0.0007046054    4.254    0.765
        89 -11.3519    227.3488    196.6752   1.0787097945e+02   3.8634575643e+00     0.294048    0.1659402  17.91  0.001087774    2.014    0.504
        90 -11.7319    231.9950    191.7393   1.0637300336e+02   3.6076045020e+00    0.3969944    0.1840523  24.48  0.001941629    2.611    0.617
        91 -11.8690    192.1967    194.7663   1.1314280082e+02   9.8480397624e+00    0.2938808    0.2385269  62.64  0.002042493    1.474    0.321
        92  -9.8922    203.0216    195.9607   1.1156895167e+02   7.9118147658e+00    0.1761104    0.1419959  31.72 0.0006602218    1.027    0.027
        93 -10.2203    163.4929    190.9147   1.1740706076e+02   1.5136312054e+01      0.21937    0.1148209 -37.04   0.00119322    2.524    0.604
        94  -9.2261     59.8263    192.6173   1.3599087045e+02   3.0034446605e+01    0.1471641   0.07158986  52.56 0.0004664715    1.623    0.384
        95 -10.6497    250.2834    190.1385   1.0338257703e+02   8.4537086460e-01    0.1767846    0.1452057 -27.85 0.0008870392    1.568    0.362
        96  -9.7861    198.6215    191.2449   1.1155824128e+02   9.1888420994e+00    0.1459009    0.1065999 -14.38 0.0008392491    1.648    0.393
        97 -11.6715    187.6497    189.1940   1.1305342131e+02   1.1291497566e+01    0.2969895    0.2065153 -17.86  0.001859043    1.865    0.464
        98 -10.0454    166.5443    183.4709   1.1579562179e+02   1.5645513217e+01    0.1984674    0.1362143  41.20 0.0009554468    1.236    0.191
        99 -11.8802     16.2534    183.0856   1.4304947909e+02   3.6261735664e+01    0.3058799    0.1712106  79.97  0.001846787    1.390    0.281
       100 -11.6915    248.6472    182.6410   1.0235381003e+02   1.8071308414e+00    0.3922968     0.172165  24.96  0.001867236    2.678    0.627
       101  -9.2594    205.5432    190.4599   1.1031385581e+02   8.1161836634e+00    0.1176809   0.09324542  31.50 0.0002059185    1.026    0.025
       102  -9.4002     61.6106    184.7973   1.3504308738e+02   3.1153082064e+01    0.1471688   0.08526527 -89.75 0.0009513578    1.682    0.405
       103 -10.3487    218.2319    187.5011   1.0781605104e+02   6.3172685450e+00    0.2172274    0.1348854 -43.58  0.001294351    2.195    0.544
       104  -9.8081     22.7971    180.8063   1.4177266151e+02   3.6046267650e+01    0.1475354   0.09681665 -43.71 0.0009659297    2.920    0.657
       105 -11.8369    224.1075    178.3338   1.0535389817e+02   6.3263782699e+00    0.2669736    0.2216787  28.36 0.0005267031    1.064    0.060
       106 -10.4812      2.2336    180.0952   1.4535050310e+02   3.8006551412e+01    0.1675867    0.1053475  58.92 0.0005610907    1.235    0.190
       107 -12.3462    244.5598    177.7098   1.0210418150e+02   2.9536254408e+00    0.3248046    0.1959196  -0.88  0.001737405    1.831    0.454
       108 -11.0940    200.4946    176.3117   1.0884009245e+02   1.0670616742e+01    0.2470011    0.1694092  29.65  0.001011062    1.345    0.256
       109  -9.9601    100.9735    176.0009   1.2680622573e+02   2.7406544941e+01    0.1622174    0.1332623  65.93  0.001147951    1.008    0.008
       110  -9.2493     70.4124    177.5372   1.3276428287e+02   3.1332685499e+01    0.1092538   0.08702751  71.72 0.0001249783    1.032    0.031
       111  -9.5312    175.6296    179.6967   1.1363266848e+02   1.4597095808e+01    0.1243129   0.08461448  22.00 0.0007032747    1.751    0.429
       112 -10.3024    193.2484    172.7221   1.0945572948e+02   1.2413279290e+01    0.1762969    0.1003941 -21.75 0.0008963122    2.389    0.581
       113  -9.9476    183.4907    173.0156   1.1118584550e+02   1.4118302566e+01    0.1603117    0.1037798  -5.00 0.0008098104    2.482    0.597
       114 -10.8570     17.7912    172.9806   1.4223514323e+02   3.7905047929e+01    0.3038354   0.09965604  54.42  0.001712079    2.394    0.582
       115  -9.3933     59.7513    172.0259   1.3427949312e+02   3.3638899908e+01    0.1358839   0.08198548 -77.27 0.0008808909    1.568    0.362
       116  -9.6879     74.4902    171.4934   1.3138742563e+02   3.1885340443e+01    0.1126961   0.09085509  71.10 4.065486e-05    1.023    0.023
       117 -10.3469    197.2092    169.3937   1.0820914460e+02   1.2133309219e+01    0.1742013    0.1052459  52.49 0.0006729302    1.639    0.390
       118  -9.8324      4.5915    167.7638   1.4438100556e+02   3.9995424064e+01    0.1859615   0.07278208 -77.63  0.001144956    2.121    0.529
       119  -9.8199    209.9964    166.3240   1.0551907812e+02   1.0209475158e+01    0.1777275    0.1388878  33.68  0.000499128    1.086    0.079
       120 -10.6397     40.9809    165.1540   1.3732202208e+02   3.7037511469e+01    0.1675358    0.1209502  84.24 0.0002537936    1.116    0.104
       121 -10.7224     52.1678    164.2165   1.3504791995e+02   3.5969443682e+01    0.2915646    0.1843781 -39.14  0.001639852    3.094    0.677
       122  -9.2706    229.5071    164.5493   1.0204365406e+02   6.9236306371e+00     0.124065    0.1000878  22.55 0.0001673029    1.032    0.031
       123 -11.4695    247.9288    158.7764   9.8131950721e+01   4.3237774463e+00    0.3521822    0.2461811 -27.72   0.00221241    1.531    0.347
       124  -9.4717    200.0290    162.9684   1.0658789912e+02   1.2455009996e+01    0.1546794     0.126574  36.15  0.000458374    1.055    0.052
       125 -10.6639     36.0571    160.9433   1.3795407938e+02   3.8343467470e+01    0.2564344    0.1321148 -78.45  0.001616159    1.708    0.415
       126  -9.7302     48.1644    158.8652   1.3536154310e+02   3.7432529268e+01    0.1370166    0.1189187 -80.52  0.000504503    1.296    0.229
       127 -10.4608    238.2125    158.6183   9.9574488961e+01   6.0436446062e+00    0.1769629   0.09505124  36.60  0.000489165    1.645    0.392
       128  -9.3265      7.5817    158.4992   1.4334681165e+02   4.1448260118e+01    0.1023722   0.07277244  79.06 0.0001111126    1.017    0.017
       129 -10.6536     22.6282    156.1032   1.4025714156e+02   4.0577141280e+01    0.3228465    0.1603754  45.34  0.002102087    1.814    0.449
       130  -9.1431     23.6988    152.6716   1.3979883942e+02   4.1132548429e+01    0.1462088    0.0872093 -65.98 0.0006100292    1.683    0.406
       131  -9.6733    217.4714    154.7114   1.0212248425e+02   1.0274150588e+01    0.2356233    0.1005774  46.86  0.001078215    2.105    0.525
       132  -9.9923    222.1473    152.3108   1.0089438466e+02   9.6987315211e+00    0.2601493    0.1408341 -52.65  0.001103018    3.497    0.714
       133 -10.0568    205.4071    152.3318   1.0368109975e+02   1.2848383712e+01    0.2318815    0.1231808 -26.73  0.001132897    2.156    0.536
       134  -9.8325    197.0381    153.5262   1.0535123935e+02   1.4278241656e+01     0.202791    0.1139402  46.57 0.0008888833    1.599    0.374
       135  -9.2584    151.5119    153.0327   1.1364935543e+02   2.2925569699e+01    0.1692108    0.1102699 -75.76 0.0007950778    2.439    0.590
       136 -10.4053     10.3327    152.6772   1.4247714558e+02   4.2314185623e+01    0.2101296   0.08484537  56.00  0.001256734    2.067    0.516
       137 -10.6519    178.3334    151.4005   1.0829246325e+02   1.8150763209e+01    0.2767661    0.2143134  60.58  0.001619193    1.384    0.277
       138  -9.1850    154.5146    150.5394   1.1262717320e+02   2.2780857075e+01    0.1288807    0.1154324  51.75 0.0001270762    1.012    0.012
       139  -9.6860     92.7920    148.3638   1.2487354763e+02   3.3631776669e+01    0.1639001     0.109805  36.10 0.0007933408    1.682    0.406
       140  -9.4232    233.5262    147.0322   9.8035103543e+01   8.2140390304e+00    0.1821412    0.1178225 -23.43  0.001024131    1.568    0.362
       141  -9.0646     37.5076    146.4766   1.3643612524e+02   4.0979645158e+01    0.1115301    0.0861334  80.82 0.0002320226    1.002    0.002
       142  -9.6202    215.6720    145.6915   1.0064527253e+02   1.1753129097e+01    0.1354781   0.08962548  19.10 0.0007039082    1.659    0.397
       143 -11.0279      3.0243    143.9599   1.4343605438e+02   4.4569895941e+01    0.1812644    0.1518368 -68.91  0.001518819    1.469    0.319
       144 -10.5082    212.2348    141.7228   1.0041452435e+02   1.2935968670e+01    0.4146684    0.1868231  38.53   0.00183589    2.161    0.537
       145  -9.5323     37.7540    142.3884   1.3600494150e+02   4.1763065702e+01    0.1305433    0.1046089  35.09 0.0009418557    1.572    0.364
       146 -11.9940     12.2398    140.8422   1.4132693780e+02   4.4441147217e+01    0.6343344    0.3881863   3.88  0.003656491    3.678    0.728
       147 -10.9103      2.8218    136.4214   1.4302969562e+02   4.6052861676e+01    0.2733378    0.1399031 -80.70  0.001081481    1.530    0.346
       148 -10.6006      6.0088    133.6901   1.4217200234e+02   4.6350552888e+01    0.1946557    0.1209733 -84.30 0.0005160666    1.249    0.199
       149 -11.8619     57.6911    138.4983   1.3121765097e+02   4.0314947840e+01    0.3359835    0.1885317  68.73 0.0005962917    1.843    0.457
       150 -10.2243     44.0000    138.0368   1.3420534282e+02   4.1973798745e+01    0.2599969      0.13224 -83.55 0.0009459007    1.862    0.463
       151 -10.0009     41.4949    135.4973   1.3449628884e+02   4.2755968133e+01    0.1873516    0.1190608  49.18 9.270108e-05    1.514    0.339
       152 -10.4912    206.9867    145.9850   1.0216558592e+02   1.3389781094e+01    0.2476128    0.1671339  44.95 0.0007638615    1.355    0.262
       153 -11.5513      9.2756    136.7185   1.4167365061e+02   4.5494929783e+01    0.1953838    0.1634079 -86.15 0.0001999257    1.243    0.195
       154  -9.8431    138.2730    135.4255   1.1310170037e+02   2.8403672135e+01    0.2490927    0.1204737  41.62  0.000758526    2.050    0.512
       155 -10.1418     67.7530    133.8841   1.2836882087e+02   3.9990402204e+01    0.1700336    0.1469779 -72.73 0.0004872276    1.197    0.165
       156 -10.0056     79.5104    133.0392   1.2557594270e+02   3.8571142615e+01    0.1760609     0.111166 -65.92 0.0003732909    1.505    0.336
       157 -11.9671     36.3108    130.5854   1.3515533134e+02   4.4294435282e+01    0.3909768    0.2267144 -83.10  0.001916472    1.483    0.326
       158 -10.5379    249.5550    130.2089   9.2105105092e+01   7.1631514104e+00    0.2246505    0.2080155 -53.22  0.001467384    1.475    0.322
       159  -9.7041    126.6788    129.3269   1.1440065106e+02   3.1660068145e+01    0.1368549   0.09970358  82.58 0.0007047762    1.686    0.407
       160 -10.4293     74.3383    129.0622   1.2617489586e+02   4.0096879596e+01    0.2020671    0.1965481 -82.44 0.0007126248    1.274    0.215
       161  -9.9093      1.2805    126.4953   1.4273169381e+02   4.8136138667e+01    0.1839879    0.0720811 -80.99 0.0007268223    1.987    0.497
       162 -11.0004     44.0619    125.4654   1.3278644596e+02   4.4541120764e+01    0.3435527    0.1743922  52.95  0.001092167    1.920    0.479
       163 -10.4671    219.4652    124.5919   9.5552557378e+01   1.3763570604e+01     0.229087     0.203721  15.25 0.0004941719    1.009    0.009
       164 -10.0843     16.6315    125.2162   1.3915916034e+02   4.7209181927e+01    0.1669664    0.1196687  65.99  0.000412123    1.239    0.193
       165 -11.6590     10.1116    122.3824   1.4042775004e+02   4.8312507947e+01     0.304574    0.2625027   9.56  0.002215756    1.766    0.434
       166 -11.7649     17.9570    116.1208   1.3802245582e+02   4.8977460433e+01    0.4604242    0.1913305 -56.05  0.002457486    2.463    0.594
       167 -12.2240     16.4937    108.6883   1.3764985750e+02   5.0655093512e+01     0.348778    0.2753004 -79.58 0.0008677403    1.116    0.104
       168 -10.3728     20.8699    121.9117   1.3787680545e+02   4.7528901332e+01    0.1640709    0.1230637  87.61 0.0003645425    1.024    0.024
       169  -9.1119     56.3321    121.6703   1.2937357178e+02   4.3937879573e+01    0.1281126    0.0786045  73.94 0.0007051909    1.719    0.418
       170  -9.1077    164.6765    125.3085   1.0565882122e+02   2.5001004624e+01    0.1362955    0.1079779  89.07 0.0005558206    1.649    0.393
       171  -9.6124     41.0310    120.4807   1.3291190974e+02   4.5903705932e+01    0.1506686    0.1087243  44.16 0.0003658602    1.491    0.329
       172  -9.6225    166.4937    119.0533   1.0392122019e+02   2.5678854958e+01    0.1959752    0.1377682 -37.66 0.0004999021    1.495    0.331
       173 -10.2298    179.2655    116.1734   1.0077145884e+02   2.3454676486e+01    0.2296962    0.1793733  37.75 0.0003726401    1.248    0.199
       174 -10.4261     35.4585    114.0544   1.3349772013e+02   4.7825287334e+01    0.2712168   0.09980199 -76.81  0.001220064    2.644    0.622
       175 -10.1600     66.7871    113.0462   1.2550526238e+02   4.4446277487e+01    0.1799957    0.1416503  87.44 0.0002733902    1.172    0.147
       176 -10.3311     42.4259    110.5216   1.3128818198e+02   4.7864689628e+01     0.200484    0.1602359 -83.93 0.0002083176    1.023    0.022
       177 -10.1541     38.3104    111.3046   1.3243668545e+02   4.8123657423e+01    0.1453096   0.09615237  39.74 0.0002905858    1.676    0.403
       178 -10.1745    103.4946    113.4915   1.1657259739e+02   3.8840278411e+01    0.1320818    0.1210195  89.95 -0.0001739811    1.000    0.000
       179  -9.8117    167.1700    109.1186   1.0148480227e+02   2.7216822093e+01    0.2148488    0.1895885  11.76 0.0005547686    1.233    0.189
       180  -9.9986    241.9849    108.2269   8.8305271660e+01   1.1244585885e+01    0.1733941    0.1074289  50.75 0.0006895431    1.655    0.396
       181  -9.6870    133.0213    107.7545   1.0845335634e+02   3.4552604667e+01    0.1998486     0.157176 -19.32  0.001034408    1.645    0.392
       182 -10.3122     76.2940    107.1237   1.2207031392e+02   4.4404069518e+01    0.2530586   0.09467611 -53.26 0.0006335131    2.498    0.600
       183 -11.1402     23.3126    106.7599   1.3570779063e+02   5.0497346169e+01     0.290278    0.1482929 -70.81 0.0006623652    1.573    0.364
       184 -10.6674      5.8072    106.2269   1.4010598865e+02   5.1972990599e+01     0.240079    0.1752997 -84.35 0.0009645595    1.052    0.049
       185 -10.5667      2.6792    105.2940   1.4081178147e+02   5.2382044475e+01    0.1757188    0.1146737  71.79 0.0004221703    1.346    0.257
       186  -9.3903     80.9485    106.0747   1.2068530876e+02   4.3951896953e+01    0.1979327    0.1529581 -32.26  0.001121467    1.732    0.423
       187 -10.8496     93.1346    103.8274   1.1714270685e+02   4.2540937062e+01    0.3208608    0.2313047 -76.08  0.001363428    1.465    0.317
       188  -9.7142    223.3018    103.9550   9.0143762012e+01   1.5714452002e+01    0.1942048    0.1657992 -13.41 0.0004605267    1.117    0.105
       189 -11.4309     70.4404    102.7061   1.2276728936e+02   4.6160706435e+01    0.3935901    0.2019506  32.57  0.001149362    2.425    0.588
       190 -10.3021    247.5276    102.4753   8.6156578082e+01   1.0810475740e+01    0.1357195    0.1170833   4.46 0.0001173795    1.032    0.031
       191  -9.9098      9.7733    102.5251   1.3874795805e+02   5.2469146078e+01    0.1588374    0.1130356  19.78  0.001110141    1.966    0.491
       192  -9.9769    120.4498    101.2492   1.0985688107e+02   3.8253479164e+01    0.2385977    0.1696035  34.47 0.0004547186    1.618    0.382
       193 -10.0871     36.8274    101.5555   1.3150382218e+02   5.0362580102e+01    0.1916279     0.118311  30.09  0.001144027    2.008    0.502
       194 -10.3036     27.9190    100.9740   1.3380153155e+02   5.1329735291e+01    0.1654938    0.1346397 -86.06 0.0003603858    1.039    0.037
       195 -10.7310      4.1535    100.7228   1.4003177243e+02   5.3241616814e+01    0.2542399    0.1417141  47.72   0.00145741    1.850    0.459
       196 -10.5407     65.8328     98.3629   1.2317900337e+02   4.7711149270e+01    0.2302417    0.1839661  18.73 0.0006801436    1.721    0.419
       197 -10.4048     62.1929     98.5683   1.2419706689e+02   4.8138852221e+01    0.2191249    0.1699384 -34.37  0.001310988    1.688    0.407
       198 -10.9767     20.8919     98.4749   1.3536999664e+02   5.2471844705e+01    0.2330915    0.1335082 -82.92 0.0005826419    1.460    0.315
       199 -10.5213     15.8828     94.7153   1.3627799150e+02   5.3677501763e+01    0.3189793    0.1253001 -82.20  0.001544165    2.378    0.580
       200 -12.2412      8.6605     94.3353   1.3820377364e+02   5.4287352780e+01    0.3425947    0.1773821 -61.03  0.002103402    1.681    0.405
       201  -9.5137     31.1712     93.7950   1.3193383816e+02   5.2584251362e+01    0.1573278    0.1151126 -59.23 0.0005161656    1.304    0.233
       202 -10.2272     92.8222     97.3917   1.1584256079e+02   4.3935037201e+01    0.2340531    0.1675142 -66.44 0.0005026025    1.373    0.272
       203 -10.6186      1.9047     93.0201   1.3990227817e+02   5.5015147024e+01    0.3270002    0.1062864 -62.26  0.001672164    2.402    0.584
       204 -10.2810    109.5216     92.5442   1.1044559430e+02   4.2038051431e+01    0.2951016    0.1308048 -49.60 0.0008126172    2.178    0.541
       205  -8.8250    138.3178     92.2849   1.0346501378e+02   3.6401432304e+01    0.1407044    0.1137778  10.89 0.0002659538    1.587    0.370
       206 -10.4284     78.3617     90.6698   1.1820847135e+02   4.7609498711e+01    0.3687108    0.2054294 -89.80  0.001386398    3.635    0.725
       207 -10.7556     96.3379     90.5552   1.1335656859e+02   4.4775041989e+01    0.3018884    0.1989138 -22.36  0.001339743    2.590    0.614
       208  -9.4865    103.5181     88.5423   1.1099138842e+02   4.3939524082e+01    0.1369734     0.127406 -73.27 0.0002280246    1.016    0.016
       209 -10.3960     48.6992     85.3219   1.2550912697e+02   5.2637903440e+01    0.3043305    0.1889775 -82.13  0.001014506    1.668    0.401
       210 -11.1632     46.2992     83.3076   1.2583030517e+02   5.3344480502e+01    0.3733866    0.1358906 -57.61  0.001688586    2.239    0.553
       211 -10.9140     67.5462     84.8257   1.1995167066e+02   5.0402210192e+01    0.2302887    0.1885134 -36.86 0.0006136587    1.419    0.295
       212 -10.0656     24.0235     85.2987   1.3272889804e+02   5.5061055656e+01    0.1567255    0.1353707 -84.00 0.0008803522    1.111    0.100
       213  -9.2933      1.4338     85.4755   1.3927265073e+02   5.6648688318e+01    0.1113718   0.08192613 -85.34 -2.419827e-05    1.035    0.034
       214 -11.2392    118.3085     82.9113   1.0575693714e+02   4.2287724679e+01    0.3309315    0.2617563 -17.12  0.001131282    1.600    0.375
       215  -9.3101    130.3147     82.3252   1.0266417869e+02   3.9958927348e+01       0.1446    0.1152543   3.35 0.0007042789    1.666    0.400
       216 -12.1480     72.9617     78.5336   1.1693614019e+02   5.0992662392e+01    0.4782234    0.3915438 -44.56 0.0009085722    1.243    0.196
       217 -11.2466     78.0185     71.9637   1.1378457156e+02   5.1631395702e+01    0.3518158    0.2783918  57.54 0.0004159485    1.407    0.289
       218 -11.4557     19.1436     80.2907   1.3343625374e+02   5.6544863133e+01    0.2930402    0.1625855 -88.61  0.001530602    1.747    0.427
       219 -10.2543      7.5002     79.9571   1.3687500020e+02   5.7450193633e+01    0.2762793    0.1435713  62.22  0.001233957    2.140    0.533
       220 -12.3204      5.6176     74.0462   1.3668988169e+02   5.8844828923e+01    0.4389299    0.4144227 -18.50  0.001596307    1.439    0.305
       221 -11.1474     58.9533     76.4521   1.2060833250e+02   5.3341152934e+01    0.3996064    0.2836306 -86.62  0.001690321    1.580    0.367
       222 -10.5694     54.8019     72.1762   1.2089845645e+02   5.4782210830e+01    0.2249801    0.1838208 -82.45   0.00034518    1.208    0.172
       223 -10.0765     65.3112     73.7223   1.1803945503e+02   5.3094742804e+01    0.2130999    0.1822726  42.55 0.0004011135    1.333    0.250
       224 -10.9045     62.1835     71.8555   1.1853747369e+02   5.3913850297e+01      0.32242    0.1938655 -61.69 0.0004529871    1.495    0.331
       225 -11.2970     23.8883     78.1377   1.3166576707e+02   5.6632294963e+01    0.2189645    0.1391075 -62.31  0.001027688    1.297    0.229
       226 -10.1879    150.2245     77.9035   9.6863017479e+01   3.6416402182e+01    0.2243839    0.1940998 -61.33 0.0007426385    1.244    0.196
       227 -10.3357     88.1950     77.1849   1.1222723504e+02   4.8920116927e+01    0.1857666    0.1538085 -88.38 0.0005007967    1.333    0.250
       228 -10.4468     86.0687     82.9074   1.1427629056e+02   4.8067838895e+01    0.2154173    0.1751928 -89.69  0.001184374    1.341    0.254
       229 -11.5830    108.7873     74.6738   1.0591705819e+02   4.5763063312e+01    0.5143729    0.3426605 -20.11  0.001868114    2.220    0.550
       230 -10.7134     93.8730     75.6007   1.1021579422e+02   4.8289802327e+01    0.3655874    0.1899344 -47.52  0.001168492    1.789    0.441
       231 -12.3841     96.1054     67.9765   1.0743796563e+02   4.9446889774e+01    0.6112255    0.4605249 -19.63  0.002572142    1.705    0.413
       232 -10.1808     40.7448     73.2354   1.2553291113e+02   5.6135620728e+01    0.3018592    0.1748264 -84.95  0.001558133    2.025    0.506
       233 -11.1462    151.7995     72.1301   9.4833983033e+01   3.7062057124e+01     0.339785     0.203968  49.19  0.001499866    1.674    0.403
       234 -10.2557    115.8751     70.9937   1.0300058290e+02   4.5092620104e+01    0.3368959    0.1965434 -44.06  0.001228972    1.635    0.388
       235 -11.0659     68.5479     67.3813   1.1542904782e+02   5.3995635227e+01    0.5449729    0.2065479 -48.38  0.002260623    2.361    0.576
       236 -10.4038    136.9244     70.2062   9.7598714528e+01   4.0778774195e+01    0.2532774    0.2072954 -39.34 0.0004810389    1.191    0.161
       237 -11.8755     49.5387     69.6104   1.2196055994e+02   5.5962106497e+01     0.419992    0.3194176 -36.43  0.002328992    1.496    0.332
       238  -9.1278    215.3259     70.6901   8.2807933722e+01   2.2027510424e+01    0.1479235     0.110346 -60.62 0.0005206054    1.657    0.397
       239  -9.4850    232.3018     69.2103   7.9950827805e+01   1.8240554289e+01    0.2014804    0.1188969  74.80 0.0005303214    2.310    0.567
       240 -10.0570    131.3073     68.6387   9.8451907923e+01   4.2298913613e+01     0.280488    0.1720594 -49.71  0.001010413    1.691    0.409
       241 -10.4736     37.5168     67.4835   1.2536358035e+02   5.7716237625e+01     0.353748    0.1500713 -47.46  0.001674265    2.302    0.566
       242 -11.3351     40.9977     63.7173   1.2337791135e+02   5.8177460306e+01    0.3126538    0.1599938 -65.29   0.00161737    1.706    0.414
       243 -10.1993    123.0000     67.9867   1.0028757123e+02   4.4198383253e+01    0.2439414    0.1122422 -50.79 0.0009135431    2.413    0.586
       244 -10.4365    119.1237     65.8670   1.0061550999e+02   4.5404851763e+01     0.289885    0.2361481  19.24 0.0004504992    1.478    0.323
       245 -10.3747    122.2233     61.6001   9.8488146519e+01   4.5544679253e+01    0.2400091     0.202003  10.65 0.0007196247    1.401    0.286
       246 -10.3133     43.1167     68.1443   1.2368816901e+02   5.6994031840e+01    0.1733928    0.1312844 -84.76 0.0008462096    1.335    0.251
       247 -11.0870     31.1505     66.4339   1.2723389423e+02   5.8552928189e+01    0.2488173    0.1802801 -66.29 0.0005499794    1.109    0.099
       248 -10.0991      6.7764     68.0090   1.3549217409e+02   6.0076085388e+01    0.1633636    0.1482611 -70.84  0.000890144    1.224    0.183
       249 -10.6927     59.6806     65.6622   1.1776181682e+02   5.5566810760e+01    0.3451813    0.1359976 -51.97  0.001508931    2.151    0.535
       250 -11.1693     21.3793     66.2148   1.3042005175e+02   5.9433930567e+01    0.2283994    0.1647202  57.14 0.0008079062    1.585    0.369
       251 -10.3666     14.0065     66.7671   1.3294536249e+02   5.9865215022e+01     0.268491    0.1677499 -19.56  0.001508263    2.492    0.599
       252 -11.2303      2.3712     65.0703   1.3650727904e+02   6.0973081020e+01    0.3591682    0.1124202 -58.18  0.001785382    2.368    0.578
       253 -10.0283    156.2408     66.4373   9.2171033959e+01   3.6985635461e+01    0.2043768    0.1472793  69.40 0.0009430471    1.612    0.380
       254  -9.1010    146.6986     66.2721   9.4176838160e+01   3.9253751013e+01    0.1450149      0.11625 -74.84 0.0002250413    1.532    0.347
       255 -11.4788     84.3260     63.3629   1.0949143526e+02   5.2407216924e+01     0.476137    0.3038992 -65.08  0.002317544    1.811    0.448
       256 -10.1087     86.1692     58.1880   1.0735903524e+02   5.3140655932e+01    0.2869292    0.2125336 -49.49 0.0006678297    1.231    0.188
       257 -11.5756    174.2071     63.8135   8.7793849651e+01   3.3055625590e+01    0.3244396    0.2666672 -57.75 0.0004390727    1.352    0.260
       258 -10.4369    138.0591     65.3077   9.5833513263e+01   4.1399109135e+01    0.2068906    0.1898956  64.26 0.0006018342    1.143    0.125
       259 -10.7536     77.1028     65.3421   1.1224279106e+02   5.3155037033e+01    0.3078643    0.1564105  48.43  0.001412801    2.266    0.559
       260 -10.1785     51.7025     62.5225   1.1953963017e+02   5.7233984977e+01    0.2553197    0.1593834 -40.25  0.001240864    1.694    0.410
       261 -10.9824     11.2073     62.0128   1.3308753870e+02   6.1087404320e+01    0.2845468     0.186862 -51.44   0.00114386    1.427    0.299
       262  -9.2970    140.6446     62.2999   9.4294671724e+01   4.1336100105e+01     0.152491    0.1165516 -75.80 0.0004989434    1.703    0.413
       263 -10.8008     64.4763     60.0977   1.1471329309e+02   5.6098813793e+01    0.5039566    0.1833483  47.92   0.00194969    3.558    0.719
       264  -9.5489     71.7173     61.6887   1.1286235665e+02   5.4728645590e+01    0.1947969    0.1614242  48.78 0.0002446354    1.359    0.264
       265 -10.4995     70.5445     58.1010   1.1218203973e+02   5.5644174474e+01    0.3749635    0.2012662 -41.05  0.001487551    1.840    0.457
       266 -10.8883     27.0803     61.3263   1.2754824685e+02   6.0024410851e+01    0.3066696    0.1935528  22.02  0.001860779    2.090    0.522
       267 -10.2708     32.7298     60.3023   1.2539253177e+02   5.9737025603e+01    0.2793726    0.1729536 -35.94  0.001315294    1.926    0.481
       268  -9.9697    165.7284     64.9753   8.9787317414e+01   3.4945154406e+01    0.2121003    0.1857134 -29.89 0.0003385982    1.124    0.111
       269 -10.9959     58.0650     60.6228   1.1694658336e+02   5.6846526209e+01     0.303727    0.1983465 -28.26  0.001573995    2.040    0.510
       270 -10.4937     18.1214     59.3095   1.3022813252e+02   6.1183675707e+01    0.2242152    0.1372658 -76.27 0.0005885577    1.407    0.289
       271 -12.3224    127.9141     51.5238   9.3744479634e+01   4.6084918012e+01    0.3596464    0.2983221 -20.66 0.0003467455    1.236    0.191
       272 -11.4219    137.6526     55.5900   9.2808498636e+01   4.3173787691e+01    0.5084926    0.2766198 -25.88  0.002054903    2.074    0.518
       273 -11.4519    134.8057     49.6393   9.1461777399e+01   4.4828292980e+01    0.4492393    0.3103995 -68.39  0.001275485    2.024    0.506
       274 -10.7144    113.8290     57.4643   9.9310409392e+01   4.8063828457e+01    0.4436183    0.1832135  41.87  0.001018172    2.769    0.639
       275 -10.8350    121.9481     56.1554   9.6783446050e+01   4.6588618618e+01    0.2131319    0.1906634 -66.47 0.0003539146    1.211    0.174
       276 -10.6414     98.4701     56.0249   1.0305446077e+02   5.1361602619e+01    0.3672939    0.2116361  36.46  0.001666312    2.053    0.513
       277 -10.2927     96.2697     52.9932   1.0268120506e+02   5.2351603298e+01    0.2350752    0.1903081 -49.43 0.0002919637    1.175    0.149
       278  -9.3421     74.7618     56.6194   1.1039162567e+02   5.5309196633e+01    0.1615799    0.1253339  57.29 0.0002717843    1.514    0.340
       279 -11.0504    157.2191     53.1341   8.7762744614e+01   3.8898892599e+01    0.2996587    0.2428001 -16.66 0.0004577538    1.281    0.220
       280 -11.2840     38.4572     51.5243   1.2123071499e+02   6.1054981647e+01    0.5261071    0.2893363 -46.90  0.002883907    1.616    0.381
       281 -11.3950      4.0972     52.7363   1.3398955234e+02   6.3527117256e+01    0.4135372     0.232433 -18.60  0.001580836    2.745    0.636
       282 -12.1212     13.2941     49.9578   1.3009044522e+02   6.3545246361e+01    0.5108044    0.2376071 -41.90  0.002622497    2.295    0.564
       283 -12.5217      7.9863     44.2240   1.3090689751e+02   6.5115931625e+01    0.5357292    0.3321982 -72.04  0.003467633    1.300    0.231
       284 -10.1747     46.3064     46.9846   1.1710715361e+02   6.1147759614e+01    0.2356056    0.1480027 -40.33 0.0002277635    1.536    0.349
       285 -11.9038     51.4806     48.6661   1.1575839427e+02   6.0180254940e+01    0.6478807    0.2786015 -57.30  0.002858297    2.101    0.524
       286 -10.0684     52.4108     42.4350   1.1345343279e+02   6.1337125585e+01    0.1728079    0.1411647 -74.70 3.952212e-05    1.382    0.277
       287  -9.6155    180.4397     51.4707   8.2854169602e+01   3.3332706064e+01    0.1504907    0.1433195   5.95 0.0001816621    1.042    0.041
       288 -10.2432    111.6705     51.7033   9.7948537425e+01   4.9560172414e+01    0.2267898     0.146982  43.93 0.0002730536    1.641    0.391
       289 -10.8917    115.0399     49.3695   9.6248705290e+01   4.9270726552e+01    0.2728742    0.2211522 -29.09 0.0005893016    1.204    0.169
       290 -11.6608    101.5100     49.0613   9.9830076855e+01   5.2084934968e+01    0.4344797    0.2994896  66.71  0.002096717    1.910    0.476
       291 -10.0312     83.1625     51.1182   1.0598790851e+02   5.5045258325e+01    0.2117017    0.1733671 -27.12  0.001165083    1.266    0.210
       292 -10.1829     44.9457     50.9874   1.1876031898e+02   6.0467494494e+01    0.2188731     0.190211   0.86  0.001208805    1.428    0.300
       293  -9.7029     86.9723     52.5190   1.0528449005e+02   5.4118676884e+01    0.1937733    0.1373048  44.56  0.001020927    1.557    0.358
       294 -10.5245    163.1108     47.9954   8.4909943552e+01   3.8217434259e+01     0.328918    0.2227354 -47.45 0.0008936305    1.570    0.363
       295 -10.1212     91.7843     45.9160   1.0155633673e+02   5.4512054059e+01    0.3065223    0.1659771 -47.40  0.001391152    1.766    0.434
       296 -11.9985    142.7187     46.1033   8.8457381110e+01   4.3528653478e+01    0.4812152    0.4197294 -78.31  0.002527235    1.326    0.246
       297 -10.3190    123.4811     38.4749   9.0169410323e+01   4.9241619425e+01    0.2694254     0.141312 -28.01 0.0001079029    1.943    0.485
       298 -10.9409    122.0313     45.1711   9.2973084321e+01   4.8474557697e+01    0.3081762    0.2469829  45.03 0.0007872513    1.295    0.228
       299 -11.1180    121.5113     41.5231   9.1782122406e+01   4.9194526274e+01     0.454798    0.3254758 -89.81  0.002059841    2.102    0.524
       300  -9.8642    233.1328     45.1778   7.3307276924e+01   2.0967218527e+01     0.209288    0.1812444  10.60 0.0004535658    1.190    0.159
       301  -9.3585     74.9718     43.7956   1.0608926054e+02   5.7816701839e+01    0.1621412     0.108318  40.95 0.0007668853    1.689    0.408
       302 -11.7675     64.0319     41.5708   1.0901245674e+02   5.9925119201e+01    0.2619366    0.2253867 -34.01 0.0006430588    1.097    0.089
       303 -11.1714     67.9743     37.1981   1.0605866761e+02   6.0176531853e+01    0.4119057    0.2218817 -49.64  0.002005946    1.715    0.417
       304 -10.3673    163.1595     42.1871   8.2962196338e+01   3.9050369944e+01    0.2075539     0.176708 -61.88 0.0004290926    1.301    0.232
       305  -9.5521    154.6597     42.3334   8.4658217792e+01   4.1171517384e+01    0.1595875    0.1143666 -63.91 0.0007051416    1.750    0.429
       306  -9.6092     56.4862     41.9669   1.1182188844e+02   6.0899827956e+01    0.1855243    0.1058821 -69.91 0.0008101481    2.660    0.624
       307 -10.1280     23.8730     41.4093   1.2401075332e+02   6.4557137875e+01    0.2030422    0.1380602 -69.61   0.00127607    1.324    0.245
       308 -10.0211    226.3692     40.8433   7.2911285318e+01   2.3114171066e+01     0.233409    0.2002894  89.91 0.0006663564    1.307    0.235
       309 -11.0770     95.0947     40.4053   9.8556058310e+01   5.4889919581e+01    0.3789063    0.2468827  62.33  0.001363799    1.998    0.499
       310  -9.7129     90.1652     40.6889   1.0014104892e+02   5.5767681992e+01    0.2286722     0.194522  67.46  0.000872648    1.422    0.297
       311 -10.1157     44.3391     40.1857   1.1571659944e+02   6.2771651332e+01    0.2590741    0.1696689 -60.15  0.001091295    1.403    0.287
       312  -9.5686    177.7639     38.1917   7.9042632108e+01   3.5846404794e+01    0.2031188    0.1687324  25.45 0.0003862484    1.277    0.217
       313 -10.8594    134.9788     37.7026   8.7184437718e+01   4.6680662838e+01    0.2171402    0.1971961  47.65  0.001179281    1.127    0.113
       314 -11.6603     82.6707     36.5523   1.0091226778e+02   5.7867231499e+01    0.3426594    0.3354772 -68.40 0.0009461626    1.157    0.136
       315 -10.8368     73.2492     52.2272   1.0949367340e+02   5.6430038017e+01    0.3532146     0.242785  74.36  0.001730525    2.283    0.562
       316 -10.9860    110.9587     33.7622   9.1557681113e+01   5.2769831367e+01    0.4536672    0.2872905 -34.02  0.001504126    1.485    0.326
       317 -11.1509    102.7345     36.7518   9.4962624310e+01   5.4008488740e+01    0.4385676    0.2083186  48.54  0.001016526    2.226    0.551
       318 -11.0127    105.5169     34.4522   9.3295788177e+01   5.3815250549e+01    0.2686482    0.2312329   2.65 0.0005331794    1.227    0.185
       319 -10.2292    163.9701     36.4971   8.0874659721e+01   3.9636862926e+01    0.2211822    0.1491494  61.40 0.0004193875    1.516    0.340
       320 -11.1953     24.5287     35.4848   1.2207533369e+02   6.5735240113e+01      0.22188     0.212233 -80.95 0.0006815271    1.236    0.191
       321 -10.4440     76.1394     33.8477   1.0199457703e+02   5.9480235243e+01    0.2736561    0.2225663   4.46  0.001040267    1.424    0.298
       322 -11.0227     81.7989     29.5290   9.8398371962e+01   5.9255108090e+01    0.4255216    0.2498541 -48.90  0.001991361    1.774    0.436
       323  -9.9701     78.4547     29.9955   9.9682422159e+01   5.9765907191e+01    0.2458449    0.1510299 -34.32 0.0003660674    1.490    0.329
       324 -10.8609    150.3510     33.7016   8.2478194292e+01   4.3487486279e+01    0.3621379    0.2438372 -78.46  0.001531907    2.163    0.538
       325 -11.1155    145.1968     31.6002   8.2749765286e+01   4.5070740876e+01     0.260121    0.2453654 -15.18 0.0002741133    1.030    0.029
       326 -10.3791     53.2536     34.1502   1.1025349423e+02   6.2866771025e+01     0.357938    0.2036709  10.24  0.001352505    3.572    0.720
       327 -10.4404     57.1218     29.1295   1.0687475948e+02   6.3290305827e+01    0.2575676    0.1524201 -33.55 0.0007943827    1.635    0.388
       328 -10.0151     31.8161     33.9068   1.1860231831e+02   6.5385517276e+01    0.2195337    0.1601826  10.80  0.001012316    1.776    0.437
       329 -10.9479      9.0161     33.9765   1.2812714899e+02   6.7212842490e+01    0.2828208     0.197366  21.76  0.001953453    1.855    0.461
       330 -11.9688      6.0054     29.9862   1.2839913348e+02   6.8229313746e+01    0.3960354    0.2455204 -25.08  0.001664685    1.968    0.492
       331 -11.1162      8.5721     26.2021   1.2622545728e+02   6.8848910271e+01    0.4324152    0.1974681 -41.53  0.002019031    2.036    0.509
       332 -10.5527     97.9423     31.6945   9.4339869944e+01   5.5819812063e+01    0.2509127    0.1909434 -37.56 0.0003708123    1.228    0.186
       333  -9.3646     90.1916     31.4266   9.6535488893e+01   5.7380872256e+01    0.1663898    0.1362786  62.01 0.0004092957    1.471    0.320
       334  -9.9269     63.7970     30.2230   1.0484733512e+02   6.2111973977e+01      0.18164    0.1421078 -13.84  0.001060134    1.409    0.290
       335 -10.3630     50.0578     28.1810   1.0921426767e+02   6.4427522089e+01    0.2837756    0.1427964 -35.88 0.0009681229    1.959    0.490
       336 -10.0372    124.3496     28.1216   8.5993513272e+01   5.0610105624e+01    0.2267978    0.1729776  -1.07 0.0005229631    1.452    0.311
       337 -10.3132    172.1841     26.9580   7.6178714419e+01   3.8734552752e+01    0.2282217    0.1930685 -52.77 0.0004702025    1.249    0.199
       338 -11.2660    151.5995     26.6013   7.9653299038e+01   4.4123860938e+01    0.4094116    0.2666765  63.89  0.001274609    1.595    0.373
       339  -9.6387     90.7704     26.7814   9.4445377484e+01   5.8035762122e+01    0.1791473    0.1573353 -59.10 0.0004176177    1.318    0.241
       340 -11.4197     70.8161     26.3796   1.0077515882e+02   6.1688110261e+01    0.4088238    0.2200869  34.79  0.001954597    2.211    0.548
       341  -9.9383    131.1541     26.6231   8.3851078204e+01   4.9206274774e+01    0.3107272    0.1323323  54.17  0.001187701    2.296    0.564
       342 -10.7949    113.2706     25.1990   8.7528098281e+01   5.3568196592e+01    0.2655279    0.2213313 -36.26 0.0005386574    1.178    0.151
       343 -10.7669     99.6970     23.0133   9.0240117942e+01   5.6824931390e+01    0.4037952    0.2917942  28.28   0.00208962    1.527    0.345
       344 -11.4340    180.0003    243.9858   1.2135442676e+02   6.3627336169e+00    0.4850447    0.1629529  52.09  0.002324589    3.245    0.692
       345 -10.4219     17.5956     23.7914   1.2138732544e+02   6.8688378398e+01    0.1683493    0.1518821 -22.13 0.0002774461    1.258    0.205
       346 -10.3977     84.2316     22.5511   9.4659481221e+01   5.9960258795e+01    0.2389022    0.1911724 -10.27 0.0006324718    1.263    0.208
       347 -10.1332     86.8485     18.8793   9.2213488202e+01   6.0030402692e+01    0.2386394    0.1839522 -18.08 0.0004578046    1.233    0.189
       348 -11.1421     67.0775     21.8178   1.0013497282e+02   6.3080243277e+01    0.2938167    0.2634405 -40.69  0.001541598    1.148    0.129
       349 -10.1899     60.5452     22.6633   1.0290405953e+02   6.3956700834e+01    0.2918813    0.2031667 -77.93  0.001390295    2.800    0.643
       350  -9.8721    176.6724    249.6591   1.2244841435e+02   6.2777634430e+00   0.09906615   0.06245073  25.51 0.0007051447    1.737    0.424
       351 -11.7043    124.0335     21.5761   8.3447192492e+01   5.1595271274e+01    0.3180151    0.2489853  48.41 0.0003367299    1.287    0.223
       352 -10.1518    137.2849    247.0008   1.2801341633e+02   1.2075050010e+01    0.1320062    0.1035143  51.37 0.0006313701    1.116    0.104
       353 -11.1121    156.3295    245.9987   1.2507828225e+02   9.5298159701e+00    0.1379736    0.1051101  45.40 0.0006615793    1.077    0.071
       354  -9.7884     45.0372     20.5160   1.0810731536e+02   6.6494290914e+01    0.1640348    0.1232142  31.55 0.0005537134    1.566    0.361
       355 -10.4809     81.4236     18.5619   9.3781705311e+01   6.1108599263e+01    0.2966465    0.1480397 -29.69 0.0009646617    1.904    0.475
       356  -9.5243     34.4583     19.5870   1.1224404892e+02   6.7915944447e+01    0.1212556   0.09692877 -38.26 0.0008023943    1.037    0.036
       357 -10.7926      6.3918    245.2807   1.4692768525e+02   2.7512074294e+01    0.1772715   0.08962221  73.41 0.0006009548    1.428    0.300
       358  -9.5592    159.8398     18.2195   7.5109007056e+01   4.3014663851e+01    0.2078269    0.1667231  23.20 0.0005293619    1.317    0.241
       359 -10.1770    188.4651     16.9483   7.0409288912e+01   3.5569815396e+01    0.2163025    0.1984644  64.48 0.0003883692    1.099    0.090
       360 -10.0106     57.1025     16.8584   1.0162872801e+02   6.5469791724e+01    0.1784124    0.1564671 -42.41  0.001158293    1.184    0.155
       361  -9.9780      9.7844     16.7928   1.2268190041e+02   7.0661440036e+01    0.1707581    0.1165643 -47.48 0.0004419409    1.139    0.122
       362  -9.4184     76.0662     16.4678   9.4584053816e+01   6.2410373715e+01    0.1834658    0.1299564  42.56  0.001011533    1.538    0.350
       363 -10.4687     60.4999     15.4294   9.9660502181e+01   6.5188319443e+01     0.281606    0.1105319 -40.15  0.001219928    2.215    0.548
       364 -11.7469      8.4751    241.6797   1.4653800686e+02   2.7822110709e+01    0.2969612     0.125883  67.77  0.002322375    1.666    0.400
       365 -11.4779    147.2277    244.2027   1.2626548517e+02   1.1009101230e+01    0.1889827    0.1253174  50.65  0.001035892    1.134    0.118
       366  -9.9778    115.4607    244.6676   1.3108382606e+02   1.5307179527e+01    0.1391748     0.093284 -74.41  0.001106723    1.914    0.478
       367  -9.7993    166.0472     14.4995   7.2761779793e+01   4.1794859931e+01    0.2261647    0.1451748  66.44 0.0009478438    1.569    0.363
       368 -10.4297    109.7712    243.2440   1.3182633387e+02   1.6236223483e+01    0.2198583    0.1184653  65.20  0.001511594    1.877    0.467
       369  -9.7478    115.0414     13.0236   8.1945414176e+01   5.4809102379e+01    0.2197265     0.164682 -55.88 0.0005983658    1.618    0.382
       370  -9.5391     90.3158     12.9837   8.8466909861e+01   6.0196775361e+01    0.1852999    0.1566854 -17.05  0.000412743    1.073    0.068
       371  -8.8583      3.2989     12.3303   1.2438502852e+02   7.1961915765e+01    0.1179476   0.06124738 -41.23 0.0004625506    1.643    0.391
       372  -9.3236    119.6732     11.3439   8.0152497021e+01   5.3926479522e+01    0.1487989    0.1061896 -56.90 0.0007050788    1.743    0.426
       373 -10.2224     54.3094     23.2431   1.0553731784e+02   6.4762177821e+01    0.2308491     0.173828 -15.56 0.0006163635    1.442    0.307
       374  -8.8399     56.6797     10.3363   9.8677544965e+01   6.6597561485e+01    0.1213267   0.09614475 -61.06 0.0007049834    1.707    0.414
       375 -10.3809     71.9883    244.0004   1.3752428673e+02   2.0860315129e+01    0.1469365    0.1030392  58.16 0.0006862772    1.062    0.059
       376 -11.7247     34.3824    241.6846   1.4288538151e+02   2.5318766143e+01     0.307556    0.1792611  43.82  0.002526746    1.547    0.354
       377 -10.5620     31.7072    237.2046   1.4308310347e+02   2.6219662141e+01    0.2299403   0.09360425  67.47 0.0009371662    1.991    0.498
       378 -10.4769     28.9199    232.8865   1.4330933610e+02   2.7117853873e+01    0.3847843   0.08720903  43.14  0.002214787    2.821    0.646
       379 -12.1808    155.4245    241.3660   1.2475270956e+02   1.0163866265e+01     0.325673    0.1696282  39.34  0.001597876    1.522    0.343
