#   1 NUMBER                 Running object number                                     
#   2 MAG_AUTO               Kron-like elliptical aperture magnitude                    [mag]
#   3 X_IMAGE                Object position along x                                    [pixel]
#   4 Y_IMAGE                Object position along y                                    [pixel]
#   5 X_WORLD                Barycenter position along world x axis                     [deg]
#   6 Y_WORLD                Barycenter position along world y axis                     [deg]
#   7 A_WORLD                Profile RMS along major axis (world units)                 [deg]
#   8 B_WORLD                Profile RMS along minor axis (world units)                 [deg]
#   9 THETA_WORLD            Position angle (CCW/world-x)                               [deg]
#  10 FWHM_WORLD             FWHM assuming a gaussian core                              [deg]
#  11 ELONGATION             A_IMAGE/B_IMAGE                                           
#  12 ELLIPTICITY            1 - B_IMAGE/A_IMAGE                                       
         1 -15.1629     41.9203    201.1421   1.2785509584e+02   2.9278923492e+01     10.98243     3.650071  82.28   0.02493691    5.923    0.831
         2 -12.7664    199.3729     34.2817   5.9207308128e+01   3.0884859265e+01     1.305603      1.05972  -3.94  0.006603695    1.313    0.238
         3 -13.6253    215.1436     16.9661   5.1933889445e+01   2.8791758269e+01     1.617666     1.036759  24.25  0.007288872    2.005    0.501
         4 -10.6511      2.0257     13.8403   1.1134423008e+02   7.2511513459e+01    0.3086309    0.1134646 -56.70   0.00132248    1.913    0.477
         5 -10.8350      1.7995      6.4999   1.0846427493e+02   7.3942413074e+01    0.5824291    0.1166482 -57.39  0.002193026    3.865    0.741
         6 -10.3739    226.3931    201.6272   9.5512857392e+01   1.3158958466e+00    0.2952774     0.207899 -53.63  0.001185472    2.492    0.599
         7 -11.4319    176.4219    249.6871   1.1009377327e+02   3.7667038624e+00     0.538337    0.0859132  41.16  0.001884362    5.079    0.803
         8 -11.5409    139.7056    248.5416   1.1565095932e+02   9.1904715405e+00    0.2915115    0.2280561  77.27  0.002351403    1.479    0.324
         9  -8.9098     62.9332    250.5054   1.2750652253e+02   1.8983059042e+01    0.1422541   0.06888623  47.43  0.000434173    1.520    0.342
        10 -12.1094      3.9509    224.1782   1.3506996304e+02   2.9170753957e+01    0.6206034    0.2578655  66.56  0.004385401    1.699    0.411
        11 -13.0950     10.3168    207.2395   1.3345320766e+02   3.1405907883e+01    0.6435179    0.4624171  44.70   0.00301168    1.558    0.358
        12 -12.0567     34.1431    247.9632   1.3157222769e+02   2.2548146581e+01    0.7108066    0.4148121  39.01  0.005549557    1.862    0.463
        13 -12.6018     15.0570    240.0469   1.3399707775e+02   2.5652080280e+01     1.002606    0.3143132  65.22  0.006100425    2.475    0.596
        14 -10.6971      2.4914    244.1736   1.3589571745e+02   2.6210176291e+01    0.2874513    0.1105476  69.86  0.002057741    1.866    0.464
        15 -10.6034     16.2348    249.8745   1.3417197768e+02   2.4078049541e+01    0.2655355    0.1303367  49.62  0.001472935    1.477    0.323
        16 -10.3723      8.7896    250.2260   1.3520827573e+02   2.4737909488e+01    0.2722939    0.1185625  39.13  0.001211316    2.230    0.552
        17 -10.9581    162.4691    248.0806   1.1207002779e+02   5.9706363673e+00    0.2357568    0.1778712  -5.55  0.001743792    2.032    0.508
        18 -11.4336     57.7624    192.3510   1.2439211802e+02   2.9039822915e+01    0.2771603    0.2296296 -48.55  0.001601361    1.836    0.455
        19 -11.5767     63.9703    184.9766   1.2259792411e+02   2.9648558710e+01    0.2342759    0.2053683 -68.11 0.0004673867    1.438    0.305
        20  -9.4324    193.1423    194.8588   9.9937203251e+01   7.6843712137e+00    0.2657495    0.1640866 -66.24  0.001191089    3.807    0.737
        21  -8.3940    181.5094    192.4706   1.0158444588e+02   1.0013625218e+01    0.1231244    0.1039842  36.44   1.5482e-05    1.002    0.002
        22 -10.3223     11.3634    175.0410   1.3173550635e+02   3.7174935214e+01    0.1990393   0.09959049  63.13 0.0008190913    1.586    0.369
        23 -10.6683     74.5457    173.2077   1.1935304375e+02   3.0541066399e+01    0.2076703     0.179549  86.11  0.000402712    1.138    0.122
        24 -13.0631     61.1927    170.5021   1.2174969338e+02   3.2798542478e+01    0.4292705    0.2466953 -50.66  0.001794602    2.303    0.566
        25 -11.7422     82.5557    164.5902   1.1670457974e+02   3.1148209378e+01    0.5680573    0.4444614  65.24   0.00371303    1.118    0.106
        26 -10.8334     18.7495    233.3101   1.3320909539e+02   2.6328083677e+01    0.2259461    0.1607856  69.08  0.001685564    1.130    0.115
        27 -12.3395     67.5873    144.0730   1.1730931265e+02   3.7466420845e+01    0.7031805    0.4342105  74.69  0.002981565    1.697    0.411
        28  -9.8649     95.9962    149.5453   1.1171925124e+02   3.2231209457e+01    0.2652652     0.220309  57.98 0.0007552831    1.151    0.131
        29 -11.8106     84.3256    148.2961   1.1412645908e+02   3.4249780411e+01     0.264291     0.217141 -60.84 0.0007942531    1.287    0.223
        30  -8.7254     99.1639    145.5828   1.1038616286e+02   3.2558490290e+01    0.1654786    0.1248613  31.12 0.0003332251    1.627    0.385
        31  -9.3311    108.4949    135.4442   1.0650048412e+02   3.3153155624e+01    0.2890888    0.2102505 -15.18  0.001362242    2.473    0.596
        32 -10.6040     58.4014    133.2083   1.1797697352e+02   4.1004713574e+01    0.2317048    0.1374471 -87.98  0.001230198    1.698    0.411
        33 -11.0089     55.2760    123.4309   1.1735242356e+02   4.3567376756e+01    0.3493604    0.1757822 -83.35  0.001621853    2.216    0.549
        34 -10.3740     95.4148    132.3411   1.0899889919e+02   3.5976529981e+01     0.235163    0.2182692 -50.25  0.000870483    1.246    0.198
        35  -8.8532    105.9883    122.6431   1.0460850599e+02   3.6325930449e+01    0.1803717    0.1620807  61.47 0.0003499576    1.124    0.110
        36  -9.7665    167.6990    112.7058   8.8193781722e+01   2.5993355457e+01    0.3397778    0.2647369 -78.06 0.0009205683    1.709    0.415
        37  -8.9568    203.4779    111.4835   8.0903472238e+01   1.8208746120e+01    0.1488134     0.135841   2.93 0.0001216845    1.050    0.047
        38 -11.5598    242.5862    101.5062   7.1951769252e+01   1.1157473257e+01    0.3532317    0.2615357  14.91  0.001846038    1.441    0.306
        39 -11.0857    242.6765     94.0098   7.0046838145e+01   1.2174404378e+01    0.2719966     0.188544  22.80  0.001344174    1.623    0.384
        40 -12.5488     29.2831    224.3780   1.3122832217e+02   2.6686005515e+01    0.2553407    0.2158005  81.36   0.00075916    1.409    0.290
        41 -10.1739      2.2744    249.5401   1.3607529184e+02   2.5440340300e+01    0.1953914    0.1315649  70.68  0.001860428    1.138    0.121
        42  -9.3131    159.5052     78.5011   8.0454985974e+01   3.4230341872e+01    0.1553054    0.1491008 -22.54 0.0008106351    1.014    0.014
        43 -10.9968     13.0006     61.3055   1.1943431431e+02   6.1729073352e+01    0.3084151    0.1315618 -66.14  0.001594602    1.721    0.419
        44 -13.7580     35.6145    216.5645   1.2982861601e+02   2.7305769406e+01    0.7635178    0.5128351  66.97  0.002755167    1.043    0.041
        45 -11.0554    100.5468    249.3591   1.2176914536e+02   1.4459494016e+01    0.2378897    0.1161665  39.87  0.001538862    1.816    0.449
        46 -11.7234    105.9038    242.1171   1.2036081556e+02   1.4733422724e+01    0.2732436    0.1460181  41.31  0.001818329    1.597    0.374
        47 -11.0536     18.2080     26.0445   1.0774759696e+02   6.8980606317e+01    0.4465081     0.216295  48.86  0.002086145    3.774    0.735
        48 -14.5309     96.4712    229.5732   1.2081973906e+02   1.7814771258e+01     3.496589    0.4507439  43.71   0.00348907    4.906    0.796
