#   1 NUMBER                 Running object number                                     
#   2 MAG_AUTO               Kron-like elliptical aperture magnitude                    [mag]
#   3 X_IMAGE                Object position along x                                    [pixel]
#   4 Y_IMAGE                Object position along y                                    [pixel]
#   5 X_WORLD                Barycenter position along world x axis                     [deg]
#   6 Y_WORLD                Barycenter position along world y axis                     [deg]
#   7 A_WORLD                Profile RMS along major axis (world units)                 [deg]
#   8 B_WORLD                Profile RMS along minor axis (world units)                 [deg]
#   9 THETA_WORLD            Position angle (CCW/world-x)                               [deg]
#  10 FWHM_WORLD             FWHM assuming a gaussian core                              [deg]
#  11 ELONGATION             A_IMAGE/B_IMAGE                                           
#  12 ELLIPTICITY            1 - B_IMAGE/A_IMAGE                                       
         1 -11.7613    124.0416     16.3134   3.0932134012e+00   5.1913294472e+01    0.2383747    0.1958057 -48.34 0.0003291926    1.242    0.195
         2 -11.6606     91.9703      8.9128   6.1379594949e+00   6.1157351362e+01    0.3466939    0.2190944  40.93  0.001261004    1.655    0.396
         3 -10.0542     49.3183      8.2776   2.0321247553e+01   7.1501866174e+01    0.1381103   0.09277223  26.67 0.0005799055    1.574    0.365
         4  -9.9153     25.3259      1.6776   3.0378213284e+01   7.6978485316e+01    0.1149866    0.1033705  85.65 0.0003630508    1.686    0.407
         5 -10.2726      4.4352      1.4372   5.0637636937e+01   7.9780768276e+01    0.1203528    0.1022201 -13.20 0.0001093983    1.032    0.031
         6 -10.8026    178.0651    247.3195   4.6877600687e+01   1.4200636510e+00    0.1614121    0.1096109  17.98 0.0003853013    1.120    0.107
         7 -10.9731    246.0211    249.9941   3.5797813361e+01  -5.9033018585e+00    0.1205675   0.08023211  -0.67 0.0009750554    1.002    0.002
         8 -10.2387    170.5808    250.5314   4.8689787537e+01   1.8707482227e+00    0.1134085   0.08428059  13.27 0.0001052089    1.014    0.014
         9 -12.0331    139.2889    247.8692   5.4516208762e+01   5.9834508639e+00      0.33329    0.2125933 -46.58  0.001819466    1.961    0.490
        10 -11.1691    143.0829    243.6243   5.3249834234e+01   6.1373503334e+00    0.1876608    0.1809675 -36.90 0.0009963354    1.417    0.294
        11 -11.3380    124.7747    249.7531   5.7706441545e+01   7.4863729329e+00    0.1803999    0.1465126 -18.71  0.001270582    1.432    0.302
        12 -11.3819    119.5332    249.0071   5.8721390440e+01   8.2444750972e+00    0.4502891    0.1408005  27.72 0.0009053762    2.710    0.631
        13 -11.6982    114.6983    248.1240   5.9648511145e+01   8.9773399260e+00    0.3357904    0.2018024 -53.72  0.001783386    2.130    0.531
        14 -10.0345     88.5915    250.4810   6.5434777177e+01   1.1768564359e+01     0.118754   0.09155351  33.51 7.790022e-05    1.023    0.022
        15 -11.7500     69.4736    247.9763   6.9376516866e+01   1.4431233626e+01    0.3890016    0.1946037  52.95  0.002136589    1.897    0.473
        16 -11.9568     70.1860    240.3352   6.8664415284e+01   1.5697630429e+01    0.4824412    0.1474716 -50.59  0.001906128    4.697    0.787
        17 -12.6737     73.0028    231.8346   6.7361565651e+01   1.6921017370e+01    0.4824817    0.3357247 -40.37  0.002173004    1.942    0.485
        18 -11.0172     64.6346    250.1794   7.0575059574e+01   1.4600476405e+01    0.2327377    0.1188831  45.26  0.001041264    1.535    0.349
        19 -10.8631     64.3770    245.6933   7.0331135189e+01   1.5412845992e+01    0.2237466    0.1161618 -52.70  0.001230064    2.553    0.608
        20 -12.4321     56.7077    249.4571   7.2240138247e+01   1.5608603256e+01     0.332954    0.1727965  29.24 0.0007110218    1.535    0.348
        21 -15.0006     23.1843    191.3250   7.6841594674e+01   3.0976475308e+01     1.503874    0.8586194 -89.63  0.007934343    1.750    0.429
        22 -14.8638     19.4224    211.0300   7.8749714695e+01   2.6960129778e+01     1.852023    0.6915789  52.30  0.008733678    2.126    0.530
        23 -13.3812     12.7763    188.7113   7.9459994136e+01   3.2520373609e+01     0.619774    0.3690308 -57.20  0.002328409    2.006    0.501
        24 -14.6632      5.8465    183.4384   8.1082711999e+01   3.4317598829e+01     1.086125    0.5494276  83.13  0.005519498    1.845    0.458
        25 -14.1009     10.5794    215.8476   8.1034712721e+01   2.6745666036e+01    0.8328435    0.4145764  17.88  0.004317811    2.205    0.547
        26 -13.1761     20.1355    247.4983   7.9963877407e+01   1.9707278995e+01    0.3486673    0.2790539  47.80 0.0004692685    1.116    0.104
        27 -14.2698      3.6340    209.5824   8.2479481483e+01   2.8654014628e+01     1.066707    0.2668793 -76.77  0.004262435    3.908    0.744
        28 -13.0305      9.5726    208.8789   8.1041397453e+01   2.8304239516e+01    0.2814576    0.2507076  59.25 0.0004340877    1.171    0.146
        29 -14.5091      5.3609    200.8593   8.1804249710e+01   3.0399266707e+01    0.8633651    0.7113143  16.63  0.005764063    1.419    0.295
        30 -15.5412     16.4424    228.2647   8.0111954407e+01   2.3696550625e+01     1.240878    0.6207108  46.39  0.007193306    1.462    0.316
        31 -13.5941      2.3470    226.6926   8.3207426903e+01   2.5247838940e+01    0.3359522    0.2325282 -80.36  0.001766036    1.620    0.383
        32 -16.0973      6.9405    244.3239   8.2637067686e+01   2.1487115856e+01    0.9934502     0.835554   6.57  0.007459741    1.587    0.370
        33 -14.8958      4.6355    234.2996   8.2886927936e+01   2.3570283465e+01    0.5287998    0.4318391  51.40  0.003958117    1.132    0.117
        34 -11.0228    163.3470    246.6514   4.9589437320e+01   3.2364355165e+00    0.2057188    0.1072133  34.38 0.0007443778    1.641    0.391
        35 -10.1665    226.2994    246.6360   3.8402771013e+01  -3.6874665085e+00   0.08615794   0.07667738  10.81 0.0007034083    1.724    0.420
        36 -10.8619    131.8031    244.9274   5.5722072493e+01   7.3476690979e+00    0.1874654    0.1604023  64.09  0.001312216    1.609    0.379
        37 -11.2292    206.1370    244.1375   4.1416678832e+01  -1.3220496241e+00    0.1969565    0.1189203  25.13  0.001350194    1.400    0.286
        38 -10.8620    192.9735    242.4869   4.3507500601e+01   3.2907220545e-01    0.1556354   0.08707555  25.22 0.0003313003    1.447    0.309
        39 -11.2846    126.1956    241.8298   5.6550434705e+01   8.5291625428e+00     0.179021    0.1370872  36.70 0.0005475702    1.197    0.165
        40 -10.6505    168.1324    241.1493   4.7962540018e+01   3.4113457555e+00    0.1530122    0.1205801  30.85  0.001075906    1.325    0.245
        41 -11.8939    118.0343    240.9700   5.8194232535e+01   9.6981784851e+00    0.1950728    0.1471092  24.71   0.00085493    1.065    0.061
        42 -10.9038     65.5671    239.9075   6.9664956107e+01   1.6312385867e+01    0.2692514    0.1852485  72.23  0.001690476    1.628    0.386
        43 -10.6508    180.9737    240.2048   4.5397605371e+01   2.0051659869e+00     0.151987    0.1109277  13.62  0.001062179    1.043    0.041
        44 -10.9746    109.1107    239.9331   6.0014339473e+01   1.0996975052e+01    0.1872764    0.1428026  27.93 0.0004690243    1.041    0.039
        45 -10.9670    149.5935    239.2306   5.1391232524e+01   5.9710395942e+00     0.151335    0.1031212 -26.50 0.0009495534    1.655    0.396
        46 -11.6642    102.8254    237.9260   6.1189056706e+01   1.2129209215e+01    0.2876928     0.205459 -26.40  0.001747537    1.839    0.456
        47 -11.0596     79.1720    237.9028   6.6460003164e+01   1.5065054016e+01    0.2054387    0.1551622 -82.05  0.001332485    1.656    0.396
        48 -11.2706    210.4360    235.9209   3.9529451867e+01  -8.0966432202e-01     0.237891    0.1889101 -59.22  0.001554581    2.825    0.646
        49 -10.3505     87.1565    236.1427   6.4512665030e+01   1.4402794170e+01    0.1703291    0.1172542  47.88 0.0003773267    1.310    0.236
        50 -11.8446     47.1006    235.2036   7.3512394520e+01   1.9259104736e+01    0.2855123    0.1934181  68.37  0.001805491    1.470    0.320
        51 -11.4140    120.8338    235.4057   5.6978386971e+01   1.0245683430e+01    0.1844469   0.09899591  20.30 0.0009470372    1.787    0.440
        52 -11.4286    113.1498    234.8247   5.8591603803e+01   1.1335318380e+01    0.1870285    0.1415284  39.05 0.0005092161    1.173    0.148
        53 -11.4221    165.5588    234.2279   4.7550827383e+01   4.6952358657e+00    0.2787097    0.1341347  34.34  0.000974165    1.779    0.438
        54 -10.8254     58.9315    234.4568   7.0779554526e+01   1.8082196352e+01    0.1867721   0.09826004  30.40  0.000622294    1.531    0.347
        55 -11.1697    130.8052    233.1763   5.4569720908e+01   9.3133612439e+00    0.1718689    0.1260631   8.46  0.000589621    1.340    0.254
        56 -11.7003    222.6772    231.8442   3.6890332828e+01  -1.6466111731e+00     0.206853   0.07767774 -28.91  0.001083683    2.616    0.618
        57 -12.0695    181.2182    230.5521   4.4022649836e+01   3.2716251356e+00    0.4535115     0.254857  51.09    0.0021098    3.637    0.725
        58 -12.2167    154.3356    227.6586   4.8924187075e+01   7.1017117452e+00    0.3037263    0.1698857   2.68  0.001472428    2.451    0.592
        59 -10.7233    141.9228    230.1219   5.1829513675e+01   8.3456641295e+00    0.2093967     0.156357  80.05  0.001174507    2.529    0.605
        60 -11.1454    123.4510    231.4945   5.5960012422e+01   1.0551273374e+01    0.2308477   0.08559137  39.10  0.000868502    2.256    0.557
        61 -10.9720     58.0337    228.9963   7.0604512925e+01   1.9226227584e+01     0.177246    0.1521444  28.24 0.0003208509    1.192    0.161
        62 -10.6683     61.6711    231.3260   6.9930357141e+01   1.8359069651e+01    0.2512811    0.1396819  52.69   0.00104174    1.617    0.382
        63 -10.7918     61.4720    228.4864   6.9768075421e+01   1.8926422253e+01     0.233259   0.09694625  32.07 0.0005770724    1.860    0.462
        64 -12.0022    194.8689    229.3093   4.1318514299e+01   1.7941766240e+00    0.2007382    0.1514176  -2.58 0.0001689353    1.097    0.089
        65 -11.9684    230.6837    228.1252   3.5047856592e+01  -2.0580350753e+00    0.1999681     0.180517  -1.31 0.0009532048    1.632    0.387
        66 -11.4113     86.3277    227.5152   6.3904813398e+01   1.6077987541e+01    0.3151234    0.1836556 -41.32  0.001654018    2.320    0.569
        67 -11.7696    137.0289    226.6259   5.2423692793e+01   9.5545541822e+00    0.3449411    0.1583617  41.39  0.001000619    2.061    0.515
        68 -11.9898    106.2493    226.0432   5.9174282934e+01   1.3762856311e+01    0.2516407    0.1872486  20.09  0.001368605    1.234    0.190
        69 -12.4049     80.3444    226.1898   6.5173231858e+01   1.7080854631e+01    0.2438898    0.2190488   8.55 0.0004273241    1.262    0.208
        70 -11.4208     42.7197    227.4106   7.4059556602e+01   2.1240441242e+01    0.2080328    0.1371865  23.34  0.001232109    1.476    0.322
        71 -12.7702    116.0038    224.3998   5.6777309273e+01   1.2753781936e+01    0.4331633    0.2768373  70.72  0.002153439    2.664    0.625
        72 -11.6322     47.4019    225.2100   7.2832758020e+01   2.1166851609e+01    0.2534612    0.1491125  48.50 0.0008307463    1.372    0.271
        73 -13.6766     48.4611    216.9851   7.2037520542e+01   2.2714724047e+01    0.6909333     0.524246 -51.10  0.002400022    1.681    0.405
        74 -11.6335     59.0380    211.1158   6.8999798520e+01   2.2711407947e+01    0.3358962     0.197035  15.79  0.001235221    1.969    0.492
        75 -12.8701     52.7960    209.7921   7.0449086849e+01   2.3725617954e+01    0.3658425    0.2794015  28.10 0.0005547047    1.242    0.195
        76 -11.8195     92.2593    224.0182   6.2183021651e+01   1.5969308269e+01    0.2598902    0.2083386 -15.79 0.0008753585    1.564    0.361
        77 -11.5513     40.3543    222.2780   7.4313830863e+01   2.2519579764e+01    0.2414698    0.2091516 -46.10  0.001182184    1.528    0.346
        78 -11.9877    159.5155    222.2598   4.7120090968e+01   7.2484240640e+00    0.4031114    0.2033372  42.69  0.002037502    2.148    0.534
        79 -12.6307    124.7885    221.8862   5.4502774179e+01   1.2003809931e+01      0.37003    0.1791605  40.22  0.001823809    1.821    0.451
        80 -12.6853    122.0321    217.3002   5.4544847155e+01   1.3189217630e+01    0.3069847    0.2039575  47.47   0.00083724    1.554    0.357
        81 -11.5576     56.8390    221.9572   7.0377296490e+01   2.0748659088e+01    0.3167822    0.1668078 -48.31  0.001578373    2.578    0.612
        82 -10.9414     73.0761    222.3593   6.6543329881e+01   1.8722788460e+01    0.1786676    0.1318394  37.91 0.0004135163    1.087    0.080
        83 -12.9586    173.9761    219.5008   4.3826149461e+01   5.7608333420e+00    0.3537419    0.2566302 -27.46  0.002290725    1.412    0.292
        84 -11.8069    239.6064    219.8439   3.2402444480e+01  -2.0315840202e+00    0.2875042    0.1124747  20.22  0.001459064    2.911    0.656
        85 -12.2157     76.7097    218.9604   6.5369382512e+01   1.8936657440e+01    0.5305165    0.2145222  46.21  0.002333874    2.184    0.542
        86 -11.9332    165.8831    219.0467   4.5368880709e+01   6.8951926944e+00      0.22462    0.1458841  22.76  0.000266526    1.301    0.231
        87 -12.8060    145.1101    216.3471   4.9311346484e+01   1.0149421485e+01    0.4944859    0.2579155  36.57  0.002553828    1.673    0.402
        88 -12.9472    140.9422    210.8161   4.9438173182e+01   1.1671980179e+01    0.4693167     0.318959 -74.26  0.002036717    2.606    0.616
        89 -11.8262     64.2555    216.1794   6.8135978206e+01   2.1036607779e+01    0.3015567    0.2866151 -15.05  0.002043801    1.307    0.235
        90 -12.5708    129.2634    217.0712   5.2886460523e+01   1.2226235091e+01    0.3045693    0.1601501  21.49 0.0007586307    1.895    0.472
        91 -12.5316     85.3385    215.0017   6.2903327767e+01   1.8608538930e+01     0.550694    0.2108748  40.62  0.002398032    2.104    0.525
        92 -11.8304    189.5096    219.9820   4.0928746077e+01   3.7061698722e+00    0.2795874    0.1435765  35.12  0.001191989    1.844    0.458
        93 -10.4942    195.8097    214.6185   3.8950218206e+01   3.6624078431e+00    0.1481219   0.09663886  32.42 0.0002609616    1.504    0.335
        94 -12.3326    107.6720    214.9038   5.7564613408e+01   1.5615225676e+01    0.3231508    0.2441909 -84.33  0.001159258    1.799    0.444
        95 -11.1805    156.1544    212.4653   4.6407029841e+01   9.2553357893e+00    0.2533241    0.2037082 -74.61   0.00146322    2.045    0.511
        96  -9.9025    153.2957    213.3122   4.7132894040e+01   9.5144628303e+00    0.1271642   0.08743766  -2.04 0.0002268872    1.597    0.374
        97 -12.2702     42.7821    212.0007   7.3090883928e+01   2.4384946630e+01     0.445621    0.2348003  24.41  0.002258649    1.806    0.446
        98 -10.3412     61.4588    223.5409   6.9398221992e+01   1.9893676688e+01    0.1266367    0.1030805  40.23 0.0002429486    1.040    0.039
        99 -11.0472     71.3117    211.4856   6.5989096478e+01   2.1126244612e+01    0.3604328    0.1464137  46.69  0.001567929    2.181    0.542
       100 -10.4693     72.2131    207.8446   6.5419240494e+01   2.1767817211e+01    0.2799068    0.1407603  65.68  0.001195374    2.672    0.626
       101 -10.7715    209.6432    211.2914   3.5967158397e+01   2.4066540569e+00    0.0992157   0.08951174  38.01 0.0003471521    1.687    0.407
       102 -12.1266    170.2899    209.1728   4.3004319513e+01   7.8253326123e+00    0.3838435     0.271556  69.47  0.001823068    3.432    0.709
       103 -12.0873    162.2462    210.2095   4.4802556195e+01   8.7731254792e+00    0.3136154    0.2079594   0.11   0.00117847    1.660    0.397
       104 -12.2722    160.7212    207.3103   4.4678505457e+01   9.4561924556e+00    0.1882111    0.1819761   3.86 0.0004450763    1.286    0.222
       105 -11.3434    112.8056    210.3753   5.5798238894e+01   1.5753188424e+01    0.1963829    0.1114929  22.60 0.0009531768    1.716    0.417
       106 -10.5955     97.1654    209.7980   5.9468342427e+01   1.8047722809e+01    0.2615655    0.1066837 -68.81  0.001016927    3.618    0.724
       107 -11.9306    229.8928    206.1403   3.1774999222e+01   6.8257313540e-01    0.3297713    0.1481921 -28.74  0.001045562    1.995    0.499
       108 -12.0344    180.7215    207.8204   4.0731048195e+01   6.6120869268e+00    0.2518565    0.1852899  26.28 0.0007902705    1.232    0.188
       109 -11.5546    105.1790    206.4872   5.7128125900e+01   1.7581290884e+01     0.277316    0.2064331 -74.50  0.001562816    1.710    0.415
       110 -13.3092     37.2756    204.4717   7.3978388350e+01   2.6599291548e+01    0.5778531    0.4113082  25.68  0.003341062    1.374    0.272
       111 -13.0325    145.4012    201.5335   4.7086241410e+01   1.2650054744e+01    0.4090517    0.3580644 -52.41 0.0008204987    1.402    0.287
       112 -12.7545    116.0551    204.0434   5.4200050282e+01   1.6497001368e+01    0.2793042    0.2372982  14.92 0.0003579233    1.137    0.120
       113 -10.3846     83.6670    205.3413   6.2292609943e+01   2.0787921243e+01    0.1449185   0.08702438  56.02 0.0007051193    1.752    0.429
       114 -11.3683    225.1348    203.8549   3.2171519217e+01   1.5271924694e+00    0.1608785    0.1343338  -4.66 0.0005384427    1.212    0.175
       115 -12.4348     90.9501    199.6826   5.9812540827e+01   2.0968141309e+01    0.4822844    0.3884959 -33.94  0.002268532    1.503    0.335
       116 -12.0051     92.4050    193.6197   5.8693952031e+01   2.2044618822e+01    0.3928133    0.2750798  56.07  0.001235603    1.480    0.325
       117 -11.9250    213.0659    200.8820   3.3698019529e+01   3.3900735506e+00    0.2417239    0.2179595 -48.31  0.001098178    1.742    0.426
       118 -12.5623    177.3256    198.7168   3.9935992871e+01   8.4904268156e+00    0.3708733    0.2372181  43.48  0.001417375    1.796    0.443
       119 -14.0177    172.9729    195.6410   4.0300925192e+01   9.6083404021e+00    0.4139664    0.3610901 -23.00 0.0008408256    1.202    0.168
       120 -11.1795    136.7071    200.7114   4.8912543435e+01   1.4084416674e+01    0.2052374    0.1806524  35.96 0.0003782598    1.152    0.132
       121 -12.8371    137.3643    197.2404   4.8238404418e+01   1.4624547780e+01    0.4760481    0.2540103  18.12  0.001409259    2.247    0.555
       122 -13.3334    123.1647    197.1973   5.1547496273e+01   1.6770755315e+01    0.5484471    0.3693673  64.19  0.002689993    2.131    0.531
       123 -10.7041     60.4401    199.6099   6.7648368209e+01   2.5014042469e+01    0.2494327    0.1411276  45.20 0.0004928759    1.495    0.331
       124 -11.2693     44.7542    199.5702   7.1721179479e+01   2.6867145941e+01    0.2781889     0.236525 -71.85  0.001742956    1.335    0.251
       125 -14.0138     33.9953    246.7695   7.6991115262e+01   1.8486847846e+01     1.039737    0.4373246  27.66  0.004133275    1.952    0.488
       126 -11.2154    102.2839    196.3508   5.6537766420e+01   2.0039979270e+01    0.2983383      0.20217 -41.77  0.001553895    1.740    0.425
       127 -13.1858     34.4689    195.7555   7.4137099488e+01   2.8838110692e+01    0.5855168    0.4051967  33.44  0.003362423    1.289    0.224
       128 -12.2117    192.2641    195.1123   3.6458467217e+01   6.9589425338e+00    0.3758399    0.2369381   8.89  0.002101638    1.666    0.400
       129 -12.8376    149.6176    197.2701   4.5495208492e+01   1.2778584273e+01    0.3207413    0.2832977  75.33  0.001554594    1.592    0.372
       130 -11.4241     90.7638    210.2602   6.1078591715e+01   1.8829267784e+01    0.2017767     0.177131 -82.80 0.0005578719    1.336    0.252
       131 -11.0596    231.5362    193.4883   2.9434636369e+01   2.1107557738e+00    0.1153273   0.08741115  -8.06 1.909605e-05    1.011    0.011
       132 -12.2961    159.8858    192.0433   4.2423923102e+01   1.2151665234e+01    0.3192222    0.2502532  56.14  0.001816425    1.714    0.417
       133 -10.4229    182.4674    225.4717   4.3060416837e+01   3.8202090285e+00    0.1187289    0.0927377   9.23 0.0002085533    1.013    0.013
       134 -12.5367    133.2084    191.1130   4.8252761881e+01   1.6414085801e+01    0.3607931    0.2452486 -11.56  0.001780695    1.928    0.481
       135 -12.9088    110.3824    188.5427   5.3417638230e+01   2.0450238705e+01    0.3602725    0.2687039 -55.21  0.001174027    1.509    0.338
       136 -11.8745     51.5240    189.8532   6.9133776656e+01   2.8291098306e+01    0.2615038    0.2174307  44.74 0.0008748012    1.047    0.044
       137 -11.7380     37.3241    190.9010   7.3046905897e+01   2.9648598970e+01    0.3853506    0.1502903 -80.77  0.001586319    2.817    0.645
       138 -12.2836     76.8542    185.9125   6.1849403283e+01   2.5939281780e+01    0.6674417     0.259081 -75.66   0.00227009    3.953    0.747
       139 -10.7846    235.3121    189.3388   2.8146640469e+01   2.1980063925e+00    0.1196801   0.07152551  -5.93 0.0002507563    1.692    0.409
       140 -11.3873    174.5076    188.8332   3.8843248329e+01   1.0502169213e+01    0.2196704    0.1584973   8.33  0.001033383    1.368    0.269
       141 -12.6211     79.7428    172.9456   5.9395735327e+01   2.8535860765e+01    0.4520414    0.2483109  38.62   0.00162742    1.605    0.377
       142 -11.9295    208.0990    186.8988   3.2187474288e+01   6.0120778158e+00    0.3001729      0.16841  -1.79  0.001468841    2.403    0.584
       143 -10.3059    186.4791    187.4721   3.6248294805e+01   8.9620799258e+00    0.1288743    0.1061278   0.32 8.575659e-05    1.043    0.041
       144 -13.2347    126.9677    185.9520   4.8925348234e+01   1.8400044124e+01    0.4619175    0.2402479  35.99  0.001629081    1.710    0.415
       145 -14.5690     33.4807    232.8145   7.6461762855e+01   2.1150657152e+01     1.125736    0.7825811 -60.11  0.007216842    1.839    0.456
       146 -11.6411    248.8977    185.4979   2.5474481009e+01   1.0932515300e+00    0.2049741     0.139115 -20.30 0.0004212429    1.143    0.125
       147 -11.0247    192.9708    186.3117   3.4815954953e+01   8.2084909536e+00    0.1740596    0.1454498   4.52 0.0005284881    1.039    0.037
       148 -12.4082    157.4032    185.2838   4.1819516516e+01   1.3726279093e+01    0.3782835    0.2228103  -8.70  0.001607195    2.703    0.630
       149 -10.6241     48.3526    186.1424   6.9670981523e+01   2.9526237251e+01    0.1818299    0.1166535  82.12 0.0001205773    1.659    0.397
       150 -11.7155    163.6026    184.8705   4.0417590652e+01   1.2835155250e+01    0.2545698    0.1633672  48.48 0.0007700876    1.872    0.466
       151 -10.0272     54.4680    184.4807   6.7830981084e+01   2.9187680572e+01    0.1366042    0.1222001  48.95 0.0008089211    1.054    0.051
       152 -11.7564    105.2910    183.0581   5.3913086387e+01   2.2394798429e+01    0.1864398    0.1828638  80.50 0.0003735101    1.126    0.112
       153 -11.7112     94.6499    181.2784   5.6454835632e+01   2.4409586608e+01    0.5212026    0.2448301 -56.71  0.002212696    2.302    0.566
       154 -12.5137    134.2651    181.9418   4.6521573761e+01   1.8034452487e+01    0.2690787    0.1817814  29.71 0.0001730369    1.360    0.265
       155 -12.3358    140.0423    179.5318   4.4750086355e+01   1.7573438078e+01     0.271836    0.2104534  32.06  6.12076e-05    1.182    0.154
       156 -13.5237    136.4697    176.0373   4.4991786044e+01   1.8848344731e+01    0.7033992    0.4535145  70.53   0.00287176    2.991    0.666
       157 -13.3111    116.0678    178.8548   5.0498198431e+01   2.1596210889e+01    0.4217332    0.3007244 -38.43  0.002155862    1.581    0.368
       158 -11.8279     24.2049    178.5712   7.5815289474e+01   3.3887036030e+01    0.3216405    0.1360088  26.15  0.001122198    2.187    0.543
       159 -12.9932     20.0885    176.1859   7.6828473401e+01   3.4844715014e+01    0.4734203    0.3694304  48.77  0.001915485    1.104    0.094
       160 -11.9708    155.0583    177.3156   4.0940853357e+01   1.5553995417e+01    0.3222246    0.2299308 -65.34  0.001286195    2.041    0.510
       161 -13.2855    127.4489    175.5383   4.7096629113e+01   2.0438190361e+01    0.3542984    0.3274936 -60.36  0.002076576    1.228    0.186
       162 -11.5704    191.3724    177.2316   3.3495200383e+01   9.8755057384e+00    0.1742436    0.1138622 -45.23 0.0009487623    1.707    0.414
       163 -11.0263     62.7691    176.9128   6.4710227753e+01   2.9935166132e+01    0.3483797    0.1889246  16.22  0.001343627    2.281    0.562
       164 -12.6444     31.7001    176.3717   7.3544438063e+01   3.3683881192e+01    0.4470389     0.231941  20.07 0.0007147281    2.055    0.513
       165 -12.3564    106.4356    175.2436   5.2422147085e+01   2.3919011191e+01    0.2908474    0.2135725  40.43  0.001082912    1.241    0.194
       166 -12.9482    144.2699    172.9368   4.2604656293e+01   1.8166295144e+01     0.533068    0.2407753  48.46  0.002057527    2.681    0.627
       167 -11.0710    208.4933    173.5219   2.9727841141e+01   7.9430547019e+00     0.125467    0.1028311  -8.04 0.0001233514    1.021    0.021
       168 -12.6540     91.2998    170.9296   5.5863962881e+01   2.7275431579e+01    0.3839577    0.3288488 -74.76  0.001305188    1.275    0.216
       169 -12.1443     86.9243    169.1906   5.6832387795e+01   2.8353110977e+01    0.2899047     0.203467 -17.63 0.0008510193    2.053    0.513
       170 -10.2253     45.3324    173.2834   6.9353770493e+01   3.2960928261e+01    0.1322097     0.106291 -25.94 0.0002701504    1.615    0.381
       171 -12.0260    197.6448    170.8636   3.1160428467e+01   9.9500438128e+00    0.2825963    0.2039878 -25.14 0.0009870335    1.265    0.210
       172 -12.6087     13.2056    161.2225   7.7966417116e+01   3.9135482628e+01    0.5168201    0.3300667  74.07  0.001911809    1.421    0.296
       173 -13.3072     17.6556    168.3889   7.7066011313e+01   3.6972008333e+01    0.8447744     0.345256  32.15  0.003755747    2.088    0.521
       174 -12.4585     20.7485    165.1896   7.5953006583e+01   3.7496963021e+01    0.4034327    0.2362286  27.64  0.002035063    1.644    0.392
       175 -13.6471      4.3696    166.9800   8.0846596939e+01   3.8380011692e+01    0.7271068    0.3980227  49.34  0.003414854    1.539    0.350
       176 -12.6415      3.6015    160.3028   8.0790146604e+01   4.0089158747e+01    0.5042318    0.2126654  44.42  0.001567804    1.976    0.494
       177 -12.4473    153.3484    170.2784   4.0043460008e+01   1.7159748862e+01    0.2516295    0.2303136  44.06 0.0007229068    1.207    0.171
       178 -12.6184     52.6395    169.1824   6.6795012895e+01   3.3102086066e+01    0.4907071    0.3433562  49.73  0.001454046    1.287    0.223
       179 -12.2171    131.0042    169.5004   4.5166548126e+01   2.1093712857e+01    0.3693337    0.2340894  19.33   0.00168151    1.814    0.449
       180 -12.7113    127.3712    166.1526   4.5469845242e+01   2.2415310504e+01    0.3805369    0.2849601   2.16  0.001027347    1.631    0.387
       181 -12.9117    119.0998    168.9349   4.8070314094e+01   2.3223370717e+01    0.4208044    0.2909931 -12.33  0.001498429    2.044    0.511
       182 -10.6745     62.8566    170.6416   6.3957279348e+01   3.1439001987e+01     0.217922    0.1105052  39.91 0.0009440709    1.720    0.418
       183 -12.3524    159.3765    168.3678   3.8350021001e+01   1.6508608484e+01     0.247483    0.2285581  38.58 0.0006363085    1.186    0.157
       184 -11.6176     40.4565    168.8176   7.0370846021e+01   3.4615521089e+01    0.3220014    0.1898833  20.73  0.001521105    1.803    0.445
       185 -10.5193     31.1117    168.2815   7.3097297432e+01   3.5737054074e+01    0.1934823    0.1568141  45.11 0.0007480425    1.115    0.103
       186 -12.8794    152.4003    165.0793   3.9281656573e+01   1.8319669407e+01    0.3693471     0.272254  -4.68  0.001874567    1.609    0.379
       187 -12.0652    199.2444    164.9646   2.9758282896e+01   1.0647105840e+01    0.2417154    0.1732304  68.01  0.001195874    2.751    0.637
       188 -12.1111    110.3535    165.1081   4.9709704358e+01   2.5534689068e+01    0.3005125    0.1985314  40.61  0.001165066    1.402    0.287
       189 -11.2224     64.1988    164.8817   6.2851307211e+01   3.2676425593e+01    0.2203171    0.1780435  60.61 0.0004365647    1.175    0.149
       190 -11.1677     44.2000    164.6252   6.8845735774e+01   3.5244074107e+01    0.2299928     0.173922  20.15 0.0005751182    1.421    0.296
       191 -11.8987    101.9702    170.2315   5.2822969665e+01   2.5754533859e+01    0.2048419    0.1780658  33.21 0.0003974813    1.067    0.063
       192 -13.3852     91.6071    163.2250   5.4586851739e+01   2.9035924366e+01    0.6513083    0.3189301  23.68  0.002472296    2.400    0.583
       193 -11.8781     56.6412    163.6818   6.4975125316e+01   3.3970482897e+01    0.3232982    0.1715184  60.54  0.001348041    2.093    0.522
       194 -11.9633    141.7628    162.9465   4.1347847522e+01   2.0586509068e+01    0.2424001    0.2103322  12.89 0.0003088455    1.134    0.118
       195 -12.3498     35.0979    161.5257   7.1324622821e+01   3.7029538387e+01    0.4331368    0.1719475  85.77  0.001501615    3.340    0.701
       196 -11.9712    113.1338    161.8467   4.8393078746e+01   2.5796377074e+01    0.2294401    0.1957944  57.08 0.0006284825    1.223    0.182
       197 -12.1163     26.1470    160.5836   7.3991706053e+01   3.8163298500e+01        0.402    0.2428903  52.71  0.001307066    1.486    0.327
       198 -11.6647     39.3742    161.2035   6.9980509935e+01   3.6652602582e+01     0.344786   0.08374895  44.26  0.001098885    3.425    0.708
       199 -11.8396    170.0806    160.0656   3.4460341140e+01   1.6228770749e+01      0.20885    0.1777809  86.08  0.001143616    1.734    0.423
       200 -12.9605    105.2025    158.4963   4.9960413295e+01   2.7911575315e+01     0.473988    0.3015909  67.94  0.001587868    2.251    0.556
       201 -11.7700    250.0781    158.4407   2.0554064238e+01   4.4366784879e+00    0.2051269    0.1320057 -28.40 0.0003718266    1.229    0.187
       202 -12.5553    117.8202    157.4207   4.6334851257e+01   2.5975613047e+01    0.3035793    0.2251878  34.47  0.001503253    1.275    0.216
       203 -12.0478     69.0061    158.9502   6.0609546991e+01   3.3488545250e+01    0.2584829    0.2425942 -17.50   0.00145252    1.233    0.189
       204 -12.7278     74.1570    155.2251   5.8495709036e+01   3.3674518020e+01    0.4877341    0.3037348   6.28  0.001978582    2.393    0.582
       205 -14.0807     83.5211    150.6414   5.4905422830e+01   3.3379630178e+01    0.8349232    0.5007397 -25.94  0.003161838    2.782    0.640
       206 -13.5204     76.3061    150.6392   5.7119823404e+01   3.4503936677e+01    0.6429804    0.2377292  42.01  0.002133825    2.478    0.596
       207 -12.5755     47.6972    156.8440   6.6934975588e+01   3.6814238102e+01    0.2931698    0.2384006 -65.91 0.0004951337    1.281    0.219
       208 -13.6557    132.7711    156.0660   4.2217192822e+01   2.3610339163e+01    0.4884692    0.4311542  85.35  0.001878805    1.376    0.273
       209 -11.3271    190.4994    155.9503   2.9606050417e+01   1.3520987933e+01    0.2047011    0.1211242 -37.71  0.001033569    1.592    0.372
       210 -11.9041    141.2224    155.4620   4.0023220657e+01   2.2214176378e+01    0.2472587    0.2008254 -42.67 0.0004896581    1.270    0.212
       211 -11.2178     62.5237    155.4562   6.2121026580e+01   3.5272206904e+01    0.1451475    0.1367764  55.05 6.103101e-05    1.048    0.046
       212 -10.8822     21.0640    154.8945   7.5139017386e+01   4.0085206507e+01    0.2208039    0.1517975  54.85 0.0005894337    1.302    0.232
       213 -13.1131      3.5378    152.2239   8.0449195575e+01   4.2131105155e+01    0.5399162    0.3487444 -75.08   0.00292702    1.483    0.326
       214 -11.8775    172.3900    153.8131   3.2731117850e+01   1.6971325922e+01    0.2426295    0.1652334 -30.87 0.0007003384    1.461    0.316
       215 -11.8221     67.2186    153.8318   6.0430447828e+01   3.5032475004e+01    0.2015862    0.1750175 -27.43 0.0005836051    1.373    0.271
       216 -13.6161     14.1162    153.3201   7.7211971234e+01   4.1073444803e+01    0.9182318    0.3881529  66.08  0.002807896    2.392    0.582
       217 -13.2646     12.4499    135.0484   7.6514302796e+01   4.5980853036e+01    0.5521939    0.2463166 -48.05  0.002111451    2.595    0.615
       218 -11.6842     17.1339    135.1242   7.4894056057e+01   4.5604188312e+01    0.2185603    0.1629132  57.10 0.0002915671    1.244    0.196
       219 -13.2708     19.3448    131.3440   7.3785970624e+01   4.6438164568e+01    0.4806849    0.3425427  13.28  0.001923786    1.586    0.370
       220 -13.1146      9.4855    145.5050   7.8206210814e+01   4.3446158057e+01    0.7494519    0.2814846  21.76  0.003071572    2.634    0.620
       221 -13.4163     10.9349    141.8123   7.7497953797e+01   4.4305587450e+01    0.4730514    0.3556538  27.01  0.001071261    1.379    0.275
       222 -12.2548     54.6784    152.6701   6.4222339016e+01   3.7024756755e+01    0.2900631    0.2267719 -55.99 0.0007151645    1.370    0.270
       223 -12.4001     51.4713    152.5509   6.5229879389e+01   3.7460900053e+01    0.3305932    0.2544575 -22.29  0.001530657    1.691    0.409
       224 -11.4134    128.2779    151.3712   4.2429702399e+01   2.5436159297e+01    0.2088176     0.132182  45.51 0.0005007087    1.571    0.363
       225 -10.6932    224.6801    150.3167   2.2690263799e+01   9.0597759600e+00    0.1135061   0.09353711 -57.10 0.0007040949    1.659    0.397
       226 -12.0919    108.9626    148.9762   4.7150032520e+01   2.9472461924e+01    0.3270506    0.3205599 -76.60 0.0008105837    1.069    0.065
       227 -12.5152     28.4450    149.9487   7.2379230685e+01   4.0687673274e+01    0.5385758    0.2316758  23.15  0.002082793    2.346    0.574
       228 -11.9395     23.4424    144.9353   7.3579046321e+01   4.2468835830e+01    0.3523207    0.1515406  52.60  0.001336526    2.245    0.554
       229 -10.5591     19.5155    149.2324   7.5210487315e+01   4.1686094610e+01    0.2983694    0.1988159 -29.68   0.00146777    1.999    0.500
       230 -12.8526    171.3155    146.3107   3.1402993470e+01   1.8543470993e+01    0.4975924    0.2368456 -52.09  0.001613962    2.611    0.617
       231 -11.7820    113.0651    156.9399   4.7521681497e+01   2.6915994620e+01    0.2266536     0.209647  44.60 0.0004537968    1.044    0.042
       232 -10.8943    146.9986    148.5158   3.7235262873e+01   2.2583067379e+01    0.2144871    0.1394988  38.90 0.0003634015    1.503    0.335
       233 -10.5058     48.5417    148.4445   6.5664742942e+01   3.8890253437e+01    0.1455573    0.1329967  64.05 -1.985205e-05    1.008    0.008
       234 -13.6804     52.6797    143.4384   6.3643665512e+01   3.9688693305e+01    0.6593635    0.3156459  52.45  0.002090234    2.204    0.546
       235 -10.4865    229.2817    145.6437   2.1087382578e+01   9.0677659056e+00    0.1167013   0.08820289 -52.21  0.000701603    1.664    0.399
       236 -13.1527    102.1568    142.7799   4.7890459183e+01   3.2153830633e+01    0.7056772    0.3895912  56.60  0.002701121    2.275    0.561
       237 -10.9890    158.2775    144.5703   3.3825399176e+01   2.1272222713e+01    0.2015735    0.1336376  28.44 0.0009450641    1.625    0.385
       238 -11.2342    143.2703    143.5798   3.7083306515e+01   2.4300922004e+01    0.2176288    0.1811426  29.47 0.0005779586    1.191    0.160
       239  -9.9684    144.6699    140.6479   3.6116653470e+01   2.4643640620e+01     0.284644    0.1923539  -8.63  0.001191786    2.242    0.554
       240 -11.6689     85.5649    143.9490   5.3110626030e+01   3.4718284939e+01    0.2299216    0.1982067  40.41 0.0004035021    1.105    0.095
       241 -10.6609    211.5022    143.5045   2.3422048263e+01   1.2130287019e+01    0.1284886    0.1103104 -20.85 0.0003624647    1.019    0.018
       242 -11.6966    179.5282    142.8312   2.9013507523e+01   1.7697859233e+01    0.2411623    0.2183844 -88.35 0.0005532945    1.442    0.307
       243 -13.3362     96.4677    148.7952   5.0705633598e+01   3.1696327400e+01    0.4430095    0.3369678  42.63 0.0004388076    1.240    0.193
       244 -10.7799    150.9228    141.4781   3.4826706197e+01   2.3276165574e+01    0.2107671    0.1413105  40.56 0.0003283402    1.481    0.325
       245 -12.1774    104.5943    129.7690   4.4456567697e+01   3.4838399097e+01    0.2945791     0.207211  39.92 0.0005446597    1.376    0.273
       246 -13.3797     94.0074    139.2543   4.9630681539e+01   3.4452453979e+01    0.4976073    0.3893777 -25.37  0.001469521    1.579    0.367
       247 -13.4048    101.3048    134.0238   4.6357339123e+01   3.4423649373e+01    0.6646464    0.3539249  19.71   0.00184479    2.998    0.666
       248 -11.7861     60.0277    139.4884   6.0608271144e+01   3.9752165522e+01    0.2329731    0.2055386 -39.91 0.0005710165    1.277    0.217
       249 -14.1983     60.4929    134.9573   5.9731298436e+01   4.0882868141e+01    0.7942361     0.387695  44.73  0.003157397    1.980    0.495
       250 -13.7926     39.2655    138.7021   6.7575648827e+01   4.2545915447e+01     0.611577    0.4224882   7.73  0.002930739    1.767    0.434
       251 -12.8515     72.0410    138.6577   5.6483063051e+01   3.8218355936e+01    0.3037603    0.2187799 -54.67  0.001440873    1.436    0.304
       252 -13.6404     91.1238    149.8748   5.2482812738e+01   3.2332872493e+01    0.6452199    0.3762995 -30.37  0.001929399    2.643    0.622
       253 -10.4584    233.0009    136.9870   1.8846742025e+01   9.7763926437e+00    0.1445983    0.1214393 -20.41 0.0003284549    1.040    0.038
       254 -12.7942    173.7487    134.8811   2.8443250537e+01   2.0213857077e+01     0.504032    0.3042922   6.43  0.001879883    3.274    0.695
       255 -12.5194    130.8582    137.4143   3.8843579653e+01   2.8006780336e+01    0.5250627    0.3610615  49.46  0.001616966    1.498    0.333
       256 -11.6464     41.8714    125.4647   6.4886184628e+01   4.5817454399e+01    0.4506575    0.2472307 -77.75  0.001909259    1.865    0.464
       257 -12.9899     50.6821    130.2988   6.2417351323e+01   4.3440723619e+01    0.3799121    0.2772123  -8.86  0.001641253    1.828    0.453
       258 -12.3557     46.1415    128.7334   6.3808150560e+01   4.4427881825e+01    0.4158716    0.2313153  68.06  0.001598905    2.189    0.543
       259 -13.2478    123.3775    134.4954   4.0173253662e+01   3.0113468880e+01    0.5471786     0.403147  14.29 0.0003276814    1.709    0.415
       260 -13.1956     86.0241    133.7580   5.1039231984e+01   3.7206230591e+01    0.4568329    0.3845597  83.33  0.002236232    1.284    0.221
       261 -13.0580     77.8667    132.6369   5.3470605596e+01   3.8854007033e+01    0.4482396    0.2768854 -54.16 0.0005775319    1.649    0.393
       262 -13.4772     82.8539    128.2557   5.0961271143e+01   3.9146542505e+01    0.4861499    0.4050119 -14.73  0.001959045    1.480    0.324
       263 -11.8091    196.3747    134.3840   2.4078568845e+01   1.6165557805e+01    0.2575963    0.2158249 -68.57 0.0007894353    1.569    0.363
       264 -11.1144    210.1590    134.1687   2.1717259093e+01   1.3829799214e+01    0.1919525    0.1605783  -9.80 0.0004439792    1.156    0.135
       265 -12.7350     37.1332    132.1740   6.7515940772e+01   4.4531048202e+01    0.5193969    0.2492308 -76.20  0.002113165    2.077    0.518
       266 -13.1538    110.6596    129.0457   4.2511727927e+01   3.3848625295e+01    0.5030808    0.3365764  88.11  0.001952357    2.441    0.590
       267 -12.0697    130.3177    128.4730   3.6969192470e+01   3.0082033738e+01    0.2651279    0.2595675 -74.68   0.00043773    1.055    0.052
       268 -12.8676    123.0077    128.4773   3.8915283213e+01   3.1547962705e+01    0.4718619    0.3383031 -37.90  0.001631819    1.499    0.333
       269 -11.7837    121.7054    124.3145   3.8300265680e+01   3.2754566872e+01    0.2605377    0.2338792 -49.67 0.0006706778    1.133    0.118
       270 -12.0954    125.0246    123.0713   3.7101625311e+01   3.2359433021e+01    0.3719288    0.2880481  75.28  0.001712801    1.628    0.386
       271 -13.2587     56.6185    128.0124   5.9934826922e+01   4.3267470809e+01    0.4713192    0.2757711  38.11  0.002056866    1.627    0.385
       272 -13.0690      9.3219    125.4716   7.6912298144e+01   4.8753857538e+01    0.3529189    0.2461429  37.11  0.001703109    1.416    0.294
       273 -12.5802     64.7754    127.1470   5.6899053691e+01   4.2331735136e+01    0.3480179    0.1890721 -55.68  0.001321911    1.829    0.453
       274 -11.8227     26.4468    125.8164   7.0641444039e+01   4.7316709191e+01    0.3141328    0.2171471 -56.62 0.0009673379    1.459    0.315
       275 -12.7355     53.1531    135.8145   6.2388651160e+01   4.1647169771e+01    0.3813806    0.2204064  38.01  0.001398202    1.625    0.385
       276 -10.2295     31.4911    131.4988   6.9453372041e+01   4.5297444134e+01    0.1436659    0.1325329  80.00 -7.877428e-05    1.022    0.021
       277 -14.2305     77.7940    113.1933   4.9432235709e+01   4.3886813211e+01    0.9342592    0.4998118  19.95  0.002509596    2.693    0.629
       278 -15.3635     75.2942    124.9829   5.2835104651e+01   4.1255173713e+01     1.411595    0.7732514 -76.54  0.004648812    2.412    0.585
       279 -13.2632     78.4540    119.0772   5.0512521880e+01   4.2256295624e+01    0.5015318    0.3663012 -61.34 0.0009681904    1.386    0.279
       280 -13.7937     82.0047    115.9930   4.8603427792e+01   4.2429914355e+01    0.5757577    0.4768321 -68.76 0.0003163674    1.241    0.194
       281 -11.9946     49.8431    123.0643   6.1568345913e+01   4.5496318876e+01    0.4631031    0.2062853 -67.17  0.001419141    2.191    0.544
       282 -13.5233     11.2027    112.0997   7.5071644645e+01   5.2237155847e+01    0.6044287    0.2996678  75.03  0.002548331    2.143    0.533
       283 -13.3606      5.3702    110.8044   7.7279849610e+01   5.2937594555e+01    0.5732133    0.4362079 -79.35  0.003210839    1.181    0.153
       284 -13.9394     13.0669    119.4487   7.5020682379e+01   5.0121860487e+01    0.6502015    0.3840173  56.96 0.0003922263    1.667    0.400
       285 -12.9660      8.9063    117.1331   7.6411653049e+01   5.1022733924e+01    0.3885083    0.3120432  36.76  0.001300851    1.276    0.216
       286 -11.6054    170.0478    122.3579   2.6346138720e+01   2.3271921266e+01     0.246341    0.1886107 -27.70 0.0005657289    1.328    0.247
       287 -12.0975     97.1784    123.1946   4.5256787025e+01   3.7841150429e+01    0.2198045    0.1832691  74.40 0.0004505692    1.328    0.247
       288 -12.6184    194.1682    121.6756   2.1675172523e+01   1.8721760766e+01    0.2955857    0.2831932  22.46  0.001357717    1.129    0.114
       289 -10.8131    164.4276    122.5472   2.7550622635e+01   2.4365845039e+01    0.1443058     0.136429 -20.39 -1.758712e-05    1.030    0.029
       290 -12.9216    104.7617    121.1131   4.2436246852e+01   3.6889420857e+01    0.4735922    0.2606642  54.47 0.0009812406    2.121    0.528
       291 -12.6674     57.6462    121.5422   5.8432042808e+01   4.4856842413e+01    0.5034346    0.1522745  27.96  0.001524461    3.444    0.710
       292 -11.3180     29.1665    118.0151   6.8665647718e+01   4.9185871676e+01     0.516927    0.1937038 -49.95  0.001218488    2.819    0.645
       293 -10.3282    179.0119    121.9564   2.4490065821e+01   2.1572282967e+01    0.1685981    0.1549192 -29.79 0.0004344392    1.016    0.015
       294 -10.5825     46.1436    119.2007   6.2316455761e+01   4.7006951221e+01    0.2034769    0.1588632  63.97            0    1.298    0.229
       295 -11.7570    160.6008    130.9409   3.0313011023e+01   2.3499711111e+01    0.3693963    0.1676365 -45.94  0.001446133    2.206    0.547
       296 -12.0345     22.0369    117.8052   7.1405518517e+01   4.9880967531e+01    0.3113072    0.1726022  56.44  0.001187703    1.856    0.461
       297 -13.8909     96.5769    115.6730   4.3690294442e+01   3.9805225320e+01    0.9192268    0.4100095  25.84  0.002704374    3.706    0.730
       298 -10.8973    143.7269    114.8756   3.0330151565e+01   3.0211029781e+01    0.3001728    0.2083073  76.21  0.001255675    2.126    0.530
       299 -13.3168    114.4699    114.1366   3.7858538767e+01   3.6574696904e+01    0.4822289    0.4388931  17.69  0.001590774    1.196    0.164
       300 -12.2140    120.2557    113.1286   3.5959865710e+01   3.5593520984e+01    0.4916679    0.2655108 -53.11  0.001921853    1.957    0.489
       301 -11.8473    121.6047    107.2382   3.4058216445e+01   3.6628057114e+01    0.3042746    0.2711135 -27.70 0.0007988454    1.218    0.179
       302 -12.6601     62.4896    101.4736   5.2427073927e+01   4.9474073832e+01    0.3213656    0.2276571 -78.50 0.0008667685    1.585    0.369
       303 -12.8301     67.4920    113.4453   5.3206890519e+01   4.5535421835e+01    0.3938811        0.261 -43.19  0.001059772    1.660    0.398
       304 -13.7716     62.1328    112.0057   5.4900360808e+01   4.6747666269e+01    0.6512141    0.5658077 -36.34  0.001459612    1.264    0.209
       305 -10.7794    159.5018    112.8786   2.6261807447e+01   2.7256108342e+01    0.2166105    0.1418427 -41.76 0.0004650904    1.477    0.323
       306 -10.8684    198.5035    111.5070   1.8641913162e+01   1.9615487029e+01    0.1361838    0.1217522 -32.86 0.0008106433    1.004    0.004
       307 -10.4628    236.5076    110.5596   1.3006828106e+01   1.3059562052e+01    0.1232986    0.1008406 -33.01 -9.145608e-05    1.012    0.012
       308 -11.1429     21.4183    110.4169   7.0778681476e+01   5.1946885785e+01    0.2382008    0.1578949  37.18  0.001175911    1.507    0.337
       309 -11.2524    161.0000    108.9540   2.4966072622e+01   2.7696166697e+01    0.2519377      0.08167 -40.94 0.0008068474    2.973    0.664
       310 -10.4851     36.2468    109.7353   6.4652779461e+01   5.0728275613e+01    0.1425916    0.1040623  64.92 0.0002316896    1.432    0.302
       311 -11.8967     15.4993    108.5461   7.2975329364e+01   5.2909837948e+01    0.2437627    0.1287158 -77.92   0.00108255    1.742    0.426
       312 -12.6596     11.8067    104.9991   7.4122325061e+01   5.4124285774e+01    0.3807782    0.2812696 -43.45  0.001416925    1.432    0.302
       313 -12.4097     76.7528    107.8217   4.8547181888e+01   4.5449297780e+01    0.3223287    0.2402493  62.56 0.0009684116    1.490    0.329
       314 -10.8963    139.9024    107.1486   2.9278485420e+01   3.2645671518e+01    0.2423554    0.2134416 -87.44   0.00114219    1.267    0.210
       315 -11.4753    110.0168    105.4965   3.6932865828e+01   3.9508250042e+01    0.2458159    0.1547118  42.51 0.0009103509    1.573    0.364
       316 -12.7622    104.6571    102.9042   3.7872353031e+01   4.1242542296e+01    0.4066764    0.2681576 -24.36  0.001256816    2.215    0.549
       317 -12.6032     78.7815    101.5347   4.6250587038e+01   4.6687082585e+01    0.3021765    0.2875577  81.88 0.0007812136    1.045    0.043
       318 -11.9982     55.8474    101.1727   5.5015322536e+01   5.0558978314e+01    0.2965097    0.2157656 -64.28 0.0005459925    1.352    0.260
       319 -11.7908     57.4826     97.4969   5.3502705262e+01   5.1288088570e+01    0.2763739    0.2652627  60.15 0.0006331974    1.037    0.035
       320 -12.0085    174.1427     99.4847   1.9977537302e+01   2.6634211651e+01    0.3921583     0.170107 -27.04  0.001278596    3.460    0.711
       321 -10.9224    154.5008    101.5126   2.4443105847e+01   3.0550668503e+01    0.1489702    0.1443886 -53.12 0.0002136044    1.001    0.001
       322 -12.7071      5.6047     99.4011   7.6196813620e+01   5.6000249258e+01    0.4003183    0.3131906  48.93  0.001695014    1.302    0.232
       323 -10.4494    218.9964    100.0136   1.3008472394e+01   1.7622903504e+01    0.1524669    0.1316164 -37.04            0    1.016    0.016
       324 -13.4445     93.6354     98.6468   4.0272079858e+01   4.4531363721e+01    0.5529782    0.3159398  49.00   0.00150408    1.788    0.441
       325 -12.1673     85.9490    100.0604   4.3297246197e+01   4.5709541676e+01    0.2453346    0.2431374   0.93  0.001225199    1.065    0.061
       326 -10.5668    208.6642     99.7025   1.4374810366e+01   1.9590813045e+01    0.1296265    0.1008627   5.01 0.0004788248    1.652    0.395
       327 -11.7131    189.9843     98.8492   1.7050430761e+01   2.3419910189e+01    0.3196415    0.1931235  84.55  0.001254327    3.183    0.686
       328 -11.0980    162.6729     99.3413   2.2164554737e+01   2.9156805583e+01     0.154929    0.1143659 -73.99 0.0007051341    1.737    0.424
       329 -11.3821    167.5044    102.5085   2.2013662987e+01   2.7513130330e+01    0.1456206    0.1386103 -42.85  0.000129053    1.007    0.007
       330 -12.1063    178.3657     96.4200   1.8436379403e+01   2.6271481023e+01    0.2867818     0.233222 -61.64 0.0005439246    1.293    0.227
       331 -13.0118     74.3488     96.1963   4.6505674285e+01   4.8836996414e+01    0.5663736     0.279093 -67.15   0.00195736    2.650    0.623
       332 -14.1060     78.7647     92.6405   4.3872569739e+01   4.8912484423e+01    0.6883585    0.5069472  84.33  0.003003612    1.787    0.440
       333 -14.0077     73.9870     90.4767   4.5082377670e+01   5.0335473348e+01    0.4646502    0.4551964 -15.44  0.001833972    1.074    0.069
       334 -11.4128    185.1550    101.2173   1.8439528467e+01   2.4009801960e+01    0.2021408     0.186256  -7.03 0.0004565701    1.168    0.144
       335 -12.9235     63.8036     88.2066   4.8526085197e+01   5.2688003456e+01    0.4318202    0.3104893 -27.22  0.001244545    1.732    0.423
       336 -10.9800    167.6545     96.7015   2.0493853631e+01   2.8547266676e+01    0.1470006    0.1157689  12.06 0.0004315706    1.677    0.404
       337 -10.3286    117.4810     95.6141   3.2025990651e+01   4.0109730043e+01    0.1561312    0.1499494  60.76 -2.297351e-05    1.027    0.026
       338 -12.5418     97.7137     93.5104   3.7468602741e+01   4.4903336359e+01    0.4384333    0.1519893  44.54  0.001367169    2.838    0.648
       339 -10.8811    187.6965     91.3394   1.5577813078e+01   2.5155072221e+01    0.1461347    0.1019754 -64.11 0.0006145125    1.674    0.403
       340 -10.7850    139.6082     89.7802   2.4604473627e+01   3.6247407936e+01    0.2285911     0.139891 -51.33 0.0009559104    1.694    0.410
       341 -11.7049    125.3205     87.5657   2.7533307954e+01   4.0032633067e+01    0.4360856    0.2949173 -32.33  0.001403569    1.672    0.402
       342 -10.4499     28.2476     90.6159   6.4834259066e+01   5.6734535335e+01    0.1967922    0.1392398   1.17 0.0009493427    1.659    0.397
       343 -12.8318      3.5063     88.5357   7.6072507510e+01   5.9022471254e+01    0.4422433    0.2787171  81.50  0.001793697    1.563    0.360
       344 -11.7911    171.3168     88.0647   1.7546548597e+01   2.9279201182e+01    0.2086161    0.1794041 -46.05 0.0003972083    1.090    0.082
       345 -12.8388    152.2249     81.0980   1.9327781902e+01   3.4930304478e+01    0.3400521    0.2479946  48.10   0.00103032    1.436    0.303
       346 -12.2947     56.4251     77.8821   4.8764329111e+01   5.6490596254e+01    0.2604151    0.2440663  23.85 0.0003282687    1.091    0.083
       347 -12.5202     55.1082     85.3731   5.1456805090e+01   5.4799937622e+01    0.4974602    0.4457125   1.86  0.001830901    1.223    0.183
       348 -10.4206     52.5214     79.7914   5.1078910346e+01   5.6615250974e+01    0.2513084    0.2193815  32.11 0.0005860371    1.164    0.141
       349 -10.5976     12.4804     86.5408   7.1599115078e+01   5.9074355184e+01    0.2274255    0.1299236  -8.41  0.001020105    2.153    0.536
       350 -11.8486    134.5779     84.1641   2.4178253261e+01   3.8540744364e+01    0.2756352    0.2686885  47.54 0.0005750289    1.078    0.072
       351 -11.1141     69.3473     84.2733   4.5137887462e+01   5.2711741715e+01    0.1553825    0.1226167  -8.92 0.0002833686    1.626    0.385
       352 -11.1791     10.1116     82.1207   7.2136520395e+01   6.0400168746e+01    0.2378824    0.1844825 -71.53  0.001315325    1.165    0.142
       353 -12.7916     88.5186     79.3981   3.6316867632e+01   5.0104281952e+01    0.4853673     0.286484 -40.56  0.001704762    1.822    0.451
       354 -11.0270    215.3261     80.9346   9.1409884272e+00   2.1173615405e+01    0.1873802    0.1465183 -38.51 0.0004319096    1.103    0.093
       355 -12.3704    112.9591     78.7112   2.8231543379e+01   4.4764348487e+01    0.4831372    0.3357755 -82.41  0.001961441    2.095    0.523
       356 -11.6033     94.7096     80.1515   3.4410467787e+01   4.8602485935e+01    0.2723723    0.2078681  58.74 0.0002820473    1.370    0.270
       357 -12.2273     65.9469     79.9540   4.5251021915e+01   5.4377903874e+01    0.2359925    0.2270063 -84.83 0.0005470127    1.056    0.053
       358 -11.4328      9.2958     77.7447   7.1924331727e+01   6.1610580420e+01    0.2386744    0.2260858 -34.30  0.001093226    1.106    0.096
       359 -12.0966    161.2059     77.4434   1.6519718351e+01   3.3459487148e+01     0.285103    0.1376899  51.90  0.001138251    2.130    0.531
       360 -11.8828     75.1177     76.6667   4.0472554206e+01   5.3463164936e+01    0.2651511    0.2135826 -63.27 0.0006480398    1.316    0.240
       361 -11.4953    151.1141     75.3335   1.7886855531e+01   3.6235493359e+01    0.2997827    0.1269012  49.54   0.00108965    2.440    0.590
       362 -11.4993    116.5774     75.0908   2.6045185349e+01   4.4646043512e+01    0.3118452    0.2157633  67.16  0.001353421    1.624    0.384
       363 -11.8348    105.7370     73.3854   2.8643989508e+01   4.7559672132e+01    0.4210675    0.2813991  50.88  0.001356394    1.467    0.318
       364 -11.9175     86.2692     73.3083   3.5118906392e+01   5.1949305693e+01    0.3128763    0.2163447 -59.14 0.0008308133    1.597    0.374
       365 -11.7298      2.3638     72.6950   7.4839900958e+01   6.3272486168e+01    0.3830868    0.1667992 -47.56  0.001664915    2.116    0.527
       366 -12.8544     68.5068     72.4658   4.1796370404e+01   5.5709019349e+01     0.391671    0.2441253  18.62  0.001419385    2.237    0.553
       367 -12.1327     70.3118     69.1620   3.9921365854e+01   5.6132485548e+01    0.3629903    0.2773768  27.06 0.0003482082    1.411    0.291
       368 -10.7039    124.1927     72.1414   2.3059597740e+01   4.3384447437e+01    0.2137925    0.1785246 -81.78 0.0003289495    1.312    0.238
       369 -12.2982     54.9832     69.0337   4.6676141658e+01   5.8891634586e+01    0.5431246     0.322846 -26.36  0.002003228    2.453    0.592
       370 -12.5624     61.6982     69.3210   4.3697357477e+01   5.7684616881e+01    0.2697594    0.2643306 -47.07  0.000526287    1.022    0.021
       371 -12.3533     57.8810     65.7726   4.4228685713e+01   5.9182293280e+01    0.6492159    0.2910483  49.63  0.002292438    2.742    0.635
       372 -10.1705    133.2659     70.2987   2.0246966486e+01   4.1504285869e+01    0.1456287    0.1227829  12.82   0.00022477    1.517    0.341
       373 -11.7087    154.3748     68.5300   1.5240689325e+01   3.6630105333e+01    0.2515534    0.2360827 -74.27 0.0001402838    1.007    0.007
       374 -11.8058     48.6564     66.5361   4.8908792260e+01   6.0486544487e+01    0.5953943    0.3733585  -1.36  0.002382913    2.484    0.597
       375 -11.3461     46.9988     62.7352   4.8482151564e+01   6.1649915746e+01    0.2464385    0.2134281  26.65 0.0003690364    1.167    0.143
       376 -12.4777      8.8790     66.8242   7.0416794123e+01   6.4501526985e+01      0.31495    0.2626353 -59.25 0.0003343061    1.079    0.073
       377 -12.6732     12.2672     59.8154   6.7104794961e+01   6.6106447562e+01     0.469389    0.2729019 -31.67  0.002255897    1.799    0.444
       378 -11.7217    164.9752     64.0146   1.2022655941e+01   3.4807409633e+01    0.2141067    0.1967636 -66.37            0    1.000    0.000
       379 -10.8662    173.0462     62.3774   1.0256538160e+01   3.3139772915e+01    0.1947383    0.1716872  88.29 0.0004084825    1.128    0.113
       380 -11.6662    136.4333     61.3158   1.6656097241e+01   4.2311865345e+01    0.2826805    0.1523105 -31.15  0.001122488    2.065    0.516
       381 -11.6668    208.7363     59.8242   4.8915746548e+00   2.5543158890e+01    0.2167155     0.185923 -63.82 0.0003100838    1.087    0.080
       382 -10.2871    183.4933     60.5072   8.2120613185e+00   3.0988345645e+01    0.1396858    0.1264128 -58.00 -4.105003e-05    1.028    0.027
       383 -12.5541    110.6839     57.6919   2.1743782015e+01   4.9415691303e+01    0.6189783    0.3230845 -28.36  0.001800388    2.454    0.593
       384 -13.1569    115.5129     53.6967   1.9005469151e+01   4.8912794870e+01    0.4208892    0.3082591 -65.88 0.0004601935    1.566    0.361
       385 -11.7547    103.9814     59.4898   2.4331838801e+01   5.0727703421e+01    0.2378032    0.2055777 -42.84 -0.0001393411    1.195    0.163
       386 -12.8775     38.2565     55.1245   5.0521903020e+01   6.4698194910e+01    0.6525693    0.5188873  41.75  0.003064921    1.331    0.249
       387 -11.8483    160.4121     57.2020   1.0795695432e+01   3.6994090245e+01    0.2149257    0.1232172 -46.63 0.0009455218    1.664    0.399
       388 -11.1839    179.7508     56.0384   7.5162449142e+00   3.2518822953e+01    0.2175142    0.1909381  88.10  0.000363668    1.133    0.118
       389 -12.4829     22.8927     54.8623   5.9435032198e+01   6.6515906361e+01    0.3009742    0.2835167 -41.06 0.0007624103    1.023    0.022
       390 -10.9189    188.3035     55.3141   6.1828624157e+00   3.0647387437e+01     0.129375     0.108045  20.15 0.0002735344    1.617    0.382
       391 -10.7637    133.6575     55.3334   1.5289025261e+01   4.4021708454e+01    0.1637707    0.1124213 -72.57 0.0007050784    1.757    0.431
       392 -10.7878    197.7291     54.5456   4.8312381724e+00   2.8643409358e+01    0.1815056    0.1217343 -87.24 0.0009378506    1.671    0.402
       393 -11.6789    173.3835     49.9110   6.6871586048e+00   3.4921570092e+01    0.4179099    0.1893702 -55.93  0.001610452    2.522    0.603
       394 -10.6464    150.9977     50.9699   1.0502247141e+01   4.0302539207e+01    0.1781494    0.1626078 -64.26 0.0003579309    1.041    0.039
       395 -13.1398     30.6790     50.0305   5.3138648350e+01   6.6854403266e+01    0.3523511     0.317147  39.73  0.001186363    1.200    0.166
       396 -12.2322     99.5465     49.4958   2.1892990504e+01   5.3629001097e+01    0.5320192     0.322153  50.44    0.0023166    1.578    0.366
       397 -11.7638    128.2492     47.9962   1.3949398817e+01   4.6592471834e+01    0.3998068    0.2036668 -24.02   0.00130014    2.584    0.613
       398 -11.3080     19.0040     49.0365   6.0139170235e+01   6.8287117336e+01    0.2099394    0.1884626 -41.73 0.0003572611    1.020    0.019
       399 -12.9019    108.6108     51.7372   2.0129735847e+01   5.0988231409e+01     0.528161    0.2656016  53.17  0.001136558    1.888    0.470
       400 -11.5659    143.2568     44.0984   9.6606672240e+00   4.3304548860e+01    0.3445764    0.1161128 -34.90  0.001185354    2.834    0.647
       401 -10.9384    184.5122     43.7359   3.5330875019e+00   3.3134024615e+01    0.2035019    0.1075785 -45.75 0.0008465344    1.676    0.403
       402 -10.6319     90.3221     44.3232   2.2715822606e+01   5.6771618995e+01    0.1546682    0.1169142  20.30 0.0006093184    1.679    0.404
       403 -10.7612     49.7745     44.0513   3.9805222114e+01   6.5388890984e+01    0.1895253    0.1784116 -10.60 0.0003541972    1.033    0.032
       404 -12.2171     22.8206     42.4875   5.5434350864e+01   6.9478718843e+01    0.2668001    0.1836908 -17.53  0.001371818    1.580    0.367
       405 -11.5903    158.8418     40.8969   6.1044562000e+00   3.9778545669e+01    0.2083528     0.197826  26.03 0.0006338327    1.276    0.217
       406 -12.7485     34.2251     40.3458   4.7161787686e+01   6.8593743444e+01    0.4037607    0.2496675  22.40  0.001321572    1.690    0.408
       407 -11.8001    120.7072     39.3065   1.2462146735e+01   4.9872942648e+01    0.2695384    0.2399769  76.93 0.0003170279    1.051    0.049
       408 -10.7207     52.1102     40.1137   3.6797942972e+01   6.5770790101e+01    0.2189317     0.185884  -3.19  0.000600824    1.259    0.205
       409 -10.2571    113.6972     38.7221   1.3851938320e+01   5.1784075727e+01    0.1477452    0.1122276  33.78 0.0001827128    1.545    0.353
       410 -11.3617     80.4124     37.1477   2.3012566264e+01   6.0337194530e+01    0.2814801    0.2573391 -38.91  0.001028352    1.155    0.135
       411 -11.8388    106.0184     36.2713   1.4787712834e+01   5.4132435222e+01    0.2119143    0.1860413  66.34 0.0003727864    1.065    0.061
       412 -12.0477     87.5945     35.4794   1.9795662234e+01   5.8885379523e+01    0.3663411     0.229978 -75.20   0.00141691    2.709    0.631
       413 -11.2033     42.2932     33.8337   3.9218860051e+01   6.8715902759e+01     0.230749    0.1815432  40.60 0.0005808214    1.294    0.227
       414 -11.1165      5.1999     34.4144   6.5494593285e+01   7.2736570026e+01     0.162936    0.1162084  25.08 0.0003007837    1.513    0.339
       415 -13.0070    174.4185     32.2298   1.4890762092e+00   3.7044974372e+01    0.2786116    0.2479777 -64.20 0.0005622712    1.049    0.047
       416 -10.9862     14.9184     33.2936   5.7611869504e+01   7.2319864414e+01    0.1828624    0.1559945   0.26 0.0004633843    1.152    0.132
       417 -10.8591    141.3603     31.8726   5.8851508720e+00   4.5482937408e+01    0.1915316      0.14054 -15.12  0.000404996    1.694    0.410
       418 -10.8261    106.4778     32.4698   1.3119710389e+01   5.4561174572e+01    0.1487356    0.1372544  77.92 0.0001137475    1.022    0.022
       419 -12.0738     30.7696     31.8753   4.5541563843e+01   7.0856956180e+01    0.2424852    0.2013506  38.72  0.001234082    1.296    0.228
       420 -12.4680     45.3565     26.5972   3.3652027971e+01   6.9528520300e+01    0.5009724    0.3170346 -53.69  0.002120266    1.962    0.490
       421 -10.6423     24.3241     31.3089   4.9777581535e+01   7.1796624356e+01    0.1415517   0.09413061 -20.85 0.0003159628    1.651    0.394
       422 -10.6198    137.3382     30.3206   6.0107870852e+00   4.6737038491e+01    0.1489113    0.1068715  37.37 0.0007050106    1.712    0.416
       423 -11.0719     64.3071     29.9230   2.5934956301e+01   6.5164536960e+01    0.2101287    0.1958403  85.52  0.000558068    1.229    0.186
       424 -11.1770     67.5197     28.9228   2.4056290661e+01   6.4617682392e+01    0.2192044    0.1837805  48.39 0.0003891885    1.126    0.112
       425 -10.4486    114.1262     28.8488   9.8777067054e+00   5.3052593544e+01    0.1893464     0.162741  42.48  0.001010884    1.245    0.197
       426 -10.6531    145.2720     27.6428   3.8530930317e+00   4.4995158302e+01    0.1533486   0.09575815 -60.73 0.0006999958    1.645    0.392
       427 -10.3757    141.2667     26.3855   4.0262063211e+00   4.6196535184e+01    0.1414043    0.1080729  29.43 0.0006985893    1.698    0.411
       428 -11.8178      1.8431     25.7215   6.5505891621e+01   7.4909062318e+01    0.2078512    0.1675377 -63.23 0.0003559189    1.216    0.178
       429 -12.2146     85.4752     24.4845   1.5395257880e+01   6.1007752098e+01    0.2710488    0.2362504 -85.50 0.0005008882    1.252    0.201
       430 -10.4786    124.5355     24.5229   6.1309588809e+00   5.0843368052e+01    0.1460855    0.1314953  88.88 6.922589e-05    1.015    0.014
       431 -11.3620     74.6600     24.5677   1.9062029391e+01   6.3625142404e+01    0.2362308    0.2146381  48.69  0.000230632    1.019    0.018
       432 -10.1006     66.3077     23.2638   2.1607712285e+01   6.5747990400e+01    0.1419917    0.1024139  26.84 0.0001612653    1.530    0.346
       433 -10.6294     98.2439     20.5761   1.0057092850e+01   5.8252066609e+01    0.2044428    0.1201142  53.27 0.0003954918    1.562    0.360
       434 -10.6014    132.0000     17.9713   2.4607135540e+00   4.9617028762e+01     0.221659   0.08120927 -25.89 0.0008031729    2.948    0.661
       435 -10.8826     49.6625    248.6434   7.3713163745e+01   1.6517962976e+01    0.1726713    0.1309347 -50.55 0.0009730656    1.810    0.447
       436 -10.4834     66.5057     16.4904   1.7821783752e+01   6.6631520629e+01    0.1396927    0.1278102  44.69  3.29869e-05    1.014    0.014
       437 -11.6405     50.3806    244.0434   7.3296898295e+01   1.7264380470e+01      0.26339    0.2000165 -49.07 0.0009919556    1.799    0.444
       438 -12.0037     99.9715    246.6487   6.2649958131e+01   1.1025324764e+01    0.2950404    0.1836296  35.84  0.001812904    1.234    0.190
       439 -10.9627    203.5064    250.5667   4.2738463467e+01  -1.7919045981e+00     0.218877   0.08234449  28.63  0.001201232    2.169    0.539
