#   1 NUMBER                 Running object number                                     
#   2 MAG_AUTO               Kron-like elliptical aperture magnitude                    [mag]
#   3 X_IMAGE                Object position along x                                    [pixel]
#   4 Y_IMAGE                Object position along y                                    [pixel]
#   5 X_WORLD                Barycenter position along world x axis                     [deg]
#   6 Y_WORLD                Barycenter position along world y axis                     [deg]
#   7 A_WORLD                Profile RMS along major axis (world units)                 [deg]
#   8 B_WORLD                Profile RMS along minor axis (world units)                 [deg]
#   9 THETA_WORLD            Position angle (CCW/world-x)                               [deg]
#  10 FWHM_WORLD             FWHM assuming a gaussian core                              [deg]
#  11 ELONGATION             A_IMAGE/B_IMAGE                                           
#  12 ELLIPTICITY            1 - B_IMAGE/A_IMAGE                                       
         1 -11.9745    154.0495     25.7190   6.9714289055e+01   4.3559602511e+01    0.5316471    0.3183274  23.64  0.002408951    2.605    0.616
         2 -14.5625     41.2349     14.7996   9.5708286813e+01   6.6845374367e+01    0.5702305    0.4156948 -23.94  0.004010165    1.342    0.255
         3 -15.1609     55.1781      5.8310   8.6634558839e+01   6.5755411813e+01     1.284878    0.5082216  39.28  0.006676578    2.160    0.537
         4 -10.6442    178.4377     15.6089   6.3411000285e+01   3.8839181806e+01    0.1287463    0.1076192  74.68 0.0001697458    1.053    0.051
         5 -17.7955     18.9681    167.3951   1.3998640051e+02   3.8106764411e+01     6.398505     2.725484 -48.77   0.02909523    2.742    0.635
         6 -18.6600     75.9642    138.7171   1.2103691713e+02   3.8290445817e+01     10.41763     6.185699   8.20   0.03911902    3.396    0.706
         7 -12.2664    245.0185    158.6507   8.6872288429e+01   4.2833235212e-01    0.3851468    0.2407301  32.69   0.00107616    1.920    0.479
         8 -19.8253    185.7982     79.8367   7.8888966033e+01   2.8007778428e+01     8.633604     8.042878  42.01   0.03961553    1.208    0.172
         9 -15.7161      6.9265    131.1243   1.3868591294e+02   4.7596978966e+01     1.682877    0.5901914 -74.29    0.0072732    2.503    0.601
        10 -11.4948     24.1289    105.1529   1.2966527923e+02   5.2281749070e+01    0.1978218    0.1434757 -44.42 0.0007471071    1.236    0.191
        11 -15.2358     59.7416    205.6653   1.3523763977e+02   2.4435759407e+01     1.022496    0.4625806  62.82  0.003512543    2.600    0.615
        12 -13.3934     62.9251     91.8104   1.1413750353e+02   5.1049864293e+01    0.4109288    0.1908699 -53.61  0.001021869    2.022    0.506
        13 -12.6404     62.0770     87.2906   1.1319876065e+02   5.2123842467e+01    0.2114903    0.1858205 -40.05 0.0004434876    1.044    0.042
        14 -11.3763    249.9400     84.2587   7.0205218226e+01   1.2728239394e+01    0.1779894    0.1744517  36.03  0.001138512    1.332    0.249
        15 -10.3041    249.4657    226.4429   9.9404760235e+01  -1.1440824940e+01    0.1227502    0.1010288  -2.03 0.0001183374    1.010    0.010
        16 -14.0356     68.0782    194.5238   1.3206321906e+02   2.5849056531e+01    0.5025962    0.2693627  70.69  0.002191006    2.300    0.565
        17 -12.4384    179.5593    186.2792   1.0531824719e+02   7.6207122542e+00    0.2175567    0.2040793 -61.80 0.0007685692    1.133    0.117
        18 -13.0152     76.4403     68.5758   1.0290223723e+02   5.3681097065e+01    0.3110384    0.1875021 -38.39  0.001555316    1.568    0.362
        19 -11.2996    170.8465    183.5775   1.0666147775e+02   9.9174354271e+00    0.4351357    0.1989389  56.21  0.001461682    3.090    0.676
        20 -13.3164    112.8447     59.6625   8.9149990195e+01   4.8396207755e+01    0.4229247    0.2871286 -54.41  0.001214607    1.836    0.455
        21 -10.8443     36.1747     61.1965   1.1480653474e+02   6.0365212785e+01    0.1514091    0.1365379 -49.09 0.0004275085    1.298    0.230
        22 -11.8695     13.1851     60.1264   1.2329925701e+02   6.2539433506e+01    0.1821851    0.1234493 -35.22  0.000492772    1.189    0.159
        23 -12.7987     84.9306     55.9833   9.6030915605e+01   5.4414097218e+01    0.4157785    0.1724967 -42.63  0.001727006    2.500    0.600
        24 -12.9203    114.6308     54.2225   8.6922574722e+01   4.8866323626e+01    0.4446636    0.2448843  59.52  0.001534416    2.084    0.520
        25 -11.8142     90.9417     51.8851   9.2786104102e+01   5.3966676689e+01    0.2715885    0.1655907 -30.23 0.0009205948    1.665    0.399
        26 -11.4571    242.6560     46.7170   6.3126568237e+01   2.0116268129e+01    0.1682429    0.1005156 -50.81 0.0008152773    1.454    0.312
        27 -12.5810     84.9718     43.4492   9.1660439904e+01   5.6311984542e+01    0.3480812    0.1807185 -39.25  0.001683236    2.030    0.507
        28 -12.6388     55.9730     47.1306   1.0275404516e+02   6.0411859491e+01    0.2677845    0.1638027  40.57  0.001075147    1.836    0.455
        29 -12.8799    134.0522     40.2089   7.7847210624e+01   4.6513109752e+01    0.4112621    0.3616515  52.79  0.001438497    1.040    0.038
        30 -10.9580     17.4959     38.9009   1.1510076996e+02   6.5994007529e+01    0.1625803   0.09221752 -43.82 0.0004547805    1.495    0.331
        31 -13.1977     86.6017     36.3660   8.8618336270e+01   5.6978552651e+01     0.351865    0.2548224 -10.64  0.001734822    1.434    0.303
        32 -12.9356    102.2682     33.7547   8.3277280431e+01   5.4252571955e+01    0.3220067    0.2811901 -28.58 0.0009368382    1.252    0.201
        33 -11.6285    104.7895     28.6823   8.0856276035e+01   5.4334954252e+01    0.2136623    0.1723422 -15.05 0.0004901962    1.314    0.239
        34 -12.7368     69.9852     33.4478   9.2790659787e+01   6.0273686801e+01     0.241595    0.1576286 -12.00 0.0007890557    1.603    0.376
        35 -14.5876    195.8170    213.5908   1.0718407063e+02  -7.0479801347e-01    0.5792186    0.4890022  14.26  0.002798758    1.164    0.141
        36 -19.0885    211.5030    163.6340   9.4007778528e+01   5.8330920756e+00     21.39914     1.921868 -42.50   0.03775099   10.533    0.905
        37 -15.1541    150.0989    238.9666   1.2072797817e+02   2.7883469183e+00     1.755059     1.060495 -11.38  0.006070452    5.027    0.801
        38 -12.9546    122.6657     26.0561   7.5790845712e+01   5.0779092459e+01    0.3333737    0.3069868 -24.52  0.001421048    1.209    0.173
        39 -12.0599     84.4555     24.7587   8.4965091359e+01   5.8788079982e+01    0.2746754    0.1199142 -25.05  0.001271187    2.492    0.599
        40 -10.7915    190.8759     24.4441   6.4031259786e+01   3.4899530363e+01    0.1827661    0.1144995  75.26 0.0008358906    1.430    0.301
        41 -11.6735    183.1351     23.8620   6.4883751687e+01   3.6811959589e+01    0.2777129    0.1480268  58.62 0.0009463597    1.699    0.411
        42 -10.7302     96.2687     23.6539   8.1273799801e+01   5.6628353212e+01    0.1152732   0.09830802 -63.76  0.000442912    1.615    0.381
        43 -14.6718    174.8126    247.3926   1.1706460542e+02  -2.8827202092e+00      1.23783    0.5330741  33.68  0.005418113    2.276    0.561
        44 -11.5035    161.6078    165.7411   1.0501873156e+02   1.5691023887e+01    0.2824404    0.2365351  67.16 0.0005869457    1.299    0.230
        45 -15.7818    176.1870    230.2987   1.1407608770e+02  -2.1130874471e-01      1.58078     1.022464   4.71  0.007167464    2.497    0.600
