#   1 NUMBER                 Running object number                                     
#   2 MAG_AUTO               Kron-like elliptical aperture magnitude                    [mag]
#   3 X_IMAGE                Object position along x                                    [pixel]
#   4 Y_IMAGE                Object position along y                                    [pixel]
#   5 X_WORLD                Barycenter position along world x axis                     [deg]
#   6 Y_WORLD                Barycenter position along world y axis                     [deg]
#   7 A_WORLD                Profile RMS along major axis (world units)                 [deg]
#   8 B_WORLD                Profile RMS along minor axis (world units)                 [deg]
#   9 THETA_WORLD            Position angle (CCW/world-x)                               [deg]
#  10 FWHM_WORLD             FWHM assuming a gaussian core                              [deg]
#  11 ELONGATION             A_IMAGE/B_IMAGE                                           
#  12 ELLIPTICITY            1 - B_IMAGE/A_IMAGE                                       
         1  -9.8710     32.7954     31.1335   9.3089975485e+01   6.6715014799e+01    0.6263106   0.08981799 -48.93  0.001703758    6.674    0.850
         2 -11.3041    210.4646     29.8073   4.6349253716e+01   2.8763345771e+01     0.800046    0.6621779 -38.76  0.004560499    1.214    0.176
         3  -9.8650     32.6417      4.3432   8.0692036241e+01   7.0870317173e+01    0.5404423   0.09734283 -35.49  0.001823055    5.026    0.801
         4 -11.5768    229.8714      9.2144   3.9222613646e+01   2.6476289464e+01    0.7024155     0.542398 -64.77  0.002809718    1.130    0.115
         5  -8.9372      9.3032      7.6676   9.4724024914e+01   7.2757037955e+01   0.09286653   0.08560901 -51.68 0.0002871504    1.657    0.396
         6  -8.1646     83.2246      4.9545   6.1413684309e+01   6.2423563536e+01    0.1652251   0.09931768 -19.82 0.0007577452    1.672    0.402
         7  -8.0767     74.0000      3.9935   6.3819144743e+01   6.4326466844e+01    0.2007874   0.06697885 -23.96 0.0008098147    2.994    0.666
         8 -10.2466     54.0032    239.3416   1.2267809237e+02   1.9031829744e+01    0.2149583    0.1353776  83.68   0.00116391    1.425    0.298
         9 -11.2886    126.2392    247.8219   1.1047981688e+02   7.3527967464e+00    0.4130929    0.3672206  81.15  0.003054799    1.253    0.202
        10 -10.0705    120.5454    249.0807   1.1165085776e+02   8.0288449707e+00    0.3066636    0.1689256 -56.98  0.001800218    2.238    0.553
        11  -9.4594    115.2930    250.4385   1.1274014517e+02   8.6102159913e+00    0.2509203   0.09298424  41.59   0.00121059    2.133    0.531
        12 -10.5915    114.7629    242.7616   1.1203954414e+02   9.9301314838e+00    0.2822159    0.1768105  89.74  0.001469943    2.164    0.538
        13 -10.7752     98.0021    247.8511   1.1559270638e+02   1.1588551012e+01    0.2839847    0.1980895  55.61  0.001919336    1.112    0.101
        14 -11.5795     83.6614    247.5994   1.1811881494e+02   1.3669827339e+01    0.7651914    0.3986968  83.06  0.004127916    2.479    0.597
        15 -10.8175     73.1895    245.9216   1.1982136282e+02   1.5387699401e+01     0.296533     0.231347 -50.81  0.002087848    1.902    0.474
        16  -9.9789     50.2454    250.3997   1.2405130755e+02   1.7560925204e+01    0.3865526   0.09956731  39.14  0.001758664    3.283    0.695
        17 -10.6418     50.2703    245.0827   1.2370627697e+02   1.8477122969e+01    0.2537487    0.1934528  73.27  0.001911429    1.104    0.094
        18 -11.9198      2.0143     30.2365   1.0739844607e+02   6.9256434515e+01     5.598042    0.1410264 -59.94  0.007329599   33.161    0.970
        19 -13.9373      2.4498    125.3240   1.2412904403e+02   4.8411556202e+01     8.660161     1.037662 -76.23   0.01941386    9.803    0.898
        20 -11.0260    101.3600    228.8504   1.1307459012e+02   1.4372034721e+01    0.3832901    0.2502763  40.12  0.002295334    1.419    0.295
        21 -10.7715     96.9765    226.4983   1.1366557479e+02   1.5460536696e+01     0.385844    0.1861645  56.46  0.001942849    1.950    0.487
        22 -12.4949     10.5912    206.8416   1.2832020356e+02   3.0021720963e+01    0.9361769    0.6926289  29.06  0.004459841    1.872    0.466
        23 -10.6152     38.9945    226.1236   1.2441296034e+02   2.3274024256e+01    0.3955517    0.1210204  52.04  0.001916881    2.561    0.610
        24 -14.5395      6.1954    238.9945   1.3059329560e+02   2.4405160668e+01     4.045219     1.979976 -80.37   0.02772073    1.797    0.444
        25 -11.1897    109.7937    230.6566   1.1165740250e+02   1.2757610990e+01    0.3715701    0.2398045  34.26  0.001803973    1.606    0.377
        26  -9.9504     59.6652    184.0763   1.1673284302e+02   2.9354321357e+01    0.3735682    0.2588338 -42.78  0.001649568    2.047    0.512
        27  -9.8250     65.6682    177.6340   1.1466668634e+02   2.9992539303e+01    0.2810823    0.2312715 -48.34 0.0008732805    1.515    0.340
        28 -10.3262    135.2172    236.7129   1.0752390586e+02   7.7084331710e+00     0.259279    0.1596436  66.26  0.001393776    2.010    0.502
        29 -11.1794     32.7139    170.1992   1.2123347385e+02   3.5592087084e+01     1.507724    0.1306039 -71.97   0.00285184   13.787    0.927
        30 -11.4209     32.7906    126.4603   1.1619063230e+02   4.5772602363e+01     2.099516   0.08527049 -67.66  0.003501045   15.072    0.934
        31  -7.7960     73.6740    175.6740   1.1260566314e+02   2.9328450852e+01    0.1247572    0.1022555 -34.79 0.0004823113    1.695    0.410
        32 -10.0664     75.5344    167.1985   1.1103038340e+02   3.0989626165e+01    0.2771038    0.2416025 -70.56 0.0007763135    1.159    0.137
        33 -11.3969     62.4314    163.8685   1.1369059404e+02   3.3557748474e+01    0.4996198    0.2884113 -45.57  0.001602568    2.192    0.544
        34 -11.0717     82.2612    160.4510   1.0841845487e+02   3.1559313343e+01    0.6340703    0.5126821 -84.53  0.002651233    1.156    0.135
        35 -10.6670     73.5238    156.2419   1.0992478814e+02   3.3823281552e+01    0.6373088    0.3073691 -76.23  0.002621039    2.445    0.591
        36 -11.3706    126.3859    230.7331   1.0848024858e+02   1.0123237753e+01    0.4580815    0.3219303 -87.83  0.002693428    1.827    0.453
        37 -10.5732     70.4886    145.4771   1.0901479691e+02   3.6801530257e+01    0.3788539    0.3726313  -2.05   0.00167304    1.257    0.204
        38 -10.9822     67.5154    142.5452   1.0931500156e+02   3.7911783462e+01    0.4430433    0.3637001  55.48  0.001769923    1.245    0.197
        39  -9.2157     96.8713    145.1438   1.0212536095e+02   3.2824369455e+01    0.2286982     0.190588  77.58  0.001093767    1.225    0.183
        40 -10.2363     85.1310    144.0044   1.0495940862e+02   3.4994653419e+01    0.3038783    0.2812943 -61.93 0.0005994406    1.124    0.110
        41 -10.2980     58.8002    132.0176   1.0991810705e+02   4.1583274500e+01    0.4499453    0.1962304 -64.27  0.001930586    2.034    0.508
        42  -8.5116    108.5219    133.4631   9.6721092095e+01   3.3528742270e+01    0.1478786    0.1422109 -69.89 4.473665e-05    1.039    0.037
        43 -10.5337     83.0917    231.4991   1.1679411007e+02   1.6573743567e+01    0.4327039    0.1774425 -70.15  0.002112743    2.788    0.641
        44  -8.8893     96.0539    129.4525   9.9207831919e+01   3.6683696961e+01     0.281938    0.1910708 -40.24 0.0009774732    1.631    0.387
        45  -8.7108     74.0000    125.9509   1.0460468204e+02   4.1000130762e+01    0.2416184   0.07401362 -59.11 0.0008060914    2.968    0.663
        46  -9.0601     74.0000    114.0942   1.0217760565e+02   4.3851850374e+01    0.4099281    0.0744341 -57.22  0.001056355    4.980    0.799
        47  -7.8763    168.6720    113.3540   7.6868229146e+01   2.5208982443e+01    0.1653946    0.1256612 -78.35 0.0007046415    1.773    0.436
        48 -12.8423     31.7292    212.9585   1.2484625823e+02   2.6642384592e+01     1.779078    0.5114223 -69.12  0.001383486    3.054    0.673
        49  -9.9238     32.9088     85.1924   1.0902116553e+02   5.5499230889e+01    0.6297838   0.03730223 -61.48   0.00135784    8.659    0.885
        50 -10.7227     82.8387    222.1314   1.1594193708e+02   1.8350110740e+01    0.5093934    0.3056243 -66.07  0.003000763    1.779    0.438
        51 -13.8928     42.1788    202.0575   1.2205098084e+02   2.7663477041e+01     2.575093      1.15802  66.48   0.01288122    2.246    0.555
        52  -9.9681     33.0000     58.4365   1.0232301713e+02   6.1393502892e+01    0.7601309   0.06071818 -56.69  0.001545954   10.478    0.905
        53  -9.2853    163.4002    247.7900   1.0367466360e+02   1.5086932363e+00    0.2232106    0.1414704 -13.22  0.001149046    2.885    0.653
        54  -9.8708     12.7831     60.7556   1.1094953838e+02   6.2448594375e+01    0.3157957   0.09428094 -57.33  0.001162416    2.296    0.565
        55 -11.2151     74.5376    219.5918   1.1729635321e+02   2.0005827671e+01     0.481495    0.2915134  69.27  0.002809013    1.555    0.357
        56 -10.0010    201.9093     34.8428   4.8776634465e+01   3.0263318057e+01    0.3095619    0.2441926  53.80  0.001295838    1.322    0.244
        57 -11.1523    134.0157    247.5038   1.0902244910e+02   6.1940252876e+00    0.4105209    0.3045505  51.47  0.002663048    1.113    0.102
        58 -10.6619    216.6192     22.9114   4.3861045175e+01   2.8089745956e+01    0.5008968      0.30108  39.90  0.001714502    2.240    0.554
        59 -11.1082     59.7165    246.3019   1.2218163214e+02   1.7085149999e+01    0.7319371     0.251279 -81.89  0.003150859    4.207    0.762
        60  -9.8507     73.9205    250.1927   1.2002749206e+02   1.4562353007e+01     0.254139    0.1111263  48.59  0.001031273    1.726    0.421
        61  -9.9675    101.4850    249.5069   1.1512486714e+02   1.0809204727e+01    0.1926263    0.1606835  84.37 0.0008960284    1.258    0.205
        62 -10.3032    114.5639    226.7309   1.1028913530e+02   1.2706409950e+01    0.3476022    0.1501456 -56.57  0.001673439    2.659    0.624
        63 -10.6219     65.7303    243.1984   1.2091518750e+02   1.6849523280e+01    0.2583468    0.2511734  75.11  0.002075405    1.517    0.341
