#   1 NUMBER                 Running object number                                     
#   2 MAG_AUTO               Kron-like elliptical aperture magnitude                    [mag]
#   3 X_IMAGE                Object position along x                                    [pixel]
#   4 Y_IMAGE                Object position along y                                    [pixel]
#   5 X_WORLD                Barycenter position along world x axis                     [deg]
#   6 Y_WORLD                Barycenter position along world y axis                     [deg]
#   7 A_WORLD                Profile RMS along major axis (world units)                 [deg]
#   8 B_WORLD                Profile RMS along minor axis (world units)                 [deg]
#   9 THETA_WORLD            Position angle (CCW/world-x)                               [deg]
#  10 FWHM_WORLD             FWHM assuming a gaussian core                              [deg]
#  11 ELONGATION             A_IMAGE/B_IMAGE                                           
#  12 ELLIPTICITY            1 - B_IMAGE/A_IMAGE                                       
         1 -11.1330      5.6228     37.4611   1.1096578418e+02   6.7053432319e+01    0.8615122    0.3520704 -61.57   0.00452472    2.009    0.502
         2 -12.9944     12.3798     44.1131   1.0996303284e+02   6.5327837821e+01    0.6705465    0.1562688 -53.15  0.002888654    2.654    0.623
         3 -10.9054     14.7230     17.6217   9.9951524550e+01   7.0170045836e+01    0.3245105    0.2045056 -64.23  0.001431557    2.298    0.565
         4 -12.2944     18.0314     24.4859   1.0107479285e+02   6.8702409955e+01    0.5400915    0.2735412 -52.39  0.002271108    1.730    0.422
         5 -11.9501      1.9226     25.2441   1.0895466797e+02   6.9609188766e+01    0.3749854    0.1435708 -59.45  0.001948941    2.172    0.539
         6 -11.6921      6.1492     17.6270   1.0421304200e+02   7.0763695727e+01    0.4532543    0.2598131 -45.93  0.002686527    1.293    0.227
         7 -11.5857    182.1438     19.2718   5.0755184611e+01   3.7100284870e+01    0.3686383    0.3035249   2.06  0.000803761    1.419    0.296
         8 -11.1880    199.4390     17.3952   4.7943086225e+01   3.2800238168e+01    0.3629421    0.2861321   7.44   0.00175829    1.588    0.370
         9 -11.1191     24.3751     16.8813   9.4947680098e+01   6.9472695769e+01    0.2545117    0.2137925 -21.69  0.001280061    1.162    0.139
        10 -10.5012     21.1004     11.7267   9.4222461947e+01   7.0615418008e+01    0.3038485    0.2085302  46.13  0.001435647    2.490    0.598
        11 -10.5034     76.4062     14.5184   7.2411597329e+01   6.2566701853e+01     0.397472    0.2577942 -52.11  0.001736098    2.448    0.591
        12 -10.1364     31.7152     12.8692   8.9632197795e+01   6.9365892518e+01    0.2206456     0.156968 -16.36 0.0009987756    1.165    0.141
        13 -10.9203    116.4877     15.1797   6.1327422123e+01   5.4133229570e+01    0.3702023    0.2012625  32.84  0.001644789    1.965    0.491
        14 -10.1070    229.9743     16.0277   4.4287178996e+01   2.5270015071e+01     0.226237    0.1362102 -59.68 0.0006790229    1.644    0.392
        15 -12.4962    173.7439     11.0963   4.9384357460e+01   4.0172650545e+01     0.588547    0.4358535 -78.21  0.003035453    1.472    0.320
        16 -11.4975    147.5622     13.1223   5.4176180390e+01   4.6750171062e+01    0.4905063    0.2241223  57.39   0.00178764    1.920    0.479
        17 -11.8297    210.9562     10.4129   4.4711836616e+01   3.0611821717e+01    0.4660498    0.3166427  27.48  0.002298114    2.001    0.500
        18 -11.8193    209.0417      4.8277   4.3398757841e+01   3.1672841478e+01    0.3500735    0.2515406 -82.55  0.000385473    1.348    0.258
        19 -10.9102     59.0436     12.0381   7.7503753244e+01   6.5829713148e+01    0.4496579    0.3064161  75.19  0.001816267    4.988    0.800
        20 -10.7394    218.4893     11.9919   4.4367538644e+01   2.8548992341e+01     0.227188    0.1717107  78.26  0.001097304    1.255    0.203
        21 -10.2892    128.2724     11.6722   5.7332345242e+01   5.1703492285e+01    0.2401895    0.1246365 -21.25 0.0002269417    2.028    0.507
        22 -10.1997    128.0100      8.4779   5.6152739267e+01   5.2081265573e+01    0.2090301    0.1271338  59.95 0.0003577699    1.530    0.346
        23 -10.2273     67.1631     11.6376   7.4273529194e+01   6.4553194738e+01    0.2251008    0.1801856   4.78 0.0007504206    1.062    0.059
        24 -11.6084     12.9699     11.1885   9.8089525923e+01   7.1392848443e+01    0.3487162    0.1824074  17.10  0.001190926    2.157    0.536
        25 -11.7033    194.6485      8.6113   4.5988246808e+01   3.4975936202e+01    0.3264871    0.2298634 -67.40  0.000244914    1.476    0.322
        26 -12.3181    194.1770      3.6107   4.4605866279e+01   3.5591258650e+01    0.7413335    0.2214253  59.80    0.0027135    2.796    0.642
        27 -10.6611    185.3015      8.9907   4.7216382283e+01   3.7365574554e+01    0.1851703    0.1803996 -58.23 0.0003559687    1.092    0.084
        28 -10.4407    165.3534      8.7422   4.9823542341e+01   4.2595167893e+01    0.2563393    0.1952189  62.70   0.00136814    1.200    0.167
        29 -11.0126    165.6894      3.9614   4.8218912767e+01   4.2956642269e+01    0.2827998    0.2149426 -85.22 0.0008930365    1.389    0.280
        30  -9.7689    160.2648      8.7354   5.0579406413e+01   4.3917513215e+01    0.2718267    0.1670156  20.86  0.001222024    2.081    0.519
        31 -11.8440    160.4206      3.7849   4.8906267049e+01   4.4337982767e+01    0.5522233     0.423055  59.85  0.003028633    1.180    0.152
        32 -10.3086     74.3249      8.6792   7.0358150649e+01   6.3643566008e+01    0.2792557     0.185797  43.39  0.001591426    1.491    0.329
        33 -11.3131     48.0632      9.0790   8.0475169848e+01   6.7857682483e+01     0.494654    0.2047423  45.92  0.001649268    3.118    0.679
        34  -9.6336     51.5488      6.4742   7.7709066507e+01   6.7689834107e+01    0.2054447     0.103733 -27.33 0.0006155228    1.766    0.434
        35 -10.9061     39.9659      5.4540   8.2144050919e+01   6.9439791680e+01    0.2696623    0.2266859  50.09  0.001820071    1.902    0.474
        36  -9.8008     37.7449      2.2985   8.1487127203e+01   7.0141296885e+01     0.163691    0.1280527   4.92 0.0001555755    1.129    0.115
        37 -10.7377    146.9447      8.0774   5.2494352610e+01   4.7403491672e+01    0.2480078    0.1476023  34.01  0.001140051    1.818    0.450
        38 -11.0733    107.5797      7.8834   6.0448237828e+01   5.6921812024e+01    0.3789014    0.1754009  59.11  0.001659121    2.121    0.529
        39 -10.6278    111.9416      4.9864   5.8202127070e+01   5.6207290488e+01    0.2649349    0.1788374  28.53  0.000449867    1.438    0.304
        40  -9.9719     87.6558      6.7321   6.5261323758e+01   6.1290973088e+01    0.2022983    0.1715525  40.72 0.0005184071    1.193    0.162
        41 -10.5872     24.9513      6.7411   8.9909403426e+01   7.1009775371e+01    0.2039129    0.1697285 -32.80  0.001035327    1.366    0.268
        42  -9.9499     19.7825      6.6262   9.2456227772e+01   7.1534559228e+01    0.2490265     0.100567 -39.77 0.0008873196    1.965    0.491
        43  -9.7667     61.9815      6.4870   7.3644881405e+01   6.6047150509e+01    0.1781621    0.1150875  41.56   0.00102884    1.592    0.372
        44 -10.1457     48.5246      3.1357   7.7225256585e+01   6.8549049434e+01    0.3636827    0.1678974  23.46   0.00169287    2.680    0.627
        45 -10.5128     12.4962      2.6397   9.4303465751e+01   7.2787938568e+01    0.2550548    0.2185736  61.60  0.001790974    2.405    0.584
        46 -10.7453    248.9713      2.9329   3.9531826209e+01   2.2226988011e+01    0.2063142     0.166733 -48.37 0.0003697682    1.134    0.118
        47 -10.3714    217.9335      2.3300   4.1900433891e+01   2.9695212239e+01     0.239418     0.197457 -28.45 0.0008868044    1.316    0.240
        48  -9.5558     30.6099      2.7802   8.5094800173e+01   7.0953726917e+01    0.1580825   0.09279813 -38.84 0.0009488261    1.687    0.407
        49 -11.3513    180.5124      2.0423   4.5707661750e+01   3.9277309353e+01     0.343988    0.1839973  71.10 0.0008668706    1.706    0.414
        50 -11.0146    144.6183      1.7418   5.0626456451e+01   4.8562792334e+01    0.3730764    0.1864261  84.88 0.0009208497    2.708    0.631
        51 -11.0057    128.1819      2.1572   5.3675724667e+01   5.2611649601e+01    0.3329117    0.1613669  54.87  0.001507985    1.766    0.434
        52 -10.0346    115.6807      2.0305   5.6152203512e+01   5.5605215957e+01    0.1808679     0.159192  21.71 0.0003676712    1.066    0.062
        53 -10.4698     73.9926      1.9436   6.7189142964e+01   6.4429935150e+01    0.1966598    0.1634056  12.62 0.0006485998    1.020    0.020
        54 -10.2232     90.5096      1.4616   6.2019229440e+01   6.1221732884e+01    0.2337484    0.1173358  54.17 6.121695e-05    1.894    0.472
        55 -10.1291     93.5841    227.2594   1.1744349233e+02   1.6566477567e+01     0.198074     0.107449 -73.34 0.0009027808    2.082    0.520
        56 -10.3950    216.0435    250.6051   9.8711176055e+01  -6.0975229923e+00    0.1656659   0.08491299  38.42 6.503781e-05    1.501    0.334
        57 -12.8329    186.7725    249.9949   1.0358309452e+02  -1.4987883869e+00    0.2723406    0.2072695  23.08  0.001919633    1.250    0.200
        58 -11.4555    127.6530    248.3901   1.1358681497e+02   8.0270941276e+00    0.2848056    0.2291037 -75.87  0.001056657    1.500    0.333
        59 -11.3760    115.7925    249.2976   1.1570806687e+02   9.6911307114e+00    0.2713391    0.2150743  45.54  0.001423913    1.206    0.171
        60 -11.5818     46.3342    246.2800   1.2690492549e+02   1.9579792157e+01     0.373292    0.1695043 -86.53  0.001666563    2.218    0.549
        61 -10.6038     14.6124    219.1517   1.3048031220e+02   2.7782043832e+01    0.1859683    0.1335551  66.79 9.686487e-05    1.130    0.115
        62 -13.0011     12.4315    232.2300   1.3145315464e+02   2.5675934172e+01     0.747175    0.4123608  81.33  0.003129708    1.369    0.270
        63 -12.0852     34.1825    248.0982   1.2888881842e+02   2.0683786918e+01    0.5204388    0.1535309  52.83  0.002485106    2.352    0.575
        64 -12.5905     36.0676    243.9060   1.2837450381e+02   2.1165457809e+01    0.5212377    0.2722259  79.63   0.00170421    1.625    0.385
        65 -11.8776      6.4208    240.9912   1.3273104479e+02   2.4775766429e+01    0.3910801    0.1631447  45.00  0.001478753    1.958    0.489
        66 -12.4212      2.6997    234.3129   1.3302039494e+02   2.6262474345e+01    0.4816816    0.2150184 -84.79  0.003306062    1.843    0.457
        67 -12.6433     17.8671    247.7812   1.3132421390e+02   2.2498942136e+01    0.8149356    0.2148686  51.81  0.004480232    2.453    0.592
        68 -11.9085     10.1480    248.7735   1.3249436236e+02   2.3123310966e+01    0.3815944    0.1564577  62.01  0.002591042    1.711    0.415
        69 -13.0638      3.1210    247.3193   1.3345080404e+02   2.4049944166e+01     0.315086    0.2012582 -85.13   0.00120302    1.450    0.311
        70  -9.9437     23.9964    227.6256   1.2940320816e+02   2.5296010623e+01    0.1926237   0.09795801  60.27 0.0007479496    1.469    0.319
        71  -9.5240     20.1430    225.2143   1.2989647146e+02   2.6128382412e+01    0.1477646   0.08152183  69.27 0.0003677512    1.347    0.257
        72  -9.8890    202.9734    227.3445   9.7503894382e+01  -1.2805122211e+00    0.1713982    0.1237295  35.80 0.0003443033    1.127    0.112
        73  -8.9384    174.0328    228.0000   1.0281056762e+02   3.4815834577e+00    0.2094699    0.0580424  42.72   0.00080013    2.926    0.658
        74 -10.4556    234.0276    225.5374   9.1814507569e+01  -6.0646911603e+00    0.1871385     0.163876 -35.89 0.0009767397    1.592    0.372
        75 -11.5179    184.5872    225.6655   1.0055002969e+02   2.0257052014e+00    0.2308693     0.177888  36.63 0.0005445414    1.054    0.051
        76 -10.1901    164.1657    224.5156   1.0412571510e+02   5.6644916143e+00    0.2198841    0.1630708 -76.75 0.0009827941    1.985    0.496
        77  -9.9157    122.7258    225.4759   1.1192926790e+02   1.2398206968e+01    0.2214498   0.09648573  46.16 0.0007734604    1.861    0.463
        78 -10.6340     98.9677    223.5560   1.1609249746e+02   1.6415794919e+01    0.2394752    0.1648374 -68.53 0.0009290253    1.597    0.374
        79 -10.3235     79.7072    224.2339   1.1965166366e+02   1.9081264065e+01    0.3032071    0.1527634  76.45  0.001554479    2.416    0.586
        80 -10.8838      1.7628    224.2950   1.3275833349e+02   2.8092158126e+01    0.2600978    0.1041238  88.07  0.001289663    2.045    0.511
        81 -10.4524     47.2721    218.0971   1.2489884275e+02   2.4405296824e+01    0.2511538    0.1687051  32.57  0.001490967    1.961    0.490
        82 -11.7639     40.1187    218.1026   1.2614091657e+02   2.5243433281e+01    0.2902665    0.1795783  45.67  0.000872952    1.526    0.345
        83 -11.4589     28.0744    245.8159   1.2970287245e+02   2.1736386682e+01    0.2769082     0.231684  89.66  0.001055027    1.464    0.317
        84 -12.6469     22.6252    241.1996   1.3030734625e+02   2.3093614860e+01    0.7673407    0.2664918 -84.37  0.004314733    2.750    0.636
        85 -10.1350     64.1656    221.7229   1.2220541706e+02   2.1628351650e+01    0.3592764    0.1660547  77.87   0.00178724    2.640    0.621
        86  -9.6768     54.8422    221.5510   1.2383218206e+02   2.2846243820e+01    0.2256491    0.1014997  69.62  0.001183548    2.278    0.561
        87 -10.5932    228.8254    220.1716   9.1811345738e+01  -4.6091893674e+00    0.1945242    0.1538462  25.73  0.000261343    1.073    0.068
        88  -9.9977     27.8553    220.5752   1.2837626739e+02   2.6153238254e+01    0.2399631     0.134868 -63.05  0.001585322    2.079    0.519
        89 -10.2014     95.9631    219.2234   1.1619524855e+02   1.7634082198e+01    0.2036387    0.1815164  72.59 0.0009468535    1.181    0.153
        90 -10.4179    100.8738    217.4064   1.1508430174e+02   1.7219766548e+01    0.2850326    0.2084354  15.19  0.001573576    2.415    0.586
        91  -9.3265     84.3258    220.7443   1.1849070347e+02   1.9057687970e+01    0.1210636   0.07024364  64.02 0.0002069177    1.551    0.355
        92 -10.1152     21.4760    218.7923   1.2933445730e+02   2.7151919506e+01     0.258839    0.1252109 -81.70  0.001666531    1.770    0.435
        93 -10.9094    135.4674    217.8992   1.0860329185e+02   1.1580452660e+01    0.2260942     0.200694  48.59 0.0004266226    1.109    0.098
        94  -9.8804    195.5537    216.7995   9.7175483571e+01   1.3878953517e+00    0.1491946    0.1224093 -53.13 0.0008600348    1.629    0.386
        95  -9.7170    176.3607    216.6800   1.0070643544e+02   4.7377753602e+00     0.265495    0.1337187  27.21 0.0007649031    2.570    0.611
        96  -9.9737    147.7390    216.1618   1.0603584877e+02   9.7878183584e+00    0.1932212     0.147662 -58.43 0.0007848268    1.559    0.358
        97 -10.8472     73.0046    216.4688   1.2016021106e+02   2.1417429588e+01    0.2487475     0.206107  23.61  0.001118806    1.821    0.451
        98 -12.1405     74.3483    211.2913   1.1942983522e+02   2.2203122624e+01    0.2460465    0.1927322  88.24 0.0002705165    1.167    0.143
        99  -9.0045    246.7106    216.3029   8.8108226409e+01  -6.9715568188e+00   0.09870746   0.09416899  37.07 0.0003546555    1.566    0.362
       100 -10.9713    157.0083    215.2744   1.0414606096e+02   8.3305548749e+00    0.1933696    0.1885603 -80.21  0.000279797    1.207    0.171
       101  -9.2049     92.4378    216.4177   1.1655878491e+02   1.8665708589e+01    0.1203409   0.09527064  64.41 5.939561e-05    1.006    0.006
       102 -10.7363     59.0314    215.6185   1.2262249814e+02   2.3415770620e+01    0.2015463    0.1406107 -89.97 0.0004970802    1.268    0.211
       103 -10.6997     39.0204    211.2085   1.2585737783e+02   2.6660701768e+01    0.2458079    0.1531006 -79.00 0.0007931974    1.451    0.311
       104 -12.1566     31.2274    213.2514   1.2735590145e+02   2.7143623984e+01    0.5172155    0.3555433 -88.73  0.003813683    1.227    0.185
       105 -11.3572     25.1842    208.4075   1.2809769249e+02   2.8703991451e+01    0.3371004    0.2722332  30.41  0.001979001    1.823    0.451
       106 -11.9456     36.3268    205.8712   1.2596021783e+02   2.7986102124e+01    0.3380935    0.1964728  51.39  0.002225507    1.475    0.322
       107 -11.7263    165.5620    214.0375   1.0233864096e+02   7.0331130084e+00    0.2340816    0.2032205  55.66 0.0003755494    1.157    0.136
       108 -10.8958    111.7368    213.7896   1.1261282907e+02   1.6178372171e+01    0.2403805    0.2047043 -76.09 0.0003713786    1.280    0.219
       109 -11.1091     85.2582    214.2309   1.1767745789e+02   2.0116154898e+01    0.3295425    0.2657807  48.74  0.001215697    1.260    0.206
       110 -10.1513     11.2503    215.3530   1.3083802808e+02   2.8806215876e+01     0.212039    0.1078858  49.28 0.0008399496    1.646    0.392
       111 -10.5557     14.0011    212.6882   1.3024647324e+02   2.9030887192e+01    0.2339603    0.1622229  58.22  0.001476192    1.256    0.204
       112 -11.6898      8.2078    211.1832   1.3113135971e+02   2.9867276183e+01    0.3281008    0.1685995 -73.55   0.00130845    1.772    0.436
       113 -10.1316    123.0268    213.6677   1.1043360043e+02   1.4373946511e+01    0.2422868    0.1459331  55.78 0.0005642642    1.498    0.332
       114 -10.2738    117.9887    212.4623   1.1125125185e+02   1.5411188194e+01    0.2329521    0.1334546  49.16 0.0008236211    1.471    0.320
       115 -12.4437    129.2345    207.7420   1.0845267511e+02   1.4389369329e+01    0.4087279      0.28953  22.26  0.002230053    1.932    0.482
       116 -10.5549     36.9077    223.4498   1.2703682388e+02   2.4631097570e+01     0.324279    0.1480391  67.15  0.001914593    1.892    0.471
       117  -9.8960      1.3605    212.7960   1.3232686865e+02   3.0201238865e+01     0.131974   0.07191703 -77.76 0.0002409162    1.602    0.376
       118 -10.0637    144.8314    209.1467   1.0560317892e+02   1.1465040601e+01    0.2870241    0.1651156 -73.12  0.001302062    2.914    0.657
       119  -9.6334     96.7327    209.0663   1.1494602932e+02   1.9380953971e+01    0.1692785    0.1383305  67.82 0.0007020479    1.018    0.018
       120 -10.1076     81.1933    208.4041   1.1785332963e+02   2.1793736192e+01    0.2879676    0.2116117  24.60  0.001730886    2.005    0.501
       121  -9.8531     77.9569    206.0049   1.1822716589e+02   2.2711163983e+01    0.2094688    0.1605934 -82.30  0.001394981    1.254    0.203
       122 -10.5390     60.0298    209.0280   1.2188635314e+02   2.4536091989e+01    0.1949977    0.1526164  49.10 0.0006527089    1.329    0.247
       123 -11.6963     17.4566    207.8017   1.2939481969e+02   2.9606771613e+01    0.2945041    0.1458051  63.36 0.0003812587    1.600    0.375
       124 -10.6425    195.5232    208.6766   9.5847582778e+01   2.5507068053e+00    0.2292215    0.1026935  41.79 0.0007150504    1.911    0.477
       125  -9.6798     89.9371    208.5522   1.1619655382e+02   2.0496710479e+01    0.1822453       0.1044  44.03  0.001018599    1.569    0.363
       126 -11.8834     67.2794    207.3331   1.2038289211e+02   2.3915408002e+01      0.24803    0.1671371  55.88 0.0002020711    1.243    0.195
       127 -10.8147    153.0922    205.7012   1.0348335788e+02   1.0598787235e+01    0.2870296    0.1891694 -37.62   0.00155535    1.902    0.474
       128 -11.2404     99.8526    205.3951   1.1391699253e+02   1.9594174604e+01    0.2805583    0.1773629  51.25 0.0004511737    1.350    0.259
       129 -11.1553     97.1812    200.9973   1.1392181632e+02   2.0848475118e+01     0.316384    0.2384058  54.41  0.001076956    1.150    0.130
       130 -11.2810     53.9374    203.6297   1.2255572437e+02   2.6349173026e+01    0.4600531    0.2895275  39.90  0.002901131    1.679    0.404
       131 -11.3120      3.7999    205.2446   1.3157307658e+02   3.1385554182e+01    0.2926239    0.1484163  48.65   0.00161317    1.703    0.413
       132  -8.9314    209.3099    205.6631   9.2792001065e+01   5.5465428960e-01    0.1169416    0.1015734  74.30 0.0003479411    1.683    0.406
       133 -10.4053    195.8533    204.1209   9.5013423883e+01   3.1605535220e+00     0.186932    0.1637592  44.88 0.0003559672    1.192    0.161
       134 -10.6885    121.5462    200.9993   1.0905815049e+02   1.6917082072e+01    0.3690762    0.2245934 -76.88  0.001474207    2.146    0.534
       135  -9.7915     10.6956    201.8536   1.3022522063e+02   3.1394973098e+01    0.2509939   0.07737157 -82.14 0.0008406073    2.828    0.646
       136 -10.1073     13.9796    197.9471   1.2943019463e+02   3.1839350482e+01    0.2248786    0.1417988  73.11  0.001114168    1.189    0.159
       137 -10.4960    185.8798    201.8712   9.6514763304e+01   5.3021022905e+00    0.2042676    0.1663217  18.25  0.001228516    1.231    0.188
       138  -9.7182    165.4986    201.9882   1.0047536689e+02   8.9926554191e+00     0.170089    0.1325811 -48.70 0.0004478032    1.489    0.329
       139  -9.8165    106.2841    202.0288   1.1223936310e+02   1.9223700926e+01     0.167234    0.1434658  79.86 0.0002301078    1.096    0.088
       140 -11.2118     19.4723    200.3483   1.2860226765e+02   3.0836777782e+01    0.2177592    0.1625005 -74.23  0.001335617    1.422    0.297
       141 -10.6531    240.0761    201.3375   8.6556010427e+01  -4.1094604378e+00    0.1760291    0.1367112  24.10 0.0004479674    1.102    0.093
       142 -10.0118     70.6073    200.1987   1.1905902422e+02   2.4860647949e+01    0.3425262    0.1675318 -50.73  0.001222723    2.776    0.640
       143 -10.4525     89.9331    199.5328   1.1518919184e+02   2.2233702640e+01    0.2488984    0.1757901  46.71 0.0008645031    1.317    0.241
       144 -11.2864      5.5178    200.0098   1.3101860823e+02   3.2225916981e+01     0.166427    0.1170896  63.19 3.083625e-05    1.205    0.170
       145 -10.8185     95.8094    195.2201   1.1349548720e+02   2.2190988104e+01    0.3031098    0.1925381  64.82  0.001499938    1.521    0.343
       146  -9.9913    149.9728    199.1216   1.0308981726e+02   1.2294039560e+01    0.1970373    0.1702352  45.89 0.0003446019    1.029    0.028
       147 -11.2353     55.6261    199.1424   1.2184482527e+02   2.7024030381e+01    0.2290598    0.1359874  52.74  0.001402595    1.450    0.311
       148 -11.0126     36.9143    196.8277   1.2518642472e+02   2.9694190809e+01    0.1937115    0.1545893 -52.79 0.0004969752    1.777    0.437
       149 -10.7951    208.6376    198.7393   9.1688404829e+01   1.6587443307e+00    0.2230932    0.1713229  35.66 0.0008075159    1.150    0.131
       150 -10.2032    223.4509    198.6482   8.8978051268e+01  -9.4200319975e-01    0.3187479    0.1015141  39.61   0.00124392    2.825    0.646
       151  -9.4528    169.4933    198.0229   9.9042099608e+01   8.9228036545e+00    0.1837826    0.1337423 -44.94  0.001026822    1.573    0.364
       152 -10.4269    137.8080    198.2004   1.0538930098e+02   1.4629337968e+01    0.3262518    0.2028491  86.55  0.001449386    2.758    0.637
       153 -10.2314    140.8955    196.7586   1.0454847069e+02   1.4344319401e+01    0.2633734    0.1893256 -75.72   0.00143048    1.746    0.427
       154 -10.7123    108.1766    197.2655   1.1125065704e+02   1.9834431527e+01    0.6143146    0.1753407  51.28   0.00210052    3.781    0.736
       155 -10.0922    108.5201    194.4614   1.1081051319e+02   2.0324344623e+01    0.2484033    0.1243722 -60.23 0.0008228934    2.137    0.532
       156 -10.2080    129.7983    197.2813   1.0687188374e+02   1.6200719331e+01     0.294555   0.09403757  47.29  0.001103487    2.815    0.645
       157 -10.1368     82.8084    195.4738   1.1614681273e+02   2.4087188107e+01    0.2280247    0.1436252 -52.72 0.0009307442    1.907    0.476
       158  -9.2882     62.7256    196.3477   1.2021402742e+02   2.6676784670e+01    0.1259799   0.07379159  73.23   0.00065073    1.629    0.386
       159 -10.7488    217.7076    194.5821   8.9264744580e+01   6.3549935761e-01    0.2190406    0.1837531   7.05 0.0003272328    1.097    0.089
       160  -9.3855    198.3845    194.7804   9.2891708659e+01   4.1083797118e+00    0.1669454    0.1222257 -20.43 0.0004539661    1.533    0.348
       161 -11.1436     44.7920    194.5318   1.2351497627e+02   2.9256559557e+01    0.1949419    0.1495809  84.58 0.0002715545    1.067    0.063
       162  -9.5626     25.3161    194.1978   1.2714547973e+02   3.1457049016e+01    0.2120856   0.07079715 -67.32  0.001063818    2.611    0.617
       163  -9.5771      6.7190    195.3412   1.3056188049e+02   3.3020266976e+01     0.209485    0.1063802  19.29  0.001096212    4.077    0.755
       164 -12.3550    123.0730    193.0586   1.0763106215e+02   1.8160708374e+01    0.3321988    0.2454861  74.80 0.0004788454    1.450    0.310
       165  -9.5881    227.3119    193.3209   8.7298393371e+01  -8.8344282049e-01    0.1348544   0.08893626  10.69 0.0003527115    1.650    0.394
       166  -9.7798    153.6164    192.5323   1.0130345081e+02   1.2800659241e+01    0.2411641    0.1674087 -12.63  0.001140334    2.425    0.588
       167  -9.3167     71.3031    193.6533   1.1824868889e+02   2.6075348491e+01    0.1311615   0.07716992  71.98 0.0007040082    1.690    0.408
       168 -11.9243     52.7831    192.1930   1.2176456050e+02   2.8773957610e+01    0.3325603    0.1696084 -74.58   0.00185914    1.798    0.444
       169 -10.7416    249.7868    190.5162   8.2868346336e+01  -4.3315172572e+00    0.2187376    0.1805303 -13.45 0.0006524216    1.184    0.155
       170  -9.9644    188.3429    191.1298   9.4157078329e+01   6.5471263100e+00    0.1814509      0.16996  -0.49  0.001135909    1.121    0.108
       171 -12.1707     91.7818    189.1930   1.1356947892e+02   2.4018812277e+01     0.258208    0.2155057 -82.72 0.0002886766    1.160    0.138
       172  -9.3824     67.3086    191.2880   1.1879904090e+02   2.7096629891e+01    0.1042374   0.09533348 -43.60 0.0002751748    1.575    0.365
       173 -10.9840    166.3100    189.4036   9.8209721900e+01   1.0987953602e+01    0.2321656    0.2142102  54.19 0.0003549538    1.092    0.084
       174  -9.7905    226.9287    189.1655   8.6578023449e+01  -2.3761025916e-01    0.1777145    0.1672298  21.82 0.0003351994    1.239    0.193
       175  -9.4198     20.8009    194.3618   1.2798365622e+02   3.1880077648e+01     0.119021   0.09820623  44.27 9.326801e-05    1.515    0.340
       176 -10.4814     74.5397    186.6391   1.1682288759e+02   2.7064487341e+01    0.3918097    0.1133176 -65.25  0.001521759    3.410    0.707
       177  -9.8636    205.4536    186.9959   9.0113931970e+01   3.9942128888e+00    0.1851381    0.1302675 -32.66 0.0005212729    1.520    0.342
       178 -10.6035    131.4622    186.2923   1.0486706255e+02   1.7996412050e+01     0.339871    0.2281529 -89.63  0.001527423    2.065    0.516
       179 -11.2694    104.8403    185.0613   1.1029138313e+02   2.2799807085e+01    0.3416243    0.3134512 -51.68  0.001600269    1.327    0.246
       180  -9.4028    220.9957    186.0260   8.7045431676e+01   1.2761643915e+00    0.1609095    0.1351364  21.94  0.000422967    1.042    0.040
       181 -11.2992     59.5767    180.6152   1.1925142903e+02   3.0326515711e+01    0.5848866     0.191575 -53.26  0.002326284    3.716    0.731
       182 -10.7765     55.6597    181.0412   1.2010504350e+02   3.0729853044e+01    0.2777039    0.2094253  64.85  0.001118555    1.154    0.134
       183 -10.4352     48.0814    181.8963   1.2173752036e+02   3.1468748684e+01     0.195793    0.1572668  81.19  0.000487135    1.041    0.039
       184  -9.5271     46.5053    177.4088   1.2162768648e+02   3.2601055822e+01    0.1731655    0.1185698  24.47 0.0008663091    2.109    0.526
       185  -9.3744     43.4826    186.4505   1.2307434061e+02   3.1056646498e+01    0.1628925   0.09309478 -88.81 0.0001354859    1.561    0.359
       186 -10.4972     43.7881    180.9614   1.2251857548e+02   3.2164661762e+01    0.4810256    0.1754655 -78.97  0.001947222    2.823    0.646
       187 -11.1316     32.2010    184.7498   1.2514125354e+02   3.2653930690e+01    0.4005923    0.1394471  43.77 0.0005940695    2.511    0.602
       188 -12.4669     31.9531    176.8289   1.2453918307e+02   3.4330379673e+01    0.3655097    0.2336449 -69.75 0.0006194951    1.440    0.305
       189 -11.0661    245.2933    191.1772   8.3755802421e+01  -3.6717969760e+00    0.2137488     0.145104  25.80 0.0003849344    1.313    0.238
       190  -9.5661    225.5022    183.9639   8.5828166712e+01   7.5855752094e-01    0.1788966    0.1061455  -5.21 0.0003821219    2.309    0.567
       191 -10.3460    177.8030    184.0221   9.4939048120e+01   9.7330784430e+00    0.2165382     0.191291 -71.18 0.0004537911    1.392    0.281
       192 -10.7751     15.9595    183.3592   1.2815265906e+02   3.4559465701e+01    0.2232719     0.182268 -89.82  0.001034401    1.213    0.176
       193 -10.0685     88.2593    182.1420   1.1340795848e+02   2.6006629793e+01    0.2089522    0.1449929 -67.08 0.0006739651    1.426    0.299
       194  -9.9860    213.0175    182.3100   8.7793903091e+01   3.2996808770e+00    0.1879145    0.1512453  31.02  0.000234709    1.119    0.107
       195 -10.7320    131.4158    179.4378   1.0377433336e+02   1.9349423780e+01    0.2636223     0.212535  75.36 0.0001533128    1.301    0.232
       196 -10.9387     96.4341    178.9717   1.1123493047e+02   2.5407004919e+01    0.2272135    0.1733795  51.03 0.0002875859    1.225    0.183
       197  -9.9233      4.4756    179.0363   1.3003657696e+02   3.6461450254e+01    0.1543845    0.1291638  82.42 0.0003863264    1.245    0.197
       198  -9.9242      8.2464    177.6393   1.2923926497e+02   3.6423686366e+01    0.1741048    0.1141503  78.99  0.001227716    1.150    0.130
       199 -10.6800    159.9905    180.8310   9.7988368478e+01   1.3727199487e+01    0.2036649    0.2001543 -47.15 0.0003629785    1.119    0.107
       200 -11.7963    108.9895    176.6317   1.0817468027e+02   2.3848739215e+01    0.2458065    0.2133341  80.49 0.0003334478    1.066    0.062
       201 -10.0204    104.0066    178.0300   1.0946475820e+02   2.4384704040e+01    0.1628032    0.1397241  64.48 0.0003867908    1.046    0.044
       202 -11.1423     92.3908    176.9269   1.1182529988e+02   2.6470739139e+01    0.3843102    0.2406491 -41.12 0.0006985148    2.273    0.560
       203 -10.5595     74.1796    177.2207   1.1578746556e+02   2.9095664294e+01    0.1998702     0.170113  81.04 0.0003711675    1.039    0.037
       204 -12.7264     22.4442    175.8804   1.2636068832e+02   3.5486248547e+01    0.2627446    0.1766901  80.18 0.0004131007    1.168    0.144
       205 -10.7640     17.1648    175.3291   1.2735992727e+02   3.6101420492e+01     0.230267    0.2026818 -49.83  0.001020667    1.644    0.392
       206  -9.1148    140.5071    177.5166   1.0150645541e+02   1.8053815280e+01    0.1387029    0.1265288  55.80 5.894552e-06    1.008    0.008
       207 -10.3750    200.8471    175.4892   8.8760635028e+01   6.6987383033e+00    0.2138023     0.187435 -20.18 0.0002527626    1.174    0.148
       208 -11.2063     79.3884    174.3847   1.1430804520e+02   2.8962325534e+01    0.3122965    0.2152707  42.89 0.0005577124    1.471    0.320
       209  -9.1196     69.6918    175.7417   1.1656930824e+02   3.0031497775e+01    0.1075503   0.09881943 -37.61 0.0002309001    1.522    0.343
       210  -9.8406    156.6277    173.7558   9.7403057109e+01   1.5701265848e+01    0.2532339    0.1548714  36.24 0.0006655218    1.643    0.391
       211 -11.1803     87.4023    171.6697   1.1218805571e+02   2.8359933804e+01    0.3128238    0.2117594  88.78 0.0008537049    1.556    0.357
       212  -9.7157     41.0818    171.4865   1.2217978316e+02   3.4484369294e+01    0.1553213    0.1088269  46.20 0.0003884096    1.470    0.320
       213 -10.0683    166.0981    170.1843   9.4729728030e+01   1.4510255607e+01    0.2063002    0.1804922  24.29 0.0002951634    1.173    0.147
       214  -9.4587    137.2588    170.3703   1.0095595202e+02   2.0084860318e+01    0.1349086    0.1110225 -13.80 0.0006974674    1.647    0.393
       215  -9.6245    121.5955    169.8271   1.0431347142e+02   2.3078622586e+01    0.1877721    0.1292667 -70.96 0.0004443416    1.619    0.382
       216  -9.5347     77.8578    170.0566   1.1407695673e+02   3.0118859394e+01    0.1708884    0.1451079 -58.19  0.001061153    1.335    0.251
       217  -9.5647     44.8238    170.1695   1.2126010934e+02   3.4347126067e+01    0.1454217    0.1272022 -75.81 0.0002496887    1.264    0.209
       218 -10.2818     20.1402    169.9039   1.2635720790e+02   3.6963954119e+01     0.188691    0.1511323  44.48  0.001380078    1.470    0.320
       219 -10.0591      2.2468    168.2282   1.2979607026e+02   3.8864837686e+01     0.320901   0.08496349 -66.08  0.001226052    2.971    0.663
       220  -9.8413    114.0187    168.3266   1.0575159886e+02   2.4733175972e+01    0.1934378    0.1605159  55.47 0.0003284074    1.125    0.111
       221 -10.4236     46.8993    166.7955   1.2046524278e+02   3.4842422050e+01    0.3293135    0.1629327  59.78  0.001685574    2.035    0.509
       222  -9.3780    122.6751    166.6347   1.0352757311e+02   2.3552273477e+01    0.1382965    0.1125076 -11.15 6.551362e-05    1.796    0.443
       223  -9.7833     60.5556    166.2801   1.1742288670e+02   3.3294389501e+01    0.2134919    0.1062217  38.12   0.00106866    2.105    0.525
       224 -12.5803     24.1361    163.6769   1.2501928841e+02   3.7918138462e+01    0.2908667    0.2125978  45.95 0.0004473519    1.482    0.325
       225 -10.8698    126.6855    161.7762   1.0176218942e+02   2.3840412887e+01    0.3041365     0.258855  34.30   0.00168856    1.269    0.212
       226  -9.9999     75.6217    162.2038   1.1351475108e+02   3.2165354125e+01    0.1812569    0.1100248 -58.19 0.0009446989    1.618    0.382
       227 -10.3953     37.3648    165.6796   1.2240051164e+02   3.6146275643e+01    0.2357246    0.1482773  67.07 0.0006575036    1.453    0.312
       228 -10.3525    140.5470    161.0307   9.8502791389e+01   2.1358845503e+01    0.2760124    0.2007192  47.01  0.000510303    1.305    0.234
       229 -10.0817     27.1613    157.8466   1.2384640966e+02   3.8896469327e+01    0.2710541     0.125113 -57.22 0.0002716353    2.170    0.539
       230 -11.3960     37.4270    159.6105   1.2177686345e+02   3.7469581180e+01    0.8439924    0.1876222  47.72  0.003132367    4.237    0.764
       231  -9.4805     66.2040    158.4103   1.1515338593e+02   3.4306567105e+01    0.1766371    0.1066585  53.23 0.0005072907    1.620    0.383
       232  -9.4768     50.7940    156.4553   1.1843298115e+02   3.6676948259e+01    0.1402276    0.1244429  22.87 0.0003571539    1.536    0.349
       233  -9.9733    113.4125    153.9185   1.0339489945e+02   2.7951981416e+01    0.2352029    0.1839702  63.63  0.000988922    1.276    0.217
       234  -9.4650     71.4375    154.4686   1.1339194639e+02   3.4485486393e+01    0.1312421       0.1132 -87.29 0.0001991399    1.029    0.028
       235  -9.7390      4.3092    154.2832   1.2842737169e+02   4.1646537597e+01    0.1536323   0.09919514  74.62 0.0002948218    1.294    0.227
       236  -9.4796    207.2792    151.9729   8.2573552771e+01   9.3500791000e+00    0.1933556    0.1783319  -6.43 0.0002922929    1.045    0.043
       237  -9.7927      9.9627    152.4380   1.2708758210e+02   4.1599116061e+01    0.1467995    0.1062268  41.19  0.001028236    1.600    0.375
       238 -10.4434     85.8721    150.0537   1.0928321335e+02   3.3387822380e+01    0.2012046     0.172531  86.39 0.0003190729    1.063    0.059
       239  -9.5844     38.6432    148.4218   1.2028364843e+02   3.9838705269e+01    0.2333263   0.07143817  47.24 0.0009584633    3.275    0.695
       240  -9.4943    201.9418    143.6512   8.1739351374e+01   1.1923249449e+01    0.2509403    0.1586534 -69.58 0.0009073137    3.264    0.694
       241 -10.3428     16.3925    143.1005   1.2484996674e+02   4.3121963286e+01    0.1858949    0.1638482 -16.34  0.001353812    1.696    0.410
       242  -9.9773      4.8854    142.9884   1.2742789822e+02   4.4047761895e+01    0.1708466    0.1198487 -84.10  0.000409847    1.063    0.060
       243  -9.1877     21.4304    142.4661   1.2363091413e+02   4.2833415988e+01    0.1193846   0.09188156 -82.88 0.0002683606    1.036    0.035
       244 -10.1670    103.9434    139.9117   1.0305068288e+02   3.2751403616e+01    0.2134974    0.1939446 -79.76 0.0003926896    1.030    0.029
       245  -9.8504     35.5913    138.8235   1.1987282138e+02   4.2330689199e+01    0.1925297    0.1028076 -72.98 0.0005815002    1.552    0.356
       246 -10.0365     32.0380    138.1726   1.2065378435e+02   4.2828159033e+01    0.1698894    0.1677288  -2.89 0.0004577914    1.386    0.278
       247 -10.2654     24.6910    139.3545   1.2254314690e+02   4.3243604937e+01    0.2408603    0.1458898  62.08  0.001229024    1.664    0.399
       248 -11.6658     28.4897    132.2811   1.2081921671e+02   4.4505282227e+01    0.2560607    0.2201681 -38.35 0.0002318212    1.503    0.335
       249 -10.0734     24.6797    129.7224   1.2145883188e+02   4.5429544478e+01    0.1737155    0.1317905 -81.74 0.0006694028    1.040    0.038
       250 -10.2983    236.0163    137.5365   7.4061008550e+01   5.8364549859e+00    0.2054458    0.1377879  46.27 0.0006488393    1.562    0.360
       251 -10.3958     95.3337    137.0138   1.0464869270e+02   3.4869409816e+01    0.2593727    0.2262664 -34.06  0.001456233    1.365    0.267
       252 -10.9726     39.4810    133.5104   1.1824114024e+02   4.3154615909e+01    0.2889352    0.1842684 -61.72 0.0007822097    1.377    0.274
       253 -10.8069     37.7211    130.3060   1.1825696071e+02   4.4072740903e+01    0.2497801    0.1805187  72.51 0.0001630521    1.380    0.275
       254 -11.2110      9.7124    131.1925   1.2526413834e+02   4.6299095339e+01    0.2147229    0.1517941 -60.50 0.0001834456    1.369    0.270
       255 -10.3753     49.7532    136.2265   1.1604376344e+02   4.1411398291e+01    0.3509662    0.1660735 -48.87  0.001624934    2.327    0.570
       256 -10.3345     44.0477    131.7154   1.1684514844e+02   4.3088690365e+01    0.2123221    0.1581739  59.28 0.0003959568    1.390    0.281
       257  -9.6134     47.5301    131.4973   1.1592727057e+02   4.2758281778e+01    0.1524339    0.1294707   9.44 0.0006859014    1.631    0.387
       258  -9.5321     68.5486    131.5175   1.1051572698e+02   4.0167345246e+01    0.1351799    0.1173989 -76.14 0.0001560862    1.019    0.019
       259 -10.3492     61.9661    131.0807   1.1214838560e+02   4.1133176216e+01    0.1952941    0.1670387 -75.55 0.0002931707    1.025    0.025
       260 -10.3041     91.9309    126.3315   1.0342159204e+02   3.7895792350e+01     0.233961    0.1839185 -71.87 0.0002635141    1.236    0.191
       261 -10.2906     20.9579    126.4673   1.2200617987e+02   4.6487038006e+01    0.1954955    0.1298639 -75.87 0.0006439171    1.179    0.152
       262  -9.7994     29.9883    125.9933   1.1965832005e+02   4.5809298533e+01    0.1796513    0.1227035 -50.50 0.0003967576    1.535    0.348
       263  -9.3384    128.2323    124.9481   9.3773224134e+01   3.1561634682e+01    0.1918194    0.1237294 -50.63 0.0004055527    1.531    0.347
       264  -9.2586      3.5003    125.4580   1.2620608252e+02   4.8011913997e+01    0.1159085   0.08601841 -75.36 -4.59825e-06    1.093    0.085
       265  -9.1379    134.7459    124.3149   9.2010791797e+01   3.0367359546e+01     0.149065    0.1181641 -82.91 0.0002064607    1.528    0.345
       266  -9.7165     98.3135    124.0678   1.0126780983e+02   3.7354676024e+01     0.198082    0.1697405 -67.88 0.0003305274    1.101    0.092
       267  -9.7322     40.0753    121.9121   1.1646032588e+02   4.5779902057e+01    0.2037944    0.1855885  17.68  0.001376575    1.430    0.301
       268 -10.0756    237.4998    121.4944   7.0057624402e+01   8.0962183644e+00    0.1443506    0.1308508 -14.34 0.0008106701    1.003    0.003
       269  -9.0826    123.2964    121.2693   9.4150126941e+01   3.3366414687e+01    0.1429101    0.1202562  -4.60 0.0002062407    1.518    0.341
       270 -10.4300     58.2741    120.9646   1.1141918275e+02   4.3963254182e+01    0.3332692    0.1606737 -57.96  0.001563306    1.774    0.436
       271  -9.4536     55.2545    118.3646   1.1178855009e+02   4.4937528561e+01    0.1685964    0.1162665  49.63 0.0005502836    1.589    0.371
       272  -9.7263     21.7788    121.0096   1.2113916343e+02   4.7664687679e+01    0.2302775    0.1261392 -64.53 0.0006546121    1.455    0.313
       273 -10.4960     19.9870    118.2264   1.2125833573e+02   4.8445456572e+01    0.2988644    0.1536301  31.98  0.001670735    2.301    0.565
       274 -10.1492     92.7004    118.8817   1.0164861705e+02   3.9497830807e+01    0.2374015     0.213487  57.91 0.0008657802    1.162    0.139
       275 -10.7006      9.4803    118.0694   1.2396109107e+02   4.9261495564e+01    0.2401203    0.1437084 -53.46   0.00147739    1.617    0.382
       276  -9.4290     30.3393    117.2786   1.1838692237e+02   4.7786748114e+01    0.1204313   0.08238516 -44.56 0.0004338362    1.620    0.383
       277 -10.5771      1.5734    116.1121   1.2576874458e+02   5.0216789813e+01    0.2307372    0.1400606  74.48   0.00144147    1.621    0.383
       278 -10.4409      3.6872    107.6126   1.2430545445e+02   5.1989170416e+01    0.2487452    0.1082688 -51.15   0.00132526    2.153    0.536
       279 -10.3957      5.9574    114.8642   1.2451561692e+02   5.0219075349e+01    0.1913278    0.1326203 -81.41 0.0003505068    1.112    0.101
       280 -10.8389      3.1943    111.8707   1.2490814295e+02   5.1065026353e+01     0.229264     0.174263  72.33  0.000932351    1.329    0.247
       281  -9.3637     48.6280    115.8304   1.1317571787e+02   4.6291634248e+01    0.1849612     0.107911 -75.87 0.0005279155    1.644    0.392
       282  -9.4254     35.6174    115.8292   1.1674764450e+02   4.7632714465e+01    0.1728379      0.10118 -80.08  6.82637e-05    1.593    0.372
       283 -10.4877     60.5449    114.0440   1.0953719802e+02   4.5305032911e+01    0.3623845     0.200077 -87.25  0.001508171    2.676    0.626
       284 -11.5060    149.8569    111.1747   8.5046085097e+01   2.9906753905e+01    0.2500649    0.2402469  -8.94 0.0002497071    1.082    0.076
       285  -9.4738     48.1857    111.6369   1.1257437230e+02   4.7320907908e+01    0.1539312     0.127305  10.49 0.0005435101    1.596    0.374
       286 -11.1256     19.6929    110.1447   1.2028405701e+02   5.0316707740e+01    0.2976567    0.1794714 -48.24  0.001502231    1.675    0.403
       287 -10.0122     92.0582    109.9118   9.9807055640e+01   4.1678533859e+01    0.2467388    0.2007339  29.72  0.001109471    1.409    0.290
       288 -10.5626     66.3304    108.5185   1.0680266442e+02   4.5852565669e+01    0.5436543    0.2722909  62.96  0.002005072    3.605    0.723
       289  -9.5074     84.1579    109.0650   1.0183241230e+02   4.3148658004e+01    0.1907259    0.1584793  89.60 0.0003143814    1.311    0.237
       290 -11.1389     38.4237    108.1105   1.1473634776e+02   4.9155045628e+01    0.3869011    0.2216026   4.66  0.001824048    3.123    0.680
       291 -10.6816    123.9224    104.8254   8.9866944360e+01   3.6875485793e+01    0.2406263    0.2092806 -46.54 0.0002976368    1.114    0.102
       292 -10.2426     18.8826    103.0570   1.1951784550e+02   5.1998561706e+01    0.2278687    0.1729389  71.07  0.001311659    1.420    0.296
       293 -10.9427     43.1458    102.4890   1.1237714396e+02   4.9988254406e+01    0.3821017    0.1843541 -62.56 0.0003641463    1.700    0.412
       294 -10.5545     38.8304    100.7306   1.1333109822e+02   5.0827366604e+01    0.2772935    0.2132096  10.52  0.001695429    1.729    0.422
       295  -9.5337     29.4244    103.4658   1.1655504439e+02   5.1057863395e+01    0.1255889   0.09957762 -71.02 0.0001012788    1.018    0.018
       296 -11.1909     50.3747    102.0936   1.1016439164e+02   4.9304096029e+01    0.3852744    0.1431384  43.19  0.001582569    3.115    0.679
       297 -10.0868     71.9432    100.0555   1.0331322709e+02   4.7051229292e+01    0.4104941     0.228882 -26.35  0.001054124    3.224    0.690
       298  -9.3427      9.4821     99.9761   1.2176397057e+02   5.3348084299e+01    0.1597294   0.08220039  83.22 0.0007195615    2.259    0.557
       299 -11.0962    105.9370     98.3749   9.3031881535e+01   4.1840169694e+01    0.2785885    0.2611049 -20.59 0.0006681256    1.129    0.114
       300 -10.2007     16.4585     98.0789   1.1948712611e+02   5.3308860545e+01    0.2173034    0.1642033 -59.84 0.0009846152    1.143    0.125
       301 -10.6439     54.8288     97.0572   1.0779408700e+02   4.9960135089e+01    0.2013502    0.1659257 -86.15 0.0006824174    1.275    0.216
       302 -10.6189     62.9775     96.0982   1.0510297298e+02   4.9175357939e+01    0.1992799    0.1745356 -62.43  0.000326207    1.030    0.029
       303 -10.7778     48.0052     93.4806   1.0912852341e+02   5.1557827793e+01    0.3625055    0.2331755 -34.55  0.001919505    1.789    0.441
       304 -10.7078     37.7753     95.0786   1.1259777376e+02   5.2233347177e+01    0.2306433    0.1831578  11.38  0.001250939    1.628    0.386
       305  -9.4929     23.2945     95.6795   1.1709035551e+02   5.3348062232e+01    0.1205264   0.08299958  80.88 0.0002193324    1.612    0.380
       306  -8.9486    118.3442     94.2562   8.8475016950e+01   4.0311774588e+01    0.1493707    0.1197228   5.15 0.0002849359    1.588    0.370
       307 -10.9957     53.6887     93.1751   1.0730202694e+02   5.0988300746e+01    0.2749299    0.2004473 -27.81  0.001523693    1.638    0.389
       308 -11.4142      7.0620     90.6580   1.2118010102e+02   5.5592794365e+01    0.2623676    0.1694663 -69.79 0.0006392036    1.166    0.142
       309 -10.8408      1.3641     92.8415   1.2316003120e+02   5.5425851996e+01    0.2632436    0.0853801 -72.84 0.0004042358    2.347    0.574
       310 -10.0574      2.6656     87.8503   1.2210272763e+02   5.6467122303e+01    0.1600835    0.1337621 -72.15 0.0009837355    1.118    0.106
       311 -10.3693    104.9003     91.3931   9.1418077097e+01   4.3572202279e+01    0.3116461    0.2614251  86.75  0.001228469    1.454    0.312
       312 -10.7463     28.1628     86.8383   1.1402128942e+02   5.4970991147e+01    0.6054992    0.1626245 -48.52  0.002332129    3.205    0.688
       313 -10.2147     17.8552     91.4816   1.1804693648e+02   5.4707402486e+01    0.1946401    0.1553241  89.28 0.0005479935    1.258    0.205
       314 -11.9770     21.2875     88.1239   1.1642241241e+02   5.5218610191e+01    0.2187831    0.2011868 -85.71 0.0002139799    1.199    0.166
       315  -9.9857     39.0003     91.0373   1.1142778403e+02   5.3043233704e+01    0.2008048     0.125505 -42.34 0.0004670702    1.588    0.370
       316 -10.3304    117.7438     90.4295   8.7550576983e+01   4.1252861643e+01    0.2090086    0.1459692  31.74 0.0009425905    1.630    0.387
       317 -10.4967     88.1064     89.1173   9.5715164025e+01   4.7053059552e+01    0.2252288    0.1901008 -24.97 0.0006096351    1.271    0.213
       318 -10.7809     64.5606     87.2786   1.0251036746e+02   5.0981226197e+01    0.3427947    0.2139819  54.62  0.001667036    2.087    0.521
       319  -9.7656    128.5126     85.9934   8.3356212696e+01   3.9897544321e+01    0.2513417    0.2020343  46.41  0.001217109    1.282    0.220
       320  -9.4214    155.2254     85.0781   7.6469623257e+01   3.3914089029e+01    0.2028818    0.1293184 -35.68 0.0004484481    1.566    0.362
       321  -9.7146      9.5193     85.4679   1.1965041897e+02   5.6607777796e+01    0.1607593    0.1193417  18.38 0.0008727101    1.771    0.435
       322 -12.4373     14.5304     83.6708   1.1778086643e+02   5.6694157480e+01    0.2306078    0.1932912 -74.47 0.0002534043    1.120    0.107
       323 -11.6206     50.8674     83.2791   1.0592868829e+02   5.3564532887e+01    0.4342901    0.2699883  12.36  0.001572366    2.265    0.558
       324 -11.0398     72.9952     80.7511   9.8109000348e+01   5.1262970259e+01    0.5115967    0.1738112 -47.18  0.001888493    2.582    0.613
       325 -10.3629     43.1167     81.5510   1.0806340891e+02   5.4788095555e+01    0.2821464    0.1261606 -47.23  0.000900777    1.938    0.484
       326 -10.6936     20.2270     82.0353   1.1566261465e+02   5.6668110073e+01     0.185013    0.1700457  79.47 0.0003616248    1.266    0.210
       327 -10.0626     88.9821     78.0469   9.2292093120e+01   4.9314718703e+01    0.2175048    0.2015367 -50.97 0.0004225821    1.078    0.072
       328 -10.1595     55.0463     78.0033   1.0323876875e+02   5.4256865937e+01    0.2025562    0.1665805 -49.15 0.0003711591    1.033    0.032
       329 -10.2060     17.1945     74.2344   1.1517645883e+02   5.8617015530e+01    0.2328619    0.1616385 -48.11  0.001303505    1.243    0.195
       330 -10.7391     63.0971     75.3485   9.9843167611e+01   5.3825062190e+01    0.2907659    0.2339622  24.76  0.001697066    1.427    0.299
       331 -10.1087     28.8276     75.3035   1.1144697811e+02   5.7505689644e+01    0.3905429    0.1347115 -54.51  0.001628134    2.130    0.530
       332  -9.7328     26.5353     71.5286   1.1140055606e+02   5.8525976852e+01    0.1673416    0.1239013  16.95 0.0007991057    1.685    0.406
       333 -10.4136     69.4353     74.2983   9.7443434562e+01   5.3181597291e+01    0.2378645    0.2091252 -58.32 0.0008755788    1.146    0.127
       334 -10.7328     80.8237     74.0578   9.3665068323e+01   5.1511275824e+01    0.2077152    0.2001125  11.15 0.0003273588    1.127    0.113
       335  -9.5119    142.6242     73.2590   7.5849424462e+01   3.9170975091e+01    0.2151177     0.147013 -26.32 0.0006498194    1.574    0.365
       336 -10.2737     88.8231     69.8118   8.9803782691e+01   5.1062527992e+01    0.5522117    0.1407229 -41.19  0.001610295    3.970    0.748
       337  -9.5991    125.0363     70.9755   7.9612719405e+01   4.3641810164e+01    0.1744597     0.168125 -17.21            0    1.004    0.004
       338  -8.9888     95.2604     71.6599   8.8389954564e+01   4.9539316779e+01    0.1410704     0.112741 -71.54 0.0002782424    1.587    0.370
       339 -10.5158     42.2323     70.9692   1.0579233329e+02   5.7225437084e+01    0.2269161    0.1697149 -46.30 0.0007572375    1.123    0.109
       340 -11.1677     45.1997     69.0161   1.0424180116e+02   5.7340921949e+01    0.5965636    0.2584338 -29.61  0.002103165    4.184    0.761
       341 -10.0343     37.3865     70.1273   1.0727483298e+02   5.7886407379e+01    0.2908572    0.2029955  81.49  0.001572225    2.119    0.528
       342  -9.8918     79.7026     69.9926   9.2782745156e+01   5.2544329754e+01    0.1942817    0.1618333 -41.81 0.0002969991    1.081    0.075
       343  -9.9007     52.5994     69.6460   1.0182783308e+02   5.6374890908e+01    0.2233276     0.166159  88.60  0.001192822    1.951    0.487
       344  -9.2583    102.2648     69.6584   8.5627852700e+01   4.8628462367e+01    0.1436712    0.1147397 -70.25 0.0002434657    1.598    0.374
       345 -11.1345      1.3070     66.0906   1.1909860208e+02   6.1312162933e+01    0.4434085   0.09881758 -70.72  0.001578859    4.095    0.756
       346 -11.0796      9.4692     62.6905   1.1554484592e+02   6.1616145831e+01    0.2497281    0.2173401 -61.13 0.0008985936    1.151    0.131
       347 -11.2898      1.8300     61.0431   1.1797519438e+02   6.2370895421e+01    0.3478648    0.1313052 -61.94  0.001097496    1.831    0.454
       348 -11.9860      5.7697     58.6024   1.1604455956e+02   6.2693280859e+01    0.5261955    0.2951428 -73.78  0.003095805    1.659    0.397
       349 -10.7192     21.9319     67.2144   1.1205151251e+02   5.9822622740e+01    0.2454415    0.1909772 -80.26  0.001194976    1.375    0.273
       350 -10.8932     21.5762     62.7338   1.1114442704e+02   6.0817570718e+01    0.3181811     0.149131 -62.46  0.001645987    1.752    0.429
       351 -10.8897     23.4250     57.8306   1.0924673780e+02   6.1724441829e+01     0.302702    0.1977424  30.18  0.001136934    1.890    0.471
       352 -10.0177    106.0531     67.1575   8.3685997620e+01   4.8377996444e+01    0.2198412    0.1926355   1.44 0.0004751777    1.200    0.166
       353  -9.7083     75.2598     66.4030   9.3119594555e+01   5.3984298925e+01    0.1671076    0.1335617  46.55 0.0003056178    1.462    0.316
       354 -10.3950     55.5196     66.3691   9.9873723608e+01   5.6724550331e+01    0.2291813    0.1673104  21.77  0.001040859    1.599    0.375
       355 -10.0619    130.5318     67.9037   7.7166749386e+01   4.2985118181e+01    0.2173223    0.2010861  43.39 0.0003225296    1.102    0.093
       356  -9.6182    101.5479     64.2012   8.4038717194e+01   4.9837884401e+01    0.2051377     0.133013 -29.01 0.0008364037    1.597    0.374
       357  -9.1362    202.7101     63.3335   6.0663138612e+01   2.5753211253e+01    0.1590425    0.1120938 -62.22 0.0003929489    1.630    0.387
       358  -9.0739    113.5527     63.4376   8.0276561495e+01   4.7550326398e+01    0.1489117    0.1389236  -9.42 6.958435e-05    1.034    0.033
       359 -10.7217     70.9973     60.0270   9.2500596878e+01   5.5927079393e+01     0.287503    0.2628166  35.29  0.001633174    1.254    0.203
       360 -10.3942     39.1452     60.5919   1.0411013395e+02   5.9764436748e+01    0.2571513    0.2172153  15.31  0.001220391    1.387    0.279
       361 -11.1350     32.3753     59.1715   1.0623384954e+02   6.0701175974e+01    0.2750653    0.1893266  22.40    0.0016816    1.748    0.428
       362  -8.9764    238.3324     58.7279   5.4256769952e+01   1.7706832828e+01    0.1460457    0.1015635 -64.89 0.0003153874    1.593    0.372
       363 -10.8977     53.9573     57.1196   9.7608252612e+01   5.8839583275e+01    0.3485894    0.2480058 -89.94  0.001697395    2.610    0.617
       364 -10.0404    117.0861     56.5623   7.6920713344e+01   4.8042365092e+01    0.2884391     0.214102  20.69   0.00137951    1.547    0.354
       365 -10.7575    225.9020     55.7363   5.5112013599e+01   2.1112752260e+01    0.2477972    0.1942448 -40.53 0.0002951197    1.191    0.160
       366  -9.7571    205.0059     55.9391   5.8198761965e+01   2.6300329244e+01    0.2156145    0.2045768 -55.81  0.000331299    1.017    0.016
       367  -9.8071    110.0344     56.5620   7.8906157420e+01   4.9548407680e+01    0.2152027    0.1445814  48.67 0.0006742518    1.565    0.361
       368 -10.1218     93.8956     54.6036   8.3061665999e+01   5.3106683159e+01    0.3905157    0.2370818  15.06  0.001589794    2.541    0.606
       369 -10.1661    151.0380     53.4928   6.7461014450e+01   4.0548854515e+01    0.2180092    0.2116098   4.38 0.0005595977    1.023    0.022
       370 -10.5507     79.3119     54.3110   8.7707366466e+01   5.5734254332e+01    0.1949097    0.1221323 -47.43  0.000313761    1.570    0.363
       371 -10.3194     32.7674     54.4297   1.0475345646e+02   6.1656877509e+01    0.2237873    0.1466868  -7.09  0.001048528    1.908    0.476
       372 -10.0573     28.9168     53.1785   1.0588201115e+02   6.2254201434e+01    0.1846264     0.150034 -48.23  0.000525645    1.057    0.054
       373 -11.7503     42.0291     51.4645   1.0028372310e+02   6.1351855504e+01    0.4430269    0.1931238 -40.93  0.002078194    1.996    0.499
       374  -9.8773     60.8132     52.1007   9.3434267496e+01   5.8949982678e+01    0.1840735    0.1683371 -45.79  0.001164349    1.192    0.161
       375 -10.6652     19.8689     40.9296   1.0590606800e+02   6.5452252864e+01    0.3214725    0.1677797  14.80   0.00176339    2.373    0.579
       376 -10.3265     16.3407     51.9332   1.1045519453e+02   6.3467726826e+01    0.2085073    0.1378021 -56.97 0.0003966684    1.195    0.163
       377 -10.5670     77.8717    248.0381   1.2195109581e+02   1.5295005126e+01    0.6996692     0.232722 -79.22  0.002627983    6.125    0.837
       378 -11.6913     73.1800    243.9109   1.2241006540e+02   1.6593576230e+01    0.2263991    0.1722921  75.22 0.0004569401    1.133    0.117
       379 -10.8577     65.8020     50.0674   9.0911213191e+01   5.8638763322e+01    0.3261422    0.1986419 -46.63  0.001671495    1.528    0.345
       380  -9.6220    174.1490     50.1881   6.1716095761e+01   3.5143628989e+01     0.203356    0.1737283 -71.68  0.000250805    1.280    0.219
       381  -9.9038    128.8900     49.9055   7.1453586984e+01   4.6501416181e+01    0.2225962    0.1897628  11.56 0.0003015814    1.228    0.186
       382 -10.9203     94.5232     49.0952   8.0860112641e+01   5.3976394413e+01     0.393572    0.2677355 -18.22 0.0009981784    1.603    0.376
       383 -10.2593     22.4239     48.4808   1.0710208295e+02   6.3743132924e+01    0.2491506    0.1501964 -59.62 0.0009297663    1.453    0.312
       384  -9.4482    152.5003     48.4994   6.5475984794e+01   4.0962569331e+01     0.155825    0.1417914  23.97 -0.0002427868    1.120    0.107
       385 -10.2328    114.2652     47.4144   7.4419757101e+01   5.0215291349e+01    0.2554799    0.1874524 -29.76 0.0002405813    1.329    0.247
       386  -9.2713    107.3081     52.3505   7.8192663246e+01   5.0860717855e+01    0.1531104    0.1105555   3.57 0.0003511813    1.712    0.416
       387 -11.0044     17.1483     47.0675   1.0882997556e+02   6.4414581842e+01    0.2603516    0.1756029 -24.79 0.0007687644    1.515    0.340
       388  -9.9638    165.0054     45.9632   6.2097327664e+01   3.8142563489e+01    0.2164625    0.2137382  55.76  0.001191015    1.007    0.007
       389 -10.8436     61.9297     44.8786   9.0442395477e+01   6.0166859421e+01    0.2785732    0.1908555 -37.33 0.0007229341    1.267    0.210
       390  -9.2196    123.4631     45.4885   7.1255505532e+01   4.8464488568e+01    0.1468149    0.1399328   3.54 7.974777e-05    1.019    0.018
       391 -12.0349     70.4168     41.5077   8.6065252715e+01   5.9507325258e+01    0.4806224    0.3470538  -7.92  0.001947918    1.494    0.331
       392 -11.8073     71.0136     37.7637   8.4378882177e+01   6.0058365530e+01    0.2822247    0.2171074 -33.39  0.000227462    1.190    0.159
       393  -9.8142     42.7345     44.2610   9.7612537506e+01   6.2696186983e+01    0.1768232    0.1228626 -27.26 0.0009569796    1.330    0.248
       394 -10.4494     33.3032     44.0656   1.0134192356e+02   6.3698771709e+01    0.1883254     0.171841  23.85  0.000815173    1.363    0.266
       395 -10.4113    141.5119     42.3609   6.5778102798e+01   4.4630776729e+01    0.2482919    0.2342315  24.96  0.000184335    1.028    0.027
       396  -9.6755    151.5171     41.5196   6.3322798134e+01   4.2246708181e+01    0.2601065    0.1493089 -13.28 0.0008341158    2.256    0.557
       397  -9.6915     91.6002     41.1653   7.8768238973e+01   5.5879674939e+01    0.1992525    0.1240888 -23.32 0.0004320295    1.647    0.393
       398 -11.7939    103.5868     39.0070   7.4277921137e+01   5.3834230756e+01    0.2506262    0.2338403 -19.09 0.0003711767    1.098    0.090
       399 -10.5691    116.9638     38.5595   7.0384971375e+01   5.1003322180e+01    0.4647317     0.217411  52.49  0.001333375    2.138    0.532
       400 -10.1881     82.2069     39.1630   8.1047443180e+01   5.7936029608e+01    0.2029734    0.1670641  -8.10 0.0004591147    1.140    0.122
       401  -9.9885     85.9682     37.4457   7.9115239869e+01   5.7537598266e+01    0.2026313    0.1669961 -22.69 0.0003145951    1.111    0.100
       402 -12.5936    194.0505     35.3648   5.3894615367e+01   3.2023748891e+01    0.3330168    0.2840056  71.65 0.0004099542    1.145    0.126
       403  -9.4393     91.2449     37.6035   7.7478349295e+01   5.6522089954e+01    0.1356017    0.1042091 -54.75 0.0006936181    1.677    0.404
       404  -9.3184    156.3363     37.2589   6.0902579739e+01   4.1613050701e+01    0.1545597     0.107741  33.26 0.0003363086    1.577    0.366
       405 -11.1543    142.3762     31.8818   6.1877966586e+01   4.5874955529e+01    0.5998091     0.269677 -25.42  0.002316058    2.359    0.576
       406 -10.3384    131.4615     36.1988   6.5879809411e+01   4.7967504425e+01    0.2959433    0.1935114  57.06 0.0005079291    1.534    0.348
       407 -10.2107    119.5750     34.3038   6.8087261211e+01   5.1027241874e+01    0.2826239    0.2246303 -86.94  0.001412316    1.757    0.431
       408 -11.4175     41.3378     38.2236   9.6018118381e+01   6.3993538662e+01    0.3463132    0.2092989 -26.67 0.0008541513    1.613    0.380
       409 -10.6838     56.2741     34.0531   8.8408222764e+01   6.2887405694e+01    0.4602887    0.2916595 -54.06  0.002049099    2.012    0.503
       410 -10.0841     60.6096     33.2041   8.6387171651e+01   6.2417348447e+01    0.2606455    0.1494152 -32.17 0.0007907045    1.557    0.358
       411 -11.7898    107.5248     29.3392   6.9340222067e+01   5.4408130536e+01    0.4508497    0.2723322 -23.16 0.0004731725    1.672    0.402
       412 -11.0601     76.5785     32.9280   8.0443832061e+01   5.9927323671e+01    0.3251188    0.2339698 -61.65  0.001627309    2.245    0.555
       413  -9.6124     29.2968     34.0453   9.9560374454e+01   6.5991147175e+01    0.1635462    0.1248397 -40.43 0.0003877729    1.089    0.082
       414 -10.0045     87.0106     33.3039   7.7097720543e+01   5.7994599920e+01    0.1904349    0.1687331  22.99 0.0007543026    1.129    0.114
       415 -10.4516     34.0752     30.9430   9.6327841116e+01   6.6095463913e+01    0.3502653    0.1787677 -55.75  0.001013933    2.252    0.556
       416  -9.6930    206.4851     31.4721   5.1054634534e+01   2.9304863422e+01    0.1427482    0.1352712 -80.43 0.0008097797    1.017    0.017
       417  -9.8678     24.0049     30.7200   1.0067247949e+02   6.7077506233e+01     0.194352    0.1371612 -50.23 0.0005887169    1.300    0.231
       418 -10.0017     23.1728     27.1703   9.9722643124e+01   6.7797127063e+01     0.158135    0.1375049 -42.26 0.0002614393    1.260    0.207
       419 -10.2281    163.5246     29.9850   5.7126739370e+01   4.0707100269e+01      0.21403    0.1471298 -24.24 0.0004613385    1.532    0.347
       420 -10.4236    158.9811     29.9560   5.7935870653e+01   4.1890460183e+01    0.2213736     0.208247  37.19  0.000362851    1.052    0.049
       421 -11.7559     76.3108    241.6812   1.2171609985e+02   1.6542981030e+01    0.3145171    0.1797493  72.52 0.0009681204    1.646    0.392
       422 -11.1835    209.5016    246.5511   9.9233031221e+01  -4.6485093498e+00    0.3939859    0.1848776  43.90  0.001868989    1.792    0.442
       423 -10.1907     10.0522     22.4813   1.0411369581e+02   6.9640938089e+01    0.1783877    0.1456971  10.14 0.0006363342    1.454    0.312
       424 -12.6732    204.4774    240.4006   9.9203801178e+01  -3.1449543190e+00    0.3174825    0.2204514  23.16 0.0003203536    1.290    0.225
       425 -10.7254    200.5921    244.8777   1.0051462622e+02  -3.0631670595e+00    0.2257531    0.1680016  40.59 0.0005752674    1.175    0.149
       426 -10.4665     71.5132     28.9403   8.0554807741e+01   6.1405378080e+01    0.2837962    0.1869219  42.30  0.001541603    1.657    0.396
       427 -11.0819     50.0033     28.0208   8.8419168313e+01   6.4748293728e+01    0.3302575    0.2504848  69.66 0.0006549367    2.770    0.639
       428 -10.2456    181.5141     27.4610   5.3371496884e+01   3.6306980779e+01    0.2892328    0.1451246 -26.22  0.001003636    2.086    0.521
       429  -9.8118     75.9880     27.5462   7.8378141257e+01   6.0856542458e+01     0.187149    0.1259595  39.96 0.0005624079    1.541    0.351
       430 -10.5096     38.0942     26.3435   9.2736583455e+01   6.6473737699e+01    0.2609991     0.159692   2.41  0.001044978    1.972    0.493
       431  -9.7812    204.4953     26.5403   4.9917543172e+01   3.0428301892e+01    0.1434496    0.1320251 -77.09 3.990802e-05    1.023    0.023
       432 -10.2047    243.0759     25.0125   4.5270266559e+01   2.1083208965e+01    0.2004171    0.1775109 -59.91 0.0003763899    1.021    0.020
       433 -11.1261    153.6039     23.1730   5.6606324790e+01   4.4102509475e+01    0.2600868    0.2308901  50.00  0.000267414    1.063    0.060
       434 -11.4982    176.0063     22.3292   5.2602361146e+01   3.8362817774e+01    0.4007128    0.2283557  46.30  0.001041872    1.791    0.442
       435 -11.2980    198.0276    240.3039   1.0030627924e+02  -2.1044275124e+00    0.2239129    0.1645069  38.64 0.0002162476    1.120    0.107
       436  -9.9923    132.9125     22.3202   6.0400385154e+01   4.9407663471e+01    0.2465564    0.1915232 -36.25  0.001079384    1.369    0.270
       437 -11.9583    116.9694     22.6105   6.4187125888e+01   5.3163803910e+01     0.245912    0.2201032  -1.84 0.0001917765    1.088    0.081
       438 -10.3827    101.6921     20.9541   6.7513262993e+01   5.6758679953e+01     0.403233    0.1492258 -28.12  0.001264482    2.661    0.624
       439  -9.6744     40.5743     21.5770   8.9613603474e+01   6.6980960182e+01    0.1546796    0.1421881 -41.27 7.432618e-05    1.437    0.304
       440 -10.1299     36.4763     21.3792   9.1332356345e+01   6.7486093440e+01    0.2917161    0.1784537  20.24  0.001008702    1.781    0.438
       441 -10.3041     27.6354     20.9976   9.5187143569e+01   6.8472368375e+01    0.2541316    0.1391223 -19.96  0.001387197    1.957    0.489
       442 -10.1878    141.0018     20.7513   5.8147881438e+01   4.7584931156e+01    0.2049387    0.1765419  57.56 0.0004331896    1.115    0.103
       443 -10.3376     62.2745     23.3896   8.1548920684e+01   6.3729791897e+01    0.3019148    0.1105186  36.68  0.001150134    2.932    0.659
       444 -10.4558     92.8879     19.7183   6.9521881484e+01   5.8744426763e+01    0.3555754      0.22184 -35.34  0.001546828    1.665    0.399
       445  -9.8008     89.4719     19.4663   7.0444670597e+01   5.9460523400e+01    0.2423649    0.1745714  41.25 0.0007381791    1.347    0.258
       446 -10.8626    137.9570    240.5198   1.1092449404e+02   7.5845591692e+00    0.2356079    0.1890137  35.57 0.0005040264    1.265    0.210
       447  -9.8105    214.3127     18.3303   4.6491934955e+01   2.8890896099e+01    0.1399615    0.1031741  35.02 0.0003874559    1.674    0.403
       448 -10.5714     45.5596     17.3681   8.5550827963e+01   6.7017533521e+01    0.2760957    0.2164209  59.10  0.001380124    2.276    0.561
       449 -11.3299    136.0108    245.2914   1.1180590879e+02   7.1855398980e+00    0.2691051    0.1756466  75.03   0.00113865    1.975    0.494
       450 -10.3207    134.2276    240.9609   1.1163395301e+02   8.1096740680e+00    0.2126895    0.1548314 -72.64 0.0009848569    1.723    0.420
       451 -10.3331     80.8632     17.1792   7.2151722707e+01   6.1409133271e+01     0.183571    0.1746563 -12.41 0.0003425557    1.250    0.200
       452 -10.9799     97.0058    245.9579   1.1858725994e+02   1.2965770166e+01    0.2481307    0.1436084 -49.74  0.001505908    2.529    0.605
       453 -10.5989     31.5134     16.9962   9.1637680315e+01   6.8739325102e+01    0.2206981    0.1661364 -18.20 0.0008845025    1.078    0.072
       454 -11.2016    164.6613    244.0063   1.0663938447e+02   2.7997589166e+00    0.2071382    0.1832654  21.59 0.0004238716    1.246    0.198
       455  -9.2782    106.4584    244.4597   1.1683820502e+02   1.1824872417e+01    0.1156014   0.08592547  58.41 0.0001845003    1.032    0.031
       456  -9.5897    112.5083     15.5016   6.2416940075e+01   5.5011544250e+01    0.2338255    0.1277508  54.87 0.0006444413    1.738    0.425
       457 -11.0192    191.6491    240.9823   1.0151231238e+02  -1.1639630614e+00    0.2903542    0.2038289 -43.59  0.001242864    1.852    0.460
       458 -10.9442    179.6534     13.8615   4.9433746987e+01   3.8340959262e+01    0.2517621    0.1803297  58.61 0.0006721619    1.307    0.235
       459 -10.9737    145.9661    242.8389   1.0978143704e+02   5.9666848452e+00    0.1856016    0.1607652  44.51 0.0003874788    1.133    0.117
       460 -11.4350    143.5126    238.5310   1.0970431715e+02   6.9918061515e+00    0.3252528    0.1832629  42.60   0.00105593    1.421    0.296
       461 -10.2665     88.9553     13.7909   6.8086697016e+01   6.0253923948e+01    0.1806522    0.1534452  29.20 0.0003220814    1.107    0.097
       462  -9.3153     50.6476     14.6825   8.2143021595e+01   6.6720170730e+01     0.131027    0.0822506  -1.01 0.0007046966    1.741    0.425
       463 -10.7946     91.7875    242.6071   1.1917796289e+02   1.4248234315e+01    0.2285668    0.1541592  50.87  0.000784471    1.182    0.154
       464 -10.2343     62.1064    243.0287   1.2416693612e+02   1.8179906600e+01    0.1682965     0.116826  65.77 0.0006221639    1.047    0.045
       465  -9.6381    133.0153     12.9982   5.6871455162e+01   5.0409500731e+01     0.170704    0.1576985  33.06 0.0006973713    1.022    0.022
       466  -9.3162    177.8563    238.6532   1.0361167480e+02   1.3764485369e+00    0.1656347   0.08930118  47.66 0.0002813597    1.597    0.374
       467 -10.2690     55.0196    239.8200   1.2510466181e+02   1.9608186014e+01    0.2580969    0.1209006 -88.56 0.0009072913    2.261    0.558
       468 -10.1762    225.9066    240.3037   9.5535603386e+01  -6.4728933326e+00    0.1636431    0.1439772   6.32 0.0002030783    1.260    0.206
       469 -10.1089    129.2594    241.4317   1.1256197022e+02   8.8197877623e+00    0.1726318   0.08605446  50.63 0.0008582147    1.627    0.385
       470 -11.1549    119.4054    240.9731   1.1424364943e+02   1.0418864647e+01    0.3132162    0.1236076  43.11 0.0009642062    2.019    0.505
       471 -11.1013    114.5914    239.4588   1.1493142990e+02   1.1393529718e+01    0.2481578    0.1933051  27.65 0.0007368866    1.645    0.392
       472 -10.7224    246.4602    239.6780   9.2030524633e+01  -9.4608643098e+00    0.2236604    0.1865365  46.37  0.001625402    1.702    0.413
       473 -10.7905     97.4065    235.2433   1.1753384563e+02   1.4648737608e+01     0.199996    0.1192018  68.27 5.130371e-05    1.635    0.388
       474 -11.1295     97.0565    239.0724   1.1795446117e+02   1.4067395160e+01    0.2844994    0.1489679  57.79  0.001671039    1.622    0.383
       475 -11.5318    217.8982    237.3579   9.6444255458e+01  -4.9044205190e+00    0.3033056     0.199076  46.86  0.001900982    1.570    0.363
       476 -10.7776    167.9164    238.5265   1.0535695282e+02   3.0206412241e+00    0.1880603    0.1790796 -67.99 0.0006453688    1.343    0.255
       477  -9.7047     83.9869    238.0185   1.2011414962e+02   1.6101528019e+01    0.1881372    0.1023801  65.75  0.001122407    1.696    0.410
       478 -10.1635    179.7793    242.0964   1.0374006945e+02   6.1044950649e-01    0.2137959    0.1709575  79.83 0.0006982412    1.847    0.458
       479 -10.3354     42.9031    235.8277   1.2681978451e+02   2.1750229625e+01    0.2221984    0.1219816  89.57  0.001205084    1.637    0.389
       480  -9.8451     30.9446    236.2325   1.2875918413e+02   2.3039964321e+01    0.1298954    0.1215592  17.32  0.001079142    1.963    0.490
       481  -9.8038    105.9921    234.9885   1.1599400163e+02   1.3417603310e+01    0.1708086    0.1345747  57.15 0.0003216547    1.044    0.042
       482 -10.1137    102.6739    233.7954   1.1646310407e+02   1.4111732346e+01    0.1881949    0.1350188  64.58 0.0006405715    1.176    0.150
       483 -10.0496    197.3719    233.8280   9.9477043769e+01  -1.1894100766e+00     0.198482    0.1362941  43.79 0.0005596135    1.281    0.219
       484 -10.2186    133.0767    233.6209   1.1099447148e+02   9.4204365468e+00    0.2025257     0.151834  83.39 0.0009021655    1.568    0.362
       485  -9.5687    229.2289    233.7475   9.3955834274e+01  -6.2539878626e+00    0.1978544    0.0724839  32.90 0.0008961529    2.489    0.598
       486  -9.3521    183.3475    233.1548   1.0186759713e+02   1.2086489653e+00    0.1340441     0.114347 -58.28 0.0003382475    1.587    0.370
       487  -9.7156    226.2984     16.6898   4.4813532504e+01   2.6092582692e+01    0.1447984   0.09038713 -61.09 0.0002424856    1.599    0.374
       488  -9.4550    173.3135    233.3479   1.0369255821e+02   2.8481769175e+00    0.1202052   0.08533911  15.59 0.0003918191    1.719    0.418
       489 -11.0233    143.9741    232.1236   1.0883920586e+02   7.8848566245e+00    0.3726971    0.1521665  44.43  0.001498438    1.956    0.489
       490 -10.1730     90.3442    232.7698   1.1854372204e+02   1.6088526885e+01    0.2348774    0.1593818  45.25 0.0009842993    1.333    0.250
       491  -9.7098     34.6635    232.9565   1.2798102742e+02   2.3193819892e+01    0.1397465   0.09848733  77.50 0.0003100891    1.092    0.084
       492 -10.2254     74.7804    231.2815   1.2113386504e+02   1.8515702939e+01    0.2381125    0.1426486 -59.51  0.001176018    2.020    0.505
       493 -11.4251     73.2701    226.2529   1.2097415238e+02   1.9604452008e+01    0.3156354    0.1410773  52.69  0.001043398    1.801    0.445
       494  -9.2710     48.4963    232.0393   1.2565881794e+02   2.1745391558e+01    0.1984951   0.09108027  68.61  0.001140268    1.994    0.499
       495 -10.4832     45.6663    228.1798   1.2587406125e+02   2.2765391311e+01     0.237524    0.1572335 -81.40  0.001091119    1.423    0.297
       496 -10.2948     29.5925    230.9367   1.2868333942e+02   2.4109402971e+01    0.2852294    0.1181368 -78.03  0.001721082    2.203    0.546
       497 -11.4682    152.5594    227.5168   1.0667687069e+02   7.1692178244e+00    0.3160873    0.2574702 -57.35  0.001149198    1.507    0.336
       498  -9.8862     55.6648    228.8274   1.2422980432e+02   2.1433853388e+01    0.1864275    0.1161747  47.75 0.0009426547    1.414    0.293
       499  -9.8893    126.2621    228.1971   1.1159768386e+02   1.1382192730e+01    0.2084105    0.1351735  38.47 0.0006976838    1.446    0.308
       500 -10.5701    111.4419    227.5350   1.1423408709e+02   1.3829234514e+01    0.2939195     0.141882  48.97  0.001576789    1.676    0.403
       501 -10.3438    108.8324    225.1261   1.1444942622e+02   1.4642523671e+01    0.1813322    0.1454054  59.38 0.0003755184    1.015    0.015
