#   1 NUMBER                 Running object number                                     
#   2 MAG_AUTO               Kron-like elliptical aperture magnitude                    [mag]
#   3 X_IMAGE                Object position along x                                    [pixel]
#   4 Y_IMAGE                Object position along y                                    [pixel]
#   5 X_WORLD                Barycenter position along world x axis                     [deg]
#   6 Y_WORLD                Barycenter position along world y axis                     [deg]
#   7 A_WORLD                Profile RMS along major axis (world units)                 [deg]
#   8 B_WORLD                Profile RMS along minor axis (world units)                 [deg]
#   9 THETA_WORLD            Position angle (CCW/world-x)                               [deg]
#  10 FWHM_WORLD             FWHM assuming a gaussian core                              [deg]
#  11 ELONGATION             A_IMAGE/B_IMAGE                                           
#  12 ELLIPTICITY            1 - B_IMAGE/A_IMAGE                                       
         1 -10.0028    100.5307     54.4616   8.5958816648e+01   5.2001332008e+01    0.1444238    0.1340248 -29.38 2.746843e-05    1.019    0.018
         2 -10.6638    160.1777    238.9878   1.0952562866e+02   7.3582705510e+00     0.161638    0.1144734  75.77  0.001077036    2.002    0.501
         3  -9.9066    144.6856    232.3452   1.1134407279e+02   1.0557319849e+01    0.1115378   0.07243853  65.16 0.0007047462    1.714    0.417
         4 -10.7065     84.4622    227.0030   1.2098237233e+02   1.9992062287e+01    0.1443309   0.09653379 -78.12  0.001011764    1.620    0.383
         5 -10.2457     72.5959    226.7808   1.2295380967e+02   2.1566879995e+01    0.1402036   0.08404347  86.60 0.0009575201    1.673    0.402
         6 -10.2343    162.9070    224.8537   1.0740217254e+02   8.7242205177e+00    0.1775264     0.132163  31.96  0.001231673    1.271    0.213
         7 -10.3246    148.5742    222.3618   1.0954457925e+02   1.1314778627e+01    0.1863902    0.1126301 -59.28  0.001148649    2.196    0.545
         8  -9.8967    114.3196    223.3217   1.1555867507e+02   1.6387341232e+01   0.09974893    0.0834273  21.47 0.0007044149    1.670    0.401
         9  -9.5138    126.3010    220.6933   1.1320962064e+02   1.4995191795e+01    0.1138468   0.07265035  65.19  0.000356608    1.596    0.374
        10 -10.1872    143.7256    216.0118   1.0962556725e+02   1.2979182496e+01    0.1556989    0.1376228  56.69  0.001155459    1.126    0.112
        11 -10.1402    112.2826    216.6424   1.1523841054e+02   1.7714461156e+01    0.1158651    0.0722059  69.15 0.0006044969    1.669    0.401
        12 -11.1363    185.9648    214.4464   1.0210642748e+02   6.3510383769e+00    0.1875018    0.1675373 -79.20  0.000873332    1.567    0.362
        13 -11.0475     76.4781    212.5756   1.2118532699e+02   2.3389199659e+01     0.204532   0.09970307 -71.09   0.00121828    2.195    0.544
        14 -11.4918    217.7538    210.3661   9.6206617767e+01   1.6722651659e+00    0.1864314      0.14333 -40.51  0.001275101    1.725    0.420
        15 -10.5784    177.1840    209.8035   1.0295451286e+02   8.3973810366e+00    0.2206104   0.08906496 -50.13  0.001014093    3.502    0.714
        16 -11.2697    116.2851    209.0244   1.1371010972e+02   1.8323187637e+01    0.2825071    0.1867387 -65.10  0.001823572    1.759    0.432
        17 -10.8995    205.9990    207.7657   9.7741604158e+01   3.8822806743e+00    0.1845213    0.1542192 -50.25  0.001277943    1.669    0.401
        18 -11.2538    198.6557    203.8555   9.8375382138e+01   5.5798700918e+00    0.2279672    0.1866469 -52.09   0.00121629    1.667    0.400
        19 -12.0982    186.0213    203.5607   1.0050518897e+02   7.7459207915e+00    0.2999855    0.2206542 -42.90  0.001648713    1.672    0.402
        20 -12.5830    164.6067    200.6265   1.0386491729e+02   1.1787366089e+01    0.5512737    0.3562019 -34.24  0.003240411    2.002    0.500
        21 -11.2026    162.1719    193.0110   1.0318847076e+02   1.3337269469e+01    0.3420664    0.2343963 -52.71  0.001789373    1.770    0.435
        22 -10.1105    130.6763    202.4841   1.1031103264e+02   1.7125024952e+01    0.1874214    0.1106013 -56.54  0.001088033    2.007    0.502
        23 -10.9914    211.8248    201.0388   9.5707274950e+01   3.7224994005e+00    0.1693173    0.1413065 -74.53  0.001080523    2.035    0.509
        24 -10.9555     88.3613    197.7414   1.1766448709e+02   2.4336158286e+01    0.3113745    0.1074119 -72.59  0.001248152    4.257    0.765
        25 -10.6243    148.7139    197.7008   1.0635059275e+02   1.4915588966e+01     0.227535    0.1463988 -80.64  0.001177309    2.566    0.610
        26 -11.6796    123.9445    196.6483   1.1083517387e+02   1.9157750871e+01    0.3526334    0.1653758 -61.77   0.00176824    2.614    0.617
        27 -10.3500    203.1748    197.1971   9.6548115813e+01   5.6553658586e+00    0.1554891    0.1397453  55.92 0.0008205951    1.348    0.258
        28 -10.6333    112.4027    197.2177   1.1307989107e+02   2.0875404146e+01    0.1579875     0.106293 -81.79 0.0008010091    1.724    0.420
        29 -10.1829    193.4713    195.9676   9.8026576781e+01   7.4804182572e+00    0.1648374    0.1210106 -35.61  0.000995993    1.597    0.374
        30 -10.8843    209.4954    194.9586   9.5104695990e+01   4.8587487375e+00     0.165402    0.1177378 -29.38  0.000839339    1.588    0.370
        31 -10.6870    215.5807    193.7821   9.3882174446e+01   3.9686102169e+00    0.1515272    0.1136769 -41.81 0.0009539033    1.696    0.410
        32 -10.7652    186.3204    192.9088   9.8796205582e+01   9.1381987652e+00    0.2157353    0.1116903 -48.23  0.001086902    2.493    0.599
        33 -11.0472    224.6061    191.8074   9.2046351025e+01   2.6812281824e+00    0.1526097    0.1101847 -39.73 0.0007627555    1.739    0.425
        34 -11.2289    205.8017    190.6676   9.5017862009e+01   6.0387001245e+00    0.2270949    0.1664914 -42.15  0.001405505    1.677    0.404
        35 -10.5374    199.6075    190.7352   9.6101356260e+01   7.1091060791e+00    0.2114188     0.118251 -31.26  0.001131636    2.089    0.521
        36 -11.7733    172.4484    190.2986   1.0088402275e+02   1.1948113254e+01    0.2710901    0.2216369 -61.06  0.001732413    1.545    0.353
        37  -9.9758    179.4785    190.0563   9.9566239779e+01   1.0744019415e+01    0.1680481     0.124779 -38.85 0.0009919499    1.576    0.366
        38 -11.3746    138.9047    187.8904   1.0681617898e+02   1.8155018522e+01    0.3869599    0.1774637 -50.45  0.001885252    2.523    0.604
        39 -10.7357    210.5005    188.9878   9.3927241937e+01   5.4381388064e+00    0.1686637    0.1193882 -31.18 0.0008405476    1.585    0.369
        40 -10.6673    226.3065    188.6247   9.1214304771e+01   2.7716323110e+00    0.1080659   0.09776402 -87.31 0.0007029939    1.772    0.436
        41 -10.4148    217.5752    187.2738   9.2431591217e+01   4.4287018943e+00     0.209573    0.1155777 -36.90 0.0009388388    2.067    0.516
        42 -10.4126    192.5644    187.3155   9.6768683053e+01   8.8134299692e+00    0.2122918    0.1218983 -42.99  0.001135207    2.067    0.516
        43 -10.8120    129.2862    186.9501   1.0853917254e+02   1.9930408652e+01    0.3188352     0.169111 -50.49  0.001671728    2.188    0.543
        44 -11.1032    165.2840    185.7225   1.0148674013e+02   1.3909203117e+01    0.3372794    0.2240951 -53.84  0.001894763    1.839    0.456
        45 -10.4942    155.6983    185.4388   1.0324759786e+02   1.5650270207e+01     0.328851    0.1165571 -49.69  0.001360337    3.364    0.703
        46 -11.5173    120.0816    183.4568   1.0986239967e+02   2.2058009266e+01    0.5777401    0.1807648 -60.09  0.002173261    4.156    0.759
        47 -10.9787     94.9981    186.5298   1.1518567557e+02   2.5402059774e+01    0.2514503    0.1374238 -87.88  0.001260209    2.435    0.589
        48 -11.8335    204.0444    183.6616   9.4120896774e+01   7.2693135831e+00    0.3022285    0.1827765 -38.29  0.001526225    1.890    0.471
        49 -12.3753    174.3505    182.1101   9.9210393073e+01   1.2838236490e+01    0.3949623    0.2908365 -38.85  0.002269224    1.566    0.361
        50 -10.8741    224.5181    183.5009   9.0603406769e+01   3.6954783092e+00     0.122915    0.1036174  22.89 4.829346e-05    1.047    0.045
        51 -12.2199    244.0789    181.1610   8.7008405517e+01   6.5602658185e-01    0.2519762     0.162125 -28.59  0.001503105    1.631    0.387
        52 -10.5229    211.3732    181.8327   9.2528586282e+01   6.2085708089e+00     0.168761    0.1126099 -17.11 0.0009511003    1.711    0.416
        53 -12.1426    147.5405    178.8645   1.0379595845e+02   1.8173577973e+01    0.4414866    0.2276517 -46.58  0.002192184    2.231    0.552
        54 -10.5650    183.1758    183.2905   9.7782952959e+01   1.1067729749e+01    0.2608765    0.1736899 -40.63  0.001489642    1.732    0.422
        55 -11.2501    192.1118    176.8668   9.5047195348e+01   1.0376073231e+01    0.2977944    0.1934688 -40.10  0.001652797    1.747    0.428
        56 -10.2153    218.4968    175.5389   9.0167528300e+01   5.7590289067e+00    0.2430421    0.1212404 -33.14  0.001208564    2.159    0.537
        57 -11.5115    183.0260    174.9654   9.6376129147e+01   1.2334789745e+01    0.3244942    0.2219521 -30.48  0.001810707    1.692    0.409
        58 -11.2453     77.2660    175.6996   1.1751381120e+02   2.9983163960e+01    0.3605734    0.1311433  57.72  0.001475399    3.190    0.686
        59 -10.4140    105.2353    174.2387   1.1160895048e+02   2.6137226427e+01    0.1895655   0.09828397 -73.69 0.0008885623    2.450    0.592
        60 -10.3819     12.6720    173.0009   1.3014325993e+02   3.7804333216e+01      0.16469   0.04557297 -59.58 0.0007050532    4.320    0.768
        61 -11.6682    177.3232    170.2559   9.6607077474e+01   1.4126795857e+01    0.3837049    0.2289799 -46.76  0.001970901    1.932    0.482
        62 -10.3286    134.5433    170.2261   1.0502554256e+02   2.1982977788e+01    0.2950623    0.1262793 -49.37  0.001301933    2.597    0.615
        63 -11.5035    205.9565    168.9539   9.1114489573e+01   8.9427904821e+00    0.2900828    0.1869176 -43.99  0.001557288    1.842    0.457
        64 -10.3412    198.5650    169.3457   9.2509926607e+01   1.0268881972e+01    0.2304271    0.1254404 -40.93  0.001136322    2.061    0.515
        65 -12.9566    212.5617    162.7664   8.8761197336e+01   8.5729541095e+00    0.5173484    0.2767361 -28.45  0.002522372    2.039    0.510
        66 -10.5723    167.9917    168.2613   9.8038704089e+01   1.6203100794e+01    0.2845144    0.1826395 -53.24  0.001481058    1.860    0.462
        67 -11.2454    138.0491    177.9637   1.0552186491e+02   1.9995175770e+01    0.3244803    0.1944846 -45.83  0.001728076    1.956    0.489
        68 -11.7224    121.0157    167.6845   1.0741232237e+02   2.4794326747e+01    0.4021529    0.1857995 -57.05  0.001858523    2.363    0.577
        69 -10.8093    185.2278    166.5158   9.4435057253e+01   1.3215409113e+01    0.2341958    0.1855237 -37.67 0.0009843812    1.396    0.284
        70 -11.8185    192.2961    163.8832   9.2624106289e+01   1.2268689571e+01    0.4809659    0.2028324 -36.62  0.002054357    2.625    0.619
        71 -11.8504    138.8421    162.8762   1.0294200796e+02   2.2553933469e+01    0.5312048     0.250435 -54.07  0.002382901    2.382    0.580
        72 -10.5283    159.5165    162.7832   9.8724803205e+01   1.8726197847e+01    0.3123951    0.1332185 -47.73  0.001316567    2.622    0.619
        73 -10.5705    219.6168    163.2381   8.7632222315e+01   7.1868551413e+00    0.1761442    0.1171991 -17.42 0.0009489608    1.622    0.383
        74 -12.3508    205.6062    161.0270   8.9650360512e+01   1.0141839823e+01    0.4841319    0.2993622 -10.24  0.002311145    2.211    0.548
        75 -10.6116     79.4175    163.2161   1.1560791922e+02   3.2167244407e+01    0.1752333    0.1054016 -83.71 0.0009461519    1.739    0.425
        76 -11.1583    177.5779    158.6697   9.4408260492e+01   1.5940480257e+01    0.4353991    0.2241217 -40.49  0.002013246    2.124    0.529
        77 -10.8173    151.4913    159.5607   9.9763892313e+01   2.0810583065e+01    0.2647497    0.1341352 -47.78  0.001209722    2.162    0.537
        78 -10.7742     92.4175    158.8111   1.1221218438e+02   3.1158864466e+01     0.382997     0.120877 -62.35  0.001469683    3.344    0.701
        79 -11.7929    196.4816    156.1878   9.0348957014e+01   1.2630944598e+01    0.3952728    0.2600191 -34.12  0.001527418    1.623    0.384
        80 -10.1370    128.0000    157.9906   1.0439148361e+02   2.5422702525e+01    0.2084067   0.07540938 -52.35 0.0008046972    2.958    0.662
        81 -10.7149    105.0067    156.6198   1.0913846490e+02   2.9619523081e+01      0.34744    0.1762341 -70.77  0.001553163    2.437    0.590
        82 -11.5221    218.2216    156.5270   8.6534829699e+01   8.3709988481e+00    0.2455204    0.1779978 -26.98  0.001389538    1.413    0.292
        83 -11.0870    167.5318    155.6993   9.5809014074e+01   1.8401719585e+01    0.3957943    0.1358574 -41.84  0.001464407    3.211    0.689
        84 -11.6943    204.8831    153.6985   8.8314206973e+01   1.1358813488e+01     0.301363    0.2045919 -25.30   0.00121312    1.576    0.366
        85 -10.3091    157.5413    154.7852   9.7648573849e+01   2.0506172963e+01     0.250212    0.1345975 -40.95  0.001146604    2.079    0.519
        86 -10.8932    118.9033    153.5387   1.0560545013e+02   2.7893464815e+01    0.3684982    0.1746538 -64.95  0.001533922    2.683    0.627
        87 -10.4458     49.4824    154.9804   1.2117235246e+02   3.7711845439e+01    0.1759353   0.08261457  82.07 0.0008102726    2.555    0.609
        88 -10.4460    144.5671    153.7538   1.0014155539e+02   2.3178252015e+01    0.2493252    0.1324634 -44.49  0.001142606    2.075    0.518
        89 -11.0662     81.1352    153.3976   1.1395931480e+02   3.3944176632e+01    0.3105725    0.1378946 -72.35  0.001368446    2.535    0.606
        90 -10.7502    132.8124    151.2996   1.0219671579e+02   2.5838690933e+01    0.4017398    0.1818115 -61.20  0.001573133    2.944    0.660
        91 -10.3124     67.5052    153.0281   1.1696032149e+02   3.5896950977e+01    0.1817087   0.09205743  85.62 0.0008101763    2.583    0.613
        92 -11.9901    249.1237    149.6890   8.0060347716e+01   3.5239137641e+00    0.3928642    0.0671329 -32.52  0.001176306    5.210    0.808
        93 -12.7336    243.3835    148.8464   8.0784292488e+01   4.6744069244e+00    0.3736663    0.1656821 -21.85  0.001613689    2.497    0.600
        94 -10.3630    182.3002    149.5760   9.1694947492e+01   1.6501861816e+01    0.2658658    0.1719302 -34.87  0.001330449    1.672    0.402
        95 -11.6152    200.1293    147.1747   8.7831290360e+01   1.3293776692e+01    0.4535562    0.2054028 -32.73  0.001904655    2.397    0.583
        96 -12.0026    234.1380    146.9126   8.1866221529e+01   6.6535363514e+00    0.2711833    0.1618138 -31.63  0.001167059    1.666    0.400
        97  -9.6259    142.3177    148.6373   9.9665512416e+01   2.4566348867e+01    0.1431176    0.1048556  83.85 0.0005730193    1.769    0.435
        98 -10.4072     38.8214    147.2170   1.2275441636e+02   4.0529699481e+01    0.2157291   0.09017082  67.65 0.0009576408    2.873    0.652
        99 -10.9486    223.7406    145.5028   8.3300641870e+01   8.8482596570e+00    0.2932776    0.1606066 -16.31  0.001305199    2.260    0.558
       100 -11.9228    148.3525    142.4898   9.7179462070e+01   2.4561433633e+01    0.6883582    0.2579094 -50.10  0.002555855    2.938    0.660
       101 -11.4735    106.3226    143.3915   1.0670410881e+02   3.2110990763e+01    0.4950264     0.230123 -66.65  0.002033294    2.641    0.621
       102 -11.0006     54.9236    144.1256   1.1874190776e+02   3.9377878898e+01     0.311505    0.1535236 -82.85   0.00153143    2.104    0.525
       103 -12.1138    190.2268    148.5794   8.9972385525e+01   1.5067889808e+01    0.4081286    0.3092815 -31.83  0.002238688    1.397    0.284
       104 -10.4666    208.5945    143.7921   8.5577429081e+01   1.2104538201e+01    0.1880816    0.1257973 -43.36 0.0009489731    1.670    0.401
       105 -10.5666    165.5511    142.2593   9.3527110345e+01   2.1154718284e+01     0.336389    0.1391178 -40.02  0.001303057    2.635    0.621
       106 -10.7991     87.6002    141.9921   1.1081732301e+02   3.5401200382e+01    0.3920952    0.1086876 -57.11  0.001423596    3.370    0.703
       107 -10.6590    188.2132    156.5175   9.1957187831e+01   1.4203320347e+01    0.2463979    0.1890683 -33.92  0.001255084    1.402    0.286
       108 -10.1603    203.3973    140.7657   8.5864984540e+01   1.3623055304e+01    0.1895709    0.1293034 -20.43 0.0006507619    1.614    0.381
       109 -10.5581    182.1487    140.4982   8.9827298332e+01   1.8050908883e+01     0.264587    0.2009577 -36.51  0.001405178    1.382    0.277
       110 -10.9254    219.6318    136.9597   8.2151754432e+01   1.0887867642e+01    0.3096585    0.1262669 -32.66  0.001245924    2.459    0.593
       111 -11.5226    197.9058    135.4092   8.5701914667e+01   1.5605531897e+01    0.5722108    0.2056107 -35.18  0.002085715    2.914    0.657
       112 -10.4721    171.9927    137.0005   9.1098467317e+01   2.0765417294e+01    0.3284862    0.1753668 -54.14  0.001352911    2.396    0.583
       113 -10.9063     22.8297    137.6592   1.2549769950e+02   4.4136384994e+01    0.2707278    0.1010757  81.50  0.001094709    3.535    0.717
       114 -10.1410    187.6949    134.4646   8.7430370947e+01   1.7907588236e+01    0.2513841    0.1287905 -37.00  0.001075292    2.027    0.507
       115 -11.2449    124.3313    141.4175   1.0225217205e+02   2.9350878166e+01     0.465273    0.2308656 -67.00  0.001799422    2.945    0.660
       116 -12.7590    242.5771    133.5736   7.7628794184e+01   6.8179546541e+00     0.369687    0.2028585  37.14  0.001795152    1.825    0.452
       117 -10.4845    179.4026    132.2096   8.8554204259e+01   2.0047730268e+01     0.327903    0.1801038 -36.77  0.001442481    1.911    0.477
       118 -10.3052    204.5910    129.7825   8.3201695981e+01   1.5092901437e+01    0.2002828    0.1291344 -43.74 0.0009538112    1.682    0.405
       119 -10.4302    192.8851    128.7354   8.5140320972e+01   1.7758211139e+01    0.3304941    0.1896024 -25.72  0.001436357    2.016    0.504
       120 -10.5344    168.4981    127.9808   8.9816909557e+01   2.3121350399e+01    0.3860315    0.1430852 -40.91  0.001379696    2.793    0.642
       121 -10.9412    152.5266    127.2575   9.3053961850e+01   2.6625023526e+01    0.4368428    0.1405682 -46.02  0.001454011    3.227    0.690
       122 -10.6150     72.6069    128.8036   1.1236152809e+02   4.0454160996e+01    0.1905847    0.1119768 -76.95 0.0008244665    1.726    0.421
       123 -11.0534     11.8801    128.0165   1.2723006715e+02   4.7132806983e+01    0.2943165    0.1077486  80.92  0.001253095    3.260    0.693
       124 -10.3818    112.4775    132.4967   1.0329523576e+02   3.3331370932e+01    0.2528469    0.1287708 -65.92  0.001036536    2.411    0.585
       125 -11.5015    131.5640    129.1864   9.8174495692e+01   3.0467603173e+01    0.6231236    0.2182089 -52.98  0.002156648    3.148    0.682
       126 -11.1806     98.2724    126.7319   1.0562558852e+02   3.7005072812e+01    0.4750677    0.2379268 -73.53  0.001834568    2.911    0.657
       127 -10.7513    117.0265    123.7347   1.0045284349e+02   3.4358159726e+01    0.4103826    0.1765435 -58.99  0.001543795    2.681    0.627
       128 -10.8233    179.7619    122.7452   8.6308012679e+01   2.1624745825e+01    0.4213658    0.2356915 -21.88  0.001655044    2.516    0.603
       129 -11.0548     58.6563    123.2039   1.1502269485e+02   4.3533267844e+01    0.3286117     0.145512 -79.17  0.001357512    2.741    0.635
       130 -10.1379    188.4871    122.9580   8.4640086968e+01   1.9680147443e+01    0.2234898    0.1415847 -37.11 0.0009601121    1.602    0.376
       131 -11.3483     42.7514    120.9474   1.1879392743e+02   4.5868852005e+01    0.6057182    0.2149295 -82.86  0.002014396    4.562    0.781
       132 -11.0975     28.8024    123.1973   1.2261937769e+02   4.6751490108e+01     0.214226   0.09304544  68.65 0.0009553146    2.864    0.651
       133 -10.4191    158.4158    120.0109   9.0110108714e+01   2.6764527361e+01    0.4115131    0.1423204 -42.35  0.001398163    2.951    0.661
       134 -11.8423    141.4377    117.1044   9.3216345117e+01   3.0925871802e+01    0.7972268    0.2264353 -49.11  0.002395992    3.837    0.739
       135 -11.4370     83.0550    130.6078   1.1006719328e+02   3.8553206150e+01    0.5093322    0.2004994 -65.58   0.00203363    2.686    0.628
       136 -10.1882    185.7085    114.4734   8.3136174169e+01   2.1750048278e+01    0.2709148    0.1313425 -36.15   0.00107627    2.085    0.520
       137 -11.3242    108.5262    111.6943   9.9954452532e+01   3.8497575870e+01    0.6891971    0.2388499 -56.15  0.002344776    3.130    0.681
       138 -10.2004    193.0000    113.9908   8.1611053955e+01   2.0196729507e+01    0.2448925   0.08252141 -35.77 0.0008067979    2.973    0.664
       139 -11.3652     92.0615    109.2212   1.0369981699e+02   4.1888046978e+01    0.8325353    0.2020586 -53.67  0.002611806    3.767    0.735
       140 -11.1697    121.7712    110.7006   9.6401087635e+01   3.6214648177e+01    0.4203215    0.1661339 -42.79  0.001509186    2.725    0.633
       141 -11.4670     14.0197    109.6848   1.2497129975e+02   5.0992895585e+01    0.3558833     0.156348 -86.26  0.001810871    2.059    0.514
       142  -9.9866    174.3925    109.8097   8.4242806200e+01   2.5125371227e+01    0.2190273    0.1421196 -25.80 0.0009592947    1.760    0.432
       143 -10.4067    172.4574    119.5183   8.7025554329e+01   2.3801145213e+01    0.2669858    0.1419924 -27.61  0.001036452    2.392    0.582
       144 -10.2993     66.3138    110.6511   1.1092380859e+02   4.5389583260e+01    0.1386291   0.09221146  79.75  0.000704671    1.722    0.419
       145  -9.8773    182.7581    108.0125   8.2100897551e+01   2.3541676272e+01    0.2042121     0.124674 -36.40 0.0008929273    1.638    0.390
       146 -11.0614      2.6892    116.3152   1.2850284405e+02   5.0333666073e+01    0.4051224    0.1206519  88.25   0.00152719    4.084    0.755
       147 -11.6840     22.2539    101.8877   1.2181305669e+02   5.2097865944e+01    0.5179967    0.2124585  77.16  0.001970662    4.062    0.754
       148 -10.7201    149.8185    102.0587   8.7565741154e+01   3.2109102703e+01    0.4134204   0.09488034 -47.42  0.001011748    5.230    0.809
       149 -11.6581     44.7617    101.5673   1.1536464770e+02   5.0052767489e+01    0.4419459    0.2184976  78.77  0.001781333    3.325    0.699
       150 -10.3861      6.3306    102.6568   1.2631434589e+02   5.3094209376e+01    0.1213731   0.06791086  71.41 0.0007050922    1.751    0.429
       151 -10.8188    128.4809     99.4548   9.1959622190e+01   3.7218609445e+01    0.4219733    0.1882968 -35.71  0.001480821    2.814    0.645
       152 -10.2252     81.6684     99.3533   1.0439099387e+02   4.5751082396e+01    0.1451579    0.1014779  83.82 0.0007046013    1.781    0.439
       153 -11.2918    107.8779     97.7795   9.6826824439e+01   4.1633816456e+01    0.3782737    0.1936258 -62.97  0.001459389    2.466    0.594
       154 -11.0400     78.3093    111.4206   1.0782472505e+02   4.3534735987e+01    0.4859253     0.229029 -76.67  0.001757471    3.375    0.704
       155 -11.0406     34.6997     86.8754   1.1584158672e+02   5.4424461210e+01    0.7218298   0.08713078 -62.30  0.002209137    4.671    0.786
       156 -11.0015     63.2771     95.5542   1.0886403015e+02   4.9230513648e+01    0.3211655    0.1783069  84.61  0.001281934    3.113    0.679
       157 -10.8567    125.0050     85.4975   8.9038392976e+01   4.0815044662e+01    0.2623967     0.175356  -1.05 0.0009846978    2.904    0.656
       158 -10.8590    104.1439     80.9281   9.3337443650e+01   4.5947419555e+01    0.5205404    0.0955766 -49.58  0.001226582    5.855    0.829
       159 -10.7933     24.3774     80.6054   1.1801535641e+02   5.6752038868e+01    0.2417535   0.09704424 -82.66 0.0009528904    3.234    0.691
       160 -10.4658     82.3094     72.6640   9.7417296855e+01   5.1563854312e+01    0.1407553    0.1070761 -85.98 0.0006887712    1.679    0.405
       161 -10.3532     51.5003     70.0032   1.0674598412e+02   5.6474934901e+01    0.1905462    0.1067331 -81.13 0.0008105832    2.672    0.626
       162 -10.2887     73.3176     59.8544   9.6433041705e+01   5.5713000107e+01    0.2857614    0.1157812 -55.39  0.001088334    2.575    0.612
