#   1 NUMBER                 Running object number                                     
#   2 MAG_AUTO               Kron-like elliptical aperture magnitude                    [mag]
#   3 X_IMAGE                Object position along x                                    [pixel]
#   4 Y_IMAGE                Object position along y                                    [pixel]
#   5 X_WORLD                Barycenter position along world x axis                     [deg]
#   6 Y_WORLD                Barycenter position along world y axis                     [deg]
#   7 A_WORLD                Profile RMS along major axis (world units)                 [deg]
#   8 B_WORLD                Profile RMS along minor axis (world units)                 [deg]
#   9 THETA_WORLD            Position angle (CCW/world-x)                               [deg]
#  10 FWHM_WORLD             FWHM assuming a gaussian core                              [deg]
#  11 ELONGATION             A_IMAGE/B_IMAGE                                           
#  12 ELLIPTICITY            1 - B_IMAGE/A_IMAGE                                       
         1 -13.4234    221.2409     38.5041   6.9609795932e+01   2.5262554927e+01     3.283718    0.4460822 -37.79  0.009206582    4.517    0.779
         2 -15.5612    243.8098     46.1523   6.9017994248e+01   1.8853476939e+01     1.177482    0.6864299 -63.05  0.005553396    1.869    0.465
         3 -18.0864    243.3276     19.2694   6.2534941302e+01   2.2361502221e+01     9.308196     3.920591 -22.60   0.02308898    2.866    0.651
         4  99.0000    155.5711     48.9403   8.2970704915e+01   4.0622890259e+01     6.237795     1.457306  57.13   0.01768423    3.901    0.744
         5 -14.9181    139.5332     34.3452   8.1285829659e+01   4.6737503652e+01     3.932615     2.724563 -18.91   0.01907467    1.571    0.363
         6 -14.2854    121.2968      9.9135   7.5931019984e+01   5.4001418416e+01      3.23996     1.801279  54.58   0.01185476    1.608    0.378
         7 -12.0567     63.8375    155.1233   1.3325484998e+02   3.6087369298e+01    0.4754521    0.3331474  78.60  0.001468939    1.379    0.275
         8 -14.0490    248.3011    245.4824   1.1055619188e+02  -9.7547343557e+00     2.394724     1.773526  41.75   0.01636595    1.562    0.360
         9 -14.4693    249.1944    214.5028   1.0536357908e+02  -6.5367181454e+00     2.427111     1.458267 -34.37   0.01469288    1.842    0.457
        10 -11.5202     57.5824    249.4337   1.4343929816e+02   1.8111842280e+01    0.2631414    0.1610702  46.37  0.001242113    1.424    0.298
        11 -13.0312     18.3177    243.9687   1.4938479626e+02   2.3559611137e+01    0.4513713    0.3493473  26.65  0.003504601    2.190    0.543
        12 -11.9493     30.3126    247.9022   1.4770554797e+02   2.1597643010e+01    0.3457847    0.2592899   4.41  0.002103782    3.948    0.747
        13 -13.7364      7.0310    243.8581   1.5110757614e+02   2.4727667489e+01     1.481304     0.530054  51.81   0.00948822    1.914    0.478
        14  -9.9939    192.0773    144.3105   1.0180087888e+02   1.4514203583e+01    0.2053607    0.1858356  49.50 0.0004273513    1.121    0.108
        15  -8.4121    124.6769    143.7389   1.1655349116e+02   2.8728422528e+01    0.1378925    0.1181115   3.06 0.0004075648    1.554    0.357
        16 -10.4583    222.0434    170.7642   1.0180599046e+02   3.9822318189e+00    0.2769576     0.177926  53.93  0.001171633    1.818    0.450
        17 -11.5283    228.0855    172.4154   1.0106837830e+02   2.6071780582e+00    0.4632294    0.1971697  51.73  0.001867484    2.820    0.645
        18 -12.1822     69.7552    145.4966   1.3041489685e+02   3.7502205636e+01    0.9229313    0.7180277  82.36  0.004005881    1.213    0.176
        19 -10.2413    201.8586    125.8331   9.5571284294e+01   1.5746232705e+01    0.2233171    0.2016211   8.96 0.0004874139    1.161    0.139
        20 -11.9362     50.5089    165.2268   1.3759514288e+02   3.5489413852e+01    0.3456246    0.3063433  55.54 0.0009361096    1.278    0.218
        21 -10.4085    205.3593    122.0887   9.4003121104e+01   1.5635985050e+01    0.2700744    0.2224776  60.78 0.0005743931    1.322    0.244
        22 -11.3097    202.3126    116.2682   9.3135867765e+01   1.7371294465e+01    0.4019395    0.3410325  16.03   0.00206352    1.319    0.242
        23  -9.3576    220.6638    115.5618   8.9671533261e+01   1.3362997959e+01    0.2432524    0.1646873 -52.66 0.0006635764    1.647    0.393
        24 -11.2927    168.3717    114.0312   9.9434586284e+01   2.5665813729e+01     0.389892    0.3340716 -69.90 0.0009414128    1.285    0.222
        25 -10.9578    187.8387    113.9758   9.5357297961e+01   2.1139839935e+01    0.3561568    0.2724952   7.14   0.00162744    1.718    0.418
        26 -10.5050    185.4787    110.9721   9.5058921033e+01   2.2258816208e+01    0.3084167    0.2354757 -68.61 0.0008958991    1.603    0.376
        27 -10.9339    206.0306    110.1187   9.0903689918e+01   1.7617108655e+01    0.3524689    0.2247378  51.16  0.001136255    1.617    0.382
        28 -11.1455    145.6620    101.4643   1.0127900167e+02   3.3461661340e+01    0.3405512    0.2927588 -25.39 0.0009031075    1.261    0.207
        29 -13.2419     57.6378    160.0981   1.3536033778e+02   3.5760415117e+01    0.8542727    0.8068173 -89.90  0.003630151    1.250    0.200
        30 -11.8053    227.5932     91.8296   8.2635570354e+01   1.5758527012e+01    0.7461609    0.3883749 -59.28  0.002537642    2.868    0.651
        31  -9.6351    132.2492     97.3840   1.0346102645e+02   3.7315742981e+01    0.2089398    0.1468678  58.27 0.0005404535    1.545    0.353
        32 -10.9232    221.0323     93.1242   8.3996009443e+01   1.7057205636e+01    0.6459683    0.2962354 -54.39  0.002207471    3.074    0.675
        33 -10.9059    138.5542     90.8413   1.0001290810e+02   3.7256990500e+01    0.3082971    0.2759041 -46.86 0.0006593437    1.094    0.086
        34 -12.3569    151.6287     72.4465   9.1361172931e+01   3.7696563509e+01     0.566875    0.3649573 -49.29  0.002430264    1.631    0.387
        35 -10.1591      2.9320    212.4450   1.5044379666e+02   3.0734524784e+01    0.1752404     0.114341 -76.66 0.0006986143    1.498    0.333
        36  -9.1014    124.0825    206.0769   1.2709445962e+02   1.6044532980e+01    0.1610866    0.1255221  65.27            0    1.186    0.157
        37  -9.8419    188.3412     43.3931   7.5426793876e+01   3.2960659240e+01    0.3333188    0.2540044 -30.59  0.001262221    1.342    0.255
        38  -9.8049    192.7995     40.5080   7.3905794714e+01   3.2202666164e+01    0.3500054    0.3283056 -28.90  0.001974205    1.133    0.118
        39  -9.4326    197.3062     40.3078   7.3199567845e+01   3.1066810076e+01    0.2539379    0.1685724  63.17 0.0006878621    1.475    0.322
        40  -9.6482    191.6184     54.0852   7.8061366573e+01   3.0568103338e+01    0.4143997     0.166979 -48.31  0.001414939    2.775    0.640
        41 -13.2691     23.5500    181.9543   1.4486838136e+02   3.4823543222e+01    0.7809165     0.574272  72.32   0.00412644    1.094    0.086
        42  -8.7040    207.5339     45.4930   7.3246440641e+01   2.7742675824e+01    0.1414604    0.1392486 -89.21 0.0003153675    1.093    0.085
        43  -9.3887    196.7895     55.7027   7.7707619336e+01   2.9000229960e+01    0.2978574    0.1887718 -43.74 0.0008818492    1.527    0.345
