#   1 NUMBER                 Running object number                                     
#   2 MAG_AUTO               Kron-like elliptical aperture magnitude                    [mag]
#   3 X_IMAGE                Object position along x                                    [pixel]
#   4 Y_IMAGE                Object position along y                                    [pixel]
#   5 X_WORLD                Barycenter position along world x axis                     [deg]
#   6 Y_WORLD                Barycenter position along world y axis                     [deg]
#   7 A_WORLD                Profile RMS along major axis (world units)                 [deg]
#   8 B_WORLD                Profile RMS along minor axis (world units)                 [deg]
#   9 THETA_WORLD            Position angle (CCW/world-x)                               [deg]
#  10 FWHM_WORLD             FWHM assuming a gaussian core                              [deg]
#  11 ELONGATION             A_IMAGE/B_IMAGE                                           
#  12 ELLIPTICITY            1 - B_IMAGE/A_IMAGE                                       
         1 -14.6649    166.1731     38.7155   7.7630060861e+01   3.9366826231e+01     1.301264     1.021663  -6.14  0.004198083    1.499    0.333
         2 -13.9815    180.9246      8.6046   6.5984387872e+01   3.9043344078e+01    0.9632835    0.5143481  61.88  0.003841736    1.697    0.411
         3 -13.4592    179.8656      3.5303   6.4579644490e+01   3.9802206443e+01     1.054897    0.3101206  63.93  0.003859825    2.765    0.638
         4 -10.6014     15.4399    237.6627   1.4955028387e+02   2.4943587441e+01    0.1809534   0.07695529  52.67  0.001173302    1.700    0.412
         5 -19.6683     70.2279    178.4109   1.3476971925e+02   3.0036726781e+01     16.69508     6.444705 -68.92   0.07268906    2.555    0.609
         6 -13.2470    176.5106    188.2662   1.1380464882e+02   9.7789668099e+00     0.532223    0.3192153 -59.77  0.002469403    2.339    0.572
         7 -10.2250    139.8844    249.7344   1.2948220891e+02   6.3030972384e+00    0.2005053    0.1324372  75.97  0.001212527    2.004    0.501
         8 -11.3625     40.0425    194.5958   1.4259632790e+02   3.0429897968e+01    0.3504073     0.189529  39.56  0.001080775    1.884    0.469
         9 -10.2578    140.7117    199.6846   1.2285438615e+02   1.4341921132e+01    0.2096732    0.1205946  41.88 0.0004316705    1.563    0.360
        10 -11.8549     23.9829    231.0404   1.4785504000e+02   2.5216059051e+01    0.2860872     0.137458  55.23  0.001788127    1.549    0.354
        11 -10.7145    219.8980    226.3596   1.1225511744e+02  -3.4039496458e+00    0.1854839    0.1550023 -31.24 0.0007951771    1.442    0.307
        12 -10.5028     32.2369    188.4079   1.4363649085e+02   3.2573566639e+01    0.1723138    0.1515159 -86.32 0.0004266564    1.315    0.239
        13 -12.7528     28.2451    183.9931   1.4408589590e+02   3.3917053660e+01    0.2490493    0.1980877  56.70 0.0009107559    1.283    0.221
        14 -11.8830    154.3591    185.8460   1.1784885755e+02   1.4396476466e+01    0.2497197    0.1756553  53.20  0.001000085    1.349    0.259
        15 -11.6260    116.5572    180.0147   1.2489806044e+02   2.2428260141e+01    0.5134323    0.2561484  66.86  0.001902706    3.259    0.693
        16 -13.3584    205.5039    180.4725   1.0676505426e+02   5.5746422440e+00    0.5525421    0.3691333  44.77  0.002014875    1.433    0.302
        17 -13.0935    208.5194    178.4951   1.0581830181e+02   5.3198523633e+00    0.4472808    0.3688249  25.95  0.002056572    1.125    0.111
        18 -10.5236    108.7799    182.6022   1.2696942589e+02   2.3222013475e+01    0.2001898    0.1742878 -68.70  0.001219399    1.211    0.174
        19 -11.8166    196.6872    175.3729   1.0744343833e+02   8.0957964847e+00    0.3871184    0.2863896  83.86 0.0009190204    2.274    0.560
        20 -13.0109    196.4850    171.4207   1.0669915079e+02   8.8017284488e+00    0.5440117    0.4246784 -48.48  0.001380907    1.441    0.306
        21 -10.0641     20.5406    218.8490   1.4777965376e+02   2.7809021004e+01     0.138896   0.07191101  77.94 0.0006280406    1.550    0.355
        22 -12.4727    178.0361    172.0584   1.1047474600e+02   1.2340256329e+01    0.5314617    0.2277152 -51.25  0.002019497    2.891    0.654
        23 -13.4219    138.1881    171.2169   1.1871692890e+02   2.0297195148e+01    0.6514652    0.5146392  76.34  0.003499398    1.389    0.280
        24 -13.2550    145.1084    169.1108   1.1682796958e+02   1.9396432977e+01     0.657475    0.4211605 -84.38  0.002744969    2.599    0.615
        25 -11.6777    126.0977    172.2323   1.2154764803e+02   2.2338900080e+01    0.2638434    0.2017099 -69.67  0.001110651    1.381    0.276
        26 -12.5792    112.8948    169.4916   1.2403261433e+02   2.5276517107e+01    0.4212821    0.3528914  68.88  0.002113686    1.107    0.097
        27 -10.9515     34.7486    168.3934   1.4140038321e+02   3.6576069498e+01    0.2356853    0.1485938  67.81  0.001092191    1.412    0.292
        28 -11.3302     16.7004    217.2330   1.4834753601e+02   2.8505107796e+01    0.1829642    0.1482911 -80.65  0.001469697    1.440    0.306
        29 -11.1557    223.8555    163.8675   1.0006259108e+02   4.7136301988e+00    0.2242327    0.1941774 -40.87 0.0004493111    1.279    0.218
        30 -11.3711    130.3771    161.5708   1.1869947601e+02   2.3777514945e+01    0.2545878    0.1873836  67.20 0.0005277364    1.457    0.314
        31 -10.8053    237.5196    159.4734   9.6765927932e+01   2.8123639661e+00    0.1340128    0.1200211  -2.24 0.0001097588    1.020    0.020
        32 -11.8982    164.4114    156.8429   1.1025149962e+02   1.7970380797e+01    0.2797922    0.2381292  22.87 0.0008689234    1.290    0.225
        33 -10.7935    110.1029    223.0822   1.3189217893e+02   1.5247550194e+01    0.1799977    0.1429924  60.81 0.0003990039    1.020    0.020
        34 -13.9395    134.1673    146.1194   1.1479687293e+02   2.6348572165e+01      1.37326    0.3872297 -55.92  0.003608049    5.104    0.804
        35 -11.3197    151.6726    150.1478   1.1163724448e+02   2.1946867688e+01    0.2440358    0.1953979  60.85 0.0004786248    1.278    0.218
        36 -11.2814    174.3546    149.2032   1.0651576803e+02   1.7377406367e+01    0.3335252    0.1986217  47.34  0.001294105    1.636    0.389
        37 -13.9970    144.0142    144.0598   1.1207751411e+02   2.4796734119e+01    0.9674125    0.5116063 -61.86  0.003696749    2.484    0.597
        38 -10.4172    116.2254    212.0061   1.2941051147e+02   1.6256540362e+01    0.3299423    0.1531557  64.83  0.001310496    3.268    0.694
        39 -12.2777    110.0514    208.6409   1.3020487507e+02   1.7877439140e+01    0.3555297    0.2995568  49.20  0.001956671    1.168    0.144
        40 -13.7583    136.0000    128.4705   1.1047940219e+02   2.9811361198e+01     1.508907    0.2589802 -50.72  0.003078458    7.621    0.869
        41 -12.3491      2.6246    125.7109   1.4484979226e+02   4.8909530290e+01    0.3332358    0.1513443 -70.17  0.001863751    1.654    0.395
        42 -12.7013      4.2494    120.5619   1.4393612656e+02   4.9959785608e+01    0.3347468    0.2990373  -3.72  0.002543944    1.590    0.371
        43 -12.0239     18.2957    129.2023   1.4124971226e+02   4.6957304870e+01    0.2724335    0.1535986 -54.96 0.0009713389    1.726    0.421
        44 -12.1559    160.7909    127.6882   1.0452089237e+02   2.4623773866e+01    0.4593384    0.3218125 -49.85  0.002119638    1.455    0.313
        45 -14.0335     29.6131    118.3000   1.3688282788e+02   4.8494708198e+01    0.4397257    0.4012664 -70.98  0.001719013    1.184    0.155
        46 -11.8725    169.5461    115.2823   9.9501229928e+01   2.5144822633e+01    0.5580844    0.3537832 -71.30  0.002096881    2.555    0.609
        47 -13.4466    135.5928    122.8872   1.0925576902e+02   3.1112838632e+01    0.7012107     0.326418 -55.73  0.002532516    2.460    0.593
        48 -10.6435    150.8567    250.2831   1.2763834769e+02   4.5098866139e+00    0.1653389    0.1203243  49.66 0.0003944756    1.110    0.099
        49 -12.4232      4.3217    112.1920   1.4303461433e+02   5.1844734635e+01    0.3273822    0.2138209  -2.84  0.002032612    2.382    0.580
        50  -9.5192     18.8554    235.7965   1.4892237420e+02   2.4915632594e+01    0.1213803    0.0646743 -71.93 0.0008227324    1.913    0.477
        51 -10.7931    205.6424    110.1067   9.0971382698e+01   1.7708855351e+01    0.2831592    0.2208537  43.99  0.000679396    1.331    0.249
        52 -11.8868    158.7509    204.7039   1.2004455020e+02   1.0238679131e+01    0.3265618    0.1929997  59.89  0.001329868    1.974    0.493
        53 -12.7335    163.3830    203.6717   1.1897881200e+02   9.5816762412e+00    0.3970771    0.2439188 -49.17  0.001471035    1.880    0.468
        54 -12.7675    160.7069    198.3288   1.1864801765e+02   1.0979501645e+01    0.3206777     0.265211 -50.58  0.001237171    1.373    0.272
        55 -12.2803      9.3756    139.1301   1.4443917024e+02   4.5418245524e+01    0.2242237    0.1670124  26.11  0.001000042    1.783    0.439
        56 -11.9976    169.0148    202.5640   1.1770627661e+02   8.7502187361e+00    0.2159465    0.1842032 -79.96 0.0001451865    1.466    0.318
        57 -10.5942    137.1015    198.0334   1.2333547586e+02   1.5284641181e+01    0.3024642    0.1817155  74.14 0.0008993035    2.539    0.606
        58 -14.1093    174.1932    194.0501   1.1527411384e+02   9.2276368827e+00    0.6090696     0.509291  58.95  0.003631155    1.251    0.201
        59 -13.3032    167.4168    191.2567   1.1613327521e+02   1.0971167373e+01    0.4586864    0.3788538  48.38  0.001927049    1.109    0.099
        60 -12.8435    180.4184    192.7034   1.1382440515e+02   8.2955632821e+00    0.3728737    0.2942815 -73.69  0.001057208    1.752    0.429
        61 -10.5656     13.5123     59.9381   1.3160351397e+02   6.2900583856e+01    0.1650068    0.1388681 -51.90 0.0004333341    1.088    0.081
        62 -14.2554    154.5770     53.8998   8.4800261321e+01   4.0107863480e+01     1.141589    0.8447268  45.24  0.001111372    1.371    0.270
        63 -10.1743     13.2909    244.9500   1.5020027491e+02   2.3913504607e+01    0.2307419    0.0928853 -68.41  0.001436684    2.629    0.620
        64 -12.6328    170.1421     30.9825   7.4476710267e+01   3.9347265500e+01    0.3933286    0.3358694  10.61 0.0008651653    1.357    0.263
        65 -10.9554    139.9938     32.1430   8.0403571491e+01   4.6913885691e+01    0.4089144    0.2325375  80.96   0.00160134    2.564    0.610
        66 -10.0239     28.5701    239.0294   1.4752736982e+02   2.3307521964e+01    0.1388583   0.08200632 -84.12  0.000851289    1.522    0.343
