#   1 NUMBER                 Running object number                                     
#   2 MAG_AUTO               Kron-like elliptical aperture magnitude                    [mag]
#   3 X_IMAGE                Object position along x                                    [pixel]
#   4 Y_IMAGE                Object position along y                                    [pixel]
#   5 X_WORLD                Barycenter position along world x axis                     [deg]
#   6 Y_WORLD                Barycenter position along world y axis                     [deg]
#   7 A_WORLD                Profile RMS along major axis (world units)                 [deg]
#   8 B_WORLD                Profile RMS along minor axis (world units)                 [deg]
#   9 THETA_WORLD            Position angle (CCW/world-x)                               [deg]
#  10 FWHM_WORLD             FWHM assuming a gaussian core                              [deg]
#  11 ELONGATION             A_IMAGE/B_IMAGE                                           
#  12 ELLIPTICITY            1 - B_IMAGE/A_IMAGE                                       
         1 -13.1987    173.2433     54.6077   5.7971947341e+01   3.4712167792e+01      1.79397     1.122206  25.02  0.005521191    2.339    0.572
         2 -13.4665    188.0623     40.7797   5.1353895521e+01   3.2902259483e+01     1.083982    0.9985063 -17.74  0.003721923    1.199    0.166
         3 -12.2641    199.3113     21.5975   4.4441377094e+01   3.2449753424e+01     0.731695    0.4553619   9.44   0.00316636    2.733    0.634
         4 -13.9286    212.1111      9.4778   3.9891486089e+01   3.0617647542e+01     1.522541    0.9725085  60.22    0.0081665    1.552    0.356
         5 -10.6883     53.7985      7.1791   7.2336608794e+01   6.7495732019e+01    0.1812873    0.1225809  10.08 0.0007325487    1.353    0.261
         6 -11.2065    244.2950      2.1503   3.5519708760e+01   2.3897689884e+01    0.7542349    0.1798877  77.08  0.002583385    4.447    0.775
         7  -9.5696     64.9304    223.5784   1.1910626783e+02   2.0190247601e+01    0.1767348     0.121669  84.83 0.0006455163    1.343    0.255
         8 -13.1634    247.6066    239.8008   8.6445903426e+01  -1.0598987502e+01     1.649497    0.4788299 -30.04  0.007148339    3.767    0.735
         9  99.0000      8.3674    214.5904   1.2891140252e+02   2.8330977819e+01    0.1027723   0.07906433  84.87  0.000539639    1.168    0.144
        10 -10.7542     58.7486    202.4961   1.1842765388e+02   2.5228529920e+01    0.2801625    0.1912752 -45.81  0.001368101    2.078    0.519
        11 -10.9516    193.1362    195.3007   8.8770645436e+01   4.2288652334e+00     1.105566    0.5746585 -62.59  0.003165162    6.796    0.853
        12 -11.9356     54.6965    211.4537   1.2004990589e+02   2.3899572271e+01    0.3570374    0.1704304  59.18  0.001181687    1.915    0.478
        13 -11.4658     62.0381    194.8928   1.1698855083e+02   2.6413615692e+01    0.3541078    0.2347418 -43.14  0.001484851    2.188    0.543
        14  -9.4365     82.2270    195.0203   1.1265113928e+02   2.3591044502e+01    0.2202091    0.1739779  53.88   0.00100943    1.144    0.126
        15 -10.2019     43.9991    211.7714   1.2216044876e+02   2.5133184296e+01    0.2560524    0.1464888 -81.69  0.001223149    1.603    0.376
        16 -11.8802    149.3560    188.3154   9.6756092162e+01   1.3639274348e+01    0.3927237    0.3265106  64.16  0.001257277    1.299    0.230
        17 -11.5996    133.7397    185.1436   9.9694002433e+01   1.7157867715e+01    0.3325246    0.2692059  -5.00  0.001693512    1.663    0.399
        18 -11.2991    150.5265    179.0383   9.4825021237e+01   1.5262752273e+01    0.4387616    0.2992392 -73.17  0.001268225    2.109    0.526
        19 -12.2844    144.2236    179.2770   9.6291650860e+01   1.6414159966e+01    0.5630924    0.3763587 -57.50  0.001928455    1.681    0.405
        20 -11.5083    140.2393    172.8782   9.6026501634e+01   1.8500219393e+01    0.4202818    0.3072106  71.66  0.001668358    1.721    0.419
        21 -10.4026    188.6389    176.7504   8.6102180142e+01   8.2986599074e+00    0.3923253    0.3618377 -53.62  0.002256485    1.278    0.218
        22 -11.0395     99.2697    180.9302   1.0692953570e+02   2.4025421781e+01      0.27597    0.2688538  35.55  0.000624329    1.206    0.171
        23 -11.3163     39.2880    212.8443   1.2314323291e+02   2.5463655198e+01    0.1738276    0.1396704  60.21 0.0003264296    1.176    0.149
        24  -9.3932     49.3107    172.0597   1.1737449704e+02   3.3065490528e+01      0.18622    0.1730532  44.21 0.0006927989    1.308    0.235
        25  -8.7116    186.3075    170.3324   8.5280265581e+01   9.9322403458e+00     0.150638     0.110503   3.16 0.0007040424    1.667    0.400
        26  -9.5869    240.3161    169.3098   7.4588330458e+01  -7.7312747990e-02    0.1400698   0.09461518   3.58 0.0002920258    1.635    0.388
        27  -9.3175    184.3699    211.8243   9.3459759168e+01   3.0915235381e+00    0.1769863    0.1202309 -25.67 0.0005934167    1.713    0.416
        28  -9.5221      2.5105    161.8757   1.2695141531e+02   3.9854217910e+01    0.1822412    0.1219727  58.97 0.0003515072    1.402    0.287
        29 -10.9980     91.9888    157.3806   1.0496809302e+02   3.0574410672e+01    0.2531262    0.2505211  59.59 0.0003378826    1.152    0.132
        30 -11.2497    133.9441    146.0031   9.2140138901e+01   2.5605414659e+01     1.308877    0.3357111 -54.85  0.003064781    5.902    0.831
        31 -11.9195     97.7537    150.8778   1.0235114521e+02   3.1163398089e+01     0.603592      0.49466 -13.87  0.003107467    1.660    0.398
        32  -9.8999    113.1512    151.1702   9.8455442493e+01   2.8404132518e+01    0.3869506    0.2141535  65.76  0.001398397    2.873    0.652
        33  -9.5614    187.0407    151.0730   8.0960699753e+01   1.3437644619e+01    0.2400371    0.1945332 -84.64  0.001142961    1.760    0.432
        34  -9.4108    174.8447    149.1337   8.3175129326e+01   1.6400279512e+01    0.2314595    0.2142378  84.43 0.0006576463    1.255    0.203
        35 -11.0764    105.8096    131.0752   9.6232008042e+01   3.4464069900e+01     0.495304    0.3298095 -49.93  0.001681216    1.462    0.316
        36 -10.4809    107.3652    145.7119   9.8870681027e+01   3.0721533844e+01    0.2843676    0.2214158  75.79 0.0007349476    1.461    0.315
        37 -11.8714    108.5060    137.8861   9.6968610102e+01   3.2361781858e+01    0.7682576    0.4694627 -49.26  0.003418557    1.616    0.381
        38 -19.1457     19.1045    103.5944   1.1660377198e+02   5.2164580896e+01     16.58077    0.8059843 -68.69   0.02722566   16.084    0.938
        39 -11.8285     96.9253    136.8909   9.9878706135e+01   3.4634025071e+01    0.3141969    0.2963106 -87.10 0.0004550063    1.019    0.019
        40 -10.4407    135.7653    129.7852   8.7986840165e+01   2.8888876558e+01    0.6850176    0.1318426 -49.69  0.001521989    5.917    0.831
        41 -10.4973    115.4095    128.6599   9.3080316080e+01   3.3242415378e+01    0.3218022    0.2653671 -28.06 0.0005769967    1.376    0.273
        42  -8.7005     83.3420    130.2928   1.0230421265e+02   3.8429265143e+01    0.1437367    0.1117018 -23.89 0.0007028171    1.655    0.396
        43  -9.5429    160.8802    128.3118   8.1445781598e+01   2.3760366651e+01    0.2869766    0.2198215 -54.30  0.001325374    1.398    0.285
        44 -10.6447    103.2451    124.3566   9.5439002498e+01   3.6522681147e+01    0.3155524    0.2637508 -18.89 0.0008014185    1.437    0.304
        45 -10.4632    120.5521    122.7149   9.0284759863e+01   3.3618332646e+01    0.4146987    0.2728248 -15.11  0.001568015    2.596    0.615
        46 -10.1861    134.7753    119.9190   8.5813657997e+01   3.1315691796e+01    0.3710393    0.1286497 -48.21   0.00115006    2.923    0.658
        47  -9.5980    110.7236    118.0293   9.1849033530e+01   3.6626528389e+01    0.2446968    0.2171495  41.28 0.0007002877    1.165    0.141
        48  -9.9857    231.3122    113.7597   6.3639933597e+01   1.0817299650e+01    0.2592474    0.2476179 -13.16 0.0007724306    1.058    0.055
        49  -9.6221    167.3683    112.3424   7.5841357802e+01   2.5607978995e+01    0.3284786    0.2614895 -76.88  0.001172454    1.611    0.379
        50 -10.4170    134.7327    105.8963   8.2132819682e+01   3.4428355805e+01    0.8198782    0.1354459 -45.87  0.001739951    6.222    0.839
        51 -11.4458    118.7880    110.4496   8.7678367853e+01   3.6788049057e+01    0.6404237    0.4347976  66.09  0.002544771    1.978    0.494
        52  -9.6499    205.4506    110.2138   6.7344869389e+01   1.7143358076e+01    0.3274375    0.2169273  41.29  0.001036387    1.604    0.377
        53  -9.4168     51.5075     90.5556   1.0354582002e+02   5.2272153120e+01    0.2487901     0.135344  28.52 0.0008902094    2.108    0.526
        54  -9.3682    182.8021     82.8677   6.4402934685e+01   2.7558587854e+01    0.2430164    0.2185441   6.54  0.001231213    1.232    0.188
        55  -8.8476    153.5429     82.4723   7.0636243631e+01   3.4862157999e+01    0.1581912    0.1520808   8.92 9.324995e-05    1.057    0.054
        56 -18.0827     33.8237    239.8925   1.2587946557e+02   2.0935476342e+01     6.509241     5.751872  51.63   0.04857987    1.462    0.316
        57 -10.2418     71.8862    244.3022   1.1953278373e+02   1.5455967416e+01    0.1870697    0.1352383  89.47 0.0009948268    1.358    0.264
        58 -12.6995    193.1155     34.6850   4.8871192804e+01   3.2418222328e+01    0.5727474    0.5363558 -58.54  0.001375724    1.070    0.066
        59 -11.3341     67.2100    206.0095   1.1703129061e+02   2.3389685369e+01    0.2091816    0.2036244   2.83 0.0003091555    1.463    0.317
        60  -9.1477     72.2746    202.9339   1.1566784395e+02   2.3337493284e+01     0.278113    0.1669253  68.28   0.00137928    1.652    0.395
        61 -10.6727     58.8636    229.6949   1.2074961233e+02   1.9812741531e+01    0.1826424    0.1316944  81.68 0.0003676111    1.215    0.177
        62 -10.3680     75.5470    247.6990   1.1915012384e+02   1.4374996495e+01    0.3125398   0.09914442 -60.26  0.001478829    3.533    0.717
