#   1 NUMBER                 Running object number                                     
#   2 MAG_AUTO               Kron-like elliptical aperture magnitude                    [mag]
#   3 X_IMAGE                Object position along x                                    [pixel]
#   4 Y_IMAGE                Object position along y                                    [pixel]
#   5 X_WORLD                Barycenter position along world x axis                     [deg]
#   6 Y_WORLD                Barycenter position along world y axis                     [deg]
#   7 A_WORLD                Profile RMS along major axis (world units)                 [deg]
#   8 B_WORLD                Profile RMS along minor axis (world units)                 [deg]
#   9 THETA_WORLD            Position angle (CCW/world-x)                               [deg]
#  10 FWHM_WORLD             FWHM assuming a gaussian core                              [deg]
#  11 ELONGATION             A_IMAGE/B_IMAGE                                           
#  12 ELLIPTICITY            1 - B_IMAGE/A_IMAGE                                       
         1 -11.6389    121.3894     37.2700   5.9785125042e+01   4.9952587534e+01    0.4064373    0.3640231 -45.77  0.001309242    1.226    0.184
         2 -11.3705     75.6455     20.2139   6.5837067429e+01   6.1793766592e+01    0.4538889     0.271752 -13.03  0.002019105    1.776    0.437
         3 -11.2621      2.1515     21.9109   9.9183421643e+01   7.0924442994e+01    0.2702318    0.1525798 -48.40  0.000575496    1.435    0.303
         4 -11.3673    234.7508     15.1029   3.6801485106e+01   2.5298643803e+01    0.2281929    0.1878845 -63.31 0.0002313525    1.032    0.031
         5 -10.8334     13.6096     15.5652   9.0402795739e+01   7.1135723818e+01    0.3186028    0.2281898 -45.35  0.001630203    1.504    0.335
         6 -11.4626     66.4337     13.6540   6.5985713091e+01   6.4252161695e+01    0.3713312    0.2511658  53.53  0.001376658    1.750    0.429
         7 -10.8291     42.4953     14.7668   7.5951318732e+01   6.7946640433e+01    0.2640114    0.2074928  10.75  0.001012712    1.126    0.112
         8 -11.6085     34.5174     12.6528   7.8514904891e+01   6.9303116920e+01    0.2694935    0.2358858 -23.17  0.001020441    1.378    0.274
         9 -11.5431     30.4734      7.2804   7.7689944619e+01   7.0527349693e+01    0.3878684    0.2913972  16.23   0.00270072    1.235    0.190
        10 -10.6755    134.9958     11.5823   4.7807389422e+01   4.9645815221e+01    0.2241689    0.1985112  -6.59 0.0002984009    1.235    0.190
        11  -9.7845     99.7218     11.6244   5.5210279789e+01   5.7813862558e+01    0.2215393    0.1617386  61.64  0.001249656    1.413    0.292
        12 -11.0889    126.0431     10.9857   4.9234537255e+01   5.1849747586e+01    0.2160199    0.1729415  46.89 -0.002661949    1.127    0.113
        13  -9.9220      3.7521     10.7579   9.3598917242e+01   7.2690084668e+01     0.127102    0.1070788 -22.36 0.0003032932    1.257    0.204
        14  -9.9326     93.0042      9.9921   5.6242572863e+01   5.9416895787e+01    0.2097514    0.1298846  26.63 0.0003310626    1.629    0.386
        15 -11.8778     57.1519      4.2551   6.4757318042e+01   6.6886354930e+01    0.5952688    0.3053108 -25.35  0.001866514    1.894    0.472
        16 -10.5495     22.3910      9.6271   8.2933326739e+01   7.1161981258e+01    0.2917459    0.1660488   6.04  0.001691925    1.891    0.471
        17 -10.6750     37.5263      6.8864   7.4180255528e+01   6.9643417640e+01    0.3191811     0.171533 -36.82  0.001223383    1.969    0.492
        18 -10.0645    193.3130      8.7053   3.9043664794e+01   3.5603145154e+01    0.1368401   0.08676451 -66.18 0.0001828093    1.597    0.374
        19 -10.1701     85.9589     12.0284   5.9049219549e+01   6.0683204494e+01    0.2135588    0.1824536  49.47 0.0004745536    1.229    0.186
        20 -10.9922    218.1857      6.8236   3.6262878595e+01   2.9930065718e+01    0.1619194    0.1461755  54.42 0.0007087656    1.336    0.251
        21 -11.0268    211.4990      6.2581   3.6699208346e+01   3.1533964138e+01    0.2631529    0.1907975  31.15  0.001293682    1.960    0.490
        22 -11.2682     71.4751      5.9993   6.0689174241e+01   6.4129401670e+01    0.4154547    0.2880028  31.69  0.002510101    1.252    0.201
        23  -9.9951     65.0961      6.9423   6.3255024770e+01   6.5216289966e+01    0.1988977    0.1618903  45.42  0.000636861    1.346    0.257
        24 -10.7819    151.2691      6.0076   4.3374478593e+01   4.6177249976e+01    0.1728365    0.1683972 -76.89 0.0002450472    1.104    0.094
        25  -9.3966      2.2500      6.6008   9.2498894200e+01   7.3450765170e+01    0.1486323   0.08605651  -0.70 0.0009544402    1.705    0.414
        26  -9.4969     15.4202      8.7757   8.6172354513e+01   7.2002092231e+01    0.1491221   0.08290736 -27.85 0.0002926756    1.462    0.316
        27  -8.9856      7.6679      5.2850   8.8710373549e+01   7.3218200990e+01   0.09007575   0.08524863  -9.34 0.0007011172    1.617    0.382
        28 -11.0657     89.9051     14.6510   5.9065342185e+01   5.9600579890e+01    0.3698029    0.1864546 -36.56  0.001758418    2.206    0.547
        29  -9.1670    107.7134      4.7269   5.0580016876e+01   5.6657820753e+01    0.1324369   0.08410651  34.36 0.0006916861    1.507    0.337
        30 -10.8233    101.8758      2.1149   5.0811312197e+01   5.8179330113e+01     0.361008    0.2269675  60.56  0.001082263    1.483    0.325
        31  -9.9790    176.0582      2.7173   3.9265240494e+01   4.0373881409e+01    0.1860576     0.150709  73.82 0.0003916901    1.105    0.095
        32 -10.2445    130.0173      3.0184   4.5680666277e+01   5.1594710346e+01    0.2012987    0.1794172  60.56 0.0004839637    1.032    0.031
        33  -9.4475    112.9870      3.3301   4.8937898124e+01   5.5570242955e+01    0.2085256    0.1041135 -89.93  0.000318733    4.422    0.774
        34 -11.2099     80.3184      1.6291   5.6004962418e+01   6.2793655414e+01    0.3070411      0.13646  49.34 0.0009777013    1.904    0.475
        35 -10.6483     20.4646      1.9838   7.9898172189e+01   7.2402201227e+01     0.198262    0.1434696  13.27 0.0005984622    1.257    0.205
        36 -10.2812     11.3986      1.7605   8.4732299365e+01   7.3379381427e+01     0.164207    0.1305768  13.54 0.0004724629    1.384    0.277
        37  -8.5861      1.3146      2.6541   9.1088256221e+01   7.4116727194e+01    0.0899066   0.08428353 -41.14 0.0007047513    1.716    0.417
        38  -9.6872    193.0239      2.0000   3.7321991695e+01   3.6324738086e+01    0.2140034      0.06577  72.90 0.0008024098    2.942    0.660
        39 -10.3354    153.8069      1.3474   4.1560969441e+01   4.5953365156e+01    0.2172108    0.1125195  72.77 0.0003170619    1.767    0.434
        40 -10.6714     15.6104    150.7156   1.1977123497e+02   4.1448585594e+01    0.1925413    0.1701051  43.14 0.0008204603    1.367    0.268
        41 -12.6424     14.3368    239.0276   1.2628363180e+02   2.2673055591e+01    0.4147243     0.168256  56.41  0.001814041    1.891    0.471
        42 -12.1572      4.0616    232.6163   1.2769413801e+02   2.4885765671e+01     0.276233    0.1802609  65.21   0.00206131    1.131    0.116
        43 -13.1395      9.8291    227.5669   1.2647003445e+02   2.5294846440e+01    0.6150199    0.3492227  76.80  0.001920042    1.373    0.272
        44 -12.2361      9.0304    245.2050   1.2744954334e+02   2.2073756060e+01    0.4161339    0.2330285  36.66  0.002843201    1.924    0.480
        45 -12.3623      4.8789    240.6983   1.2792196597e+02   2.3302393789e+01    0.5276191    0.2461295  50.72  0.003479147    1.648    0.393
        46 -10.2809    212.8555    133.9643   6.8523656358e+01   1.1621973454e+01    0.3099629    0.2184787  59.18 0.0009700611    1.727    0.421
        47 -10.4341      2.6479    133.3178   1.2129028724e+02   4.6520775363e+01    0.2971069    0.1606992  62.88  0.001621288    2.005    0.501
        48  -9.2270     96.3020    133.7029   9.5605201307e+01   3.5526669198e+01    0.1493992    0.1142927  80.92   0.00030017    1.579    0.367
        49 -10.9159     11.9949    129.7897   1.1844962145e+02   4.6710062722e+01    0.2190161    0.1671665  88.71 0.0008209026    1.168    0.144
        50  -9.2784     28.6764    128.2747   1.1367067032e+02   4.5711623792e+01    0.1281462   0.08809421  71.80 0.0002333451    1.580    0.367
        51  -9.0423    233.6826    127.6964   6.3451147549e+01   8.5710515519e+00    0.1416089    0.1059455   0.85  0.000463214    1.624    0.384
        52 -10.3464      1.8793    123.0123   1.2042638316e+02   4.8999616905e+01    0.2488506    0.1413563 -82.55 0.0007965832    1.455    0.313
        53 -12.0516      8.6185    121.0582   1.1834304347e+02   4.9030405101e+01    0.3429954    0.2986275 -61.09  0.001440302    1.189    0.159
        54 -11.2954     24.0448    121.4885   1.1401657338e+02   4.7763055181e+01    0.3509586    0.2198648  69.40  0.001603294    1.864    0.464
        55 -10.6456     65.6896    110.7435   9.9488281815e+01   4.5832916270e+01    0.3009773    0.2346758 -86.72 0.0009940714    1.472    0.321
        56  -9.4951     44.4353    110.5055   1.0604160736e+02   4.8486567365e+01    0.1376745     0.114964 -58.84 2.698192e-05    1.033    0.032
        57 -10.4699     22.8034    110.1610   1.1266825614e+02   5.0599006750e+01    0.1788509    0.1249986 -50.25 0.0003434402    1.309    0.236
        58 -11.7529      3.1217    109.0933   1.1843973576e+02   5.2209465752e+01      0.32302    0.2251614  -1.29  0.001488893    1.964    0.491
        59  -9.8285     35.5312    109.0678   1.0854698546e+02   4.9741896386e+01    0.2056242    0.1131186 -66.05 0.0004530674    1.547    0.354
        60 -10.9297     57.7235    107.5968   1.0127729093e+02   4.7638869865e+01    0.2639339    0.2183843 -30.78 0.0006827554    1.299    0.230
        61  -9.6650     26.6304    106.2741   1.1083780477e+02   5.1217564615e+01    0.3033722    0.1256826  13.50  0.001230565    3.748    0.733
        62  -9.4792     89.2365    104.9639   9.0873990695e+01   4.3598527070e+01     0.204314    0.1181144 -51.90 0.0008772767    1.611    0.379
        63 -10.1919    186.9357    103.0163   6.5763142246e+01   2.3114964152e+01    0.2304221    0.2199501 -47.91 0.0005528485    1.024    0.024
        64 -10.9234     19.9356     99.6258   1.1182247203e+02   5.3337124698e+01    0.2347403    0.1383955 -56.43 0.0006774632    1.353    0.261
        65 -11.6748     10.2224     91.7664   1.1366754758e+02   5.5848814023e+01    0.5316382    0.2088512 -75.56 0.0004450948    2.551    0.608
        66 -11.1928     11.3115     85.9969   1.1228705464e+02   5.7116644712e+01    0.4319872    0.2830614 -59.95  0.002622746    1.177    0.150
        67 -10.1251     29.2857     92.4134   1.0736411617e+02   5.4283635649e+01    0.2497421     0.184805  44.22  0.001036956    1.636    0.389
        68 -11.1530     24.2042     88.3637   1.0827995090e+02   5.5652360020e+01    0.3454587    0.2169974 -60.80 0.0004731056    1.286    0.222
        69 -12.3768     20.9721     92.7582   1.1024370908e+02   5.4877789383e+01    0.3546977    0.2719223 -35.15 0.0004269342    1.344    0.256
        70 -10.9096     19.1744     86.9816   1.0974785483e+02   5.6356748702e+01    0.3470037    0.1794863 -63.52  0.001050688    1.553    0.356
        71 -10.3776      3.7543     94.8672   1.1628028842e+02   5.5505707769e+01    0.2234825    0.1682974 -86.41   0.00145285    1.283    0.221
        72 -11.8460    125.1937     93.3092   7.7293327007e+01   3.9222560540e+01    0.2693737     0.260791 -39.09 0.0002212363    1.018    0.018
        73  -9.9731     78.8959     93.9496   9.1165901401e+01   4.7845523360e+01    0.2164153     0.179581 -22.31 0.0003724826    1.282    0.220
        74  -9.2147    113.2643     92.0055   8.0199880182e+01   4.2004835587e+01    0.1916335    0.1292794 -43.43  0.000192299    1.421    0.296
        75 -11.4957     58.0797     91.5359   9.7373774812e+01   5.1396150831e+01    0.2960045     0.241368  -5.73 0.0008142406    1.420    0.296
        76 -10.3680     44.4761     91.5605   1.0199710837e+02   5.3002539645e+01    0.3119299    0.1566515 -48.94 0.0008072309    1.683    0.406
        77  -9.3401    124.4679     86.4911   7.5459434159e+01   4.0793050336e+01    0.1538407    0.1480116 -23.67 0.0002182066    1.010    0.010
        78 -11.8007     55.5872     85.7137   9.6715697045e+01   5.3049723341e+01    0.2829247    0.2398335  13.69 0.0004952908    1.328    0.247
        79  -9.2196    145.7901     83.3866   6.9129126289e+01   3.6573163649e+01    0.1569822    0.1135059 -59.28 0.0006821902    1.603    0.376
        80  -9.5742     76.8023     82.7906   8.8681692391e+01   5.0674128365e+01    0.1784505    0.1647689 -75.96 0.0003594467    1.250    0.200
        81 -10.6588      3.3349     82.0975   1.1436619273e+02   5.8467215600e+01    0.2842079    0.1948041  86.98  0.001727424    1.641    0.391
        82  -9.8317    250.2457     80.9728   5.0262424583e+01   1.2970406015e+01    0.1816152    0.1000458 -37.25 0.0004626782    1.551    0.355
        83  -9.6829     89.5282     81.0065   8.4009502206e+01   4.8906969277e+01    0.2243712     0.137541 -48.10 0.0005818573    1.564    0.361
        84  -9.1315     36.2996     81.2647   1.0240769621e+02   5.6216479106e+01    0.1305874   0.08615563 -33.32 0.0001788114    1.517    0.341
        85 -10.1095     64.9020     79.8901   9.1866208703e+01   5.3103486221e+01    0.2192375    0.1777233 -24.41  0.000814917    1.231    0.188
        86  -9.7726    124.5210     79.0653   7.3159605766e+01   4.2264886066e+01    0.2282404     0.147556 -40.61 0.0006231707    1.509    0.337
        87 -10.5073     27.1630     77.5608   1.0485054206e+02   5.7884637360e+01    0.3971295    0.2135102 -13.24 0.0006783479    2.759    0.637
        88 -11.3664     11.4663     78.3433   1.1077211676e+02   5.8854686480e+01    0.2839966     0.127494  14.96  0.001408012    2.832    0.647
        89 -10.5558     14.7600     75.7571   1.0903074081e+02   5.9225770850e+01    0.2204102    0.1709831 -49.18  0.001437611    1.062    0.058
        90  -9.8276    176.7030     76.9333   6.0609516086e+01   3.0326999221e+01    0.2169933    0.2008177 -51.31 0.0007572207    1.050    0.048
        91 -10.0737     55.2766     76.1615   9.4183151902e+01   5.5220122488e+01    0.2709884    0.1929089  -1.11   0.00141466    1.726    0.421
        92 -10.1223     42.1738     75.6247   9.8811984463e+01   5.6880714479e+01    0.2065736     0.187832 -45.18 0.0006529909    1.098    0.089
        93 -11.2867     36.0747     73.8453   1.0060518224e+02   5.7901786102e+01    0.3993089    0.3734595  88.38   0.00140097    1.307    0.235
        94 -10.6136     20.9951     72.9400   1.0606465439e+02   5.9412588978e+01    0.2758844    0.1570563 -67.74 0.0007631725    1.682    0.405
        95  -9.6187     81.3437     73.3286   8.4254769255e+01   5.1936579001e+01    0.1994452    0.1269034 -50.31 0.0005412063    1.569    0.363
        96  -9.3510    216.9876     72.0407   5.2555202333e+01   2.1558726834e+01    0.1729816    0.1480137 -44.99 0.0003511432    1.072    0.067
        97 -11.0039    106.2418     71.3368   7.5794740837e+01   4.7660602450e+01    0.3334406     0.286899  81.56  0.001350003    1.491    0.329
        98  -9.6728     91.4808     71.0152   8.0203769145e+01   5.0604024351e+01    0.3421016    0.1347551 -48.42 0.0009596142    2.675    0.626
        99  -9.1244     25.2592     72.2858   1.0429047778e+02   5.9221708823e+01    0.1276019   0.07743334 -38.64 0.0002618319    1.484    0.326
       100 -10.0196     46.3839     69.3935   9.5479928482e+01   5.7768493527e+01    0.3799782     0.193623   8.37  0.001533105    3.281    0.695
       101 -11.0577     10.6642     68.8848   1.0908100939e+02   6.1016610586e+01    0.3716025    0.1688927 -58.60  0.001929888    1.653    0.395
       102 -10.8651      5.0090     68.2452   1.1111749686e+02   6.1481199791e+01    0.3265672    0.1953312  85.52    0.0017102    2.415    0.586
       103 -10.2814      1.4681     66.5179   1.1212321331e+02   6.2040781624e+01    0.1964592    0.1526555  86.35  0.000634817    1.544    0.352
       104 -10.5913     78.4814     67.1811   8.3203460330e+01   5.3664499976e+01    0.3478121    0.2817316  38.75  0.001913627    1.341    0.254
       105  -9.8391     16.0724     67.2368   1.0660217760e+02   6.1026489272e+01    0.2205218    0.1301045  47.83  0.001172419    2.429    0.588
       106 -10.2017     14.9936     63.3880   1.0608867779e+02   6.1936013785e+01    0.2521323    0.2027688   0.64  0.001213071    1.429    0.300
       107  -9.2160    166.9908     65.5416   5.9178729525e+01   3.4643831692e+01    0.2088069    0.1471212  57.98 -1.108612e-05    1.426    0.299
       108  -9.3059     96.9545     64.2223   7.6199300915e+01   5.0870474027e+01    0.1784804    0.1187887  43.60 0.0008418026    1.557    0.358
       109  -9.2391     72.7754     63.9604   8.4087549139e+01   5.5239728445e+01    0.1797058    0.1059666 -42.03 0.0004505572    1.555    0.357
       110 -10.5251      6.3534     63.2227   1.0949817979e+02   6.2503937764e+01    0.2811344    0.1933604  46.76  0.001737899    1.992    0.498
       111 -10.2000     62.9030     62.1037   8.7000696170e+01   5.7119000335e+01    0.2621284    0.1643303 -37.92  0.001326607    1.434    0.303
       112 -10.3467     39.2150     61.6985   9.5930728473e+01   6.0189628349e+01    0.2779121     0.219067 -30.84  0.001708625    1.111    0.100
       113 -13.3516     20.3168     58.0729   1.0252066138e+02   6.2681763389e+01    0.3736968    0.2434219 -61.11  0.001151257    1.442    0.307
       114 -10.1248    194.2469     58.9222   5.2514124500e+01   2.8996058787e+01    0.2776777    0.1869286  69.14   0.00108549    1.551    0.355
       115 -10.9383     84.0980     57.1984   7.7849527713e+01   5.4587906153e+01    0.3731442    0.2445302 -47.58  0.001508984    1.624    0.384
       116 -11.1420     88.4253     52.8462   7.4848597106e+01   5.4559844770e+01    0.3487461    0.2614376 -23.64  0.001005579    1.299    0.230
       117  -9.7227     48.5053     58.9963   9.1414746239e+01   5.9675673983e+01     0.238808    0.1627645  72.23 0.0009510567    3.323    0.699
       118 -10.4231      9.9460     59.5235   1.0717170842e+02   6.3089698794e+01    0.1539286    0.1168542   8.39 0.0005903519    1.558    0.358
       119 -10.6039      4.0718     57.7540   1.0915455629e+02   6.3799836801e+01    0.3889138     0.181139 -26.72  0.002000824    2.377    0.579
       120  -9.6162     71.5821     56.3535   8.1854441412e+01   5.6892298544e+01    0.2426355    0.1249038 -45.62 0.0009686883    1.896    0.473
       121 -10.2752     33.2410     55.8795   9.6528968130e+01   6.2000018429e+01    0.5114076    0.1866703 -37.94  0.002091837    2.697    0.629
       122  -9.5110    104.4354     56.4634   7.1236706220e+01   5.0750229220e+01    0.2089585    0.1318282 -43.43 0.0005431385    1.639    0.390
       123 -10.7053    105.6728     52.7029   6.9534258520e+01   5.1124933312e+01    0.2711244    0.2404857 -12.92 0.0003137021    1.091    0.083
       124 -11.5162    114.3577     53.8277   6.7510229494e+01   4.9064643860e+01    0.3163601    0.3050351 -16.84 0.0006733432    1.062    0.059
       125  -9.9927     95.8278     54.8147   7.3230184761e+01   5.2785162087e+01     0.217432    0.1831901   4.78 0.0007165655    1.200    0.167
       126 -11.8031     65.5487     52.6445   8.2697177957e+01   5.8534895585e+01    0.4531931    0.2196121  36.98  0.001547098    2.191    0.544
       127  -9.8542    121.7949     51.7482   6.4825359060e+01   4.7731775443e+01     0.207397    0.1869783  18.85 0.0003519738    1.102    0.092
       128 -11.6718     77.7794     46.6050   7.6052380691e+01   5.7571952556e+01      0.47852    0.3347711   3.44  0.000863319    1.666    0.400
       129 -10.2079      4.2420     50.5681   1.0729464094e+02   6.5296209203e+01    0.1462311   0.09681959 -20.27 0.0004504073    1.542    0.351
       130 -10.1465     38.6814     48.4916   9.1801108594e+01   6.2889714931e+01    0.2064981    0.1559383 -32.57 0.0002096064    1.095    0.087
       131 -10.0768     14.1639     48.8217   1.0247783561e+02   6.5039843399e+01     0.244018    0.1361752 -53.13 0.0006419866    1.435    0.303
       132  -9.9380     19.6796     45.3776   9.8968564914e+01   6.5312835493e+01    0.2110877    0.1538058 -50.50 0.0008687323    1.234    0.189
       133 -10.7999     15.3725     43.6481   1.0034340961e+02   6.5983857273e+01    0.4065703     0.258638 -77.88  0.002126292    2.612    0.617
       134 -10.6907      9.1830     47.0380   1.0415442850e+02   6.5729879038e+01    0.3528741    0.1790641 -55.21  0.001696967    1.558    0.358
       135 -10.6265     56.8097     46.6491   8.3775923361e+01   6.0924500914e+01    0.3536451    0.3359516  79.39  0.001288732    1.496    0.332
       136  -9.6920    154.5306     47.5132   5.6079748770e+01   4.0530088537e+01    0.2133205    0.2118307 -67.92 3.589041e-05    1.028    0.027
       137  -9.6607    152.2175     44.6398   5.5616576787e+01   4.1513942218e+01     0.207582    0.1871541 -76.29 0.0001407268    1.178    0.151
       138 -10.1715     31.1718     45.7181   9.4028232919e+01   6.4213339672e+01    0.2773179    0.1660052 -55.48  0.001098117    1.725    0.420
       139 -10.5236     26.4296     44.9989   9.5851770980e+01   6.4805851398e+01    0.4164453    0.1886478 -48.68  0.002102511    1.803    0.446
       140  -9.4158    135.5554     46.4608   5.9708592913e+01   4.5315180652e+01    0.1419496    0.1399504  77.61 0.0001926196    1.060    0.057
       141 -12.7188    141.3400     41.6017   5.6820396931e+01   4.4610118194e+01    0.2896081    0.2649654 -73.05 0.0005168197    1.188    0.158
       142  -9.4414    184.7225     42.3953   4.9367831268e+01   3.3732999976e+01    0.2795607    0.1368005  69.35   0.00114436    2.142    0.533
       143 -10.6149     69.2792     42.0621   7.7286301633e+01   5.9784882637e+01    0.2194766    0.1873777  31.98 0.0006664776    1.252    0.201
       144 -10.1800     35.6964     41.1571   9.0407217596e+01   6.4593782545e+01     0.250281     0.213702 -14.83  0.001678597    1.097    0.089
       145 -11.1050      4.9373     40.2322   1.0406856005e+02   6.7340300566e+01    0.4541271    0.1358538 -39.01  0.001215721    2.765    0.638
       146 -11.0882      3.3095     35.9874   1.0352096065e+02   6.8258552888e+01    0.2500893     0.177762 -68.78  0.001215069    1.658    0.397
       147 -10.1384     42.9683     40.4524   8.7015809771e+01   6.3873496550e+01    0.1935374    0.1606119 -33.96 0.0009435815    1.164    0.141
       148  -8.8511     89.6844     40.7217   6.9842844448e+01   5.6289938989e+01    0.1404197    0.0997117  13.07 0.0003665578    1.570    0.363
       149 -10.3648    128.1221     38.8107   5.8755535870e+01   4.8167817635e+01    0.1990877    0.1889757 -78.56 0.0003657647    1.169    0.145
       150  -9.8367    229.6776    248.0060   8.7704992008e+01  -9.0159555034e+00    0.1550034    0.1227704   0.35 0.0005677884    1.126    0.112
       151 -11.2430     26.9651     35.3921   9.2122054266e+01   6.6546251451e+01    0.3842033    0.1740163 -34.67  0.001471951    1.958    0.489
       152  -9.3003    223.7339     36.3370   4.2807364794e+01   2.5188573059e+01     0.141223   0.08654359 -59.39 0.0001865646    1.591    0.371
       153 -10.0452     90.4335     35.7657   6.7652639888e+01   5.6873049086e+01    0.2364905    0.1762861  40.13 0.0004985453    1.297    0.229
       154 -10.2149     97.0306     34.9765   6.5365467527e+01   5.5639099407e+01    0.2152478    0.1509364  16.09  0.001089015    1.581    0.368
       155 -10.7375     73.3764     33.6146   7.2381212109e+01   6.0402528696e+01    0.3072111    0.2719653 -68.31  0.001836147    1.661    0.398
       156 -11.5416     39.1686     32.7910   8.5579182221e+01   6.5661114043e+01    0.4563391    0.2847664 -38.46   0.00170436    1.414    0.293
       157 -10.5778      7.8369     34.3105   1.0078748474e+02   6.8302437793e+01    0.2082187    0.1734053  39.65  0.001418283    1.706    0.414
       158  -9.4140    133.6430     34.6912   5.6095817372e+01   4.7398161083e+01    0.1528797    0.1013788  29.52 0.0007042259    1.730    0.422
       159  -9.9931     16.9408     32.7760   9.5844451046e+01   6.7919366123e+01    0.1982831    0.1421376  -6.89  0.000645909    1.361    0.265
       160 -10.1379     20.3751     31.3113   9.3637398018e+01   6.7890283240e+01    0.2497273    0.1474461 -23.84 0.0009295658    1.562    0.360
       161 -11.0004    127.9164     30.4198   5.5831772914e+01   4.9305856861e+01     0.355292    0.3093548 -40.98 0.0009460003    1.239    0.193
       162  -9.2593    187.6335     30.8281   4.5707193455e+01   3.4516394831e+01    0.1962462    0.1144623 -43.62 0.0004189103    1.673    0.402
       163  -9.2565    166.4073     31.2086   4.8913012497e+01   3.9750505061e+01      0.18163    0.1258588 -44.04 0.0002780267    1.475    0.322
       164 -10.0636     22.2547     38.1954   9.5337509366e+01   6.6471204707e+01    0.1898217    0.1534113  12.29 0.0005560467    1.365    0.267
       165 -11.2522     45.2479     27.4925   8.0670404125e+01   6.5735136436e+01    0.4734062    0.3981508  19.93  0.003162058    1.264    0.209
       166 -11.3365     40.6962     20.3193   7.9401796165e+01   6.7420492958e+01    0.3323368    0.2552588  16.87  0.001733814    1.241    0.194
       167 -11.0781      7.7181     28.3722   9.8743820317e+01   6.9408685987e+01    0.3332291    0.2484583  61.14  0.002041852    2.587    0.613
       168 -10.3965     69.3019     27.0212   7.1013267411e+01   6.2060700281e+01    0.3648155    0.1862548 -38.91  0.001756777    2.058    0.514
       169 -11.2223    113.8572     26.2761   5.7529884921e+01   5.3080789126e+01    0.2807884    0.2286265 -39.08 0.0007274128    1.352    0.260
       170  -9.5187    106.6915     27.2997   5.9707492443e+01   5.4565802952e+01    0.1296258    0.1078387 -69.49 0.0002862984    1.598    0.374
       171 -10.3014     77.2944     26.5038   6.8030766061e+01   6.0686363379e+01    0.3641705    0.1663137 -25.25   0.00160499    2.287    0.563
       172 -10.0689    225.0093    247.1885   8.8389029913e+01  -8.2762749653e+00    0.1999305    0.1474996 -15.54  0.001377904    1.331    0.249
       173  -9.6992    139.4499     27.0000   5.2275511781e+01   4.6936394941e+01    0.3042978   0.07509297  61.71 0.0008593114    3.804    0.737
       174 -10.3865    100.8584     26.0519   6.0755768580e+01   5.5991319185e+01    0.3003783    0.1678687  41.07   0.00143489    1.687    0.407
       175  -9.6642     18.4697     26.0557   9.2463264593e+01   6.8976668348e+01    0.1727823   0.07036941 -31.40 0.0008067375    2.374    0.579
       176  -9.4079    170.6125    247.1643   9.8275441513e+01  -2.4074695843e-01    0.1508118    0.1091303 -23.70 0.0006515226    1.684    0.406
       177 -10.0040     59.1612     23.7531   7.3327813458e+01   6.4215368122e+01    0.2430412    0.1584879 -15.60 0.0006975146    1.478    0.324
       178 -10.0400     58.8580     19.7185   7.1599955074e+01   6.4806607312e+01    0.1973368    0.1762484  26.52 0.0005811409    1.273    0.214
       179 -10.7667     82.9138     22.1654   6.4354876854e+01   6.0161955968e+01    0.4466613      0.17126  32.97  0.001600003    3.468    0.712
       180 -11.0155     34.9941     22.1969   8.2850810685e+01   6.7866479479e+01    0.2099169    0.1439918 -26.12 0.0002433193    1.219    0.180
       181 -10.7038     13.7356     21.8448   9.3097601169e+01   7.0097942676e+01    0.3796226    0.1992535  11.77  0.002187166    2.102    0.524
       182 -10.9119     30.2487     21.2712   8.4650329222e+01   6.8566772155e+01    0.2516988    0.1871495  19.16  0.001676016    1.371    0.271
       183 -10.0354     91.0577     22.3145   6.1971443973e+01   5.8506159753e+01    0.1891368    0.1596914  34.28  0.001138741    1.094    0.086
       184 -10.6672    209.0225     18.4741   3.9941430478e+01   3.0799024134e+01    0.1957292    0.1200092  75.65 0.0005192827    1.550    0.355
       185 -10.4637     20.3325     17.4120   8.7758801091e+01   7.0219342448e+01    0.2193313    0.1536392 -18.08 0.0008446956    1.148    0.129
       186  -9.6416    199.2984     17.3293   4.0666401056e+01   3.3247986501e+01    0.1289667   0.09835219  37.21 0.0006570421    1.639    0.390
       187 -10.1589    114.9295     17.3195   5.3880079157e+01   5.3831273479e+01    0.1943251    0.1504139  52.02 0.0003379586    1.182    0.154
       188 -11.5609      3.1638    249.1735   1.2855417257e+02   2.1937770959e+01    0.4905888     0.242193  47.10  0.003394413    1.633    0.388
       189 -10.3420     82.9019     16.0407   6.1702738382e+01   6.0874383104e+01    0.1933705     0.171284  13.68 0.0004031759    1.056    0.053
       190  -9.0958     27.2658     16.6885   8.3956673972e+01   6.9599909617e+01   0.09968866   0.08903822 -38.87 0.0002049927    1.540    0.351
       191  -9.6147     40.6557    244.3487   1.2209915313e+02   1.8813839002e+01    0.1241603   0.05979997  64.67 -7.299035e-05    1.805    0.446
       192 -10.1942    154.1901     15.0652   4.5813383256e+01   4.4599973819e+01    0.2084488    0.1687643  42.68 0.0004265219    1.256    0.204
       193  -9.1160     74.2818    243.6994   1.1603479120e+02   1.4707581250e+01    0.1190196   0.07080445  65.42 0.0003345263    1.548    0.354
       194  -9.5861    202.3887    240.2455   9.1355295255e+01  -4.1163708619e+00    0.1396843    0.1138224 -38.30 0.0006963229    1.512    0.339
       195  -9.3362    117.6803    239.3168   1.0738110499e+02   9.2313050303e+00    0.1266015   0.08239778  64.14 0.0003861754    1.659    0.397
       196  -9.5580     91.0211    237.2391   1.1228990682e+02   1.3560365223e+01    0.1495406    0.1231123 -48.22 0.0005750031    1.598    0.374
       197  -9.8158    164.9767     12.5145   4.3473022466e+01   4.2180461915e+01    0.1987177    0.1215636  68.88 -8.082401e-05    1.486    0.327
       198 -11.7578     25.9531    235.6486   1.2411883180e+02   2.2088993104e+01    0.2398566    0.2141512  34.33  0.001024088    1.608    0.378
       199  -9.9174    249.4414    233.9617   8.2034033080e+01  -1.0000201719e+01    0.1704322    0.1250038  14.57 0.0004275911    1.109    0.098
       200  -9.1100    243.3038    230.3083   8.2454895766e+01  -8.7279033445e+00    0.1215005   0.07483972   3.99  0.000569829    1.606    0.377
       201  -9.1579     47.9968    229.9723   1.1977658549e+02   2.0655847912e+01    0.1378082    0.1059425  71.42 0.0003743606    1.016    0.016
       202  -9.4324    104.4419     10.4477   5.3594859479e+01   5.6884846238e+01    0.1313567    0.1145684  34.71 0.0002091307    1.006    0.006
       203  -9.7728    209.5018    229.5278   8.8330327420e+01  -3.7159787736e+00    0.1246538    0.1014477  14.55 7.974886e-06    1.008    0.008
       204 -10.0683    140.6692    228.8390   1.0152815152e+02   7.4310926197e+00    0.2322547    0.1100944 -42.91  0.001076886    2.612    0.617
       205 -10.1028    223.3003    226.5782   8.5325984218e+01  -5.3879767604e+00    0.2062262    0.1291926  -9.29 0.0005887771    1.738    0.424
       206 -10.9395      1.3800    224.7666   1.2778456186e+02   2.6637911305e+01    0.3218771    0.1072595 -87.09  0.001053313    2.685    0.628
       207 -11.3285      2.3954    220.5481   1.2740872011e+02   2.7367277305e+01     0.293978     0.138086  81.70  0.001768118    1.755    0.430
       208  -8.8239    126.6635    220.7273   1.0324811473e+02   1.1163062154e+01    0.1231416   0.09893983  10.24 0.0003890395    1.602    0.376
       209 -10.7704      9.1351    217.8799   1.2608243088e+02   2.7264196779e+01    0.2113593    0.1847795  30.54   0.00165149    1.649    0.394
       210  -9.3041    137.3606    215.3167   1.0027577694e+02   1.0407571786e+01    0.1322371    0.1016701   4.05 0.0007042784    1.760    0.432
       211  -9.9750    205.6833    212.6122   8.6153153383e+01  -6.3465414071e-01    0.2189068    0.1470879 -20.38 0.0007539847    1.576    0.365
       212 -10.0072     15.2169    213.4095   1.2472126707e+02   2.7575108758e+01    0.1496693   0.08087955  52.43 0.0002745684    1.560    0.359
       213  -9.0697    249.3319    211.3309   7.8079710763e+01  -7.1273913625e+00    0.1295895   0.07918749   1.80 0.0007052048    1.722    0.419
       214  -9.2266    209.6705    211.3060   8.5168685235e+01  -1.0815595753e+00    0.1161649    0.1038603  68.38 0.0007037593    1.657    0.396
       215 -12.3225     17.6540    249.2815   1.2624320270e+02   2.0460986111e+01    0.4807232    0.2190806  33.55  0.002848939    2.486    0.598
       216 -10.2377     20.1802    209.8540   1.2356889883e+02   2.7808764927e+01    0.1842162    0.1152769  68.04 0.0006700488    1.294    0.227
       217 -10.3679      3.2360    205.6255   1.2648841617e+02   3.0295717945e+01    0.1300135    0.1046364  28.93 0.0009573995    1.713    0.416
       218  -9.2513    193.4886    201.5632   8.6523690587e+01   3.1810686072e+00    0.1345098    0.1184194  14.54 0.0001049231    1.008    0.008
       219 -10.1532     23.5159    196.8257   1.2200316560e+02   3.0225766403e+01    0.2034453    0.1704653 -57.87  0.001160408    1.513    0.339
       220 -10.9417     13.8809    192.6496   1.2363832983e+02   3.2067239451e+01    0.2118507    0.1360359  75.35  0.000521376    1.269    0.212
       221  -9.5021      1.2826    191.1696   1.2603667543e+02   3.3502461634e+01    0.1643559   0.07708198  89.93 0.0006032105    1.748    0.428
       222  -9.6361     22.4999    179.9559   1.2087252520e+02   3.4054766263e+01    0.1762935   0.09891298 -77.44 0.0003921857    1.482    0.325
       223  -9.5769    191.5019     13.5782   4.0528063943e+01   3.5540153929e+01    0.1313494    0.1171404  86.01 0.0001177646    1.043    0.041
       224 -10.3442      6.2130    191.7977   1.2510716300e+02   3.2944788739e+01    0.1813829    0.1200692  75.23  0.001211172    1.193    0.162
       225 -10.8443      5.1544    166.7690   1.2359476390e+02   3.8574280758e+01    0.2471617    0.1280323 -68.55  0.001413872    1.604    0.376
       226  -9.6547    226.6485    163.9628   7.2712025072e+01   3.6712820397e+00    0.1994934    0.1610259 -24.86 0.0008034604    1.119    0.107
       227  -9.6459      3.6656    158.6576   1.2329624203e+02   4.0542536926e+01    0.1196858   0.07426995 -53.11 0.0007050648    1.759    0.432
       228 -10.8214      2.7454    153.5405   1.2309313330e+02   4.1789834521e+01    0.2488114    0.1083043  29.68   0.00130965    2.637    0.621
