#   1 NUMBER                 Running object number                                     
#   2 MAG_AUTO               Kron-like elliptical aperture magnitude                    [mag]
#   3 X_IMAGE                Object position along x                                    [pixel]
#   4 Y_IMAGE                Object position along y                                    [pixel]
#   5 X_WORLD                Barycenter position along world x axis                     [deg]
#   6 Y_WORLD                Barycenter position along world y axis                     [deg]
#   7 A_WORLD                Profile RMS along major axis (world units)                 [deg]
#   8 B_WORLD                Profile RMS along minor axis (world units)                 [deg]
#   9 THETA_WORLD            Position angle (CCW/world-x)                               [deg]
#  10 FWHM_WORLD             FWHM assuming a gaussian core                              [deg]
#  11 ELONGATION             A_IMAGE/B_IMAGE                                           
#  12 ELLIPTICITY            1 - B_IMAGE/A_IMAGE                                       
         1 -14.2907     68.5817    144.2052   9.7646578860e+01   3.7452083037e+01     4.540634     2.303213  69.61  0.005046055    4.474    0.777
         2 -13.3135    202.1791     42.5042   4.0277639510e+01   3.0017372608e+01     1.138926    0.9641175 -26.07  0.004959864    1.363    0.266
         3 -12.2553      2.2451      7.9695   8.9109280173e+01   7.5337866168e+01     1.041888    0.4881676 -48.94  0.005676946    2.122    0.529
         4 -11.8825      2.8611     23.0340   9.5649859611e+01   7.2643915212e+01    0.6647298    0.4569481 -74.63  0.003829933    2.252    0.556
         5 -11.7142    241.9285      8.8433   2.9803524917e+01   2.5872131373e+01    0.4397069    0.3978547  10.96  0.003051384    1.718    0.418
         6 -11.9287    235.3904      7.3914   2.9892002055e+01   2.7256789019e+01    0.5792966    0.2806925 -46.34  0.003008382    1.628    0.386
         7 -11.8211    240.1994      2.7534   2.8719834632e+01   2.6813728297e+01    0.5030413     0.257983  88.49  0.003095983    1.857    0.462
         8 -10.5118     57.8259      6.6305   5.6864932705e+01   6.7286124242e+01    0.2756682    0.1694902  54.62 0.0008585646    1.583    0.368
         9 -13.4508    213.1141     32.2466   3.6801002892e+01   2.8968792161e+01    0.8320391    0.7625396  15.32   0.00215094    1.506    0.336
        10  -9.9452    107.5339    204.0477   9.6403553756e+01   1.7461379748e+01    0.2253564    0.1822165  51.42  0.000786639    1.267    0.210
        11 -10.0844    139.4415    249.6118   9.5291947190e+01   4.4147833633e+00    0.2474253    0.2187051  72.06  0.001668468    1.578    0.366
        12 -10.5020    102.1662    248.6577   1.0313921386e+02   9.4655436224e+00    0.2598004    0.2149005 -62.16  0.001077141    1.465    0.317
        13 -11.6505    101.2368    242.8606   1.0272163947e+02   1.0632811469e+01    0.5917948    0.3621595 -66.92  0.002514903    2.061    0.515
        14 -13.3763     51.9407    186.2039   1.0840506094e+02   2.9047927720e+01     1.543427     1.096228  57.58  0.008334371    1.376    0.273
        15 -15.2821      4.9495    170.0361   1.1952633760e+02   3.7438708873e+01     8.618176    0.8937604 -75.43  0.009716677    6.506    0.846
        16 -10.0630    122.4857    199.0387   9.1998987983e+01   1.6261435341e+01    0.3139144    0.2432016 -81.40  0.001296946    1.741    0.425
        17  -8.9896     67.4887    197.9723   1.0567936945e+02   2.4372874540e+01     0.197372    0.1327914 -72.48  0.001021545    1.570    0.363
        18  -8.7171     82.4218    194.7679   1.0144476346e+02   2.3122987626e+01    0.1922208     0.125865 -50.43 0.0009508599    1.640    0.390
        19 -10.1134    150.0310    191.8258   8.4259603451e+01   1.3378930007e+01    0.5494925    0.3625432 -89.82  0.001993522    4.130    0.758
        20 -10.1639    118.3721    190.6904   9.1673234286e+01   1.8684790995e+01    0.3897815    0.2328484 -78.08  0.001538208    2.943    0.660
        21 -10.7284     81.6405    182.8304   1.0000854202e+02   2.6017880638e+01    0.5422472    0.3845715  82.97  0.002187027    1.735    0.424
        22  -9.6408     99.3519    180.9706   9.4992841451e+01   2.3839045690e+01     0.262486    0.2281284  12.40  0.000665972    1.204    0.169
        23  -8.2228     87.5125    177.5167   9.7629709232e+01   2.6435888518e+01    0.1425556    0.1373397  44.55 0.0008103165    1.007    0.007
        24 -10.2906    186.4435    174.6020   7.3092428773e+01   1.0743404684e+01    0.3550556    0.3429683 -39.87  0.001359953    1.262    0.208
        25 -11.4608     66.7216    171.8198   1.0255725094e+02   3.0729834900e+01    0.4733872    0.3161156 -30.20  0.002200021    1.949    0.487
        26 -11.4543     71.2724    167.0807   1.0057532793e+02   3.1294848410e+01    0.5422841    0.2962094 -48.52 0.0007980355    1.915    0.478
        27 -10.5148    111.4992    173.0144   9.0428689609e+01   2.3751833769e+01    0.2994753    0.1992429  48.58  0.001364516    1.589    0.371
        28 -12.1051     79.9164    158.8025   9.6747878296e+01   3.2131156271e+01     1.083083     0.526045  56.68 0.0005139398    2.992    0.666
        29 -12.6422     67.9526    154.0994   9.9521034455e+01   3.5014805940e+01    0.5225953    0.4109872 -23.06 0.0009397914    1.514    0.339
        30 -10.8727     55.4325    146.7991   1.0220280253e+02   3.8514187661e+01     3.518716    0.8987387 -43.37  0.007374386    8.429    0.881
        31 -10.7640    115.1348    245.7880   1.0001687907e+02   8.2773520423e+00     0.304534    0.1808486 -57.50  0.001691123    2.050    0.512
        32  -9.6122     36.0371    161.9400   1.1012017338e+02   3.6797243599e+01    0.2295311    0.1949955  13.34 0.0008713493    1.340    0.254
        33 -10.6794     32.9658    156.2794   1.1037947027e+02   3.8542792534e+01    0.3645733    0.3027804  87.83  0.001137349    1.137    0.120
        34 -11.4477     87.1099    152.3121   9.3482978767e+01   3.2656803818e+01    0.6445917    0.4463255 -23.52  0.001864727    1.882    0.469
        35 -10.4868    133.7387    144.9107   7.8962274887e+01   2.6248135472e+01     1.110208    0.2965628 -53.74  0.002739936    5.307    0.812
        36  -8.4881    112.1612    150.3813   8.5915173289e+01   2.8942346650e+01     0.214505    0.1368304  46.07 0.0004236946    1.629    0.386
        37  -9.0935    174.8702    149.2854   7.0278289588e+01   1.7575689939e+01    0.2171421    0.1847895  59.20 0.0007495352    1.432    0.302
        38  -8.0620     36.2823    145.2859   1.0800914124e+02   4.1046480270e+01    0.1382421   0.09926513 -39.71 0.0003378184    1.522    0.343
        39 -10.3282     28.4767    144.2607   1.1033517928e+02   4.2055054325e+01    0.3112594    0.2357088  63.30  0.001701359    1.360    0.265
        40 -15.1019     37.5874    192.3536   1.1276381677e+02   2.9167345657e+01     6.244731     2.160619  62.26   0.01904981    4.972    0.799
        41 -10.4181    101.6812    138.2905   8.6358550580e+01   3.3689173428e+01    0.6822906    0.4340946  -6.88  0.002522914    2.745    0.636
        42 -10.0444    105.8232    131.0340   8.3521135843e+01   3.4694032318e+01    0.4437883      0.33362 -59.73  0.002086475    1.409    0.290
        43  -9.3716    110.9526    129.1068   8.1578562320e+01   3.4200142645e+01    0.3408733    0.2429863   9.49  0.001347936    1.849    0.459
        44 -11.5258     88.7827    137.8078   9.0135104076e+01   3.6000132244e+01    0.2986635    0.2672466 -36.56 0.0004061049    1.135    0.119
        45 -10.3506     25.4068    137.4041   1.1047265420e+02   4.4100605948e+01    0.3818697    0.1800407  40.89  0.001676309    2.183    0.542
        46 -10.1824    134.8315    128.2664   7.4843409533e+01   2.9738819783e+01    0.3794694     0.266964 -46.01  0.001306347    1.408    0.290
        47  -8.8852    160.6703    127.3161   6.8388706948e+01   2.4721928861e+01    0.1492643    0.1205549 -85.06 0.0007045945    1.680    0.405
        48 -10.3349     98.0348    125.0252   8.4465701138e+01   3.7548481249e+01    0.3344782    0.2683372  -8.87 0.0007525983    1.486    0.327
        49 -10.9194    241.0516    169.2483   6.2261847577e+01   3.3984912052e+00      0.27345    0.1730847  48.52  0.001547444    2.213    0.548
        50 -10.0525    117.1821    123.8670   7.8544095521e+01   3.4226183281e+01    0.3005868    0.2059221   9.84  0.001227549    2.078    0.519
        51  -8.5966    163.2360    120.9734   6.6297414642e+01   2.5476799644e+01    0.1998852     0.120682 -42.24 0.0004626838    1.591    0.372
        52  -9.6357    135.2150    121.7952   7.3164348407e+01   3.1078711698e+01     0.526586    0.1225079 -49.40  0.001287733    5.009    0.800
        53  -8.9778    107.4725    118.1542   7.9947207131e+01   3.7427069652e+01    0.2173196    0.2019526  27.99 0.0004286545    1.080    0.074
        54  -8.8737     83.8356    118.1039   8.7341418759e+01   4.1700301338e+01    0.2390438    0.2031892  71.55 0.0007305367    1.378    0.274
        55  -9.8696    231.1097    113.6715   5.2623130608e+01   1.3763576587e+01    0.2373208    0.2138722 -28.26  0.000760394    1.092    0.084
        56  -9.4990     40.0924    113.5148   1.0170681910e+02   4.8900175708e+01    0.2036712    0.1414109  24.27 0.0007135757    1.541    0.351
        57 -11.3511    246.6141    108.6859   4.9545763650e+01   1.1944843888e+01    0.5784049    0.1939363 -49.63   0.00215968    3.567    0.720
        58  -9.2641    205.3619    110.2154   5.5754635608e+01   1.9025182083e+01    0.2598658      0.19338  42.85 0.0009106859    1.511    0.338
        59 -10.5128     33.2702    108.6510   1.0334870196e+02   5.0836657292e+01    0.3613855    0.3012129 -68.78  0.002032678    1.141    0.123
        60  -8.6788    114.6699    109.6709   7.5656343949e+01   3.7946444608e+01    0.1615517    0.1228245  -5.53 0.0007051541    1.713    0.416
        61 -10.2287    119.6561    103.9545   7.2706191320e+01   3.8178504022e+01    0.2247377    0.2010595 -41.24 0.0005981536    1.112    0.101
        62 -10.1267     35.8367    100.8863   1.0085549468e+02   5.2556947814e+01    0.3434116    0.2598554  65.77 0.0009484155    1.620    0.383
        63  -8.2160     60.2861     94.6794   8.9869686400e+01   5.1093790973e+01    0.1432122    0.1161563  75.56 0.0003475508    1.595    0.373
        64  -9.3964     42.5074    103.8223   9.8873486920e+01   5.1107512143e+01    0.2777735    0.1674259  43.52 0.0006954592    1.861    0.463
        65  -9.0789     90.3582    174.9902   9.6457076027e+01   2.6616059949e+01    0.2760049    0.1425789 -69.12  0.001090683    2.367    0.578
        66  -8.6412    159.4989     83.4415   5.7421136609e+01   3.3405917875e+01    0.1443737    0.1394106 -70.97 0.0001977613    1.017    0.017
        67 -17.1080     13.8667    241.9804   1.2138947075e+02   2.0755618228e+01     6.401896     2.254923  20.34   0.02730077    3.773    0.735
        68  -8.2524    109.3079     78.6919   6.8315096516e+01   4.5601457539e+01    0.1489894    0.1213929 -87.39 0.0002087309    1.614    0.380
        69  -8.8927     53.0464     64.9858   8.4057208429e+01   5.8864398208e+01    0.2059282    0.1924326  -7.31 0.0003832441    1.060    0.057
        70 -11.1199      2.0049     59.6100   1.0717794265e+02   6.5024849753e+01    0.7866297   0.09287643 -65.46   0.00228019    5.281    0.811
        71 -10.8937      2.0000     44.9275   1.0355188894e+02   6.8280377115e+01    0.5941276    0.1555218 -66.47  0.002086076    4.057    0.754
        72 -10.5538     13.3770     59.8068   1.0140410515e+02   6.4320465100e+01    0.2527017    0.2116857 -47.81  0.000411311    1.090    0.082
        73 -12.8121    192.1838     49.8617   4.3251877487e+01   3.1230357501e+01    0.9312097    0.7858261  31.32  0.001055837    1.530    0.346
        74 -13.5993     18.4207    218.1374   1.1921445552e+02   2.5226366830e+01    0.7699238     0.527061 -30.75  0.004441617    2.215    0.549
        75  -9.9195    119.8827    245.0746   9.8905732425e+01   7.7722520289e+00    0.1850237    0.1541506  47.28 0.0006082944    1.254    0.202
        76 -10.4671      1.7013     29.7917   9.8987150869e+01   7.1418136188e+01    0.3966639    0.1592713 -65.34  0.001688644    3.039    0.671
        77 -14.9593      9.3804    207.5735   1.2067032840e+02   2.8334017449e+01     1.447052     1.155571 -35.18  0.006581245    1.686    0.407
        78  -8.7923    198.0781     23.5061   3.6180122448e+01   3.3193179662e+01    0.1844131    0.1498758 -49.32 0.0005778613    1.169    0.145
        79  -8.9526     77.7851     57.4856   7.1477514405e+01   5.6109057167e+01    0.2780142    0.1358115  47.39  0.001136129    2.118    0.528
        80  -9.0224    189.4068     14.7466   3.4878088073e+01   3.6054744151e+01    0.1523393    0.1192088 -18.99 0.0006805708    1.595    0.373
        81 -11.0169    193.2223    195.6668   7.5703027041e+01   5.9548557214e+00    0.9205983     0.489022 -60.54  0.003167204    5.048    0.802
        82  -9.6082    111.0430    203.4697   9.5460825517e+01   1.7063770964e+01    0.2256808    0.1938855  85.57 0.0003812415    1.398    0.285
        83  -9.0871     88.6309    209.7859   1.0180739138e+02   1.8926013290e+01    0.2160573    0.1733773 -82.39 0.0006519046    1.415    0.293
        84  -9.4781    142.4359    208.2523   8.8762193449e+01   1.1348458731e+01    0.1700308    0.1354833 -62.28 0.0005140823    1.582    0.368
