#   1 NUMBER                 Running object number                                     
#   2 MAG_AUTO               Kron-like elliptical aperture magnitude                    [mag]
#   3 X_IMAGE                Object position along x                                    [pixel]
#   4 Y_IMAGE                Object position along y                                    [pixel]
#   5 X_WORLD                Barycenter position along world x axis                     [deg]
#   6 Y_WORLD                Barycenter position along world y axis                     [deg]
#   7 A_WORLD                Profile RMS along major axis (world units)                 [deg]
#   8 B_WORLD                Profile RMS along minor axis (world units)                 [deg]
#   9 THETA_WORLD            Position angle (CCW/world-x)                               [deg]
#  10 FWHM_WORLD             FWHM assuming a gaussian core                              [deg]
#  11 ELONGATION             A_IMAGE/B_IMAGE                                           
#  12 ELLIPTICITY            1 - B_IMAGE/A_IMAGE                                       
         1 -13.5552    168.9786     56.6850   6.2041908568e+01   3.5569513457e+01     2.183119     1.311044  25.06  0.006467141    2.568    0.611
         2 -13.3007    183.8568     41.7175   5.4827142614e+01   3.3904335750e+01    0.9750991    0.8933094 -50.01  0.003025997    1.090    0.082
         3 -13.8967    206.1890     10.3737   4.2977449455e+01   3.1925687885e+01     1.142895     1.030023  55.20   0.00396922    1.224    0.183
         4 -12.6053    235.7957      3.4415   3.8628242756e+01   2.5438958278e+01     1.708165     0.393584  72.67  0.005888672    3.941    0.746
         5 -11.6346    190.3731     15.1142   4.6052932239e+01   3.5466920299e+01    0.4014485    0.3026745  79.12  0.001338046    1.240    0.193
         6 -10.3394     15.6850    213.2096   1.2863062457e+02   2.8737233355e+01    0.1423031   0.09898994  77.10 0.0004018099    1.028    0.028
         7 -12.2356    248.7164    245.4280   9.0043796578e+01  -1.0828391546e+01    0.7230389    0.3291668 -21.91  0.004040253    2.464    0.594
         8 -18.7785     40.4821    239.1015   1.2592658324e+02   2.1239053906e+01     5.641051     4.616748  75.37   0.03938404    1.249    0.200
         9 -19.1787     28.4550    102.9091   1.1489533942e+02   5.1852379300e+01     16.83282    0.7661569 -66.27   0.02616834   17.664    0.943
        10 -12.1553     97.5909    190.9342   1.1055694373e+02   2.2706454926e+01    0.7258513    0.5340964 -34.23  0.002098283    2.067    0.516
        11 -11.5681     99.2273    180.8976   1.0880965582e+02   2.4559484958e+01    0.3460045    0.3047228 -33.20 0.0007658136    1.515    0.340
        12  -9.9504     57.6643    189.6914   1.1883379674e+02   2.8732556453e+01    0.3753808     0.156566 -72.88  0.001361032    2.309    0.567
        13  -9.7155     59.9569    187.0000   1.1807817267e+02   2.9009376055e+01      0.24853    0.1497997  44.74 0.0007130442    1.583    0.368
        14  -9.6208    156.4104    189.7424   9.7865047744e+01   1.2555235577e+01    0.1758642    0.1331767 -35.13 0.0007183133    1.541    0.351
        15 -11.1361    150.2620    188.3673   9.8917015626e+01   1.3970593932e+01    0.2890702    0.2336247  73.53  0.001175714    1.399    0.285
        16 -10.0386     18.2843    187.0746   1.2653770385e+02   3.3718856201e+01    0.1589531    0.1218536  44.68 0.0005518766    1.477    0.323
        17 -11.4335    192.8913    194.8232   9.1414870731e+01   4.8096624330e+00    0.8334287    0.4416397 -60.65  0.003049656    4.183    0.761
        18  -9.3208    186.8267    186.5993   9.1084890863e+01   7.3130729736e+00    0.2213304    0.1906952  67.40 0.0006317751    1.404    0.288
        19 -11.1794    151.1470    180.2321   9.7301172114e+01   1.5364678181e+01    0.4021825    0.2851461 -80.46  0.001917929    2.001    0.500
        20 -11.0959    145.4720    181.1438   9.8685192051e+01   1.6271422726e+01    0.3071617    0.2614332 -29.80 0.0009404502    1.392    0.281
        21 -12.0033    142.0985    176.0940   9.8521586235e+01   1.7921203582e+01    0.5138626     0.358934 -78.52  0.001778771    1.921    0.479
        22 -10.9556    188.5813    176.2500   8.8733700305e+01   8.7610481813e+00    0.6365832    0.3962783 -58.92  0.002273458    2.318    0.569
        23 -12.5844    113.2987    173.4210   1.0450106282e+02   2.3783945882e+01     0.775135    0.3465456  49.53  0.003200966    2.176    0.540
        24 -10.4792    111.6172    168.6833   1.0410088797e+02   2.5107073207e+01    0.6271764    0.2875805  59.60  0.002270234    3.033    0.670
        25 -11.4831    204.6088    200.2731   9.0163784895e+01   1.8252638926e+00    0.4553096    0.1403791  38.19  0.001647698    3.110    0.678
        26  -8.8157    194.5097    172.5352   8.6801059844e+01   8.2380646290e+00    0.1430865    0.1287004  17.66 0.0001578098    1.045    0.043
        27 -10.1473     64.4380    170.1484   1.1517116893e+02   3.2114997341e+01    0.3434069    0.2903391 -52.43  0.001758482    1.433    0.302
        28 -10.8259     59.8851    164.5493   1.1551355230e+02   3.3979802233e+01    0.3446365    0.1883291  59.36  0.001723979    1.867    0.464
        29 -11.1122     94.7730    156.7241   1.0607118327e+02   3.0656117734e+01    0.2687048    0.2337849 -66.21 0.0004288694    1.143    0.125
        30 -12.2146    100.0119    150.3638   1.0367543654e+02   3.1240207255e+01    0.6211238    0.4871023 -29.54   0.00319284    1.704    0.413
        31  -9.0118    149.4264    156.2022   9.3041323896e+01   2.0561253668e+01    0.2151871    0.1412074 -61.79 0.0009515805    1.798    0.444
        32 -11.2361     81.6309    195.3544   1.1447327563e+02   2.4236564243e+01    0.5168471    0.3300909  63.66  0.002903957    1.446    0.308
        33 -11.1730    133.8073    145.4402   9.4430119677e+01   2.6044969791e+01     1.219684    0.3147489 -54.76  0.003001873    5.531    0.819
        34 -10.1666    113.1596    151.5053   1.0065927060e+02   2.8656642344e+01     0.276161    0.2126459  86.60 0.0006479563    1.456    0.313
        35  -9.6547    174.8604    149.1016   8.5874537730e+01   1.6653163004e+01    0.2279877    0.2071778 -89.36 0.0005628057    1.264    0.209
        36 -10.4005    143.9570    146.4433   9.2237988101e+01   2.3754223164e+01     0.503051     0.197296 -56.23  0.001595777    3.348    0.701
        37  -9.5863    222.9884    198.0329   8.6358605675e+01  -1.0844156419e+00    0.1577474    0.1349515   4.16 0.0008313702    1.064    0.060
        38  -8.9149    115.4276    144.2448   9.8673192195e+01   2.9886458232e+01    0.2066763    0.1377588 -68.46 0.0009362568    1.659    0.397
        39 -11.6508    109.8159    137.5576   9.8713212549e+01   3.2461407548e+01    0.6467987    0.3350555 -42.05  0.002591773    2.216    0.549
        40  -9.5448    128.4240    139.3874   9.4434171090e+01   2.8468563668e+01    0.2748924    0.2319446  41.86 0.0007664374    1.209    0.173
        41 -11.7899     98.8518    136.3391   1.0129020024e+02   3.4699596643e+01    0.2758951    0.2724488 -35.93 0.0003369373    1.161    0.138
        42 -11.1488    105.9042    130.8094   9.8296002419e+01   3.4741505098e+01    0.4023584    0.3306777 -71.08  0.001207559    1.209    0.173
        43 -10.5794    135.6159    129.2428   9.0352521964e+01   2.9253939955e+01    0.3964551     0.147514 -49.77  0.001309492    2.743    0.635
        44 -10.2033    161.1712    128.1617   8.4009286239e+01   2.3911827501e+01    0.4572174     0.301663  81.83  0.001707539    2.637    0.621
        45 -10.4972    116.4137    128.5294   9.5050152210e+01   3.3296369882e+01    0.2927441     0.258624 -22.00 0.0007167561    1.331    0.249
        46 -10.6215    104.4604    124.0341   9.7185019264e+01   3.6582229805e+01    0.3073865    0.2484953 -37.18  0.001047269    1.356    0.263
        47 -10.1829    121.3339    122.3454   9.2329131770e+01   3.3738084127e+01    0.4293909    0.2555717 -19.45  0.001385896    3.748    0.733
        48  -9.5784    152.9026    119.8275   8.3848217895e+01   2.7523193730e+01    0.2361626    0.2140976   1.10 0.0004983763    1.236    0.191
        49  -9.3892    111.1085    117.9479   9.3977551111e+01   3.6749364377e+01    0.2201713    0.2112873 -74.53 0.0003877245    1.012    0.011
        50  -9.8574    231.2778    113.6921   6.6581048427e+01   1.0745087239e+01    0.2600028    0.2378078   3.18 0.0008159212    1.119    0.107
        51 -10.3513    134.7774    112.7512   8.6464519114e+01   3.3068870663e+01    0.4518065    0.1396631 -43.79  0.001347146    3.221    0.690
        52 -10.3253    134.5553    105.3062   8.4537744041e+01   3.4734818018e+01    0.5527266    0.1473119 -46.32  0.001521897    3.755    0.734
        53  -9.9217    167.6586    112.3908   7.8524479964e+01   2.5656993279e+01    0.3473886    0.2593105 -78.57  0.001497896    1.832    0.454
        54 -11.4592    119.2509    110.5189   8.9934393704e+01   3.6831174557e+01    0.5714278    0.3863862  71.87  0.002386512    2.083    0.520
        55  -9.8149    205.3594    110.2454   7.0260232884e+01   1.7174252331e+01    0.3195317    0.2140735  46.36  0.000901714    1.543    0.352
        56 -10.0377     74.0661    103.7054   1.0115858656e+02   4.6380128490e+01    0.1913187    0.1802255 -61.09  0.000611759    1.053    0.050
        57 -10.2488    189.2838     88.9490   6.7622997994e+01   2.4899909175e+01    0.3976952    0.3355807 -66.80  0.001386905    1.296    0.228
        58  -9.4975     75.9086     74.1764   9.2655286091e+01   5.2743176848e+01    0.1952583    0.1844482 -66.06 0.0002369123    1.166    0.142
        59  -9.5697     73.4960    189.5222   1.1550358025e+02   2.6632330192e+01    0.2002928    0.1833501  88.02 0.0005616672    1.209    0.173
        60 -12.2787     67.0823    193.8327   1.1731682911e+02   2.6613613023e+01      0.39981    0.3633441 -43.02   0.00132739    1.569    0.363
        61  -9.0409    162.8304    235.8302   1.0366296682e+02   3.7485010604e+00     0.159044    0.1321254  63.37  0.001056426    1.329    0.247
        62 -12.7510    188.4653     35.3635   5.2228405249e+01   3.3553900685e+01     0.619312    0.5632215  34.56  0.001486935    1.218    0.179
        63 -11.6923    198.2024     23.4692   4.7477850927e+01   3.2503464723e+01    0.3677004    0.2634974 -20.46  0.001363612    1.580    0.367
        64  -9.6651    167.3419    228.0856   1.0174360953e+02   4.1456210283e+00    0.1610838    0.1497541  44.05 0.0005728354    1.145    0.127
        65  -9.6223     66.0370    187.6432   1.1686723059e+02   2.8064179124e+01    0.2125924    0.1574471 -84.15 0.0004739235    1.212    0.175
