#   1 NUMBER                 Running object number                                     
#   2 MAG_AUTO               Kron-like elliptical aperture magnitude                    [mag]
#   3 X_IMAGE                Object position along x                                    [pixel]
#   4 Y_IMAGE                Object position along y                                    [pixel]
#   5 X_WORLD                Barycenter position along world x axis                     [deg]
#   6 Y_WORLD                Barycenter position along world y axis                     [deg]
#   7 A_WORLD                Profile RMS along major axis (world units)                 [deg]
#   8 B_WORLD                Profile RMS along minor axis (world units)                 [deg]
#   9 THETA_WORLD            Position angle (CCW/world-x)                               [deg]
#  10 FWHM_WORLD             FWHM assuming a gaussian core                              [deg]
#  11 ELONGATION             A_IMAGE/B_IMAGE                                           
#  12 ELLIPTICITY            1 - B_IMAGE/A_IMAGE                                       
         1 -13.5548    204.2435     30.3756   1.5937255909e+01   2.9968177829e+01    0.8860663    0.8084152 -82.39  0.004160827    1.023    0.023
         2 -12.4031     67.4805      6.6247   3.6741180542e+01   6.4581296309e+01    0.4206831    0.2028504  56.78  0.001904785    2.848    0.649
         3  99.0000     63.8168    243.3653   9.0955910955e+01   1.6628483582e+01    0.2359894    0.2106999  -5.15  0.001683185    1.913    0.477
         4 -14.2303    246.1166    240.2384   5.6058836116e+01  -1.1063758046e+01     1.549021    0.7216427 -26.72  0.008430908    2.213    0.548
         5 -15.9748    117.8534    232.9860   7.9628944221e+01   1.0585408985e+01     4.890666     4.004721 -66.54   0.03184488    1.417    0.294
         6 -11.8753    179.4922    168.9138   5.5727074976e+01   1.1446442733e+01    0.5777347    0.5321711 -35.75  0.002826501    1.146    0.128
         7 -12.5210    139.2354    172.1613   6.5577279753e+01   1.8844460923e+01    0.3651841    0.2959859  52.98 0.0007995422    1.212    0.175
         8  -9.8738      9.0680    166.8633   9.5690288511e+01   3.8347918544e+01    0.1657343    0.1069599 -61.48  0.001049659    1.514    0.339
         9 -11.6720    106.5243    160.1058   7.1312178543e+01   2.7605861215e+01    0.3935833    0.2524492  85.21   0.00126785    2.354    0.575
        10 -12.2576      1.6790    155.3568   9.6413341124e+01   4.1464068723e+01    0.2006238    0.1217143 -72.46  0.001268112    1.320    0.242
        11 -13.0827    109.4622    146.0186   6.7828362442e+01   3.0364167967e+01    0.9176146    0.4807498 -69.50  0.003093134    2.780    0.640
        12 -12.1022    133.8855    146.4991   6.1628586391e+01   2.5555902599e+01     1.168011    0.2971637 -54.02  0.002780014    5.618    0.822
        13  -9.8978    119.0889    140.1741   6.4056343707e+01   2.9924860267e+01    0.2224178    0.2058959  -9.79 0.0004665291    1.200    0.167
        14 -10.6486    115.0803    135.7989   6.4155004614e+01   3.1708267271e+01    0.2326491    0.2025852  80.45  0.000599424    1.268    0.211
        15 -10.3933    125.4351    134.5484   6.1119642636e+01   2.9973367435e+01    0.3258139    0.2372667 -88.99 0.0009188585    1.968    0.492
        16 -12.9326    106.7211    130.9010   6.5332690403e+01   3.4415048363e+01      0.67102    0.4436879  47.37  0.003064148    1.566    0.361
        17 -12.0157     99.5141    130.0867   6.7150857571e+01   3.5896816478e+01    0.2876047    0.2587641 -42.59 0.0003690461    1.122    0.109
        18 -10.9419    135.7029    128.1800   5.6924685628e+01   2.9299659677e+01    0.3260996    0.1394466 -53.05  0.001083718    2.658    0.624
        19 -12.4316     71.4518    226.7576   8.8104507883e+01   1.8701202876e+01    0.2391645    0.1895162  84.31  0.001408172    1.165    0.142
        20 -10.2013    116.5106    125.0574   6.1286055176e+01   3.3924257774e+01    0.2325224    0.1492027 -47.27 0.0007313263    1.535    0.349
        21 -10.7555     84.6575    242.0782   8.7020352984e+01   1.4001907397e+01    0.1425469    0.1233492  81.91 0.0003477667    1.196    0.164
        22  -9.4295     67.2384    224.1807   8.8682990785e+01   1.9773703016e+01   0.09373347   0.08276296  44.09 0.0006342132    1.334    0.250
        23 -10.7838    104.6264    119.8670   6.3361574095e+01   3.7383393380e+01    0.2726313    0.2284742  -7.27 0.0005926332    1.427    0.299
        24 -12.2604     83.7853    109.8484   6.7093966080e+01   4.3303706778e+01    0.5356702     0.364509 -88.42 0.0007054423    2.280    0.561
        25 -11.9791    116.4843    102.6378   5.5538609254e+01   3.8996908610e+01    0.6056252    0.3783663  77.10  0.001997492    3.594    0.722
        26 -12.3239    118.8930    109.9846   5.6834869476e+01   3.6878167387e+01    0.4913537    0.4000761 -81.38  0.001764265    1.543    0.352
        27  -9.6412    156.5116    104.5551   4.5543064536e+01   2.9712747627e+01    0.1573011    0.1552623  26.45  7.84881e-05    1.012    0.012
        28 -10.3432    108.4974     96.6490   5.6189587068e+01   4.1904793947e+01    0.3232843    0.2215773  76.05  0.001149821    2.497    0.600
        29  -9.5948    109.1425     90.3906   5.4204517609e+01   4.3122351459e+01     0.212207    0.1427206  53.77 0.0009328772    1.710    0.415
        30 -10.5763     77.6074    218.5192   8.6080160168e+01   1.9454126798e+01    0.2164034    0.1915248  57.90 0.0006897943    1.170    0.145
        31 -11.1078     90.1405     87.3925   5.9180530423e+01   4.7317758901e+01    0.4220335    0.2418687  53.55  0.001082593    2.316    0.568
        32  -9.6195    125.4800     87.4528   4.8651494368e+01   4.0304546892e+01    0.1524979    0.1510736   3.40 9.723493e-05    1.048    0.046
        33 -10.1958     95.7389     86.9780   5.7290910882e+01   4.6408890346e+01     0.207495     0.192616 -35.89 0.0005467933    1.052    0.050
        34  -9.8731    152.6833     86.7007   4.1411131577e+01   3.4158861837e+01    0.1607563    0.1234909  14.30 0.0003574074    1.614    0.380
        35  -9.9783     71.7014    214.6763   8.6880378100e+01   2.1052159899e+01    0.1090465   0.09751765 -33.42 0.0002100373    1.627    0.386
        36 -10.6419    160.9077    201.3093   6.5990325939e+01   8.8992104061e+00    0.3457642    0.2015679 -49.92  0.001165414    1.969    0.492
        37 -11.3406    158.1833     73.8865   3.6339065206e+01   3.5168199744e+01    0.2341282    0.2137258 -73.57 0.0004198497    1.201    0.167
        38 -18.5957     38.1848    136.8290   8.5435849724e+01   4.2672568553e+01     16.52372     4.153524 -70.17   0.05292596    4.112    0.757
        39 -13.0908    167.1600     68.6099   3.2826372437e+01   3.3831897380e+01    0.5350786    0.4955389  27.67  0.001228101    1.120    0.107
        40  -9.9447    210.9763    198.6796   5.5157368918e+01   1.7989755993e-01    0.1904708    0.1536846  26.00 0.0004320554    1.106    0.096
        41  -9.6627    135.7230     66.0283   3.9264793482e+01   4.2001559422e+01    0.2064702    0.1941355 -19.26 0.0003113111    1.079    0.073
        42 -13.6572    182.0658     56.1987   2.6343466952e+01   3.2029381447e+01     1.206313    0.8906597  31.50  0.003991687    1.606    0.377
        43 -11.9955    188.3121     49.6390   2.3428458299e+01   3.1407404026e+01    0.4183322    0.3575814  30.65 0.0008200677    1.333    0.250
        44 -10.3809     17.4072    191.2290   9.5789522711e+01   3.2324042259e+01    0.0977005   0.08450363 -42.31 0.0004658738    1.671    0.401
        45 -10.7468     17.6138    185.7971   9.5348631783e+01   3.3465446815e+01     0.146645    0.1319075  85.25   0.00061601    1.246    0.198
        46 -10.6750    128.6788     54.6973   3.7342040913e+01   4.5550645501e+01    0.2495127    0.2413154  72.04 0.0003104181    1.144    0.126
        47 -11.4668     76.5445     51.3832   5.2097059446e+01   5.6734057097e+01    0.3108585    0.2265225  47.86 0.0009954303    1.647    0.393
        48 -10.5302    175.1955    179.5988   5.8851035030e+01   1.0251202486e+01    0.2536383    0.2126682 -15.86 0.0009991317    1.284    0.221
        49 -11.5715     67.9374    246.5306   9.0467023339e+01   1.5517182880e+01    0.1820212    0.1545613 -15.49  0.001102789    2.161    0.537
        50 -12.4782    172.4253    174.5911   5.8453844892e+01   1.1768197546e+01      0.56564    0.4536121   3.39  0.001171284    1.426    0.299
