#   1 NUMBER                 Running object number                                     
#   2 MAG_AUTO               Kron-like elliptical aperture magnitude                    [mag]
#   3 X_IMAGE                Object position along x                                    [pixel]
#   4 Y_IMAGE                Object position along y                                    [pixel]
#   5 X_WORLD                Barycenter position along world x axis                     [deg]
#   6 Y_WORLD                Barycenter position along world y axis                     [deg]
#   7 A_WORLD                Profile RMS along major axis (world units)                 [deg]
#   8 B_WORLD                Profile RMS along minor axis (world units)                 [deg]
#   9 THETA_WORLD            Position angle (CCW/world-x)                               [deg]
#  10 FWHM_WORLD             FWHM assuming a gaussian core                              [deg]
#  11 ELONGATION             A_IMAGE/B_IMAGE                                           
#  12 ELLIPTICITY            1 - B_IMAGE/A_IMAGE                                       
         1 -17.4401    173.9915     68.7732   6.9974470034e+01   3.2983992769e+01     6.503601     3.328109  43.63   0.02693272    2.129    0.530
         2 -16.5228    201.1784     92.7464   7.0782977249e+01   2.2410739729e+01     2.922208      2.48708  84.10   0.01564665    1.187    0.158
         3 -17.1478    208.9157    145.3316   8.1413656226e+01   1.0318257083e+01      4.28836     2.691891 -14.71   0.01613116    2.855    0.650
         4 -18.9411    184.5936    134.3108   8.3917626735e+01   1.7884691753e+01     9.799859     4.526751  49.53   0.03662438    2.216    0.549
         5 -12.4757    117.6534     39.7942   7.4202945415e+01   4.9770241907e+01    0.4707953    0.2841471  15.07  0.001559117    2.430    0.588
         6 -11.2827     12.2314     14.7982   1.0049658399e+02   6.7982196938e+01      0.25201    0.1359895 -39.44  0.001724279    1.636    0.389
         7 -10.0199     28.1557     12.1804   9.3054157025e+01   6.6901742462e+01    0.1299562    0.1087779 -10.41  0.000395034    1.309    0.236
         8 -12.6207    248.4022      5.1839   4.5813476331e+01   2.4781708512e+01    0.4252984    0.2506772 -30.05  0.002460364    2.325    0.570
         9 -10.5363     26.2937      7.5817   9.2036975448e+01   6.7635471178e+01    0.1397607   0.08086655  14.75 0.0009479762    1.553    0.356
        10 -12.6741    238.4643      4.2623   4.6497639195e+01   2.6974107426e+01    0.3522597    0.2087741 -40.91  0.002133496    1.797    0.444
        11 -10.0620      8.8392      4.8541   9.8255620296e+01   6.9514518149e+01    0.1221808   0.09826085  -4.83 0.0003902622    1.302    0.232
        12 -10.6963    201.8693      3.8423   5.0052992909e+01   3.5053066466e+01    0.1702385     0.120892 -84.37  0.000488701    1.282    0.220
        13 -10.9157     39.8629      2.5274   8.4792065888e+01   6.6682009006e+01    0.2054938    0.1227677  32.46  0.001139437    1.562    0.360
        14 -10.3205    178.3442      5.2434   5.3246411156e+01   4.0241716483e+01    0.2068551    0.1480375 -50.30  0.001270897    1.540    0.351
        15  -9.3639     26.4610      1.4771   8.9559810249e+01   6.8302599568e+01    0.1035063   0.07594253  -1.79 0.0001026713    1.041    0.040
        16 -12.7783    127.2383    237.8333   1.1573525679e+02   7.1422032321e+00    0.3000625    0.2385798  82.36 0.0005228007    1.298    0.230
        17 -12.1826    201.9705    249.4185   1.0276583500e+02  -7.7066418057e+00    0.2312265     0.197324  28.04 0.0001563877    1.015    0.015
        18 -12.0439    190.7558    249.3236   1.0490774858e+02  -5.8339273354e+00    0.4469453    0.1973334  41.88 0.0001429285    1.973    0.493
        19 -11.0707    183.3226    237.3125   1.0446165189e+02  -2.5781734922e+00    0.4282403    0.1857446  31.39  0.001704707    2.696    0.629
        20 -11.1043    245.5320    236.5037   9.2419467242e+01  -1.2608601121e+01     0.183997     0.152643 -29.88 0.0006123689    1.289    0.224
        21 -10.5472    245.6658    233.6594   9.1895372161e+01  -1.2213979573e+01    0.2029854    0.1383529 -17.98 0.0007538893    1.463    0.317
        22 -11.7211    233.0414    236.1336   9.4655695978e+01  -1.0659421858e+01    0.3423987    0.2310397  17.35  0.001264534    1.486    0.327
        23 -10.7091    102.6776    236.3678   1.2037976524e+02   1.1506780613e+01     0.290433     0.171133  82.85  0.001405222    2.150    0.535
        24  -9.5736    143.6725    236.3017   1.1224150429e+02   4.5898364624e+00    0.1370804   0.09508368  68.88 0.0002981515    1.642    0.391
        25  -9.8172    119.2816    234.3725   1.1685608962e+02   9.1689304098e+00    0.1216235    0.1051778 -17.34 0.0007013449    1.701    0.412
        26 -11.9142    175.5649    231.0722   1.0500475836e+02  -1.1095152039e-01     0.379278    0.3120319 -37.38  0.002234047    1.361    0.265
        27  -9.7030     81.6960    230.2795   1.2373954522e+02   1.6003235683e+01    0.1309441    0.0818532  70.26 0.0001946707    1.550    0.355
        28 -10.6157     69.3003    230.1221   1.2608782356e+02   1.7835688886e+01    0.1874849    0.1567069  54.83 0.0003451852    1.258    0.205
        29 -10.0790    183.4707    228.9468   1.0306167613e+02  -1.1409744796e+00    0.1863813    0.1343006 -47.62 0.0007898326    1.542    0.351
        30 -11.6411    197.2370    226.5224   9.9893426094e+01  -3.1536894513e+00    0.2661124    0.2277227  38.35 0.0002667137    1.099    0.090
        31 -11.7600    203.2338    225.4365   9.8515127754e+01  -4.0161177572e+00    0.3796939    0.2253347  37.71  0.001527579    1.558    0.358
        32 -11.9076    205.5764    221.2585   9.7314862096e+01  -3.7048500999e+00    0.3484786    0.2404579 -49.17  0.001523314    1.642    0.391
        33 -12.6064    244.8017    222.7684   9.0103434832e+01  -1.0443498846e+01    0.5329846    0.3535385  -4.15 0.0009813398    1.738    0.425
        34 -12.3851    163.7889    223.8694   1.0623463250e+02   3.3511091489e+00    0.5815003    0.1937868  41.88  0.002128184    2.725    0.633
        35 -10.7847    175.5289    220.5175   1.0325910249e+02   1.8391251783e+00    0.1374437    0.1263528  40.67 0.0001408786    1.004    0.004
        36 -11.9848    170.5249    224.4017   1.0493744139e+02   2.0234480703e+00    0.3553075    0.2924523  63.14  0.001455934    1.298    0.230
        37 -12.2126    182.1028    221.7130   1.0211645833e+02   4.1609814381e-01    0.4442652    0.2850366  30.49  0.001362377    1.606    0.377
        38 -10.7555    187.9938    222.2328   1.0100850589e+02  -7.4602687754e-01    0.3133382    0.2277365 -85.00  0.001514991    2.260    0.558
        39 -10.9154    216.9476    221.9916   9.5217265120e+01  -5.7943899285e+00    0.1958858    0.1778719  18.24 0.0003939348    1.042    0.041
        40 -12.3833    130.4093    220.4190   1.1262822878e+02   1.0064632617e+01    0.4406734    0.3020559 -35.68  0.002191739    2.013    0.503
        41  -9.4117     30.3283    222.2683   1.3251856032e+02   2.4435789470e+01    0.0998861   0.08509978 -58.80 0.0002348094    1.577    0.366
        42 -10.9195    237.1147    220.7047   9.1147032824e+01  -8.9134195155e+00    0.2588598    0.2154468  74.35   0.00115222    1.914    0.477
        43 -10.4689    199.6751    220.8002   9.8407216011e+01  -2.5827222367e+00    0.2638109    0.1709011  18.30  0.001266207    1.911    0.477
        44 -13.3174    123.6954    215.9514   1.1337105382e+02   1.2177262052e+01    0.6523906    0.5669336  49.42  0.003652576    1.129    0.114
        45 -12.1331    128.7359    211.2474   1.1158803581e+02   1.2280914725e+01    0.2964362    0.2485866 -71.97 0.0007483485    1.219    0.180
        46 -10.9142    230.5385    220.1748   9.2284647592e+01  -7.7643243512e+00    0.2487084    0.1658936  52.29 0.0009379555    1.874    0.466
        47 -15.0509    224.7215    209.9135   9.1498408590e+01  -5.0720152908e+00     3.635814    0.9416696  43.50   0.01199347    3.906    0.744
        48 -16.6197    146.3939    192.3347   1.0455876666e+02   1.3093047801e+01     4.107944     2.708565  69.49   0.01819956    1.953    0.488
        49 -10.9149    173.0945    247.3123   1.0803272332e+02  -2.5065299548e+00    0.1994617    0.1881566 -74.87 0.0003261761    1.240    0.194
        50 -12.4716    138.1885    215.4795   1.1023938564e+02   9.6910435563e+00    0.4476724    0.2784682 -47.70  0.002185673    1.785    0.440
        51  -9.8865     56.5098    170.5283   1.2161060305e+02   3.2858418944e+01    0.1323932    0.1121863 -79.32 8.275866e-05    1.021    0.021
        52 -10.2823     38.0916    165.8940   1.2518797734e+02   3.6055852517e+01    0.1908159    0.1434515  86.48 0.0003283429    1.230    0.187
        53 -12.8493     92.1351    161.3636   1.1168095709e+02   2.9979760279e+01    0.5160403    0.3374226  15.82  0.002268548    2.440    0.590
        54 -10.6238     65.2779    162.9807   1.1845574477e+02   3.3508357739e+01    0.1976749    0.1543796 -70.93  0.000495228    1.122    0.108
        55 -10.4877    248.4572    159.7718   7.7186963288e+01  -2.7628282721e-01    0.2381241    0.2010758 -74.33 0.0008002484    1.460    0.315
        56 -11.5047     42.6708    161.1378   1.2351891194e+02   3.6663378243e+01    0.5723612    0.1475531 -70.13  0.001768528    4.508    0.778
        57 -10.7771     86.3750    158.9130   1.1266221529e+02   3.1463308029e+01    0.2026772    0.1704325 -67.25 0.0006153008    1.087    0.080
        58 -12.0042    102.6949    156.0942   1.0810633344e+02   2.9493554772e+01    0.5019814    0.2468065 -70.75  0.001788511    2.883    0.653
        59 -12.6932     82.4530    151.6508   1.1234565889e+02   3.3782987043e+01    0.6883918    0.3698597 -85.82  0.002432383    3.450    0.710
        60 -11.7369     93.9914    214.4613   1.1937084857e+02   1.7468218608e+01    0.3164471     0.241089  41.65 0.0008814475    1.385    0.278
        61 -11.0632     50.1203    149.7933   1.2010462193e+02   3.8474736537e+01    0.1962452    0.1585511 -89.26 0.0004773641    1.197    0.165
        62 -11.0404     56.9937    145.7500   1.1774964814e+02   3.8613558632e+01     0.224814    0.1673914 -64.85 0.0005089107    1.159    0.137
        63 -10.9566     82.1436    144.1042   1.1103102997e+02   3.5616851469e+01    0.2057583    0.1791393 -44.58 0.0002902223    1.187    0.158
        64 -11.9953    178.6227    213.2487   1.0136208788e+02   2.6492565252e+00    0.3621125     0.267753 -79.81  0.001786769    1.931    0.482
        65 -11.8302     71.0140    137.9108   1.1276201394e+02   3.8655642983e+01    0.3778942    0.2196687  57.39  0.001724532    2.202    0.546
        66 -10.1445     66.4372    134.4938   1.1333019571e+02   4.0060972500e+01    0.1365957    0.1195347 -62.98 7.373707e-05    1.008    0.008
        67 -10.5458     80.5642    137.1766   1.1010984416e+02   3.7480250901e+01    0.2171452    0.1881591  60.35 0.0006591282    1.242    0.195
        68 -11.7390    174.8623    211.2343   1.0179029557e+02   3.7421586568e+00    0.3376716    0.1939752 -44.86  0.001328297    1.866    0.464
        69 -11.2605     77.9808    131.9828   1.0976719695e+02   3.9067020858e+01     0.262426    0.1735908 -40.80  0.001300901    1.571    0.364
        70 -10.0688     30.3491    214.2726   1.3183993811e+02   2.6114499153e+01    0.1033386   0.08607722 -53.17 0.0002945783    1.629    0.386
        71 -11.8781     87.9176    127.6110   1.0618714577e+02   3.8594803318e+01    0.3106187    0.2364412  -8.40  0.001427504    1.791    0.442
        72 -16.1717    169.6291    197.1367   1.0035146487e+02   7.5743176731e+00     3.746882     1.464793  43.01   0.01386507    2.442    0.591
        73 -11.1051     81.1231    125.0245   1.0748335490e+02   4.0216761059e+01    0.2083094    0.1850704 -48.89  0.000325949    1.054    0.051
        74 -12.3859    146.2031    208.5343   1.0740765298e+02   9.6639743549e+00    0.4504738    0.4104484   3.03  0.001751586    1.331    0.249
        75 -10.4142     63.8233    122.3621   1.1169081785e+02   4.3188121815e+01    0.1718153    0.1618684 -34.41 0.0005189072    1.122    0.109
        76 -10.8047     68.8573    120.8954   1.0999821694e+02   4.2871585151e+01    0.1975282    0.1669714 -39.97 0.0002957843    1.155    0.134
        77 -10.5292     84.8491    116.8236   1.0466149115e+02   4.1519482460e+01    0.2071709    0.1816818 -25.46 0.0005176166    1.201    0.168
        78 -16.7339    186.8499    109.8990   7.7677500277e+01   2.2415790880e+01     2.005814     1.567886  89.36  0.007411145    1.516    0.340
        79 -10.8248      9.9248    116.9750   1.2539312370e+02   4.9496916889e+01     0.175446    0.1357207 -60.88  0.000323802    1.028    0.028
        80 -16.1500    225.6850    180.0537   8.5490142158e+01   1.4354561550e-01     2.259784     1.738073 -10.02   0.01183535    1.503    0.334
        81 -11.1129     67.1831    114.8217   1.0919046894e+02   4.4457888323e+01    0.1952473    0.1757157 -74.65 0.0004307439    1.164    0.141
        82 -11.3742      5.8217    114.1869   1.2606567040e+02   5.0358845373e+01    0.2029018    0.1283319 -74.60 0.0005867684    1.379    0.275
        83 -10.8721     76.8451    202.0250   1.2133976214e+02   2.2834736915e+01    0.2970428    0.1591861 -73.90 0.0009047888    1.871    0.466
        84 -10.9471     71.7086    108.9097   1.0659691214e+02   4.5165254878e+01     0.224847    0.1969867  44.03 0.0003343137    1.282    0.220
        85 -11.3153     85.4360    106.6193   1.0212226965e+02   4.3680297226e+01    0.3288414    0.2055137 -39.61 0.0009826135    1.571    0.364
        86 -11.1507    241.4313    104.6070   6.6712520533e+01   1.1324533094e+01    0.3183472    0.1823301 -42.48  0.001153549    1.614    0.380
        87 -11.7108     85.6780     99.9135   1.0041302411e+02   4.5076280118e+01     0.361531    0.1949733 -38.97  0.001623358    1.862    0.463
        88  -9.9188    110.6578    202.6914   1.1417462991e+02   1.7310940140e+01    0.1324485    0.1132811 -13.54 0.0006379616    1.692    0.409
        89 -11.0812     73.0007     97.7358   1.0359368755e+02   4.7388019564e+01    0.2564188      0.20201  70.50  0.001399044    1.756    0.431
        90 -10.2540     39.9918     97.7099   1.1348058054e+02   5.1238044190e+01    0.1627421    0.1450509 -38.96 0.0002709616    1.083    0.076
        91 -11.8214     46.3206    200.1999   1.2741714755e+02   2.7320230966e+01    0.3010516    0.1929674 -62.38 0.0008687972    1.491    0.329
        92 -10.5549     32.9841     94.9280   1.1500737229e+02   5.2460875540e+01    0.1885726    0.1458968 -46.89 0.0005135399    1.057    0.054
        93 -11.2459     75.3796     93.8510   1.0192377507e+02   4.7864130780e+01    0.3326849    0.1867992  42.41  0.000732212    2.006    0.502
        94 -10.7350     92.1452     93.1448   9.6809634677e+01   4.5450217387e+01     0.179721    0.1636509 -80.09            0    1.303    0.233
        95 -10.7755     99.2472     91.5559   9.4352519559e+01   4.4576432828e+01    0.1846513    0.1338056  24.48  0.000584539    1.528    0.346
        96 -11.2056    105.5199     93.0790   9.2991494722e+01   4.3162995817e+01    0.2488641    0.2002137  59.56 0.0006430408    1.462    0.316
        97 -11.3483     87.8747     88.9793   9.6956293985e+01   4.6977696014e+01    0.2890921     0.202326  18.73  0.001023467    1.660    0.398
        98 -11.0718     95.8598    196.0247   1.1641672963e+02   2.1271728766e+01    0.2116491    0.1836527  63.75 0.0002502037    1.098    0.089
        99 -10.6039     79.9235     88.0243   9.9064939559e+01   4.8388895158e+01    0.2004422    0.1821514 -31.38 0.0003705758    1.026    0.025
       100 -10.4427    240.0525     82.9155   6.2271829830e+01   1.5441646296e+01    0.2097381    0.1807582 -66.88 0.0006525152    1.021    0.021
       101 -10.7736    101.5025    194.5292   1.1494730845e+02   2.0690070030e+01    0.2862229    0.1334169  40.04 0.0008674673    2.159    0.537
       102 -12.7977    118.2559    191.9040   1.1078675920e+02   1.8408112889e+01    0.5812688    0.4453146 -61.99  0.002617922    1.298    0.230
       103 -12.5772    222.8454     76.9845   6.3509130968e+01   2.0239319035e+01    0.3862973    0.2796556 -74.37  0.000769456    1.454    0.312
       104 -12.2708    156.2385    245.0403   1.1100475792e+02   7.9797643206e-01    0.3192316    0.2667789  10.11  0.000819521    1.487    0.327
       105 -10.2465    230.1736     75.3206   6.2050539761e+01   1.8880832685e+01    0.3117508    0.1744531 -25.28  0.001272203    2.803    0.643
       106 -11.6029    100.1512     71.5698   8.8525372686e+01   4.8198529475e+01    0.2377019    0.2162504 -22.07  0.000272754    1.064    0.060
       107 -10.1738    244.9867    191.2617   8.4122300750e+01  -5.3028216036e+00    0.1844724    0.1640195   4.55 0.0004437566    1.085    0.079
       108 -11.0658     53.7090     68.6716   1.0207757856e+02   5.5554094484e+01    0.2740763    0.1462019 -42.91 0.0008905823    1.634    0.388
       109 -10.1419     43.8062     68.8321   1.0540053952e+02   5.6604182052e+01    0.1471815    0.1363402 -48.97  0.000339092    1.275    0.216
       110 -11.6950     58.6558    216.5690   1.2671317444e+02   2.2164160282e+01    0.3984849    0.3181964  14.43  0.001439442    2.059    0.514
       111 -11.3477    242.9615     65.7267   5.8253113285e+01   1.7651374307e+01    0.4063123    0.2297346  88.12  0.001456188    2.280    0.561
       112 -10.1629     87.6567    191.6893   1.1759374423e+02   2.3560430858e+01    0.1305956    0.1084871 -27.97 0.0007045521    1.700    0.412
       113 -17.1603    190.7515    169.0536   9.0256429148e+01   9.2047436154e+00     2.798842     2.704363  75.94   0.01564058    1.070    0.065
       114 -16.1906    230.0535    122.9324   7.2553061839e+01   1.0287879442e+01     1.917957     1.442095 -61.75  0.009822891    1.374    0.272
       115  -9.9762    230.1033     63.2894   5.9442588062e+01   2.0853285806e+01    0.1857229    0.1565782 -86.95 0.0003412016    1.067    0.063
       116 -11.4099     30.1156     62.2561   1.0829390460e+02   5.9089987193e+01    0.2079043    0.1518896 -36.93 0.0003264614    1.096    0.087
       117 -12.5170    142.6029    215.7806   1.0935401087e+02   8.8267405383e+00    0.4659984    0.3141279 -76.33  0.001881821    1.876    0.467
       118 -10.6942      9.5375     60.0131   1.1484246275e+02   6.0988614127e+01     0.166112    0.0858318 -52.88 0.0004501585    1.534    0.348
       119 -10.5510    233.8396     58.4091   5.7896686816e+01   2.0786600525e+01    0.3670032    0.2098603  45.13  0.001383361    2.324    0.570
       120 -12.0669    138.4410     57.9520   7.4598689341e+01   4.2808610346e+01    0.3287817    0.2472015   6.37  0.001074024    1.715    0.417
       121 -15.5842    217.6343    166.2299   8.4197597995e+01   4.3462117774e+00     1.554392    0.8775537  35.95  0.006751602    1.982    0.496
       122 -16.5084    161.2115    111.2001   8.3553906966e+01   2.7980311325e+01     2.462812     2.094388 -27.79  0.008052514    1.298    0.229
       123 -16.7395    172.4397    155.1358   9.1258634107e+01   1.6024271099e+01     3.030815     1.897604  17.70  0.008458276    2.854    0.650
       124 -10.3509      1.5962     57.8626   1.1708773021e+02   6.1819700556e+01    0.1519138    0.1090718 -47.80  0.000592641    1.105    0.095
       125  -9.5196    241.3308     56.6681   5.6580132688e+01   1.9415448733e+01     0.142785   0.08789371 -71.95 0.0007052034    1.722    0.419
       126 -10.0950    132.8932    246.4979   1.1577536782e+02   4.5456558846e+00    0.1950594    0.1107909  45.59 0.0006685556    1.511    0.338
       127 -12.2714    119.3567     55.5757   7.8557375221e+01   4.7184839585e+01    0.4371323    0.2515798 -16.45  0.001155461    2.505    0.601
       128 -13.0299    126.4500     53.2951   7.6102229815e+01   4.6072828242e+01    0.5647407    0.2858244  46.89  0.001497968    1.833    0.454
       129 -11.0775    112.4870     55.2048   8.0240072938e+01   4.8603265600e+01    0.3126755    0.2241629  55.71 0.0008228214    1.531    0.347
       130 -12.0009    249.3315     52.9364   5.4864758900e+01   1.8267310770e+01    0.2255059    0.1851481 -74.25 0.0002726447    1.008    0.008
       131 -12.3917    243.7167    243.3875   9.3941983709e+01  -1.3324370797e+01    0.2570124    0.2385728  -4.06  0.000864427    1.254    0.202
       132 -12.7620    242.4626     48.4707   5.4762879973e+01   2.0397295515e+01    0.2856147    0.2438899  65.63  0.000720636    1.307    0.235
       133 -13.0403    111.1098    184.4364   1.1116573719e+02   2.1375691209e+01    0.7637597    0.4132761 -73.13  0.003083558    2.360    0.576
       134 -12.8665    141.1611     48.1711   7.1189660889e+01   4.3655031008e+01    0.5289706     0.280425 -36.80  0.001624535    2.020    0.505
       135 -12.2652    145.3357     42.7773   6.8757499671e+01   4.3472034037e+01    0.3115111    0.2208167  55.88 0.0005030712    1.289    0.224
       136  -9.9972     29.4606     49.4690   1.0498717141e+02   6.1371533019e+01     0.114959   0.08900081 -25.41 6.450625e-05    1.009    0.009
       137 -11.0219    230.1713     47.2856   5.6005675631e+01   2.3266546203e+01    0.2235405    0.1829481 -68.11 0.0004005828    1.096    0.087
       138 -12.6300    156.0021     43.8485   6.6886064628e+01   4.0918345962e+01    0.4959524    0.2788423 -33.86  0.002380511    1.956    0.489
       139 -10.1224    247.5565    185.5058   8.2528368955e+01  -4.7363483207e+00    0.2092579    0.1303609  39.62 0.0005372329    1.698    0.411
       140  -9.5418    250.6780    184.6618   8.1805763100e+01  -5.1156926497e+00    0.1386844   0.09792521  -5.50 0.0007050557    1.715    0.417
       141  -9.8013     68.2653     43.9635   8.9784453159e+01   5.7785688635e+01    0.1487136   0.09716031 -34.13 0.0004440194    1.464    0.317
       142 -10.0342    229.2841    245.6256   9.6979099275e+01  -1.1481113874e+01    0.1097483   0.09939348  83.96 0.0007015433    1.712    0.416
       143 -10.7194     93.5252     40.9617   8.1030456042e+01   5.4183183809e+01    0.1774804    0.1196623 -29.87 0.0003536962    1.510    0.338
       144  -9.8304     17.3589    184.7542   1.3165447220e+02   3.3859241036e+01    0.1615445   0.08535639 -67.08 0.0003163993    1.542    0.351
       145 -11.8277    132.4217     39.7051   7.0681187294e+01   4.6704689888e+01    0.2486131    0.2314003  55.83 0.0004894584    1.089    0.081
       146 -12.3903    133.5191     33.7814   6.8692578260e+01   4.7217986359e+01    0.3909665    0.3091782  20.34  0.002015255    1.381    0.276
       147 -10.3290    239.9775    183.9659   8.3597154696e+01  -3.1574389594e+00    0.1998228     0.180728 -20.60 0.0003810945    1.015    0.014
       148 -11.6088    166.3819     38.3247   6.3454541958e+01   3.9263363280e+01    0.3123546    0.2525622  44.85  0.001331018    1.247    0.198
       149 -10.4327     18.7618     39.0252   1.0585376349e+02   6.3946463619e+01    0.1548694    0.1107393 -29.73 0.0002979471    1.070    0.065
       150 -12.5679    125.7160     45.2675   7.3894672643e+01   4.7377414630e+01    0.4439411    0.3119664 -73.24  0.001769555    2.348    0.574
       151 -10.3191     55.4516     38.5796   9.2317709752e+01   6.0300022933e+01    0.1176578   0.09574664  -5.56 1.922954e-05    1.008    0.008
       152 -10.5603     89.1733     37.2011   8.1066655171e+01   5.5445979150e+01    0.1522207    0.1472695  43.66 0.0003464945    1.312    0.238
       153 -11.2051     85.5269     33.7161   8.0986485467e+01   5.6520323350e+01    0.2898267    0.1944919 -11.55 0.0007943889    1.583    0.368
       154 -13.0901    198.6879     32.5035   5.6892067328e+01   3.2486623791e+01    0.3641003    0.2721869  67.89 0.0005931526    1.190    0.160
       155 -10.9931    188.0435     33.0998   5.8576419367e+01   3.4887788840e+01    0.2015709    0.1707015  84.37  0.000414005    1.065    0.061
       156 -12.1963    214.4057     31.6349   5.4615130678e+01   2.8981770722e+01    0.2812295    0.2030906  75.77 0.0002090478    1.220    0.180
       157 -10.3475    118.3067     30.6863   7.1233148320e+01   5.0777982261e+01    0.1197655    0.1006562 -81.42 0.0002713845    1.623    0.384
       158 -10.1718    125.3008     28.6564   6.8986955534e+01   4.9573689015e+01    0.1230376   0.09951865 -75.96 0.0004492113    1.677    0.404
       159 -10.2285     28.8668     28.1537   9.8502949450e+01   6.4726210377e+01    0.1517029    0.1237243 -15.77 0.0003199976    1.155    0.134
       160 -11.2948     71.0866     26.7708   8.3060413164e+01   5.9704287772e+01    0.1939803    0.1609531   9.01 0.0003061357    1.027    0.027
       161 -12.0122    216.5665     25.5961   5.3044176986e+01   2.9261330170e+01    0.2768638    0.1850009 -73.79  0.000778008    1.471    0.320
       162 -11.8585     85.9043    180.0532   1.1625204016e+02   2.6533435206e+01    0.5492058    0.1930855 -59.68  0.002066648    2.635    0.621
       163 -10.9080    210.0480     25.3233   5.3775703266e+01   3.0775595531e+01    0.3126347    0.1365858  72.77  0.001327702    2.220    0.550
       164 -11.3855    201.5483     23.5196   5.4449244024e+01   3.2942005751e+01    0.2128614     0.102954 -47.69 0.0006177435    2.136    0.532
       165 -10.9779    175.1422     22.4599   5.7922223001e+01   3.9166549357e+01    0.1933558    0.1817267 -66.44 0.0003705358    1.170    0.146
       166  -9.6274    116.9795     35.0076   7.2892228752e+01   5.0519696783e+01    0.1533245    0.1342536  34.54 0.0003245085    1.013    0.013
       167 -12.3838     87.6625    173.5998   1.1482610151e+02   2.7780763566e+01    0.3866947    0.2562008 -74.30  0.001920934    1.512    0.339
       168 -12.1116    214.1938     19.6325   5.2046262543e+01   3.0525403749e+01    0.2384704    0.1912895  80.06  0.000272947    1.072    0.067
       169 -11.2214    229.3152     19.0985   5.0269822247e+01   2.7219764848e+01    0.3010813    0.1392131 -67.39  0.001255653    2.631    0.620
       170 -11.3262     20.5309     18.4121   9.8391342415e+01   6.6820571976e+01    0.1793789    0.1406299 -13.26  0.001429319    1.135    0.119
       171 -11.5321    238.5518     16.4559   4.8817013369e+01   2.5533499884e+01    0.1845059     0.157459 -54.18  0.001026291    1.309    0.236
       172 -11.5985     49.5562     16.4502   8.6605915692e+01   6.3951323338e+01    0.2773733    0.1664708  19.86  0.001771503    1.524    0.344
       173 -12.1606     95.7215    176.3408   1.1338412047e+02   2.5856644495e+01    0.3883338    0.1882446 -65.40  0.001403855    2.135    0.532
       174  -9.6782     51.5098    245.5197   1.3074040664e+02   1.7136936412e+01    0.1198323   0.08908425  75.41  5.49886e-05    1.019    0.018
       175  -9.9911      1.7502     15.0208   1.0497845643e+02   6.8685335086e+01    0.1395128   0.09509663 -25.89 0.0002862479    1.063    0.059
       176 -10.6449     89.8930     13.8583   7.2989668446e+01   5.8032894872e+01    0.1815756     0.134184  20.15 0.0004641986    1.223    0.182
       177 -10.0622     16.8192    176.6416   1.3097912890e+02   3.5705653648e+01    0.1431176    0.0974998  54.31 0.0001555488    1.532    0.347
       178 -11.1026    234.3634    243.8236   9.5732172900e+01  -1.1994337207e+01    0.1706834    0.1052202 -24.83 0.0009511644    1.719    0.418
       179 -12.5295    188.8504    242.0950   1.0413872451e+02  -4.3394276954e+00    0.2897214    0.2459435  30.35 0.0004404405    1.049    0.047
       180 -10.3634    121.3503    242.9637   1.1756276882e+02   7.1523231969e+00    0.2368473    0.1508166  54.99  0.001140337    1.391    0.281
       181 -10.5518     81.9658    242.9565   1.2505232430e+02   1.3397594111e+01    0.1906316    0.1469868  70.15 0.0003499545    1.052    0.049
       182 -13.5242    101.1772    172.8339   1.1150901660e+02   2.5783945391e+01    0.4328109    0.3504674 -77.44 0.0008055927    1.191    0.161
       183 -10.0676      2.4959    242.4793   1.3852927124e+02   2.3349785376e+01     0.107163   0.07521722  82.36 2.582072e-05    1.046    0.044
       184 -11.2506    222.4542    240.9312   9.7467445723e+01  -9.7197486785e+00    0.2301342    0.1663053  48.56 0.0008021545    1.571    0.364
       185 -10.4351    208.2711    241.1645   1.0021263015e+02  -7.4578793560e+00    0.2293948    0.1557596  26.99  0.001238371    1.385    0.278
       186 -10.2073    110.1615    240.7881   1.1946354164e+02   9.4212169484e+00    0.1578191    0.1454094  43.74 0.0003419719    1.283    0.221
       187 -12.2282     97.9993    166.4997   1.1116481036e+02   2.7809631481e+01    0.3167427    0.2346199  55.05  0.001254359    1.380    0.275
