#   1 NUMBER                 Running object number                                     
#   2 MAG_AUTO               Kron-like elliptical aperture magnitude                    [mag]
#   3 X_IMAGE                Object position along x                                    [pixel]
#   4 Y_IMAGE                Object position along y                                    [pixel]
#   5 X_WORLD                Barycenter position along world x axis                     [deg]
#   6 Y_WORLD                Barycenter position along world y axis                     [deg]
#   7 A_WORLD                Profile RMS along major axis (world units)                 [deg]
#   8 B_WORLD                Profile RMS along minor axis (world units)                 [deg]
#   9 THETA_WORLD            Position angle (CCW/world-x)                               [deg]
#  10 FWHM_WORLD             FWHM assuming a gaussian core                              [deg]
#  11 ELONGATION             A_IMAGE/B_IMAGE                                           
#  12 ELLIPTICITY            1 - B_IMAGE/A_IMAGE                                       
         1 -13.7690     26.6665     59.6560   9.4264507371e+01   6.1983506927e+01     1.190862    0.8423945  79.24  0.001807821    2.944    0.660
         2 -14.5497     40.3927     38.4619   8.0764970741e+01   6.4437465406e+01    0.6005144    0.4133586 -18.44  0.001672836    1.309    0.236
         3 -12.8084    216.0854     13.9681   3.3174008565e+01   3.0419868632e+01    0.4751492    0.3891924 -87.48  0.002597636    1.079    0.073
         4 -11.9291     90.7973     18.6499   5.4269805096e+01   5.8391781497e+01    0.2927289    0.2273041  54.85 0.0005171275    1.282    0.220
         5 -11.3481    130.2862     14.9436   4.4136745498e+01   4.9959009805e+01     0.313046    0.1727393  51.47 0.0008243396    1.578    0.366
         6 -12.8440     46.5232     11.5711   6.6246859956e+01   6.7336356397e+01    0.2405982    0.1882791  12.74 0.0004398434    1.016    0.016
         7  -9.6522    114.6273     12.1822   4.6201346226e+01   5.3806313970e+01    0.1599335    0.1180945   3.95 0.0003551086    1.559    0.358
         8 -13.4683     64.6679     10.7237   5.8953292923e+01   6.4327698795e+01    0.3857998    0.2504183  37.20 0.0009283177    1.305    0.234
         9 -11.5557     36.6600     11.0849   7.0343213871e+01   6.8868720369e+01    0.2042084    0.1551118  18.80 0.0002712744    1.148    0.129
        10 -11.7799    204.4308      9.9054   3.3294270556e+01   3.3353730744e+01    0.3479761     0.207175 -66.91  0.001975625    1.638    0.389
        11 -10.5965    145.5979     10.8056   4.0345858517e+01   4.6759180833e+01    0.1632249    0.1132066 -42.82  0.000258166    1.582    0.368
        12 -13.2141    193.4535      9.0473   3.4118042698e+01   3.5866823979e+01    0.3616445    0.2174952  65.74 0.0008028068    1.522    0.343
        13 -10.6448    114.9363      7.0732   4.4355163626e+01   5.4174719386e+01    0.1892103    0.1617719  57.51 0.0004255233    1.052    0.050
        14 -13.2914     55.0272      5.2151   5.9841906171e+01   6.6588567483e+01    0.7848324     0.342418  52.65  0.003759914    2.504    0.601
        15 -12.3797    102.4366      2.9610   4.5413030509e+01   5.7292653050e+01    0.2414175    0.1901488  54.31  0.000353489    1.095    0.087
        16  -9.8543     25.0109    224.4574   1.1921322746e+02   2.3626915698e+01    0.1592416    0.1050198  37.51 0.0003328117    1.510    0.338
        17 -10.9929     61.0667    248.3997   1.1387924581e+02   1.4776171896e+01    0.2507176    0.2146074 -20.16 0.0009002456    1.710    0.415
        18 -12.2320     37.7635    245.5329   1.1816631692e+02   1.8035537427e+01    0.4147859    0.2350948 -77.85   0.00221534    1.744    0.427
        19 -10.8178    174.0775    221.8536   8.6732598028e+01   3.3944818859e+00    0.3033175     0.199764 -46.44  0.001297108    1.703    0.413
        20 -12.0606    239.4194    215.5698   7.2953026479e+01  -5.1197691482e+00    0.4246643    0.1693267 -42.65  0.001914479    2.726    0.633
        21 -10.2707     97.5126    221.0282   1.0337684916e+02   1.5376907239e+01    0.1847581    0.1291905 -62.91 0.0005508017    1.539    0.350
        22 -11.4408     22.9290    218.2143   1.1920217149e+02   2.5150780892e+01    0.3008243    0.2419934 -86.55   0.00139015    1.144    0.126
        23  -9.8305    221.6618    217.6752   7.6555705561e+01  -3.0139916526e+00    0.1355463   0.08467671  -2.80 0.0007051283    1.723    0.419
        24 -10.8054    179.8704    216.5677   8.4624824952e+01   3.4147307300e+00    0.2429856    0.1826247 -60.09  0.001309028    1.877    0.467
        25 -11.0489    234.8484    215.5565   7.3763432168e+01  -4.5078464577e+00    0.2276455    0.1580254 -46.13  0.001317702    1.879    0.468
        26 -10.5084    176.8607    210.7179   8.4233398460e+01   4.9339444254e+00    0.2342815    0.1861095 -78.02  0.001168018    2.081    0.520
        27 -10.0145    192.5993    209.7991   8.0805358003e+01   2.5974951566e+00    0.1799402    0.1253074 -48.71 0.0009505436    1.709    0.415
        28 -10.1424    206.0000    207.4776   7.7703360475e+01   9.1860477320e-01    0.2842813   0.07053763 -41.64 0.0009380283    3.961    0.748
        29  -9.7720     94.2535    205.0030   1.0200708265e+02   1.9278627601e+01    0.1889096    0.1496925   2.66  0.000815609    1.620    0.383
        30  -9.5657    202.5215    195.4991   7.6139650716e+01   3.5197767815e+00    0.1389013    0.1177114  -5.16 2.411008e-06    1.032    0.031
        31  -9.9466      5.7554    195.7672   1.2125369051e+02   3.1614270078e+01    0.1807853   0.06706426  40.89  0.000883811    2.432    0.589
        32 -11.2243    161.5865    193.3033   8.4391104238e+01   1.0792703417e+01    0.4163687    0.3145499  31.84   0.00219067    1.270    0.213
        33 -10.5456    173.3650    191.5761   8.1463542150e+01   9.1069895655e+00    0.2988433    0.2313913  68.41  0.001478692    1.957    0.489
        34 -10.5670    226.2975    188.6286   7.0266016365e+01   9.6708075483e-01     0.122387    0.1047095 -61.66 0.0007028927    1.738    0.425
        35 -10.1378     33.5864    185.7526   1.1414532422e+02   3.1375107820e+01    0.1776235    0.1087424 -87.22 0.0006279493    1.562    0.360
        36 -10.3221    183.3876    184.6169   7.7950141480e+01   8.7202151030e+00     0.270979    0.1276717 -55.54 0.0009605254    3.268    0.694
        37 -10.4820     42.3140    183.6914   1.1182963532e+02   3.0945423308e+01     0.137141   0.08771969  67.03 0.0002563481    1.628    0.386
        38  -9.5639    210.6769    181.6637   7.1822334732e+01   4.6407681499e+00    0.1457374   0.09819418  -5.69 0.0007050805    1.714    0.416
        39 -10.6204    147.5361    178.5624   8.4804691187e+01   1.6323227537e+01    0.4442252    0.1444332 -48.79  0.001457508    3.129    0.680
        40  -9.9440     93.3135    179.6928   9.8454739638e+01   2.5214307544e+01    0.1471888    0.1072256  69.37 0.0004712778    1.624    0.384
        41 -10.5207    191.5604    177.3060   7.4762553299e+01   8.6921504465e+00    0.3522891     0.131266 -40.60  0.001300907    2.581    0.613
        42 -10.5325     58.8928    176.4308   1.0680271921e+02   3.0767535801e+01    0.2612205    0.1744811 -89.68 0.0009315985    1.627    0.385
        43  -9.9572    129.0000    176.0650   8.8806754736e+01   2.0167388541e+01    0.2478274   0.08391941 -51.48 0.0008095368    2.992    0.666
        44 -10.2001    159.3736    175.2516   8.1382429142e+01   1.4884747450e+01    0.2094398    0.1391599 -54.86 0.0009514386    1.703    0.413
        45 -11.2570     11.7066    172.3337   1.1813187323e+02   3.6533452529e+01    0.3811372    0.1483673 -64.39  0.001204075    2.115    0.527
        46 -10.0547     52.9026    173.0000   1.0789098357e+02   3.2323759693e+01    0.2094781   0.07690293  29.06 0.0007994482    2.922    0.658
        47 -11.5751     44.6102    170.6057   1.0972828538e+02   3.3849995915e+01    0.4047006     0.237585 -88.74   0.00185121    1.869    0.465
        48 -10.1406    176.0000    170.9651   7.6764932320e+01   1.2724514874e+01     0.247853   0.08080291 -44.18 0.0008108571    3.001    0.667
        49 -10.2981    138.8548    164.7564   8.4123502917e+01   2.0936429905e+01    0.2881978    0.2074605 -80.84  0.001239107    2.108    0.526
        50 -11.9656     96.0271    163.8762   9.5022708744e+01   2.8580473392e+01    0.4946155    0.3475658  58.09  0.000412554    1.634    0.388
        51  -9.7489    213.5033    163.9876   6.7649926218e+01   7.3412341391e+00    0.1880308    0.1170867 -58.67 0.0008087049    2.417    0.586
        52 -10.4056     79.1685    163.3379   9.9473354998e+01   3.1266746038e+01    0.3170006    0.1696302 -86.52  0.001084448    3.413    0.707
        53 -10.5059    122.2843    161.3074   8.7601441240e+01   2.4741154242e+01    0.2333137    0.1860249  20.29 0.0003562307    1.362    0.266
        54 -12.8621    118.6598    157.7369   8.7814881419e+01   2.6223648122e+01    0.5682917    0.3636225  36.38  0.001217448    1.581    0.368
        55 -11.8261     21.1188    159.1715   1.1450681941e+02   3.8927670435e+01    0.4807708    0.3055381  65.88  0.002613074    1.667    0.400
        56 -11.1216    168.0514    156.0218   7.5324169515e+01   1.7291931063e+01    0.4503984     0.386118 -30.51   0.00236739    1.120    0.107
        57  -9.8643    196.1869    156.7832   6.9479201732e+01   1.1793901162e+01    0.3328326    0.1010656 -46.64  0.001025353    3.553    0.719
        58 -10.0934    218.4767    156.4996   6.5144273371e+01   7.8310023635e+00    0.1408347    0.1224144 -21.49 5.891152e-05    1.002    0.002
        59 -10.6446    234.1592    153.8513   6.1837669095e+01   5.6269736644e+00    0.1961417    0.1468455 -13.79   0.00109007    1.345    0.256
        60 -11.4990    125.0772    154.7872   8.5522266548e+01   2.5752897906e+01    0.3854661    0.3121468 -36.49 0.0008966911    1.249    0.199
        61 -10.5363    189.6976    149.7142   6.9239963083e+01   1.4395520679e+01    0.2956107    0.1738831 -59.14  0.001132511    2.450    0.592
        62 -10.9102    107.2371    145.8680   8.8398007779e+01   3.1064424680e+01    0.3558961    0.2322756  83.07  0.001325856    2.802    0.643
        63 -10.4421    249.8884    144.5711   5.7393697513e+01   4.6257282536e+00    0.2766848    0.2134185  79.34  0.001535584    2.162    0.538
        64 -10.5365    148.7045    144.7673   7.7326598304e+01   2.3504355250e+01    0.3116754     0.192623 -66.68  0.001179915    2.476    0.596
        65 -10.6609     88.7887    145.0044   9.3406015369e+01   3.4341218496e+01    0.2233876    0.1589455  55.18  0.000920201    1.614    0.380
        66 -10.3483     55.3160    145.6378   1.0320628187e+02   3.8827769650e+01      0.14844    0.1027877  73.27 0.0007041726    1.763    0.433
        67 -10.0693     99.1362    143.4567   9.0145561710e+01   3.3035492887e+01    0.2556555    0.1800066 -60.64 0.0007716363    1.453    0.312
        68 -10.0197    181.6049    141.8074   6.9134326907e+01   1.7552873871e+01    0.2170383    0.1353908 -50.84 0.0009433873    1.710    0.415
        69 -11.1274     21.5558    139.8996   1.1213016311e+02   4.3632081351e+01    0.3083939    0.2218296  19.41  0.000990322    1.668    0.401
        70 -11.0582     68.9060    136.1527   9.7480741491e+01   3.9464032692e+01    0.3254889    0.2884391  26.88   0.00119327    1.221    0.181
        71  -9.7327    124.3448    136.3320   8.1591665062e+01   3.0178970902e+01    0.1638494    0.1214742  -9.83 0.0007050257    1.759    0.431
        72 -10.5602     82.5824    131.7743   9.2467816505e+01   3.8562610820e+01    0.2155696    0.1408465 -67.27 0.0009535584    1.690    0.408
        73 -11.5343     97.9843    126.6832   8.6728941044e+01   3.7279814703e+01     0.504907    0.3319308 -73.88  0.001444954    2.133    0.531
        74 -10.2855    117.3426    125.6706   8.0937727569e+01   3.3983983063e+01    0.1586655    0.1250964  83.15 0.0007051151    1.746    0.427
        75 -10.6721     58.9913    124.0253   9.8130434841e+01   4.3777103066e+01    0.3297591    0.1979816 -87.48  0.001319607    2.620    0.618
        76 -11.4124     42.7958    121.8337   1.0287164272e+02   4.6177438720e+01     0.724588    0.2923611 -75.73  0.002336144    3.895    0.743
        77 -10.8969    189.3501    123.9844   6.3346151440e+01   1.9501297000e+01    0.2650573    0.2251261  43.56  0.000615552    1.254    0.202
        78 -10.7619     28.9651    123.4745   1.0754925879e+02   4.7085150094e+01    0.2784679    0.1420612  73.24  0.001035898    3.534    0.717
        79 -11.3619    155.0956    115.9865   6.8758224768e+01   2.8361788111e+01     0.457371    0.2639568  52.94  0.001096235    1.928    0.481
        80 -11.1721    108.7235    116.3772   8.1047078121e+01   3.7755850992e+01     0.379283    0.2918931 -52.38 0.0007984692    1.307    0.235
        81 -12.2700    107.9857    110.2408   7.9660996473e+01   3.9287602086e+01     0.342344    0.2843135 -38.33   0.00031952    1.162    0.140
        82  -9.9241     89.3224    116.3111   8.6842172145e+01   4.1217201942e+01    0.1562236    0.1143594 -17.88 0.0004900727    1.652    0.395
        83  -9.9409    186.4762    113.7305   6.1426153547e+01   2.2068379683e+01     0.249638    0.1799452  23.13 0.0008347218    1.757    0.431
        84 -11.2619     78.6862    112.7716   8.9317355210e+01   4.3763087427e+01    0.3758703    0.2496275  86.80  0.001475558    2.767    0.639
        85 -11.1939     24.5595    113.0462   1.0724828896e+02   5.0013166485e+01    0.2740967    0.1992769 -52.48 0.0007524229    1.170    0.145
        86 -11.3785    162.2195    112.4769   6.6217442935e+01   2.7539313605e+01    0.5559164    0.3725603  66.04  0.002377082    1.980    0.495
        87 -11.0856    164.1061    106.4867   6.4244103527e+01   2.8316668288e+01    0.6522001    0.2421888  48.34   0.00131239    2.775    0.640
        88 -10.9655     92.0319    112.2340   8.4983571036e+01   4.1715967073e+01    0.4775818    0.2528134 -63.58  0.001758663    2.571    0.611
        89 -12.5650    144.2935    103.6630   6.8092142550e+01   3.3226075493e+01     1.107352    0.7439488 -80.72  0.004117556    2.763    0.638
        90 -11.1019    136.5236    112.0167   7.2285814839e+01   3.3152716264e+01    0.5087655    0.2637893  57.62  0.001808608    2.665    0.625
        91 -11.6744    140.1992    108.7675   7.0485243906e+01   3.3058500386e+01     0.729171    0.2526869 -44.75  0.001921289    2.851    0.649
        92 -11.6357     15.1530    105.6676   1.0915626271e+02   5.2488341916e+01    0.3526479    0.1930993 -37.38  0.001799284    1.824    0.452
        93 -11.3888     20.1216    105.3069   1.0740491835e+02   5.2227746086e+01    0.2433053    0.1776517  -3.68 0.0008193655    1.615    0.381
        94 -10.5765    133.0065    106.0162   7.1585883935e+01   3.5164652165e+01    0.2350324    0.2268055 -17.24 0.0003904575    1.002    0.002
        95 -12.8082    125.3876    101.5583   7.2383031294e+01   3.7700943946e+01    0.7719044    0.4306801  54.36   0.00304717    2.139    0.532
        96 -11.4584    127.9935     97.1742   7.0453508097e+01   3.8059252375e+01    0.4100472    0.2543583 -39.77 0.0003570912    1.593    0.372
        97 -10.6653    129.4753     93.0548   6.8887999310e+01   3.8573403318e+01    0.3186598    0.2366031 -42.95  0.000956081    1.341    0.254
        98 -11.2859     57.4376    105.2733   9.4547585287e+01   4.8532716182e+01    0.3936778    0.2530245  11.77  0.001863944    1.898    0.473
        99 -11.1950    157.4966    103.4866   6.4930120131e+01   3.0362658307e+01    0.3220902    0.2428092  56.09 0.0006610867    1.426    0.299
       100 -11.4933    155.4870    100.5067   6.4589697990e+01   3.1391627321e+01    0.3102123     0.238402 -30.38 0.0009651197    1.330    0.248
       101 -12.6532    112.2970    102.4621   7.6295282382e+01   4.0169046870e+01    0.6559395    0.3339478  45.50 0.0004846799    2.063    0.515
       102 -11.9192     64.3971    102.8393   9.1586330354e+01   4.8191884198e+01    0.3579162    0.2987017 -65.75   0.00086813    1.288    0.224
       103 -11.4839     45.3328    102.6498   9.8127334430e+01   5.0580774271e+01    0.4224136    0.2414674  75.22  0.001457182    4.266    0.766
       104 -10.5250     35.8807    102.8600   1.0147832868e+02   5.1493680596e+01      0.21602    0.1590792 -35.74 0.0008525337    1.294    0.227
       105 -11.5091    159.9535     95.8699   6.2337658813e+01   3.1286676719e+01    0.3116888    0.2604763 -21.03 0.0006281733    1.276    0.216
       106  -9.7153     77.0326     97.0754   8.5812551845e+01   4.7660250790e+01    0.1755484    0.1579598 -31.43 0.0003640489    1.022    0.022
       107  -9.8553    188.5428     92.5060   5.5733391006e+01   2.5511370956e+01    0.1454162    0.1352249 -55.07 0.0002168442    1.043    0.041
       108 -10.7587    124.0844     91.3960   6.9845007876e+01   4.0056039752e+01    0.3187875      0.20026 -57.90  0.001277766    2.025    0.506
       109 -10.3243    233.0935     90.3094   4.8212507081e+01   1.6568267692e+01    0.1729891    0.1609738 -81.01 0.0003795775    1.146    0.127
       110 -11.4921     87.2319     87.6106   7.9736813954e+01   4.8035357047e+01    0.4384884    0.2473751  58.71  0.001619615    3.067    0.674
       111 -10.0522     74.1861     87.8477   8.4192870042e+01   5.0148920884e+01    0.1932514    0.1558415 -12.32 0.0002766433    1.281    0.219
       112 -10.1167     44.0221     86.7061   9.4782011312e+01   5.4431569281e+01    0.1865704    0.1591081 -13.31 0.0005197999    1.163    0.140
       113 -11.4904    104.5276     82.8699   7.2871736195e+01   4.5773569834e+01    0.6843392    0.3566694 -54.57  0.002612744    2.504    0.601
       114 -12.0162     44.9927     82.3405   9.3267950464e+01   5.5300758522e+01     0.438779    0.3054945  55.06 0.0004589563    2.080    0.519
       115 -10.9353    140.7288     83.2286   6.3213314987e+01   3.7977521276e+01     0.402345    0.1946448 -44.68  0.001564314    2.126    0.530
       116 -10.5139     36.8787     83.5491   9.6684225081e+01   5.5891735763e+01     0.266713    0.1776304 -74.38  0.001335131    1.925    0.481
       117 -10.8711     23.7055     79.1616   1.0073238121e+02   5.8054918558e+01     0.361789     0.204474 -77.46  0.001656345    2.492    0.599
       118  -9.9574     96.8430     79.2166   7.4096745178e+01   4.7989124005e+01    0.2011707    0.1634643   1.00 0.0004361335    1.321    0.243
       119 -11.0315     62.3840     75.1707   8.4632688707e+01   5.4609547635e+01     0.293799     0.127238 -55.05  0.001115676    2.715    0.632
       120 -11.4078     81.8612     72.5289   7.6856895412e+01   5.2036132426e+01    0.4085852    0.2910806 -75.64   0.00136508    2.592    0.614
       121 -10.8530    249.4019     73.2248   4.2536302870e+01   1.6062868608e+01     0.188427   0.09515309 -45.99  0.000955084    1.661    0.398
       122 -11.0139     51.6070     70.1698   8.7189755386e+01   5.7106715211e+01    0.3302606    0.2382282 -78.39  0.001590959    2.374    0.579
       123 -10.9702     40.9118     51.4776   8.5400051644e+01   6.2085718838e+01    0.2491124    0.1670217 -37.78 0.0006089851    1.322    0.244
       124 -11.0627     45.9718     60.5823   8.6379580858e+01   5.9737413403e+01    0.4358626    0.2288078 -35.33  0.002094941    1.770    0.435
       125 -12.6776     40.7121     65.5339   9.0120403046e+01   5.9365536415e+01    0.6066765    0.4750599  52.06  0.002476053    1.810    0.448
       126 -12.3401     36.1844     56.9879   8.9306472541e+01   6.1573000636e+01    0.5081401    0.3388357 -14.72  0.001705922    1.506    0.336
       127 -11.2092    229.2304    248.6540   8.0427085432e+01  -8.4314203840e+00    0.2581629    0.1672166  29.70 0.0007608521    1.488    0.328
       128 -13.4887      9.2903     49.4496   9.9077092886e+01   6.5376837284e+01    0.5191221    0.3063334 -12.89  0.001357001    1.714    0.417
       129  -9.5248    235.2883     67.7199   4.2968948291e+01   1.9592431624e+01    0.1284325   0.08607565 -64.03 0.0001779935    1.522    0.343
       130 -11.8452      8.0742     65.8492   1.0395937638e+02   6.2048285605e+01    0.4617828     0.250181  23.54  0.001606961    2.128    0.530
       131  -9.5867    100.5092     65.4747   6.8528756104e+01   4.9830965499e+01    0.1456045    0.1327927   7.06 0.0008099278    1.027    0.026
       132 -10.9832    130.3529     58.5946   5.8227140959e+01   4.4521699709e+01    0.2587334    0.2261328  34.15 0.0005777315    1.119    0.106
       133 -10.2910     72.5178     58.5401   7.5407207472e+01   5.6243319185e+01    0.2479151    0.1273277 -50.78  0.001039353    2.439    0.590
       134  -9.8904    186.5108     53.9935   4.6181151065e+01   3.2109163781e+01     0.198734   0.09786643 -54.97 0.0007746156    2.409    0.585
       135 -11.4327     29.7207     51.9039   9.0458067001e+01   6.3228939865e+01    0.2208043    0.1892917 -31.84  0.001449747    1.146    0.127
       136 -10.4316    232.4650     50.4955   3.9541489919e+01   2.2581449287e+01     0.126195    0.1060844 -62.03 0.0002732637    1.013    0.013
       137 -10.1567     95.8468     49.8471   6.4552331924e+01   5.3345559871e+01    0.1731735    0.1666307  72.54 0.0003268851    1.272    0.214
       138  -9.7441    117.8598     49.1607   5.8219502897e+01   4.8753141836e+01     0.191506    0.1531496  24.33 0.0002479663    1.287    0.223
       139 -10.4568    112.0989     48.8758   5.9611833968e+01   5.0064754550e+01    0.3020511    0.2133982 -75.41  0.001360564    2.411    0.585
       140 -11.9725     75.7358     43.0807   6.8576967642e+01   5.8235768210e+01    0.4079615    0.2509583  44.62  0.001036851    1.653    0.395
       141 -12.1222     73.4795     39.4934   6.7979250604e+01   5.9176452842e+01    0.5239053    0.2583339 -46.63  0.002258753    2.713    0.631
       142 -10.4000     81.6476     38.1624   6.4685022276e+01   5.7854341498e+01    0.1891216    0.1648085  34.34 0.0009820905    1.151    0.131
       143 -11.7749    145.3503     35.3133   4.7792169907e+01   4.4238398771e+01    0.3676442    0.3004358  -7.63  0.000365681    1.425    0.298
       144 -10.8961    155.0900     36.1050   4.6301622027e+01   4.1839369357e+01    0.1970048    0.1813416  75.92 0.0003277187    1.030    0.029
       145 -11.6194    219.6071    247.6286   8.2016671946e+01  -7.0823727581e+00    0.2712984     0.244505  66.57  0.001812752    2.130    0.531
       146 -12.3359      1.9636     29.4227   9.6271737088e+01   6.9619514931e+01    0.3673191     0.152385 -49.30  0.001205083    1.921    0.479
       147 -10.5178    196.3767     30.3350   3.8921049920e+01   3.2918261332e+01    0.2263739    0.1391032  72.46 0.0004214344    1.549    0.355
       148  -9.6842    249.9931     27.0187   3.3112251118e+01   2.2082198488e+01    0.1364384    0.1089607 -72.20 0.0009603589    1.067    0.063
       149 -10.6204    176.9120     26.2104   4.0282835895e+01   3.7857302691e+01    0.2566317     0.153974  73.99 0.0007224543    1.593    0.372
       150  -9.9855    113.0181     25.7387   5.1321652487e+01   5.2819774949e+01    0.1702459    0.1053747  56.18 0.0004081382    1.468    0.319
       151 -11.8666    203.9301     21.4767   3.5995251173e+01   3.2243671451e+01    0.5004744    0.2519966 -81.25  0.002308419    2.466    0.594
       152 -10.6902    210.6418     19.4455   3.4875082824e+01   3.0999205753e+01     0.303117    0.1417678  67.66  0.001539868    1.988    0.497
       153 -11.3355     22.9467    247.9602   1.2107777253e+02   1.9140489264e+01    0.2515461    0.1718785 -11.06  0.001408947    3.238    0.691
       154 -10.4172     26.5200     22.0211   8.0388864447e+01   6.8692093532e+01    0.1743837    0.1327377   2.76 0.0003319953    1.110    0.099
       155 -11.2334     38.0436    238.4174   1.1761645847e+02   1.9401267704e+01    0.5002916    0.1754402  58.68  0.002141167    3.131    0.681
       156 -11.2236    196.2093     18.8083   3.6162316490e+01   3.4251584942e+01    0.1909864    0.1480075 -74.57 0.0005891273    1.185    0.156
       157 -10.8603     37.6769     18.2869   7.3319054583e+01   6.7814842081e+01    0.2320137    0.1894156 -19.18 0.0009385385    1.256    0.204
       158 -10.6326    120.5321     16.9967   4.6668815716e+01   5.2015308376e+01    0.1825839    0.1292931 -21.31 0.0005774773    1.582    0.368
       159 -13.2644     18.7514    235.9975   1.2116148254e+02   2.1896451711e+01    0.5442687     0.232657  50.15   0.00145574    1.925    0.481
       160 -11.0719    209.6566    237.0269   8.2154670759e+01  -4.2627782691e+00    0.2708372    0.2202596 -64.58  0.001613476    2.265    0.558
       161 -10.4258      3.0008    234.9907   1.2402560054e+02   2.3575156514e+01    0.1659824    0.1254315  68.98 0.0003829198    1.031    0.030
       162 -10.0272    108.9815    232.9674   1.0236624489e+02   1.1316103803e+01    0.1578773    0.1348941  40.71 0.0005133301    1.038    0.037
       163 -10.7356     62.5736    233.1670   1.1224677560e+02   1.7584446824e+01    0.3494731    0.1591156  31.20  0.001259872    2.206    0.547
       164 -11.3518     72.3336    229.4372   1.0983407716e+02   1.7103865438e+01    0.4363896    0.2155963  55.97  0.002097624    2.104    0.525
       165 -10.7925    127.2431    230.6198   9.8109692274e+01   9.0488117996e+00    0.1838371    0.1145708  26.78 0.0009393329    1.581    0.367
       166 -11.4192    149.5858    221.8011   9.1949731039e+01   7.2488100261e+00    0.5035149     0.258648 -48.90  0.002357859    2.135    0.532
       167 -10.0106     55.8335    223.4939   1.1276759326e+02   2.0412717088e+01    0.1987254    0.1402267  69.83 0.0005168824    1.341    0.254
       168 -11.3717     35.8149    223.1423   1.1692735301e+02   2.2775239366e+01    0.2863341    0.1859973  77.36 0.0009870562    1.428    0.299
