#   1 NUMBER                 Running object number                                     
#   2 MAG_AUTO               Kron-like elliptical aperture magnitude                    [mag]
#   3 X_IMAGE                Object position along x                                    [pixel]
#   4 Y_IMAGE                Object position along y                                    [pixel]
#   5 X_WORLD                Barycenter position along world x axis                     [deg]
#   6 Y_WORLD                Barycenter position along world y axis                     [deg]
#   7 A_WORLD                Profile RMS along major axis (world units)                 [deg]
#   8 B_WORLD                Profile RMS along minor axis (world units)                 [deg]
#   9 THETA_WORLD            Position angle (CCW/world-x)                               [deg]
#  10 FWHM_WORLD             FWHM assuming a gaussian core                              [deg]
#  11 ELONGATION             A_IMAGE/B_IMAGE                                           
#  12 ELLIPTICITY            1 - B_IMAGE/A_IMAGE                                       
         1 -12.5126    185.3920     21.6406   7.2383740158e+01   3.5870498105e+01     1.262405    0.9952785   7.62  0.005890268    1.385    0.278
         2 -10.7849    193.0465     11.3815   6.8001576043e+01   3.4928113337e+01    0.5251422    0.3540505  23.15    0.0012902    1.731    0.422
         3 -11.6504    197.9934      4.2775   6.5138052617e+01   3.4297326539e+01    0.8057587    0.6379674  73.56  0.002839839    1.270    0.213
         4  -9.4703    115.0065    240.7274   1.3083022622e+02   1.5855876009e+01    0.1370359    0.1021762 -71.68   0.00114412    1.693    0.409
         5 -11.5645    101.0617    246.9465   1.3341101069e+02   1.6902331498e+01    0.3966996    0.2949796  49.62  0.002344657    1.186    0.157
         6 -10.3839    105.2605    245.3711   1.3266802018e+02   1.6559176399e+01    0.2353126    0.1702541  83.56  0.001898174    1.502    0.334
         7 -19.3447     11.2404    127.8598   1.4059984730e+02   4.7110369185e+01     15.25431      1.36187 -76.10   0.03803249   10.271    0.903
         8  -9.0796    120.6279    238.0197   1.2974172551e+02   1.5434255789e+01    0.1340664   0.09502169 -64.40  0.001072086    1.830    0.453
         9 -11.1198    133.8314    231.1008   1.2705727939e+02   1.4456194461e+01    0.3576104     0.237258 -44.73  0.002642544    2.163    0.538
        10 -10.4716    152.1542    229.2275   1.2399604493e+02   1.2028719844e+01    0.2633516    0.1346244  40.10  0.001414596    1.571    0.363
        11 -10.3629    142.0072    229.5061   1.2561599438e+02   1.3477846560e+01    0.1924082    0.1536935  24.64  0.001116529    1.540    0.351
        12 -10.1778    163.0035    224.6899   1.2179027395e+02   1.0946874557e+01    0.2579664    0.2282268 -88.52  0.002134696    1.470    0.320
        13  -8.7848    227.3788    203.2696   1.0888835985e+02   3.2087287080e+00    0.1708248    0.1574616 -26.96  0.001354224    1.490    0.329
        14 -10.7031     80.4119    190.6065   1.3215195152e+02   2.7796798395e+01    0.3359573    0.2275977 -47.63   0.00194124    2.196    0.545
        15 -10.2235     83.9464    184.4937   1.3092054404e+02   2.8354350402e+01    0.2596123    0.1907475 -59.23  0.000818676    1.635    0.389
        16  -7.7310     66.3040    185.6432   1.3425983430e+02   3.0434776851e+01    0.1160693   0.06351954  69.27 0.0007039698    1.717    0.418
        17  -9.9070    114.6982    173.4940   1.2388186418e+02   2.5752845520e+01    0.2719629    0.2184787 -86.34  0.001853985    1.294    0.227
        18  -9.6989     91.0596    173.1650   1.2837116149e+02   2.9330645103e+01    0.2146724    0.1822416  64.96 0.0004310822    1.089    0.082
        19 -11.8573     79.6689    169.0064   1.3011633191e+02   3.1647086027e+01    0.6125712    0.3348179 -55.78  0.002521593    2.087    0.521
        20 -10.7018     96.1304    165.4187   1.2645470121e+02   2.9976371541e+01    0.4725247     0.309741 -46.52  0.001673153    2.002    0.501
        21 -11.9253     51.1522    153.9603   1.3428963743e+02   3.8032612668e+01    0.5166605    0.2951999 -64.04  0.003237574    1.733    0.423
        22 -12.5572     55.8723    146.4250   1.3251846805e+02   3.8952234168e+01    0.6964818    0.4322219 -64.03   0.00440671    1.582    0.368
        23 -10.7303     73.2524    154.6182   1.2978150427e+02   3.5179921192e+01    0.4911244     0.251599  89.67  0.002435126    2.531    0.605
        24 -11.8809     68.2204    143.9411   1.2956427076e+02   3.7913491584e+01    0.6715656    0.4411782  70.31  0.003526208    1.447    0.309
        25 -11.3655     72.9202    136.2434   1.2752218341e+02   3.8830978516e+01    0.5510407    0.2161041 -62.20  0.002598384    2.397    0.583
        26  -8.6955    121.2520    248.2598   1.3051048168e+02   1.4102181390e+01    0.1275043   0.07648466 -80.94 0.0009056241    2.435    0.589
        27 -12.4048     54.0976    118.9866   1.2954352888e+02   4.4766480252e+01    0.6403029    0.4087884  80.28  0.003757254    1.596    0.373
        28  -8.9900    114.8308    134.9506   1.1800965405e+02   3.2681177589e+01    0.2878825    0.1688503 -44.70 0.0009619819    1.954    0.488
        29 -10.8752     49.4347    132.2387   1.3233875022e+02   4.2550501095e+01    0.4468955    0.1312844 -72.54  0.001767519    3.582    0.721
        30  -9.3038    102.9983    131.6770   1.2005325533e+02   3.5284231443e+01    0.2614292    0.2228039   5.53 0.0007772215    1.711    0.416
        31  -9.3953    107.6205    146.8853   1.2152178659e+02   3.1616316446e+01    0.4565259    0.2442649 -37.87  0.002049248    3.089    0.676
        32  -8.3328    110.3971    122.2749   1.1667670806e+02   3.5903992315e+01    0.1734195    0.1206644 -66.80 0.0004611473    1.499    0.333
        33 -10.5733     96.0055    147.9092   1.2412815435e+02   3.3235929608e+01    0.2386115    0.2246021  63.09 0.0004784095    1.201    0.168
        34  -8.4429    168.6873    113.5480   1.0222568559e+02   2.6143471792e+01    0.2384524     0.169733 -61.29    0.0011537    1.773    0.436
        35 -11.5530     59.1826    134.9041   1.3044497648e+02   4.0861536215e+01    0.5335565    0.2988678 -85.26  0.002956575    1.826    0.453
        36 -12.4924     58.3406    128.9219   1.2987343829e+02   4.2188643185e+01    0.6660751    0.3978479 -70.47  0.003944515    1.502    0.334
        37  -9.3829    128.0000    245.9297   1.2930773309e+02   1.3469298980e+01    0.2177459   0.07756589 -61.96  0.001164243    4.521    0.779
        38  -9.8481    125.0000    243.5067   1.2955037934e+02   1.4165702359e+01    0.1981841   0.07903629 -58.95  0.001198582    3.450    0.710
        39 -10.8846     94.7597    239.5241   1.3381470832e+02   1.8659639803e+01    0.3800623    0.1789964 -70.65  0.002557262    2.690    0.628
        40 -11.3474    177.9626     28.4046   7.5751507589e+01   3.7039203895e+01    0.5209711    0.4349954 -24.70  0.001560392    1.176    0.150
        41  -8.8390    160.4868    249.5045   1.2480700646e+02   8.5733210866e+00    0.1010603   0.07102317  44.48 -3.723016e-05    1.011    0.011
        42 -10.0520    110.0694    247.9857   1.3215066195e+02   1.5610589292e+01    0.1659028    0.1452009  70.59  0.000802425    1.316    0.240
        43  -9.8850    134.8119    247.0651   1.2838824698e+02   1.2407305668e+01    0.2053719    0.1283696 -74.13  0.001507534    2.388    0.581
        44  -9.3202    143.1698    241.1461   1.2658583284e+02   1.1927638304e+01    0.1484779     0.110963  41.34 0.0005449174    1.178    0.151
