#   1 NUMBER                 Running object number                                     
#   2 MAG_AUTO               Kron-like elliptical aperture magnitude                    [mag]
#   3 X_IMAGE                Object position along x                                    [pixel]
#   4 Y_IMAGE                Object position along y                                    [pixel]
#   5 X_WORLD                Barycenter position along world x axis                     [deg]
#   6 Y_WORLD                Barycenter position along world y axis                     [deg]
#   7 A_WORLD                Profile RMS along major axis (world units)                 [deg]
#   8 B_WORLD                Profile RMS along minor axis (world units)                 [deg]
#   9 THETA_WORLD            Position angle (CCW/world-x)                               [deg]
#  10 FWHM_WORLD             FWHM assuming a gaussian core                              [deg]
#  11 ELONGATION             A_IMAGE/B_IMAGE                                           
#  12 ELLIPTICITY            1 - B_IMAGE/A_IMAGE                                       
         1 -10.9848    149.4818     43.1391   3.0931825236e+01   4.1968171092e+01    0.9192643    0.4627182 -41.71  0.004022759    1.940    0.485
         2 -14.6751      9.6417     69.7963   9.2367303585e+01   6.3043500371e+01     2.624949     1.501374  34.88   0.01276158    1.853    0.460
         3  99.0000     30.6086     19.6962   6.1473737546e+01   7.2567555732e+01     1.624537     1.110406  53.70  0.008203444    1.991    0.498
         4 -14.0540     56.5306     64.7056   6.6720687507e+01   5.9121878969e+01     2.886666     1.596896 -29.00   0.01118928    2.484    0.597
         5 -14.7252     47.5532     50.5261   6.5963721875e+01   6.3725630954e+01     3.494437     1.919984 -18.33   0.01220973    3.413    0.707
         6 -14.2905     12.3188     35.9985   8.2589462876e+01   7.1232789968e+01     1.916987     1.506484 -48.10   0.01124978    1.160    0.138
         7 -13.8929     63.5466     14.2742   4.0396637213e+01   6.6924658891e+01     1.877099     1.360448 -22.76  0.007793956    1.481    0.325
         8 -12.4793     76.2299     11.0143   3.4141141188e+01   6.4283901800e+01     0.710731    0.3495425 -17.73  0.001624246    2.426    0.588
         9 -13.2546     64.4263     35.1458   5.0989412486e+01   6.3610956016e+01     1.147781    0.8452024  25.29  0.002182566    1.437    0.304
        10 -12.4664     51.9721     33.7702   5.6247063198e+01   6.6330206852e+01     1.857048     1.057624  23.69  0.007832743    2.213    0.548
        11 -11.6406    197.1738     26.8497   2.0427555515e+01   3.2820447463e+01    0.6859302    0.4167268 -66.88  0.002637803    1.718    0.418
        12 -12.7362    187.0188     33.1025   2.3039997750e+01   3.4373761890e+01     2.075521    0.7840728  80.30  0.007791345    3.611    0.723
        13 -12.7196    162.1650     29.3454   2.4785984596e+01   4.0552880429e+01    0.5393227    0.4657338 -76.70 0.0006161098    1.114    0.103
        14 -11.9122    218.4315     29.4488   1.9357050656e+01   2.8176030118e+01     1.106609    0.6226325 -48.40  0.006389365    1.536    0.349
        15 -13.1196    223.7870     43.9274   2.2303572465e+01   2.5603470832e+01    0.9601967    0.4291925 -60.28 0.0007844124    2.869    0.651
        16 -12.7740     25.4901     40.4994   7.5021709863e+01   6.8958168867e+01     2.417539    0.7345677 -56.04  0.004303787    3.022    0.669
        17 -14.0089     79.3668     43.7439   4.8845761020e+01   5.8897672166e+01     1.249484     1.188758  22.63  0.007081961    1.018    0.018
        18 -11.0818    130.2033     19.3029   2.5926960797e+01   4.9618103841e+01    0.4801379    0.2630507  58.69  0.001039275    1.683    0.406
        19 -12.1421    226.5895     22.4181   1.7168398194e+01   2.7297694356e+01    0.4620214    0.3971193   2.51  0.002817203    1.457    0.314
        20 -12.9454    176.2914     23.3607   2.1431930698e+01   3.7851533597e+01    0.3616671    0.3089991  32.96 0.0005924694    1.400    0.286
        21 -10.9931    118.9044     22.1629   2.8960470750e+01   5.2218758332e+01    0.2745229    0.2012529  80.92 0.0006350151    1.380    0.276
        22 -13.6416    116.5366     63.4744   4.4717367102e+01   4.6876155012e+01     1.420738    0.9785626  52.85  0.006710007    1.422    0.297
        23  -9.8427    155.0458     12.4790   2.0359477208e+01   4.4012308725e+01    0.2880031    0.1724981  38.37 0.0007910578    2.085    0.520
        24  -9.7773    150.4525     13.5346   2.1205638483e+01   4.5053094960e+01    0.2266614    0.1874688 -42.91 0.0006279502    1.196    0.164
        25 -10.9709    223.4681     14.6932   1.5596819553e+01   2.8631016249e+01    0.2071524    0.1863877 -44.41 0.0002090185    1.133    0.117
        26 -10.8391    222.1776     10.4227   1.4690966167e+01   2.9272307310e+01    0.2835079    0.2442508 -74.51  0.001019403    1.155    0.134
        27  99.0000    233.6935      6.9237   1.3332482932e+01   2.7391154628e+01    0.6563474    0.2610672 -62.22  0.003357397    2.502    0.600
        28 -13.0702    248.7521     11.1553   1.3545655189e+01   2.4316802064e+01    0.6903054    0.2804558 -60.21  0.003463933    2.379    0.580
        29 -12.8377    241.8426      7.7106   1.3133445394e+01   2.5837303637e+01    0.5226401    0.1880541 -50.75  0.002025788    2.221    0.550
        30 -10.3190     92.8121     12.9103   3.0566156888e+01   5.9923300055e+01    0.3355121    0.1914367  -3.55  0.001270319    2.379    0.580
        31 -13.1716     52.0151     20.8522   4.9360011806e+01   6.8508951370e+01    0.9790215     0.785621  37.52 0.0008803896    1.154    0.133
        32 -10.9503    122.8147     12.3960   2.4496507645e+01   5.2210289812e+01    0.3296762     0.290356 -73.34 0.0008015751    1.128    0.114
        33  -9.4113    124.5306      8.5578   2.2766090491e+01   5.2116059495e+01    0.1995337    0.1448119 -62.74 0.0005440747    1.434    0.303
        34 -13.5530     74.4226     23.8001   4.1392229477e+01   6.3146694550e+01        1.362    0.5375288  45.88  0.001866669    2.368    0.578
        35  -9.8772    142.0633     10.0253   2.1007974645e+01   4.7484948253e+01     0.319323     0.219959  -9.24  0.001161235    1.734    0.423
        36  -9.4856    138.7574     10.7382   2.1656707860e+01   4.8260773270e+01    0.1838103    0.1358388 -71.39 0.0003422221    1.355    0.262
        37  -9.8334    146.7292      9.2970   2.0227178908e+01   4.6372375564e+01    0.2046895    0.1878911  67.47 0.0001916138    1.114    0.103
        38  -9.9238    145.4769      6.4496   1.9411591787e+01   4.6934923056e+01    0.2486634    0.1975607  13.07 5.894788e-05    1.552    0.356
        39 -10.3416    130.9403     11.4618   2.2945724870e+01   5.0197497439e+01    0.4725088    0.2336219  88.17  0.001959214    2.326    0.570
        40 -11.4297    115.6329      9.4666   2.4492787838e+01   5.4347557287e+01    0.5421851    0.3122837  30.41  0.002265286    2.203    0.546
        41  -9.9067    109.9324     10.7924   2.6026369555e+01   5.5709112117e+01    0.2953056     0.123909  44.94 0.0008449588    2.523    0.604
        42  -9.6446     88.4319     11.7453   3.1094646229e+01   6.1157652769e+01     0.202107    0.1717357 -52.55 0.0006638847    1.308    0.236
        43 -11.1790     84.4779      7.9804   3.0235304984e+01   6.2533776782e+01    0.3418575     0.243711 -10.22  0.001058336    1.600    0.375
        44 -11.4777     85.4247      1.9227   2.6920297762e+01   6.2834383095e+01     0.528652    0.1719116  57.72  0.002017862    2.417    0.586
        45 -11.6268     48.2271      8.8152   4.3890397052e+01   7.1002127582e+01    0.4189275    0.3589763 -32.12  0.001968258    1.292    0.226
        46 -12.0294     47.8311      1.8412   3.9346214899e+01   7.1916073510e+01    0.5022604    0.1680609  49.58  0.001966616    2.493    0.599
        47 -10.1311    171.3823     10.7047   1.8248334646e+01   4.0227423208e+01    0.4339631    0.1552549  79.50   0.00172669    2.908    0.656
        48  -9.8279    101.4298     10.2709   2.7439771352e+01   5.7966356060e+01    0.2133732     0.175199 -87.13 0.0003992836    1.260    0.207
        49 -10.2115     99.9605      6.2919   2.5944663095e+01   5.8710615899e+01    0.4968012    0.2167576  58.48  0.002109555    1.943    0.485
        50 -12.2791    193.3895      8.1434   1.5865189367e+01   3.5442638114e+01    0.2797213    0.2268406  67.46  0.001477095    1.333    0.250
        51  -9.9060     27.7312      9.2598   5.6850473811e+01   7.4823156813e+01    0.2276961    0.1791315  27.22  0.001343178    1.174    0.148
        52 -12.3493    173.6643      3.8241   1.6078307242e+01   4.0290579243e+01     0.357758    0.2045734 -13.55  0.001162412    2.059    0.514
        53  -9.5533    156.5605      7.5658   1.8651609878e+01   4.4080017452e+01    0.1281544    0.1180975 -89.84 0.0001977398    1.059    0.056
        54  -9.2530    152.1818      6.8431   1.8849600808e+01   4.5224327867e+01    0.1735852    0.1438795  51.73  0.001030687    1.296    0.228
        55  -9.6357    210.5471      6.4401   1.4393992027e+01   3.1953221313e+01    0.1179497   0.09585351 -54.99 0.0003164723    1.020    0.019
        56 -10.4135      3.1582      6.2055   7.7486393101e+01   7.8428291389e+01    0.3118043    0.1529663   2.39  0.001463059    2.277    0.561
        57  -9.5827    218.4014      3.0991   1.3198680042e+01   3.0658128053e+01    0.3015072    0.1262677 -27.60  0.001574437    2.083    0.520
        58 -11.1667    183.8264      3.6292   1.5305350562e+01   3.7965242788e+01    0.2025999    0.1928469 -64.05 0.0006252974    1.131    0.116
        59 -10.4263    111.6553      4.1464   2.2948540820e+01   5.5844103897e+01    0.3035876      0.16715  66.51 0.0007047009    1.595    0.373
        60  -9.6376    107.9387      4.2239   2.3586976743e+01   5.6808028690e+01    0.1993274    0.1673638 -84.99 0.0003740302    1.179    0.152
        61  -9.3460    232.7943      1.3403   1.2157504204e+01   2.8038893198e+01    0.1333486   0.09406875  74.60  0.000923398    1.589    0.371
        62 -12.3902    190.4018     93.8215   3.8322341309e+01   2.5657803551e+01    0.4529967    0.3006192  39.38  0.002268924    1.659    0.397
        63 -11.0596    248.9723    249.6614   5.7593693769e+01  -2.1849338475e+00     0.200399    0.1154572  -4.08  0.001571829    1.238    0.192
        64 -10.8145    151.3284     95.6854   4.6070820538e+01   3.3360814952e+01    0.3987049    0.3368162 -78.80   0.00168886    1.496    0.332
        65 -10.2263     68.0588     94.6745   7.0680268230e+01   5.0175632292e+01    0.2135254    0.1832018  30.40 0.0004936287    1.148    0.129
        66 -12.5751     62.3491     91.8796   7.2227029882e+01   5.1754955742e+01    0.5537112    0.3876562 -83.45  0.002169496    1.919    0.479
        67 -10.9853     16.2993     91.7462   9.2391811475e+01   5.6923862529e+01    0.3487219     0.231969  84.61  0.001413579    1.610    0.379
        68  -9.1252    229.7416     91.6341   3.2408863995e+01   1.8819905455e+01    0.1197613   0.08394457  -4.66 0.0006973566    1.637    0.389
        69 -12.0146    182.3063     82.3488   3.6753444755e+01   2.8983729927e+01    0.6733223    0.4189104  13.85  0.002908838    2.675    0.626
        70 -13.3013    194.6684     86.1250   3.5790388569e+01   2.5943693757e+01    0.9095256    0.4096206  51.90   0.00411813    2.381    0.580
        71 -12.9498    190.6585     79.3628   3.4709205166e+01   2.7705637944e+01    0.8343288     0.455777  -8.15  0.002924887    3.270    0.694
        72 -12.7303    199.2014     76.6921   3.2835858197e+01   2.6365441282e+01    0.5435336     0.347157  42.71  0.002917289    1.787    0.440
        73 -12.0796    173.0391     88.1299   3.9811452349e+01   3.0030723498e+01    0.8919004    0.5049369  34.35  0.003961317    2.202    0.546
        74 -12.1861    162.2545     84.1633   4.0741718893e+01   3.2954070948e+01    0.5753101     0.489225  53.07  0.002148618    1.226    0.184
        75 -12.8144    168.8394     79.8101   3.8354527620e+01   3.2215096615e+01    0.8880351    0.4832877 -56.61  0.002285913    2.528    0.604
        76 -10.3383     87.4460     89.3354   6.2035691430e+01   4.7990166842e+01    0.2611147    0.2217849  43.74 0.0002242861    1.170    0.145
        77 -12.0232    206.3174     86.7489   3.4281837158e+01   2.3620834582e+01    0.5105267    0.2896736  16.00   0.00207992    3.501    0.714
        78 -13.8256     66.9271     83.5470   6.8103468321e+01   5.3023090479e+01     1.397474     1.068915 -62.90  0.006854657    1.425    0.298
        79 -13.5647     85.0963     74.0304   5.8140500904e+01   5.1791455084e+01     2.506043    0.9452016  50.62  0.006616176    3.235    0.691
        80 -10.9183     36.2481    248.8322   9.8386129347e+01   1.9818715385e+01    0.1819928    0.1369121 -78.06  0.001354658    1.656    0.396
        81 -13.2568      4.4380     54.3591   9.2668206692e+01   6.7230413771e+01     1.051718     0.741123 -66.93  0.005832654    1.298    0.230
        82 -11.6600    249.6165    239.0769   5.6038025801e+01  -1.2375990808e+00    0.2612799   0.07710595 -34.74  0.001404158    3.364    0.703
        83  -9.8348    218.5152    239.5432   6.0919393265e+01   1.6669150232e+00    0.1067069   0.07315824   3.60 0.0002081049    1.011    0.011
        84 -10.0901     15.9945    238.2891   1.0231360155e+02   2.3336925327e+01    0.1531781    0.1146194  36.40 0.0003527534    1.062    0.058
        85  -9.4632    226.6987    241.6883   5.9899032222e+01   6.3647293074e-01    0.1070131   0.05754312  -1.00  0.000634921    1.608    0.378
        86  -9.5922    159.6214    219.7562   6.8864863184e+01   1.0766713626e+01    0.1327182    0.1126368 -38.24 0.0002935296    1.524    0.344
        87  -9.3026    174.4506    131.4638   4.9965045383e+01   2.2676474760e+01    0.1346482     0.122121  -8.76 0.0001119015    1.038    0.037
        88 -13.6336     93.4685     67.2061   5.2904680930e+01   5.1430374005e+01     2.032344     1.061458  61.56  0.005865751    2.855    0.650
        89 -13.2583     78.5431     58.9258   5.5262365439e+01   5.6240696790e+01     1.387099    0.4262847  43.74  0.004374743    3.156    0.683
        90 -10.9222    152.9458    124.0795   5.2809726626e+01   2.7925466439e+01    0.2144921    0.1930236 -24.84  0.001223752    1.086    0.079
        91 -10.4882    204.2138    116.4598   4.1370849772e+01   1.9784210926e+01    0.2719775    0.2247554  82.83 0.0009396292    1.825    0.452
        92 -11.4656    236.4416     86.0928   3.0453732065e+01   1.8400454113e+01    0.3983926    0.2408413  68.20  0.001648668    2.296    0.564
        93 -12.4222    215.7099     85.0686   3.2660393667e+01   2.2115056950e+01    0.3531826    0.3223744 -59.16  0.002414176    1.215    0.177
        94 -11.8001    111.0076     86.4876   5.3624190624e+01   4.3789225438e+01    0.7091391    0.2814331  48.12  0.002468984    2.551    0.608
        95 -12.0403    114.2505     81.2642   5.1105167121e+01   4.4118342692e+01    0.5401894    0.4903785   6.44  0.002163798    1.165    0.142
        96 -11.7038      5.5833     85.7907   9.6618472072e+01   5.9091704604e+01    0.4009922    0.1919648 -77.69  0.001781315    1.943    0.485
        97 -10.3171    154.4911     85.8016   4.2722149928e+01   3.4373750839e+01    0.2533386    0.1973717  47.68 0.0004968541    1.307    0.235
        98 -12.2459     29.1847     81.6836   8.4588611574e+01   5.8505216580e+01    0.6305558    0.3251656  39.14  0.002740675    2.009    0.502
        99 -10.7015     23.7530     84.9365   8.7828193860e+01   5.8146042409e+01    0.2017596    0.1678774 -70.24 0.0005727528    1.163    0.140
       100 -10.4831    250.5333     74.5359   2.6610982625e+01   1.7495722531e+01     0.246861    0.1045228 -39.26  0.001047509    1.870    0.465
       101 -10.9749    246.3024     80.8683   2.8326658940e+01   1.7432299985e+01    0.3109388    0.1946768 -53.82  0.001908178    1.785    0.440
       102 -10.6682    249.6933     78.1795   2.7441494525e+01   1.7209200727e+01    0.2353536    0.1810357 -41.46  0.001538104    1.160    0.138
       103 -10.3762    229.2065     82.6298   3.0505481842e+01   2.0046215848e+01    0.1987423    0.1193947  65.34  0.001125905    2.148    0.534
       104 -11.2121    232.7130     79.0303   2.9332065864e+01   1.9891313086e+01    0.3543337    0.2324208 -75.06  0.001990885    2.322    0.569
       105 -11.6822    227.5019     71.5405   2.8231617198e+01   2.1712329176e+01    0.3559282    0.2245448 -43.49  0.002125822    1.408    0.290
       106 -12.2403    214.1391     75.7086   3.0691022945e+01   2.3623925762e+01    0.4333578    0.2892545 -10.39  0.002392594    1.758    0.431
       107 -12.5683    221.5740     76.7334   3.0054635763e+01   2.2129563450e+01    0.4758061    0.3239702 -38.32 0.0006087944    1.259    0.206
       108 -13.1292    219.2359     68.7088   2.8478737639e+01   2.3559541120e+01    0.9054961    0.4255931  59.94   0.00456139    2.427    0.588
       109 -11.3394    223.3931     61.0411   2.6276774904e+01   2.3719551313e+01     0.249391    0.2290665 -86.44 0.0009626332    1.230    0.187
       110 -11.9037    220.1631     56.0011   2.5433835294e+01   2.4917765965e+01    0.5087355    0.3261375 -45.51  0.002826125    1.382    0.276
       111 -11.8636    215.5393     57.9017   2.6347169114e+01   2.5573996296e+01    0.3297543    0.2569389 -45.15  0.001207396    1.139    0.122
       112 -10.8762    155.6667     76.5466   3.9895826728e+01   3.5628364948e+01    0.3582532    0.2545513  43.75  0.001016336    1.462    0.316
       113 -10.7593    178.0258    114.5221   4.5421334448e+01   2.4812923022e+01    0.2468612    0.1344357  50.45 0.0007905762    2.037    0.509
       114 -11.1548    206.9996     52.6297   2.5973190683e+01   2.7884334632e+01    0.3054721    0.1891779 -38.23 0.0002882921    1.393    0.282
       115 -12.0032    174.7573     39.2641   2.6136423084e+01   3.6445353119e+01    0.7892844    0.3612746  70.81 0.0008387034    2.334    0.572
       116 -13.4644    203.1274     69.9570   3.0672415137e+01   2.6487452085e+01    0.9096758    0.5629678 -80.15  0.004304387    2.548    0.608
       117 -12.3122    173.2399     55.0566   3.0811194735e+01   3.4804030351e+01     1.034174    0.5348732  57.93  0.003229076    1.964    0.491
       118 -13.1728    191.2140     59.8825   2.9653954218e+01   3.0238021245e+01     1.015525    0.4821604 -32.44  0.002873487    1.896    0.473
       119 -11.1345    187.1914     55.9469   2.9141661247e+01   3.1604744221e+01    0.3345994     0.233468  53.23 0.0005791943    1.541    0.351
       120 -12.2747    194.4080     41.2708   2.4435284720e+01   3.1837567574e+01    0.7068372    0.3901241  70.09  0.003635906    1.941    0.485
       121 -10.1252     87.8562    114.3913   6.8406830816e+01   4.2159126295e+01    0.2113827    0.1414884  21.11 0.0003259016    1.664    0.399
       122 -12.4740    192.1014     46.9825   2.6181205067e+01   3.1660933971e+01    0.8050181    0.5776721  57.51  0.004659377    1.501    0.334
       123 -11.1070    187.0161     45.3812   2.6346316961e+01   3.2957881445e+01    0.4504479    0.2716055  42.20            0    2.028    0.507
       124 -11.8464    209.5437     45.6300   2.4001519312e+01   2.8191394230e+01    0.6743031    0.3998564 -70.34  0.003109095    2.058    0.514
       125 -12.0467    202.0022     45.8183   2.4804721007e+01   2.9708682960e+01    0.3956453    0.3255437   7.19 0.0009002784    1.492    0.330
       126 -12.7169    173.1913     45.7267   2.8178736596e+01   3.6019031280e+01    0.8990409    0.5870796  73.32  0.002677517    1.629    0.386
       127 -13.6929    203.7052     60.6900   2.8325100691e+01   2.7559857132e+01     1.175141    0.7102784 -83.08   0.00449924    2.436    0.590
       128 -11.6205    209.7010     58.6007   2.7136551867e+01   2.6625442988e+01    0.3314703     0.214081 -53.34 0.0003328874    1.554    0.357
       129 -12.4489    160.4582     38.1790   2.7706516066e+01   3.9936736060e+01    0.6397026    0.4963229  27.60  0.001784639    1.573    0.364
       130 -10.1233    210.0797    111.9823   3.9487249493e+01   1.9420028487e+01    0.1920614    0.1770847  35.73 0.0005899745    1.244    0.196
       131 -10.4573    151.0008     73.5208   3.9946107312e+01   3.7166770870e+01    0.2649333    0.2035782 -30.11 0.0004790115    1.304    0.233
       132 -11.9848    176.9820     70.9231   3.4602416478e+01   3.1776527807e+01    0.4616902    0.3273995 -66.17 0.0006855481    1.731    0.422
       133 -11.5053    164.7651     65.7251   3.5160949601e+01   3.5233155084e+01    0.9819351    0.3864688  56.50  0.003853576    2.553    0.608
       134 -11.0978    184.3501     68.9173   3.2954225031e+01   3.0480345407e+01    0.3416622    0.2426773 -57.02  0.001569297    1.532    0.347
       135 -10.6139    241.2574     68.4079   2.6180331099e+01   1.9710699376e+01    0.2754306    0.1646027 -13.00 0.0009529056    1.955    0.488
       136 -10.5678    245.0196     64.4427   2.4995860378e+01   1.9537047064e+01    0.1874533    0.1497853  -5.20 0.0004298052    1.408    0.290
       137 -11.1243    209.5312     22.1260   1.8258990483e+01   3.0701144119e+01    0.3043101    0.1843076 -41.62 0.0006673346    1.387    0.279
       138 -10.8136    242.2622     60.8577   2.4473877121e+01   2.0403300178e+01    0.2209436    0.1954838  32.96 0.0007541271    1.395    0.283
       139 -12.7268    234.8493     61.8893   2.5362924249e+01   2.1560857437e+01    0.7406157    0.4445218 -25.66  0.003095213    1.491    0.329
       140 -11.0201    229.4537     57.0211   2.4780887868e+01   2.3081166638e+01    0.2970829    0.2740406  -7.58   0.00138461    1.214    0.176
       141  -9.8840    216.0053     43.3369   2.2845333099e+01   2.7167725700e+01    0.4160465    0.2709907 -57.01  0.002447854    1.505    0.335
       142 -11.2640    233.5082     36.5365   1.9867587737e+01   2.4585751519e+01    0.3158772    0.1738229 -54.61 0.0006952503    1.718    0.418
       143 -11.9083    237.2860     52.2632   2.3038517538e+01   2.2220708882e+01    0.9870068    0.3306511 -22.20  0.003876009    3.661    0.727
       144 -11.8734    229.8640     40.5378   2.1036176265e+01   2.4833865737e+01    0.7444353    0.3980838  75.09  0.004229466    2.199    0.545
       145 -10.8713    138.5530    112.3264   5.3332472011e+01   3.2938890377e+01    0.2547037    0.1739744  21.91 0.0006613496    1.736    0.424
       146 -10.9884     96.8279    109.7920   6.4386515037e+01   4.1615831458e+01    0.3054892    0.2071021 -36.16  0.001251935    1.606    0.377
       147 -11.1635    234.2811     46.0956   2.1927511843e+01   2.3430429487e+01    0.2451828    0.1768872 -75.37 0.0007437568    1.554    0.357
       148  -9.3781     79.2915     66.2938   5.7660206855e+01   5.4587704807e+01    0.1497545    0.1177118  -0.23 0.0002445781    1.553    0.356
       149 -10.8937    181.9014     61.3605   3.1300672778e+01   3.2039215239e+01    0.2703198    0.2369015  62.21 0.0009118583    1.212    0.175
       150 -10.4774    118.2531    110.5801   5.8189378175e+01   3.7338347918e+01    0.2129084    0.1403233  30.12  0.000925459    1.600    0.375
       151 -10.3705    159.5506     50.5589   3.1589444343e+01   3.8569566553e+01    0.4478574    0.2631718  28.03  0.001725024    2.603    0.616
       152 -10.6444    162.5221     59.5148   3.3751873006e+01   3.6638955553e+01    0.2862251    0.2381648  75.48 0.0005590955    1.272    0.214
       153 -11.7977    162.8789     55.0293   3.2383720389e+01   3.7182505604e+01    0.4536659    0.3475442 -79.13 0.0009926915    1.500    0.333
       154 -10.5574    247.6326     56.9624   2.3197128729e+01   1.9936206737e+01    0.1741605    0.1695297 -81.58 0.0007600339    1.248    0.199
       155  -9.9354    243.9657    108.1683   3.4196318744e+01   1.4490974274e+01    0.1656833      0.13011 -37.59 0.0003666334    1.223    0.183
       156 -10.7568     97.5385     53.8773   4.6738201369e+01   5.2995119164e+01     0.517037    0.2919596  61.64  0.001134775    2.074    0.518
       157 -10.1343    102.3455     53.3126   4.5066597609e+01   5.1968450860e+01    0.2963979    0.1912598  44.94  0.001007718    1.506    0.336
       158  -9.7037    124.8604     53.7871   3.9332312975e+01   4.6476765314e+01    0.1965842    0.1682945 -84.98 0.0003877727    1.303    0.232
       159 -10.7683    109.2087     56.4715   4.4260174756e+01   4.9808475835e+01    0.3296958    0.2673204 -46.67  0.001121059    1.295    0.228
       160 -10.0286    111.5331     52.1175   4.2050458121e+01   4.9973945150e+01    0.2051529    0.1898045  54.00 0.0003314848    1.045    0.043
       161 -11.2387     90.3335     50.9759   4.7945458142e+01   5.5161651091e+01    0.2636967    0.2041067  47.01 0.0005965182    1.237    0.192
       162 -10.6910     99.7494     47.4018   4.3574188009e+01   5.3568959564e+01    0.3466207    0.2783452  37.05   0.00177015    1.252    0.202
       163  -9.5542    104.2794     45.7824   4.1642345218e+01   5.2738931845e+01     0.475153    0.3245572   4.51  0.002052636    2.152    0.535
       164 -12.0603    127.0955     45.1576   3.5828976681e+01   4.7214216556e+01    0.7202408    0.5118588  69.42  0.002530901    1.450    0.310
       165 -11.0973    135.4550     42.9324   3.3364027339e+01   4.5448444792e+01    0.4127006    0.3058048  70.18  0.001880858    1.358    0.264
       166 -11.4120    131.3933     40.2417   3.3223548796e+01   4.6822871360e+01    0.8432747    0.2884211  44.45  0.002684168    3.620    0.724
       167  -9.5204     92.7381     46.6897   4.5452069690e+01   5.5342476334e+01    0.3888457    0.2395943 -70.20  0.001425712    3.061    0.673
       168 -10.1515     94.7965     42.2856   4.3018716427e+01   5.5572560370e+01    0.3829582    0.3192377  47.72  0.002019996    1.136    0.120
       169 -11.1078    248.2159     42.7315   2.0160693035e+01   2.1357305543e+01    0.3719643    0.1816855 -63.88  0.001571623    2.537    0.606
       170 -10.1686    100.8287     40.6630   4.0586666516e+01   5.4366887001e+01    0.2699176    0.2005268  55.59  0.001340596    1.281    0.219
       171 -10.5237    123.5465     37.9356   3.3992024987e+01   4.9100306781e+01    0.3293247     0.235069  20.31  0.000804127    1.811    0.448
       172 -10.7003    240.7815     73.6504   2.7346004445e+01   1.9178776730e+01    0.2039524    0.1692865  86.03 0.0006514784    1.521    0.342
       173 -10.4749    111.2238     34.2790   3.5349877253e+01   5.2695280006e+01    0.4120748    0.2688813  33.30  0.001886057    1.794    0.443
       174 -11.9556     92.4841     33.5392   4.0027419008e+01   5.7452259938e+01    0.4625866     0.350172  41.02  0.001815551    1.290    0.225
       175 -10.4478    131.8263     33.6795   3.0831245117e+01   4.7561530888e+01    0.2828539    0.1829249 -45.75 0.0003444479    1.592    0.372
       176 -10.4567    121.9033     33.1201   3.2552908444e+01   5.0144813216e+01     0.215092      0.19239  46.45 0.0007297546    1.122    0.108
       177  -9.8591    206.3926     31.4611   2.0802682759e+01   3.0394138607e+01    0.1944072     0.106494 -28.55 0.0007195073    1.669    0.401
       178 -10.5889    237.4731     30.6979   1.8309886313e+01   2.4462293944e+01    0.2112156    0.1697264 -78.63  0.000971652    1.311    0.237
       179 -10.9042    104.3204     28.8736   3.4824071687e+01   5.5146234670e+01    0.2774571    0.2203355 -45.66 0.0006840894    1.346    0.257
       180 -11.7977     86.2717     28.5192   3.9685022161e+01   5.9670076424e+01    0.3967007    0.2774123  61.04 0.0007884753    1.405    0.288
       181  -9.4008     80.6172     30.2732   4.2356652287e+01   6.0770782647e+01    0.1453989    0.1135021 -86.92 0.0006997292    1.706    0.414
       182 -10.8255    225.9311     50.5151   2.3627945724e+01   2.4467867697e+01    0.3485582    0.1951953 -28.44  0.001229508    1.568    0.362
       183 -10.4294    146.2592     28.1086   2.6549329713e+01   4.4593657183e+01    0.4363045    0.2165111 -43.79  0.001923589    1.996    0.499
       184 -10.5430    148.5249     24.4565   2.5024354912e+01   4.4431784065e+01    0.3644904      0.23493 -63.88  0.001799755    1.682    0.405
       185 -10.5536    151.2781     22.3016   2.3956560748e+01   4.3976326863e+01    0.3506428    0.1865167  51.23  0.001315565    1.947    0.486
       186 -10.2097    140.6251     29.1339   2.7751070174e+01   4.5887936806e+01    0.2913008    0.1912277 -74.62 0.0004228798    1.782    0.439
       187 -10.0259    139.0787     18.1036   2.4181851916e+01   4.7473168512e+01    0.2912138    0.2104657  16.01  0.001058438    1.783    0.439
       188 -10.8465    195.6701    107.0210   4.0603973791e+01   2.2695460733e+01    0.3752709    0.2110874 -48.16  0.001805614    2.004    0.501
       189  -9.9175    127.5769     15.5583   2.4954092849e+01   5.0673376638e+01    0.2165239    0.1709763  85.93 0.0004913385    1.224    0.183
       190 -11.5954    133.2023     24.9042   2.7469233741e+01   4.8247603918e+01    0.6141554    0.3200865  57.53  0.001904586    1.783    0.439
       191 -11.0679    138.0201     22.7361   2.5947914724e+01   4.7259603070e+01    0.2663707    0.1976941 -26.42 0.0002258096    1.423    0.297
       192  -9.5545    124.7208     28.7162   3.0354575202e+01   4.9971458429e+01    0.2344711    0.1716794  83.11 0.0006080429    1.433    0.302
       193 -11.1885    124.2283     25.2247   2.9141259215e+01   5.0505743052e+01    0.4066373    0.2243014  40.49 0.0007707103    2.076    0.518
       194 -11.2577    112.7321     27.9754   3.2508337491e+01   5.3122681148e+01    0.5000416    0.2935044  59.78  0.002261583    1.570    0.363
       195 -10.6845    235.9622     23.9712   1.6935085966e+01   2.5399279041e+01    0.3212385    0.2065596  45.63  0.002010259    2.099    0.523
       196 -10.7585    243.4685     22.9969   1.6288763276e+01   2.4146931769e+01      0.46833    0.1856501  79.11  0.002440727    3.013    0.668
       197 -10.4338    244.5790     19.7600   1.5543193542e+01   2.4257780904e+01    0.1912581    0.1421503 -67.83  0.000743829    1.296    0.228
       198 -10.8495    161.9781    107.2940   4.6817654744e+01   2.9144490028e+01    0.1979791    0.1843685   9.21  0.000695931    1.049    0.046
       199  -9.9278     28.3502    107.2663   8.9391387681e+01   5.1918314030e+01    0.1450474    0.1003874 -30.90  0.000349638    1.619    0.382
       200  -9.9641    244.4333     72.5452   2.6761776061e+01   1.8705914323e+01    0.1717936    0.1436066 -39.65 0.0005190399    1.087    0.080
       201  -9.7176    184.7449     22.7910   2.0459766287e+01   3.5975742292e+01    0.1828363    0.1273599 -58.24 0.0007125388    1.350    0.259
       202 -10.6328     98.1094     21.6855   3.3273434812e+01   5.7604341077e+01    0.3032269    0.2516057   0.84   0.00164553    1.369    0.269
       203  -9.7374    211.7195    105.2978   3.7769118795e+01   2.0076547988e+01    0.2472082    0.1338195  29.14  0.001160868    2.549    0.608
       204 -10.2222    163.3900     20.5722   2.1970384061e+01   4.1189954520e+01    0.2427981    0.1833604 -61.88 0.0006575836    1.277    0.217
       205 -10.3539    201.2885     20.0329   1.8351716810e+01   3.2627413345e+01     0.189405    0.1651296  37.36  0.000761407    1.415    0.294
       206  -9.7892    205.0064     18.6849   1.7739198450e+01   3.1974760091e+01    0.1585619    0.1310291 -70.71 0.0003792819    1.130    0.115
       207 -10.4741    170.3459     18.6998   2.0681308709e+01   3.9715224136e+01     0.314478    0.1959301  48.99  0.001474301    1.800    0.444
       208 -10.0996    194.1156     18.4136   1.8490827371e+01   3.4329961435e+01    0.2195654    0.1662326  -7.98 0.0008002524    1.578    0.366
       209  -9.9720    183.3428    105.1863   4.2245752475e+01   2.5290683131e+01    0.2372962    0.1798688 -88.06  0.001205174    2.095    0.523
       210 -10.5227     11.6366    105.0342   9.6016716327e+01   5.3735681599e+01    0.1911141    0.1612773 -75.59 0.0004122865    1.113    0.101
       211 -10.4978    153.2839     15.6556   2.1568917554e+01   4.4147600073e+01    0.2156352    0.1712974 -63.70   0.00070659    1.210    0.173
       212 -11.7243    145.0053    102.9025   4.9389504964e+01   3.3393117369e+01    0.5581108    0.2715969  42.34  0.002272947    2.082    0.520
       213  -9.9398    103.0331    104.5500   6.1101504386e+01   4.1609082052e+01    0.2249699    0.1460594  36.86 0.0003292212    1.510    0.338
       214 -10.7616    236.6883    102.4550   3.3883178580e+01   1.6320384694e+01    0.2832402    0.1796309  55.04  0.001734408    1.980    0.495
       215 -10.3314    103.5233     14.8879   2.9039139908e+01   5.6968204309e+01    0.2369527    0.1669974  54.42 0.0005775644    1.300    0.231
       216  -9.2855     17.3292     15.2331   6.9129725036e+01   7.5230170327e+01    0.1304033   0.08972391  -8.44            0    1.524    0.344
       217 -13.8834    117.5555     94.4447   5.4060253714e+01   4.0794536158e+01      1.20767    0.7714421 -64.31  0.004626491    2.263    0.558
       218 -12.1653    136.9401     71.5147   4.2330128333e+01   4.0728806261e+01     1.105073    0.6829545  61.43  0.004737841    1.763    0.433
       219  99.0000    143.0784     48.1429   3.3661252611e+01   4.2856716411e+01    0.6097972     0.284078 -26.12  0.002093714    2.380    0.580
       220 -11.9956    147.1042     83.9878   4.3766855074e+01   3.6305877474e+01    0.8127916     0.610848  38.39  0.004123239    1.385    0.278
       221 -12.6562    136.8447     81.8677   4.5461049646e+01   3.8963937927e+01    0.6809204    0.6036298 -18.44  0.002342926    1.168    0.144
       222  -9.5808    166.0261     13.2476   1.9487851213e+01   4.1268466449e+01    0.2303038    0.1217725 -65.17  0.001069447    2.041    0.510
       223 -11.5756    144.4735     68.0902   3.9658248550e+01   3.9538872986e+01    0.5345092    0.4047193  74.43  0.001993268    1.517    0.341
       224 -12.4972    136.0139     54.0509   3.6974580292e+01   4.3725094615e+01    0.9281848    0.6975813 -70.78  0.003584651    1.592    0.372
       225 -11.8308    127.3890     58.6989   4.0410817707e+01   4.5090042354e+01    0.5861701    0.2994985  38.85  0.001745011    2.339    0.573
       226 -11.1818    145.9366     52.9608   3.4675501374e+01   4.1484765916e+01    0.4661807    0.4045358  33.87   0.00129704    1.248    0.199
       227 -11.3417    112.9614    246.8384   8.1824507977e+01   1.2304760851e+01    0.3329014    0.1779447 -32.20  0.001873586    2.502    0.600
       228 -13.9673    128.1891     90.1018   4.9973402519e+01   3.9366398827e+01    0.7065043    0.6298295 -56.39 0.0008361595    1.211    0.174
       229 -13.4165    123.7408     84.0849   4.9369646958e+01   4.1482126484e+01     1.384291    0.8074937  17.33  0.004664855    3.462    0.711
       230 -12.9756    153.9140     61.6279   3.5873374604e+01   3.8330096259e+01    0.7473696    0.4883382 -46.24   0.00363464    1.543    0.352
       231 -12.0919    145.6226     61.2948   3.7343613825e+01   4.0328949696e+01    0.7699121    0.4888833 -70.55   0.00231581    2.314    0.568
       232 -11.1763     62.5720    102.3238   7.4669259343e+01   4.9146089072e+01    0.2759999    0.1496536 -64.71 0.0008406913    2.028    0.507
       233 -10.5890    165.1481    101.6282   4.4757188529e+01   2.9468085196e+01    0.2437869    0.1849189 -43.19  0.001040079    1.322    0.243
       234 -12.6417     96.6917     90.4612   5.9234843726e+01   4.5930186096e+01    0.9572392    0.6281145  86.88  0.002831669    3.256    0.693
       235 -11.8386     96.9171     99.9798   6.1821453069e+01   4.3797480886e+01    0.3716357    0.3403054  47.08 0.0006866442    1.107    0.097
       236 -12.3026     87.2893     97.9068   6.4479358864e+01   4.6079824117e+01    0.7024536    0.5300905  -8.44  0.003240838    1.696    0.410
       237 -11.4516     81.3213     99.4370   6.6975716503e+01   4.6801191920e+01    0.3876687    0.2884366 -83.22  0.001757267    1.828    0.453
       238 -11.3087    153.3107     98.6714   4.6434172675e+01   3.2419603228e+01    0.6022116    0.3003999  41.29  0.002503201    2.102    0.524
       239 -12.3675    141.4473     98.0425   4.8928162095e+01   3.5032813081e+01    0.7562974    0.5001083  75.29  0.002565955    2.542    0.607
       240 -11.7168    169.1203     97.1106   4.2841394339e+01   2.9405446225e+01    0.4608185    0.3502452  58.69  0.001410083    1.483    0.326
       241 -12.9375    106.8845     94.8606   5.7286213195e+01   4.2926017646e+01    0.7433996    0.4610457 -31.19  0.001826465    1.882    0.469
       242 -11.1131     11.9062     97.4810   9.5080291774e+01   5.5697343115e+01    0.2723972     0.210324 -66.32 0.0007447837    1.206    0.171
       243 -10.8440    199.8846     95.9146   3.7358322653e+01   2.3540751663e+01    0.3043627    0.2009021 -47.55  0.001169589    1.579    0.367
       244 -11.1739     73.8576     96.4897   6.8936300854e+01   4.8784043913e+01    0.3900414    0.2563238  34.73  0.001772983    1.489    0.328
       245 -12.6725     48.2449     94.9509   7.8811752167e+01   5.2973734830e+01    0.7650769    0.3191493  34.27  0.001986927    2.279    0.561
       246 -13.4280     52.8531     87.3020   7.5030850691e+01   5.4280895201e+01    0.7756211    0.5874066 -75.08  0.003823509    1.494    0.331
       247 -10.4582     48.4826     85.4913   7.6490881500e+01   5.5329042822e+01    0.2715817     0.168468 -51.35 0.0007319945    1.562    0.360
       248 -11.1095     45.1806     85.6392   7.8003000500e+01   5.5720046915e+01    0.3463341    0.2250707  11.24  0.000913768    1.760    0.432
       249 -11.8651    223.3644     92.1047   3.3284605206e+01   1.9841323533e+01     0.607662    0.1873056 -41.55  0.002448553    2.979    0.664
       250 -11.1111    212.8346     94.1201   3.5100166263e+01   2.1420442451e+01    0.3694263    0.2273421 -18.04  0.001965703    1.716    0.417
       251 -11.0863    206.6023     94.4197   3.6031194692e+01   2.2507763407e+01    0.3959558    0.2033712 -51.83  0.001790922    2.488    0.598
