#   1 NUMBER                 Running object number                                     
#   2 MAG_AUTO               Kron-like elliptical aperture magnitude                    [mag]
#   3 X_IMAGE                Object position along x                                    [pixel]
#   4 Y_IMAGE                Object position along y                                    [pixel]
#   5 X_WORLD                Barycenter position along world x axis                     [deg]
#   6 Y_WORLD                Barycenter position along world y axis                     [deg]
#   7 A_WORLD                Profile RMS along major axis (world units)                 [deg]
#   8 B_WORLD                Profile RMS along minor axis (world units)                 [deg]
#   9 THETA_WORLD            Position angle (CCW/world-x)                               [deg]
#  10 FWHM_WORLD             FWHM assuming a gaussian core                              [deg]
#  11 ELONGATION             A_IMAGE/B_IMAGE                                           
#  12 ELLIPTICITY            1 - B_IMAGE/A_IMAGE                                       
         1 -15.4483    186.5483     77.6773   5.7032230175e+01   2.7913663745e+01     4.192841      1.72631  35.46   0.01129593    5.158    0.806
         2 -14.9431    205.3209     66.1839   5.0825554425e+01   2.5312896452e+01     1.486868     1.226598  69.55  0.008169573    1.245    0.197
         3 -15.1954    222.1791     60.5900   4.7037260974e+01   2.2282637465e+01     1.668534    0.9566234 -75.97  0.005719085    2.550    0.608
         4 -18.5272    240.7376     28.0999   3.7485960216e+01   2.2551859232e+01     8.899611     7.184481 -21.63   0.03741075    1.509    0.337
         5 -15.8853    232.8757     11.0785   3.4438387232e+01   2.6195197087e+01     1.187179    0.7853136  -8.30  0.006486508    2.364    0.577
         6 -13.8965    215.3204     10.7985   3.5859066470e+01   3.0137985589e+01     1.502282    0.6454017 -12.63  0.005222535    5.199    0.808
         7 -10.9910     93.6196     29.6166   6.2947457356e+01   5.7031154576e+01    0.3177132    0.1163157 -34.81    0.0012386    2.808    0.644
         8 -11.5228    135.2065     15.3748   4.7603819312e+01   4.9098464378e+01    0.3959432     0.109281 -23.70  0.001339284    4.021    0.751
         9 -10.6870    143.6073     11.8317   4.4949831370e+01   4.7382422945e+01    0.3010989     0.166803 -17.13  0.001035972    2.136    0.532
        10 -11.5293    207.6385     10.5533   3.6511554954e+01   3.1934829040e+01    0.2244852    0.2083012 -72.70 0.0008057751    1.121    0.108
        11 -11.3540    119.9136      6.2003   4.7306425076e+01   5.3592137882e+01    0.2755739     0.192292 -21.62 0.0006995951    1.598    0.374
        12 -10.3522    107.3186      7.3140   5.0404473063e+01   5.6416724454e+01    0.1416539   0.08367144  33.15 0.0003818148    1.650    0.394
        13 -10.7467    104.9509      2.0779   4.8882559593e+01   5.7383560727e+01    0.2232596    0.1255842  34.33  0.001132529    1.700    0.412
        14 -11.6700     70.7777      2.4394   5.8296221220e+01   6.4550047501e+01    0.3151889   0.09748619  49.96  0.001309218    2.689    0.628
        15 -11.5518     58.7483      2.2517   6.2412423300e+01   6.6783466197e+01    0.4240991   0.07176154  40.67  0.001310945    5.092    0.804
        16 -12.4950    190.7002    150.4805   7.4608356164e+01   1.3285897073e+01    0.7466086    0.3520476 -57.20  0.002277988    4.108    0.757
        17 -13.4674     29.2899    175.5784   1.1845590114e+02   3.4238550496e+01     1.053737    0.4309575  59.70  0.004543358    2.830    0.647
        18 -11.3482    179.0113    146.5222   7.6220189411e+01   1.6460285552e+01    0.2303729    0.1494518  43.55 0.0005310663    1.566    0.361
        19 -12.5490    244.4279    165.1084   6.7586908492e+01   7.7148816353e-01    0.5051584    0.3180709  21.44  0.002410918    1.787    0.440
        20 -13.6990    189.2223    138.5437   7.2149383243e+01   1.5921498828e+01    0.7859038    0.4854975  32.90  0.002691823    1.781    0.438
        21 -13.0594    211.6312    135.1588   6.6878535461e+01   1.1941884829e+01    0.4759921    0.4010378  70.09  0.001902607    1.529    0.346
        22 -11.4500    136.0000    129.9538   8.2585072081e+01   2.9020383187e+01     1.082155    0.2009865 -49.52  0.002278018    6.559    0.848
        23 -10.9971    135.0173    121.2439   8.0663248620e+01   3.1177758542e+01    0.5673791    0.2093115 -47.03  0.001625572    2.711    0.631
        24 -11.3059    247.3615    174.7677   6.9072759667e+01  -1.2183461608e+00    0.3140642    0.2205838 -23.22  0.001361798    1.227    0.185
        25  -9.2856     96.2690    132.7025   9.4144879227e+01   3.5898098211e+01    0.1458969    0.1168299  82.99 0.0002210953    1.520    0.342
        26 -12.4741    160.6391    128.5205   7.6098465543e+01   2.4096177229e+01    0.4849021    0.3627206 -48.11  0.001636821    1.364    0.267
        27 -12.7658    210.3902    124.3194   6.4550107800e+01   1.4181546411e+01    0.5243238    0.2977205 -22.23  0.002121636    2.168    0.539
        28 -11.8642    192.3967    125.9126   6.8444441289e+01   1.7706456302e+01    0.2546792    0.2200963  61.22 0.0007790419    1.319    0.242
        29 -12.7496    241.5720    171.9321   6.9493424501e+01   1.5374338707e-01    0.4222142    0.3762232 -17.50  0.002045628    1.165    0.142
        30 -12.7758    167.6291    114.0549   7.0773384207e+01   2.5548134258e+01    0.5667735    0.4932767 -19.65 0.0008525028    1.180    0.153
        31 -13.4441     68.9166    146.2641   1.0452816921e+02   3.6729948974e+01     1.328876     1.189501 -45.63  0.005338641    1.171    0.146
        32 -13.9787     44.5351    164.6259   1.1361964003e+02   3.5234155588e+01    0.7338381    0.5177599  19.58  0.001616902    1.797    0.443
        33 -11.8910    134.6227    108.3981   7.7373313492e+01   3.4086078961e+01     1.223844    0.2447132 -45.17  0.002912767    5.019    0.801
        34  -9.1396    110.2958    112.3165   8.5195249263e+01   3.8193859905e+01    0.1572731    0.1204177 -13.03 0.0004930419    1.606    0.377
        35 -12.5734    159.1603    115.9838   7.3245483529e+01   2.7056211977e+01     1.166339     0.669134 -73.39  0.002954102    5.856    0.829
        36 -14.8337     14.2764    182.4326   1.2239010053e+02   3.4064595873e+01    0.8707891    0.6854795  85.78  0.003761627    1.008    0.007
        37 -12.4615    125.2891    103.7196   7.8611494938e+01   3.7093476904e+01     0.700184    0.3764803  56.08   0.00258009    2.399    0.583
        38 -11.2284    111.9543    104.3108   8.2568517587e+01   3.9686563240e+01    0.2858548    0.2248707 -72.71 0.0009747493    1.614    0.380
        39 -10.0090    164.2704    102.6422   6.8486028822e+01   2.8603888856e+01    0.1589455    0.1228761 -69.46 0.0004239298    1.643    0.391
        40 -11.2374    147.0333    101.5113   7.2276493647e+01   3.2787388676e+01    0.3162646    0.2780307  32.25 0.0007173833    1.157    0.135
        41 -11.2081    133.4607     97.1884   7.4544056045e+01   3.6719552897e+01    0.3834972    0.2732726 -50.11  0.001227261    1.473    0.321
        42  -9.7591    113.4938     95.0107   7.9491333809e+01   4.1419279660e+01    0.2292081    0.1491655 -42.71 0.0003619773    1.498    0.333
        43 -11.7413    140.5482     91.4424   7.1031370917e+01   3.6300708306e+01    0.3564488    0.3303889 -87.09 0.0007181487    1.228    0.186
        44 -12.4879    201.5071     88.4140   5.7205728384e+01   2.2566884237e+01    0.5492668    0.4097286  71.85  0.002695041    1.552    0.356
        45 -13.0044    154.5350     85.9765   6.6026153453e+01   3.4106752169e+01    0.3692224    0.2965994 -26.66   0.00123174    1.288    0.223
        46  -9.7777    128.4316     84.1988   7.2048931327e+01   4.0467068578e+01    0.2151022    0.1446581 -51.29 0.0004806558    1.646    0.392
        47 -14.2517     51.5851    160.0501   1.1125165339e+02   3.5536313052e+01     1.142427    0.9246308  42.50  0.002638664    1.309    0.236
        48 -11.2080    152.7909     75.7672   6.3408437289e+01   3.6390604939e+01    0.6239095    0.2464071  49.36  0.002178799    2.466    0.594
        49 -10.0585    158.7910     74.2158   6.1606164872e+01   3.5217775476e+01    0.2217303    0.2074628 -81.38 0.0005459301    1.149    0.129
        50 -12.9517    105.9350     63.4469   7.1776614568e+01   4.9237886785e+01    0.7677483     0.473779  25.07  0.001070697    1.946    0.486
        51 -11.1929    125.0898     44.8807   6.0030937147e+01   4.7982905449e+01    0.2164983    0.2007297 -84.51  0.000561373    1.266    0.210
        52 -13.6854     57.4226    156.0913   1.0918097030e+02   3.5799935414e+01    0.6966842    0.4815598  88.30  0.001632242    1.531    0.347
        53 -10.9108    159.8303     30.0752   4.7982776141e+01   4.1437668273e+01     0.320669    0.2027285 -27.40  0.001154987    1.713    0.416
        54 -12.1209    207.5364    185.9512   7.8719406516e+01   3.6070164910e+00    0.4630425    0.3572219  74.19  0.002261746    2.384    0.581
        55 -12.9472    125.5787     24.4954   5.2725681833e+01   5.0466423335e+01    0.4433639    0.2579415  40.04  0.002106979    1.668    0.401
        56  -9.4305    170.2646     21.6564   4.3847147035e+01   3.9796483829e+01    0.1386418   0.09584389 -62.56 0.0004072997    1.602    0.376
        57 -10.6832    159.9101     19.7865   4.4835792618e+01   4.2566102166e+01    0.2202583    0.1742559  31.12 0.0003281962    1.411    0.291
        58  -9.5885    163.7733     17.0286   4.3429060607e+01   4.1893152952e+01    0.1605325    0.1125307 -27.61 0.0004393638    1.569    0.363
        59 -14.0552    169.9152     72.7017   5.8832277322e+01   3.2775540489e+01     1.076712    0.7446625  -4.40  0.002844037    2.054    0.513
        60 -10.2157    209.8814    170.1766   7.5013497569e+01   5.9346723899e+00    0.1950371     0.186343   4.10 0.0003081389    1.169    0.144
        61 -10.3981    202.0267    248.0564   9.0735852150e+01  -5.0205677449e+00     0.180864    0.1411414  16.85 0.0003189026    1.008    0.008
        62  -9.9186    209.0052    211.9949   8.3381148867e+01  -8.8310810431e-01    0.1572658    0.1316665  -0.80  0.000352995    1.061    0.058
        63 -10.9784    181.3543    211.1485   8.8791906373e+01   3.8037930896e+00    0.4206458    0.2640622  62.27  0.001805331    2.946    0.661
        64 -11.8173    191.4867    192.7493   8.3314513641e+01   5.2436162014e+00    0.7374982    0.4010736 -63.12  0.002299902    5.414    0.815
        65 -10.6296    226.3101    158.3201   6.9349715238e+01   5.0187848133e+00    0.1450336    0.1011839  -1.45 0.0003036557    1.645    0.392
        66 -10.1180    162.4899    157.5204   8.2450228775e+01   1.7565350100e+01    0.1523578    0.1445111   4.51 0.0003797784    1.011    0.011
        67 -11.4114    202.4752    191.8678   8.0898987306e+01   3.4759351651e+00    0.3913454    0.1600058  35.37  0.001570049    2.402    0.584
        68 -11.0674    134.0000    147.0500   8.7088400990e+01   2.5547648222e+01    0.7025254    0.2114148 -53.54   0.00193427    4.094    0.756
        69 -10.7680    132.4661    139.4243   8.5757233259e+01   2.7588491196e+01    0.5378438    0.2238146 -54.69  0.001776461    2.807    0.644
