#   1 NUMBER                 Running object number                                     
#   2 MAG_AUTO               Kron-like elliptical aperture magnitude                    [mag]
#   3 X_IMAGE                Object position along x                                    [pixel]
#   4 Y_IMAGE                Object position along y                                    [pixel]
#   5 X_WORLD                Barycenter position along world x axis                     [deg]
#   6 Y_WORLD                Barycenter position along world y axis                     [deg]
#   7 A_WORLD                Profile RMS along major axis (world units)                 [deg]
#   8 B_WORLD                Profile RMS along minor axis (world units)                 [deg]
#   9 THETA_WORLD            Position angle (CCW/world-x)                               [deg]
#  10 FWHM_WORLD             FWHM assuming a gaussian core                              [deg]
#  11 ELONGATION             A_IMAGE/B_IMAGE                                           
#  12 ELLIPTICITY            1 - B_IMAGE/A_IMAGE                                       
         1 -14.3075    175.8070     95.1451   1.6742929970e+01   2.7468838714e+01      6.44887     1.697831 -35.18   0.01880926    4.082    0.755
         2 -13.9848    207.5983    174.9133   2.8408505917e+01   8.3093183825e+00     4.027339     2.335933 -58.75   0.01721261    3.815    0.738
         3 -14.0713    250.0516    114.0167   1.0443949809e+01   1.1239538753e+01      6.39193    0.6317462 -34.22   0.01165868   14.707    0.932
         4 -13.9236    234.9518     78.5384   4.7256576474e+00   1.8618566236e+01     2.382329      0.86639 -40.26   0.01102713    2.087    0.521
         5 -14.5614    243.8413     71.9661   2.4488400190e+00   1.7987881491e+01      7.58855     2.258806 -54.78   0.01995016    8.410    0.881
         6 -13.9097    216.9763     76.9461   6.3417350523e+00   2.2109225696e+01     6.892591     3.262547 -13.91   0.01611293   10.194    0.902
         7 -14.3341    209.9898    115.9688   1.6110079472e+01   1.7363762972e+01     3.126022     2.361554  27.56   0.01657533    1.599    0.375
         8 -15.2316    242.5142    130.8957   1.4697550104e+01   9.9460503889e+00      3.01479     2.004633  22.91   0.01548909    1.934    0.483
         9 -10.5056    221.3512     14.3213   3.5141452770e+02   2.9191103986e+01    0.3687507    0.2367687  54.32  0.001874719    2.070    0.517
        10 -11.7932    216.4944     13.6966   3.5154821614e+02   3.0238088549e+01    0.9764603    0.5280271  34.55   0.00422652    4.261    0.765
        11 -12.0641    240.8923      4.4542   3.4832494366e+02   2.6449860782e+01    0.8944799    0.3028379  59.63  0.002421515    4.014    0.751
        12 -11.2635    232.7049      3.4985   3.4845859870e+02   2.8077948048e+01    0.6961213    0.2901761  57.34  0.003489656    3.328    0.700
        13 -10.1622    208.0783      9.5714   3.5105944336e+02   3.2412354766e+01    0.2182685    0.1994309  56.81 0.0008652341    1.440    0.306
        14  -9.4166    120.4180      9.2632   3.5906189830e+02   5.3505507530e+01    0.2905489    0.2677698 -44.23  0.001042597    1.164    0.141
        15  -8.6255    100.3184      9.9485   2.7557856729e+00   5.8639042773e+01    0.1806284    0.1730734 -76.39 0.0003383106    1.086    0.080
        16  -9.2320    171.4759      2.4371   3.5153570388e+02   4.1333189478e+01    0.2899738    0.1845424 -60.55  0.001309686    1.362    0.266
        17  -7.5536    247.2858    211.2815   2.8282926019e+01  -1.3618568021e+00    0.1063879   0.06214697  -7.07 0.0002013025    1.520    0.342
        18 -10.6811    248.6736    249.4303   3.3713999122e+01  -5.7341361840e+00    0.4842288    0.2137052  28.91  0.003240954    2.205    0.546
        19 -11.1192    246.7183    245.3983   3.3441514827e+01  -5.1439317858e+00    0.5311099    0.1999805  33.71  0.003121975    2.966    0.663
        20  -9.2935    243.5735    207.3661   2.8211244352e+01  -5.0774157651e-01    0.3262298    0.2689798  57.16  0.002152944    2.810    0.644
        21  -8.9942    214.0892    206.0484   3.2670137808e+01   2.9403692863e+00     0.215252    0.1488324  29.05  0.001010332    1.507    0.336
        22 -12.5252    193.0629    192.8417   3.4174991313e+01   7.5213010578e+00     1.623917     1.208765 -88.61  0.007259784    4.321    0.769
        23 -10.2309    219.1139    246.8537   3.7948824655e+01  -2.7333066407e+00    0.2169918    0.1337281  -0.34 0.0006006323    1.309    0.236
        24  -8.7861     91.4404    184.1290   5.5687364142e+01   2.4135811491e+01    0.2659045    0.2069595  -6.10  0.001389024    1.583    0.368
        25  -8.1915     30.0253    177.9944   7.2010570925e+01   3.3197247970e+01    0.1633185    0.1401517  55.77 0.0003110955    1.028    0.027
        26  -8.0343    190.1888    244.1629   4.2533037537e+01   5.8601982725e-01    0.1388738    0.1108648  19.79 0.0003516385    1.299    0.230
        27 -11.9280    198.7442    178.2081   3.0561545655e+01   9.0328410445e+00    0.4553809    0.3848447 -52.64  0.001621862    1.593    0.372
        28 -10.5658    245.5285    232.8690   3.1821755001e+01  -3.6806982648e+00    0.3954673    0.3232289 -46.05  0.002982989    2.441    0.590
        29  -8.8284    180.3053    193.2443   3.6658303971e+01   9.2044328028e+00    0.2448505    0.1610209  38.96  0.001387052    1.639    0.390
        30 -10.0378    204.5834    160.2433   2.6164024820e+01   1.1053329185e+01    0.2298131    0.1912722 -34.28 0.0004863209    1.194    0.163
        31 -10.2199    136.9545    137.6044   3.5352689669e+01   2.6950230647e+01    0.5502787    0.2167195 -49.83  0.001202915    2.605    0.616
        32 -11.5404    142.1479    132.0798   3.2850325574e+01   2.7135307380e+01    0.7765244    0.4816869 -69.66  0.002994224    2.628    0.620
        33 -12.1934    137.5368    127.0576   3.2800997141e+01   2.9110511256e+01     1.250162    0.6518641 -51.55  0.005029052    1.995    0.499
        34 -10.6962    134.5983    113.7477   3.0273165673e+01   3.2571646387e+01     0.600763    0.4287034 -35.22  0.001414379    1.461    0.316
        35 -10.1892    134.9615    106.6905   2.8356609233e+01   3.3998701524e+01    0.6701057    0.2383156 -46.17  0.001746886    2.757    0.637
        36 -10.3391    132.6173    140.2556   3.7011427491e+01   2.7190957240e+01    0.5028184    0.2601776 -53.45   0.00159005    2.067    0.516
        37 -11.2746    135.4265    152.7803   3.8939397426e+01   2.3969341903e+01    0.6107259     0.346178 -43.87  0.001274286    1.776    0.437
        38 -11.2653    133.9603    147.0776   3.8129444776e+01   2.5458744264e+01    0.7190079    0.3312345 -46.53 0.0009972802    2.163    0.538
        39  -8.4088    209.1649    156.8933   2.4738778770e+01   1.0904790514e+01    0.1740496    0.1260936 -16.82 0.0003236272    1.291    0.225
        40  -9.2471    114.2204    155.4448   4.4894185390e+01   2.7088351898e+01     0.260125     0.230099 -87.79 0.0002970994    1.291    0.225
        41  -9.4174    203.8661    152.6444   2.4794934222e+01   1.2392677551e+01    0.3258881    0.2467847  -8.52  0.001083726    1.324    0.245
        42 -10.3337     67.9954    144.1311   5.6477416466e+01   3.7301821254e+01    0.7659405    0.3679232  54.87  0.002796291    2.549    0.608
        43  -7.8828     14.7308    142.6962   7.3974294814e+01   4.3634479111e+01    0.1350102   0.09722521 -49.16 0.0001957648    1.532    0.347
        44 -11.4085    161.9004    137.2147   2.9549887222e+01   2.2331762738e+01    0.8917702    0.3418636 -50.30 0.0009494121    2.978    0.664
        45  -9.6936    161.0000    129.0641   2.7903214617e+01   2.4101460002e+01    0.3312194    0.1975578 -39.44 0.0009676497    1.602    0.376
        46 -10.9528    160.4960    125.4673   2.7176342556e+01   2.4906440563e+01    0.3990929    0.3139241 -33.43  0.001089248    1.231    0.187
        47  -9.3280    166.8899    138.1713   2.8712762073e+01   2.1225257207e+01    0.2018103    0.1923141 -67.63 0.0004732955    1.201    0.167
        48 -10.5212      4.6028    137.4438   7.6995797381e+01   4.5749108394e+01    0.2422244    0.2248222  85.42 0.0001865985    1.086    0.079
        49  -9.6819    166.5223    133.7131   2.7800559197e+01   2.2149678688e+01    0.3367684    0.2711141 -10.93   0.00179213    1.367    0.269
        50  -7.7789    108.1977    128.9055   4.1067812886e+01   3.4393878280e+01     0.200053    0.1214352 -54.38 0.0004712096    1.672    0.402
        51  -8.4556    113.1208    125.6688   3.8916432616e+01   3.4220869886e+01    0.2756451    0.2011716 -60.24  0.001267367    1.451    0.311
        52 -13.5673    240.9144    117.4596   1.2220420760e+01   1.2108870760e+01     1.344206    0.5997114 -27.89  0.006470202    2.162    0.537
        53 -13.2134    228.0738    117.1448   1.3803857085e+01   1.4153832326e+01      1.33496    0.8845629  -6.26  0.007227333    2.023    0.506
        54 -11.9552    158.4645    113.4912   2.4726799336e+01   2.7666435661e+01     1.148894    0.7527985  -2.61  0.004511392    2.778    0.640
        55 -10.8335    157.9002    107.9810   2.3466580463e+01   2.8858933838e+01    0.4259624    0.2651654 -44.95 0.0006629987    1.524    0.344
        56  -7.8623     82.5272    121.0177   4.7259591032e+01   4.1003120807e+01    0.2127944    0.1516142 -58.03 0.0001294875    1.394    0.283
        57  -8.7319    121.9900    118.7948   3.4810914146e+01   3.4051304786e+01    0.2622679    0.2169187 -47.34 0.0004258703    1.195    0.163
        58  -9.8736     58.3882    101.2714   5.1491522125e+01   5.0068297088e+01    0.5644454    0.5123343 -88.42 0.0002462712    1.116    0.104
        59 -12.4078     52.3129    112.8319   5.6351612453e+01   4.7843661710e+01      1.30573    0.8171133  13.41   0.00168792    1.995    0.499
        60 -13.0132     43.9977    109.2824   5.8916022779e+01   4.9875136229e+01     2.891497     1.053854  23.80  0.009793187    3.041    0.671
        61 -11.4464     35.7067    109.3483   6.2254221137e+01   5.0810719043e+01     0.475652    0.4342552 -17.73 0.0009427851    1.220    0.181
        62 -11.5569      4.1032    112.3721   7.5347370802e+01   5.2536015696e+01    0.6940878    0.4547539  55.58  0.003577098    1.518    0.341
        63 -12.1867      7.3145    107.7564   7.3640175481e+01   5.3609948145e+01    0.9943932    0.5423688  59.30  0.004538495    1.919    0.479
        64  -9.2679    142.3206    112.9847   2.8207662204e+01   3.1119565716e+01    0.2170274     0.192746 -43.75 0.0005314899    1.088    0.081
        65  -8.9717    126.2187    110.5614   3.1598230147e+01   3.5018487267e+01    0.4936208    0.1965733 -37.65  0.001572543    3.041    0.671
        66  -9.7910    124.8316    105.4947   3.0628163937e+01   3.6424276510e+01    0.3146827    0.2703441  64.31  0.001060313    1.240    0.193
        67  -7.7527     92.2862    111.2911   4.1750624248e+01   4.1687391529e+01    0.1530821    0.1240716 -16.18 0.0002857059    1.538    0.350
        68  -9.8417    142.5133    105.5421   2.6241935956e+01   3.2616916740e+01    0.3941086    0.3091015  77.15  0.001109726    1.572    0.364
        69  -9.6874    148.9607    113.1749   2.6723386886e+01   2.9695003174e+01    0.3219092    0.2149847  46.80  0.000717279    1.563    0.360
        70  -9.4786    201.3091     98.1329   1.3354409325e+01   2.1837211434e+01    0.2206042    0.2042687 -57.59 0.0006784476    1.121    0.108
        71  -9.5658    196.9568     97.9710   1.3969363461e+01   2.2702962586e+01    0.2505445    0.1887546 -28.86 0.0009099753    1.274    0.215
        72  -9.7957    243.9857    229.0265   3.1485677926e+01  -3.1043380459e+00    0.2833631    0.1308671  33.21  0.001613033    2.379    0.580
        73 -10.4212    195.3910    103.6310   1.5550616220e+01   2.2066441695e+01    0.4384751     0.239254 -29.38  0.001431292    1.867    0.464
        74  -9.9004    238.2051    228.5181   3.2286382992e+01  -2.4885697432e+00    0.3158104    0.2373765  45.53 0.0006154444    2.689    0.628
        75  -8.4430    154.7137     94.3670   2.0573419160e+01   3.2163332027e+01    0.3347366     0.229169  52.48  0.001344314    1.538    0.350
        76  -8.5675    156.4934     91.4948   1.9432704312e+01   3.2310331580e+01    0.2592773    0.1407291 -39.11 0.0005764899    1.754    0.430
        77  -8.1565    202.7734    232.1693   3.8626235047e+01   7.5030524059e-01     0.151469    0.1228579  60.78  0.000947127    2.816    0.645
        78  -8.2969    110.7898     91.5918   3.0622501951e+01   4.2520638141e+01    0.2577756    0.2099261 -37.47 0.0003699093    1.274    0.215
        79  -8.0048    110.9626     88.0815   2.9526781651e+01   4.3249288311e+01    0.2041478    0.1836488  -9.63 0.0004109073    1.283    0.221
        80  -8.4596    134.9048     90.7800   2.3995759247e+01   3.7300506840e+01    0.2161148    0.2042245  -5.46 0.0004211784    1.172    0.147
        81  -8.6070    201.2672     89.5776   1.1336174827e+01   2.3218276993e+01     0.231976    0.1542535 -37.59 0.0004239861    1.303    0.232
        82 -12.8041    244.8907    179.2950   2.3341188742e+01   2.9283502842e+00      1.29681     1.138803 -43.71  0.002358304    1.664    0.399
        83 -12.1437    189.3973    169.4078   3.0642188888e+01   1.1831358099e+01       1.0516    0.6802994  -9.98  0.002778779    1.810    0.447
        84 -14.0035    170.3098    162.5972   3.3071145724e+01   1.6033616485e+01     7.318041     2.308587  40.23   0.02654909    3.236    0.691
        85  -8.1094    151.4721     79.9602   1.7231096076e+01   3.5571213915e+01    0.2127979    0.1417331 -38.17 0.0003483683    1.454    0.312
        86  -8.5828    132.6301     80.2093   2.1430556878e+01   3.9911161944e+01    0.2241439    0.1439041 -31.08 0.0009564692    1.737    0.424
        87  -8.4680    139.8284     79.1560   1.9460567894e+01   3.8428388773e+01     0.204638    0.1834684  16.32 0.0006265111    1.325    0.245
        88  -9.7529    227.1258    191.9151   2.8190576106e+01   3.3268094673e+00    0.2274227    0.1976544 -22.44 0.0006438797    1.351    0.260
        89  -8.3338    201.9923     72.2584   7.0468020265e+00   2.5747429935e+01     0.218173    0.1762401 -46.01 0.0006976238    1.054    0.052
        90 -10.0434    205.2164     66.5831   5.2648464284e+00   2.5926545664e+01    0.3845139    0.2577628 -22.68 0.0005618848    1.665    0.400
        91  -8.5398    200.2470     68.1391   6.2510727319e+00   2.6718333737e+01    0.2745067    0.1928065 -72.47  0.001064793    1.588    0.370
        92  -8.6354    133.6583     71.7600   1.8594065229e+01   4.1261634880e+01    0.2209012    0.1328825 -46.91 0.0009441999    1.635    0.388
        93  -8.4949     88.9117     71.5870   3.1185098232e+01   5.1653133715e+01    0.2269681     0.196312 -48.99 0.0003367126    1.159    0.137
        94  -9.4276    185.6320     66.3692   7.7223650243e+00   3.0096725981e+01    0.3313347    0.2108488 -25.67  0.001165216    1.720    0.419
        95  -9.3098    175.8189    187.5033   3.6553440583e+01   1.0791802013e+01    0.3260987    0.1704841 -52.86  0.001497451    2.576    0.612
        96  -9.1101    144.3823     59.1663   1.2390001790e+01   4.0850295447e+01    0.3200927    0.2352194 -44.56 0.0009074571    1.304    0.233
        97 -10.2221    156.5929     57.6413   9.7209634622e+00   3.8133730658e+01    0.3488201    0.2545995 -18.37  0.001141799    1.682    0.405
        98  -8.9517    209.2944     55.3355   2.0770715382e+00   2.6677359634e+01    0.3799507    0.2413995  -8.74  0.001818167    2.511    0.602
        99  -7.6311     58.5276     58.4809   3.8494666311e+01   6.0558743473e+01    0.1475864    0.1404118 -11.02 0.0002554525    1.049    0.046
       100 -10.0224    195.8164     55.3968   3.5785909678e+00   2.9492090343e+01    0.3511525    0.3063535  35.40  0.002141561    1.471    0.320
       101 -10.0121    200.3886     48.6065   1.3484270140e+00   2.9444844370e+01    0.4562485    0.3021391  31.22  0.001956803    2.448    0.592
       102 -10.1933    179.4557     52.3541   4.7948587944e+00   3.3553080106e+01     0.310643    0.2108347  80.26   0.00142666    1.582    0.368
       103  -9.8816    237.0818    185.9639   2.5638614644e+01   2.9538175133e+00    0.3028755     0.215038 -51.42   0.00189581    2.233    0.552
       104 -10.2121    149.3073     47.5308   7.8397692504e+00   4.1444206711e+01     0.417612    0.3080037  -2.13  0.001147282    1.947    0.487
       105 -11.2047    248.2105     43.8920   3.5618374875e+02   2.0795079845e+01    0.6128066    0.3806165 -31.37  0.002686873    1.431    0.301
       106  -8.5771    117.9919     43.8782   1.2713920202e+01   4.9849288471e+01    0.2155124    0.2054282  86.69 0.0004021267    1.018    0.018
       107  -8.1477    213.6941     57.7901   2.2103282492e+00   2.5455469213e+01    0.1948594    0.1476016 -25.02 0.0009920339    1.404    0.288
       108  -9.3786     70.3858    225.7014   6.5542087449e+01   1.8098993137e+01    0.2043034     0.183023  18.48 0.0005484273    1.192    0.161
       109  -7.8906    166.6952     37.7200   2.2902740317e+00   3.8558970510e+01    0.1287034    0.1057296  35.77 0.0001937892    1.552    0.356
       110  -9.8185    197.6983     35.5699   3.5830650454e+02   3.1708909530e+01    0.2263739    0.2050488 -47.56 0.0003582736    1.158    0.136
       111 -13.6107    242.6968     93.1545   7.0163526686e+00   1.5283435670e+01     1.062978    0.7160609 -29.72   0.00352176    1.278    0.218
       112 -10.3907    230.8062    184.3374   2.6313429267e+01   3.9227712254e+00    0.3603893    0.2300155 -20.21  0.001233185    1.311    0.237
       113  -9.5751    172.6181     27.8449   3.5872192438e+02   3.8377865245e+01    0.2497128    0.2248379  -3.41  0.001415236    1.410    0.291
       114 -10.7662    179.3479     24.1626   3.5700086434e+02   3.7223829185e+01    0.5190001    0.3384212  78.35  0.002840753    1.509    0.337
       115  -7.9632    101.5518     26.4931   9.6845400860e+00   5.6464713916e+01    0.1426015    0.1332415  79.12 6.230249e-05    1.019    0.019
       116  -8.3002     85.7713     25.7311   1.3549376609e+01   6.0498265303e+01    0.1883027    0.1594189 -76.72 0.0003626267    1.325    0.245
       117  -8.2871    239.7564    221.6067   3.1008022900e+01  -1.8332598774e+00    0.1318081   0.08783209  29.19 0.0009475466    1.710    0.415
       118 -10.4150    224.6965     20.4002   3.5260110730e+02   2.7871741248e+01    0.2656948    0.2018324 -28.06  0.001005555    1.406    0.289
       119 -10.1419    199.6940    219.9102   3.7345510187e+01   2.7316552757e+00    0.2380473    0.1787579   5.48 0.0005150433    1.070    0.065
       120  -9.4441    220.6975    216.1778   3.3181925393e+01   8.3915146632e-01    0.2656357    0.1982787  43.11  0.001257125    2.110    0.526
       121  -9.6188    215.6377    212.3752   3.3423192386e+01   1.9056883487e+00    0.2193446    0.2071161  47.22  0.000801658    1.857    0.462
       122  -7.9803    187.5646    220.2059   3.9591029326e+01   4.1354639589e+00    0.1671875   0.09458348 -25.44 0.0009540648    1.761    0.432
       123  -7.9104    149.9915     14.7891   3.5722818333e+02   4.5386384952e+01    0.1761016    0.1006512  76.04 0.0008480065    1.636    0.389
       124  -9.0619     15.0510    199.9751   7.7320761534e+01   2.9403772764e+01    0.1826936    0.1603984  55.65 0.0003483043    1.097    0.089
       125  -9.0242    225.5741    219.0887   3.2841062270e+01  -6.0644124249e-02      0.17894    0.1619922  17.06  0.000917299    1.627    0.385
       126  -8.1975    162.9724    217.6164   4.3964560809e+01   7.6180263506e+00    0.1727955    0.1343801  19.36 0.0005655012    1.105    0.095
       127  -8.5702    142.3471    213.9946   4.7745802725e+01   1.0956890980e+01    0.1647298    0.1504612 -18.07 0.0005171867    1.181    0.153
