#   1 NUMBER                 Running object number                                     
#   2 MAG_AUTO               Kron-like elliptical aperture magnitude                    [mag]
#   3 X_IMAGE                Object position along x                                    [pixel]
#   4 Y_IMAGE                Object position along y                                    [pixel]
#   5 X_WORLD                Barycenter position along world x axis                     [deg]
#   6 Y_WORLD                Barycenter position along world y axis                     [deg]
#   7 A_WORLD                Profile RMS along major axis (world units)                 [deg]
#   8 B_WORLD                Profile RMS along minor axis (world units)                 [deg]
#   9 THETA_WORLD            Position angle (CCW/world-x)                               [deg]
#  10 FWHM_WORLD             FWHM assuming a gaussian core                              [deg]
#  11 ELONGATION             A_IMAGE/B_IMAGE                                           
#  12 ELLIPTICITY            1 - B_IMAGE/A_IMAGE                                       
         1 -12.0599    234.1242     37.0023   4.5933673331e+01   2.1844557353e+01    0.6985725    0.2060813 -44.13  0.002498765    2.969    0.663
         2  -8.8421     18.5313      9.4181   9.1308158710e+01   7.1756304015e+01    0.1173966   0.08384009 -18.79 4.303113e-05    1.083    0.077
         3  -8.8374    116.5278      5.5006   5.3742534559e+01   5.5079324230e+01    0.1368008    0.1187751  39.76 9.405016e-05    1.013    0.013
         4  -9.7830    110.9689      4.9811   5.4748292144e+01   5.6431657775e+01    0.1974776    0.1690796  36.03  0.001190379    1.024    0.024
         5  -9.5913     50.9296      3.4434   7.2632241359e+01   6.8489101086e+01    0.1788357    0.1328086  -7.91 0.0002963915    1.143    0.125
         6 -10.0106     14.7065      1.9756   8.9606640364e+01   7.3219944097e+01    0.1583912    0.1087347 -25.22 0.0003418236    1.115    0.103
         7  -9.2604    250.4542    245.4811   8.8677014504e+01  -1.1240865173e+01    0.1124496   0.08353707  15.41 0.0001551387    1.049    0.047
         8  -9.6524    210.6458    249.4366   9.6071665183e+01  -5.9216063066e+00    0.2292771    0.1373263 -22.37   0.00139585    2.004    0.501
         9  -9.2941    177.6396    242.1839   1.0095199589e+02   1.8182034675e-01    0.1429229     0.110287 -20.01  0.000308531    1.604    0.376
        10  -9.2884    240.5554    240.7121   8.9572309384e+01  -9.3523268758e+00    0.1834846    0.1255061  45.71  0.001167198    1.820    0.451
        11  -8.9675    248.4825    240.4844   8.8203363106e+01  -1.0448017306e+01    0.1139502   0.08639763  15.58 0.0001579172    1.065    0.061
        12  -9.7702    230.5026    237.0161   9.0701606461e+01  -7.4676127593e+00    0.2037962    0.1450219  66.21  0.001037595    3.445    0.710
        13  -9.4516    207.0294    237.5110   9.4924046244e+01  -3.9171720935e+00    0.1679447   0.09331562  54.70 0.0008102061    2.670    0.625
        14  -9.0684    244.1982    236.4404   8.8264675831e+01  -9.4058028240e+00    0.1479548   0.09460717  39.04 0.0005248816    1.555    0.357
        15  -9.6018    217.1661    234.6577   9.2666127173e+01  -5.1518870609e+00    0.1618569    0.1384349  20.20  0.001139983    1.158    0.137
        16  -9.4894    245.0087    230.9181   8.7213704907e+01  -8.9067887907e+00    0.1510863    0.1446762  40.01 0.0008585494    1.695    0.410
        17  -8.7541    225.3387    231.6817   9.0740763795e+01  -6.0538432965e+00    0.1069307   0.09223441  54.74 0.0003657866    1.708    0.414
        18  -9.9444    235.7237    229.9029   8.8634567138e+01  -7.4198190257e+00    0.1899092    0.1618523 -33.79  0.001160654    1.601    0.376
        19  -9.5737    229.8015    228.6892   8.9464102491e+01  -6.3769210809e+00    0.1832954    0.1605679 -62.50 0.0009549583    2.024    0.506
        20  -9.1006    206.3983    226.2069   9.3255084380e+01  -2.3472184874e+00    0.1515248    0.1177103 -46.47  0.000763327    1.733    0.423
        21 -10.5511    240.6144    221.7416   8.6404697861e+01  -7.1857326340e+00    0.2684913    0.2357123  61.93    0.0017846    1.938    0.484
        22 -10.1784    247.1309    226.3536   8.6082659618e+01  -8.6957873463e+00    0.2669838    0.1253809  42.73  0.001368099    2.172    0.540
        23 -10.6365    247.9458    217.7737   8.4455823872e+01  -7.8114494485e+00     0.324982    0.2541909 -42.02   0.00211171    1.855    0.461
        24  -9.0892    219.6893    217.3523   8.9349614779e+01  -3.3379820321e+00    0.1109334    0.1004262  71.03 0.0007044572    1.723    0.420
        25  -9.2387    232.9668    213.4791   8.6293547300e+01  -4.9702429993e+00    0.1543462    0.1053241  57.53 0.0008083237    2.410    0.585
        26 -10.0064    240.7981    209.0832   8.4130546818e+01  -5.6434340005e+00    0.2778804    0.1919991 -50.09  0.001541649    2.356    0.576
        27  -8.8499     73.3140    209.7003   1.1714964968e+02   2.2310822073e+01    0.1293014   0.07611544  66.99 0.0002804122    1.609    0.379
        28 -10.0395    247.1875    207.2585   8.2695028824e+01  -6.4066538075e+00    0.2717976    0.2052513 -46.32  0.001501276    1.974    0.493
        29  -9.8597    243.7506    201.2380   8.2172442715e+01  -5.0947833139e+00    0.3055704    0.2596591 -51.37  0.001929982    1.821    0.451
        30  -9.4753    235.3815    203.2164   8.4005965933e+01  -4.0095340688e+00    0.1652802    0.1126117 -37.95 0.0009472984    1.699    0.411
        31  -9.7673    250.1171    201.2347   8.1079373518e+01  -6.0957285883e+00    0.2540334    0.1607569 -31.79  0.001231831    1.618    0.382
        32  -9.0985    231.3952    199.1974   8.3967345705e+01  -2.8050607351e+00     0.168497    0.1154726 -40.58 0.0009430418    1.737    0.424
        33 -10.5218    246.9577    193.7152   8.0193308698e+01  -4.6122445018e+00    0.2874551    0.2237515  70.42  0.001554097    2.573    0.611
        34  -9.6921    237.2637    187.4126   8.0659223801e+01  -2.1398343200e+00    0.2092148    0.1570281 -47.00  0.001183061    1.774    0.436
        35  -9.9102    249.4543    184.2373   7.7917539426e+01  -3.7320690149e+00    0.3949374    0.1481901 -40.27  0.001634932    2.957    0.662
        36 -10.6139    247.8240    178.5285   7.7054172968e+01  -2.6652375751e+00    0.5304554    0.2573819 -50.50  0.001994682    4.092    0.756
        37  -8.9661    224.3596    184.6904   8.2451394342e+01   5.0676552661e-01    0.1231727    0.1096522  83.49   0.00048794    1.739    0.425
        38  -9.4914    241.2844    181.1408   7.8708279410e+01  -1.9292004252e+00    0.2208608    0.1815947  72.19  0.001236455    2.075    0.518
        39  -9.3305    235.9772    181.4770   7.9710220383e+01  -1.0634267520e+00    0.1625749    0.1189075  66.29 0.0008079548    2.389    0.581
        40  -9.5944    237.4873    169.5031   7.6995073234e+01   4.5054534207e-01    0.2364435    0.1162415 -43.38  0.001033523    2.322    0.569
        41  -9.8664     77.5303    185.7883   1.1362875024e+02   2.6675767407e+01    0.2269891    0.1650505  46.58 0.0005538905    1.318    0.241
        42  -9.1842    159.3088    160.6708   9.0807311029e+01   1.7496644508e+01    0.1494751    0.1180889  84.31 0.0007040087    1.662    0.398
        43  -9.1659    245.5074    157.0368   7.2968740098e+01   8.9714487031e-01    0.2097779    0.1217464 -31.97 0.0007862372    1.590    0.371
        44  -9.2096    244.7796    150.1707   7.1601335271e+01   2.0851141923e+00    0.2150757    0.1503135 -69.30  0.000949348    2.837    0.648
        45  -9.9469    235.5530    147.8121   7.2657833748e+01   4.2020336090e+00     0.307887     0.250521 -88.79  0.001518228    1.964    0.491
        46  -9.3623    155.6863    144.3269   8.8100955549e+01   2.1634207912e+01    0.1554432    0.1223209  88.09 0.0007042954    1.668    0.401
        47  -9.3143    182.3395    142.6733   8.1778521928e+01   1.6191763929e+01    0.1540508    0.1232778 -86.79 0.0007051534    1.731    0.422
        48  -9.1611    198.7069    140.3878   7.7854299474e+01   1.3063870632e+01     0.152517    0.1192422 -71.40 0.0007012741    1.769    0.435
        49  -9.4405    173.3322    138.6818   8.2799552696e+01   1.8958908437e+01    0.1557294    0.1242791 -88.33 0.0004162608    1.691    0.409
        50  -8.9305    193.3103    137.6618   7.8306788009e+01   1.4749822232e+01    0.1516926    0.1222161 -77.37 0.0007044605    1.687    0.407
        51  -9.6295    235.1803    136.1376   7.0083137415e+01   6.1732002871e+00    0.2525882    0.1954555  89.40  0.001232911    2.090    0.522
        52  -9.2444    242.7534    134.9717   6.8544156815e+01   4.8675305284e+00    0.1912026    0.1627844 -81.11  0.001043724    1.664    0.399
        53  -9.4277    143.3108    131.9789   8.8193905977e+01   2.6935619328e+01    0.2535083    0.1236383 -64.85 0.0007043015    4.224    0.763
        54  -9.2806    206.3265    131.6497   7.4279492833e+01   1.3006657191e+01    0.1528168    0.1198359 -72.70  0.000704859    1.759    0.431
        55  -9.0266     96.6677    135.3288   1.0094041535e+02   3.5229633968e+01    0.1538192    0.1099957  78.69 0.0007051807    1.718    0.418
        56  -9.7102    192.9799    130.4827   7.6650284807e+01   1.6182388563e+01    0.2104763    0.1390496  75.37 0.0008097938    2.493    0.599
        57 -10.0202    179.9993    125.5058   7.8145752539e+01   2.0088886998e+01    0.2772766    0.2211319 -85.34  0.001271782    1.678    0.404
        58  -9.4167    152.6550    126.3316   8.4564648103e+01   2.6116169816e+01    0.1634535    0.1257259 -89.37 0.0007050217    1.758    0.431
        59  -9.3965    170.3328    124.6687   8.0057876621e+01   2.2469064186e+01    0.1613415    0.1261756 -83.46 0.0007052146    1.725    0.420
        60 -10.0489    194.1815    121.0302   7.4067549054e+01   1.7700334185e+01    0.2629766    0.1772485 -63.49  0.001085785    2.048    0.512
        61  -9.2998    157.9993    120.4983   8.1830965009e+01   2.6148011327e+01    0.2221524    0.1406663  72.11 0.0008098616    2.477    0.596
        62 -10.4559    140.8002    119.1909   8.5674380131e+01   3.0277601333e+01    0.2711789     0.177979 -89.00 0.0009554687    2.873    0.652
        63  -9.1947     18.8091    118.8481   1.1964314540e+02   4.8811525821e+01    0.1651971    0.1235213  75.54  0.000478088    1.337    0.252
        64  -9.1398    173.7036    114.3675   7.6668611910e+01   2.3763193320e+01    0.1636158    0.1248064 -73.76  0.000397166    1.725    0.420
        65  -9.3012    155.2985    110.6476   7.9894392592e+01   2.8829099326e+01    0.1635416    0.1263735 -78.17 0.0007036112    1.693    0.409
        66 -10.0046    183.4126    109.2323   7.3235792831e+01   2.2472272188e+01    0.2345051    0.1427619 -48.35 0.0009557738    1.727    0.421
        67 -10.0981    160.9912    108.9818   7.8109500228e+01   2.7843459038e+01    0.2607878    0.2004537 -79.93  0.001137463    1.736    0.424
        68  -9.7397    222.9943    105.5157   6.4818115239e+01   1.3919465285e+01    0.1995037    0.1336789  88.38 0.0008092699    2.479    0.597
        69 -10.4611    150.2924    103.4502   7.9139169622e+01   3.1490149032e+01    0.2890296    0.1962501 -61.39  0.001194962    1.808    0.447
        70  -8.8961    195.6305    103.3077   6.9205946640e+01   2.0671983236e+01    0.1615787     0.122262 -76.47 0.0007034993    1.760    0.432
        71 -10.9463    167.1530    100.9296   7.4503906360e+01   2.7995637429e+01    0.3031755     0.223327 -34.02  0.001368541    1.375    0.273
        72 -10.2840    160.6392    100.8254   7.5956483488e+01   2.9581221161e+01    0.3518296    0.1886765 -60.40  0.001155498    2.942    0.660
        73  -9.3640    202.6870     98.3248   6.6552834846e+01   1.9889166769e+01    0.1582948    0.1187702 -68.54 0.0007041225    1.662    0.398
        74  -9.7773    195.9357     98.4646   6.7858787422e+01   2.1484880439e+01    0.2156004    0.1401728  84.57 0.0008084463    2.511    0.602
        75  -9.2357    235.8002     95.8084   6.0355841721e+01   1.2690058860e+01     0.206216    0.1615782 -57.51  0.001067849    1.368    0.269
        76 -10.3695    164.7976     94.8038   7.3314061237e+01   2.9769407520e+01    0.2279511    0.1937696 -77.87  0.001082673    1.371    0.271
        77 -10.1360    135.6120     97.7724   8.1229882062e+01   3.6048039355e+01    0.2329363    0.1452227 -52.40 0.0009520429    1.715    0.417
        78 -10.1283    177.3730     93.2119   7.0136327069e+01   2.6991081216e+01    0.2333458    0.1415153 -46.37  0.000948452    1.685    0.406
        79 -10.1766    231.7983     91.3548   5.9861651398e+01   1.4304295950e+01    0.2880214     0.172697 -53.31  0.001265191    1.849    0.459
        80 -10.0280    210.8414     91.9966   6.3429257385e+01   1.9053406292e+01    0.2644068    0.1609015 -57.62  0.001078406    2.027    0.507
        81  -9.6470    141.6493     92.3252   7.8112364178e+01   3.5796522023e+01     0.164752    0.1268533 -83.01 0.0007048427    1.757    0.431
        82 -10.9178    158.3078     90.5926   7.3582575690e+01   3.2171055391e+01    0.3632779     0.231144 -61.56  0.001399006    2.093    0.522
        83 -10.8205    150.7570     88.4046   7.4718411360e+01   3.4426723670e+01     0.310416    0.1915403 -49.20  0.001269267    1.715    0.417
        84  -9.3370    226.4592     87.9663   5.9829968463e+01   1.6071821490e+01    0.2171866    0.1071954 -52.77 0.0008079769    2.443    0.591
        85  -9.4708     30.0597     86.7540   1.1100969106e+02   5.5404785611e+01    0.1705626    0.1511718 -54.01   0.00051042    1.095    0.087
        86  -9.2346    246.6917     85.3282   5.6234848040e+01   1.1984409133e+01    0.1464015    0.0995198 -59.80 0.0007039044    1.659    0.397
        87  -9.0740    206.3012     84.6677   6.2266076156e+01   2.1401177708e+01    0.1586688    0.1144742 -65.10 0.0004823355    1.652    0.395
        88  -9.2167    193.3095     83.6378   6.4310294465e+01   2.4776793234e+01    0.1653133     0.117361 -66.34 0.0007040194    1.745    0.427
        89  -9.6510    170.5152     83.5118   6.8808400669e+01   3.0499474213e+01    0.1576267    0.1528149 -68.68 0.0001793525    1.048    0.046
        90 -10.6287    159.4295     82.2188   7.0857277682e+01   3.3498569134e+01    0.3879416    0.1486062 -39.54  0.001280257    2.554    0.608
        91  -9.9325    125.3240     88.9821   8.1402335614e+01   4.0182495737e+01    0.2622121    0.1195035 -59.64 0.0007050863    4.370    0.771
        92  -9.0972    201.4844     78.5267   6.1431721051e+01   2.3623482253e+01    0.1532543    0.1445418 -59.37 0.0001521269    1.042    0.041
        93  -9.8333    174.8268     77.9931   6.6295010078e+01   3.0413468766e+01     0.271494    0.1719432 -58.98  0.001085559    1.968    0.492
        94 -10.4905    166.7009     78.1305   6.8034327072e+01   3.2437412820e+01     0.264632    0.1973043 -53.09  0.001200637    1.437    0.304
        95 -10.1025    130.3974     78.2011   7.6733881895e+01   4.1226041430e+01    0.2267951     0.142538 -49.32  0.000948068    1.692    0.409
        96  -9.7654    243.5793     76.7916   5.4585525408e+01   1.3978542000e+01    0.2045882    0.1156765 -43.34 0.0006802632    1.594    0.373
        97  -9.7056    183.6830     77.3507   6.4353404355e+01   2.8287213856e+01    0.1657863    0.1189646 -68.03 0.0007047415    1.735    0.424
        98 -10.8940    157.7731     75.8955   6.9319093011e+01   3.5078785369e+01    0.3994729    0.2011342 -47.64  0.001473652    2.168    0.539
        99 -10.3189    163.4354     71.7199   6.6797833244e+01   3.4403590048e+01    0.3067738    0.1447264 -40.05  0.001130126    2.092    0.522
       100  -9.2464    150.3347     72.6596   7.0021668517e+01   3.7512715884e+01    0.1645071    0.1236329 -73.89 0.0004406869    1.754    0.430
       101  -9.4084    182.3224     68.6624   6.2087986826e+01   3.0111451426e+01    0.1642237    0.1174912 -68.22 0.0007050657    1.715    0.417
       102  -9.8431    157.9635     61.4734   6.4778005302e+01   3.7542255108e+01    0.2558725    0.2096426 -33.56  0.001257133    1.236    0.191
       103 -11.2301    192.9086     57.1960   5.6888264193e+01   2.9224873461e+01    0.4512549    0.2263222 -32.98  0.001808475    1.972    0.493
       104  -9.7221    250.4848     56.0243   4.8742680870e+01   1.5512641473e+01    0.2151101    0.1196841 -35.79  0.001031641    1.593    0.372
       105 -11.4429    241.4249     55.0219   4.9538770325e+01   1.7684723336e+01    0.3775606    0.1902814 -45.87  0.001695144    1.801    0.445
       106 -11.5938    226.3382     54.9139   5.1372823830e+01   2.1229402908e+01    0.4635318    0.2740073 -78.30  0.001955685    2.310    0.567
       107  -9.5504     95.7505     47.0220   7.5960923437e+01   5.4395660926e+01    0.1926537    0.1166572 -34.83  0.000892024    1.602    0.376
       108  -9.5267    224.5026    248.5138   9.3529650080e+01  -7.8823595961e+00    0.1642919    0.1071149 -43.35  0.001025991    2.244    0.554
       109 -10.6894    246.4720     32.0298   4.3492030341e+01   1.9632320657e+01    0.2013421    0.1208008 -32.92  0.001028795    1.588    0.370
       110 -11.0957    242.7455     23.7546   4.1894506675e+01   2.1505855047e+01    0.3709218    0.1178682 -26.25  0.001307814    3.645    0.726
       111  -8.8800    136.7790     24.9942   5.6885217942e+01   4.8129163386e+01    0.1772017    0.1184522 -23.86 0.0003291255    1.590    0.371
       112  -8.4476    118.3025     24.3424   6.0784921122e+01   5.2703696634e+01    0.1508999   0.09956981  24.29 0.0005929818    1.678    0.404
       113  -8.9569    149.3963     34.1923   5.7554630476e+01   4.3790660627e+01    0.2003875    0.1341726 -39.83 0.0004143746    1.567    0.362
       114  -9.0051      8.5357     18.5187   1.0070170549e+02   7.1051862480e+01    0.1140806   0.08505005 -33.03 0.0002194111    1.027    0.027
       115  -9.1241     23.4838     15.4836   9.1614537153e+01   7.0334856668e+01    0.1196259   0.08882298 -20.93 0.0002426895    1.036    0.035
       116  -9.1742     29.7188     12.9806   8.7291477232e+01   7.0075174108e+01    0.1665196    0.1205811 -21.52 0.0002004821    1.088    0.081
       117  -9.7737    193.3378    249.6857   9.9162996403e+01  -3.2920648946e+00    0.1114166   0.08355011  56.69 0.0005479146    1.696    0.410
       118  -9.7115    168.0124    249.5063   1.0368810832e+02   7.2849000577e-01    0.1827672   0.09342905  40.84   0.00044749    1.517    0.341
       119  -8.9800    232.6816    247.3442   9.1951441358e+01  -8.9429443389e+00   0.09909369   0.08680321  48.61 0.0007049161    1.722    0.419
       120  -9.2179    147.6319    247.3030   1.0711991832e+02   4.2918824465e+00    0.1233961   0.07832851  60.61 0.0007034104    1.744    0.426
