#   1 NUMBER                 Running object number                                     
#   2 MAG_AUTO               Kron-like elliptical aperture magnitude                    [mag]
#   3 X_IMAGE                Object position along x                                    [pixel]
#   4 Y_IMAGE                Object position along y                                    [pixel]
#   5 X_WORLD                Barycenter position along world x axis                     [deg]
#   6 Y_WORLD                Barycenter position along world y axis                     [deg]
#   7 A_WORLD                Profile RMS along major axis (world units)                 [deg]
#   8 B_WORLD                Profile RMS along minor axis (world units)                 [deg]
#   9 THETA_WORLD            Position angle (CCW/world-x)                               [deg]
#  10 FWHM_WORLD             FWHM assuming a gaussian core                              [deg]
#  11 ELONGATION             A_IMAGE/B_IMAGE                                           
#  12 ELLIPTICITY            1 - B_IMAGE/A_IMAGE                                       
         1 -10.6731    139.4600     27.7098   7.7326674191e+01   4.7554167352e+01    0.6554989    0.4392589 -48.92  0.002487513    1.692    0.409
         2 -12.2146     76.5976     24.3931   9.2908571296e+01   6.1942996660e+01    0.4591211    0.3281138 -37.44  0.001120796    1.483    0.326
         3 -10.3188    113.9889     25.1988   8.2148008967e+01   5.4032683920e+01    0.2348928    0.1989574 -16.04 0.0006609391    1.212    0.175
         4 -11.3396     90.2776     15.9849   8.4763554152e+01   6.0326146837e+01    0.3349929    0.2286616 -14.38  0.000449864    1.491    0.329
         5 -10.6660     87.5420     10.5425   8.3131811656e+01   6.1488333558e+01    0.5891206    0.2389015 -12.89  0.002200127    3.513    0.715
         6 -10.5586     12.7798     16.0335   1.1742698192e+02   7.1630863486e+01    0.2916462    0.1808567  23.34  0.001409505    1.827    0.453
         7 -11.3385     42.3167     18.5255   1.0387682270e+02   6.8172153088e+01     0.555793    0.3150192  10.23  0.002872268    2.247    0.555
         8 -10.5522     26.6018     16.2139   1.1031006251e+02   7.0357900605e+01    0.2582526    0.2218735 -13.62  0.001311461    1.171    0.146
         9 -10.3435    100.4724     19.0066   8.3163639319e+01   5.7810573117e+01     0.364805    0.2248727 -52.46  0.001697022    2.317    0.568
        10  -9.5512    109.6546     13.2155   7.8386878406e+01   5.6384284530e+01    0.2245014    0.1631519  -3.86 0.0005281367    1.480    0.324
        11 -11.5886     38.9166      2.2232   9.7114354023e+01   7.0842457254e+01    0.5782675    0.5105995  54.85  0.004073673    1.837    0.456
        12 -11.6130     30.1457      7.1676   1.0404743540e+02   7.1315688396e+01    0.3167699     0.257195  -4.02  0.001287009    1.101    0.092
        13 -11.5457     34.9210     13.0288   1.0467614444e+02   6.9911936984e+01    0.4268939    0.2487476 -44.14  0.001988788    1.852    0.460
        14 -11.6540     39.6059     10.4765   1.0117210257e+02   6.9681960410e+01    0.3767683    0.2335497 -19.31 0.0002010667    1.463    0.316
        15 -10.4858    156.3438     13.8824   6.9526816897e+01   4.4765751265e+01    0.2839539    0.2226072  -3.39  0.001071402    1.501    0.334
        16 -10.5989    212.3112     11.9991   6.2040350857e+01   3.0517820170e+01    0.2909834    0.2077609 -84.11 0.0008580865    1.313    0.238
        17 -10.2474     68.7955     11.8539   8.9859196804e+01   6.4955942400e+01    0.3137094    0.2031988 -41.82  0.001323213    1.886    0.470
        18 -10.0508    119.0982     11.8917   7.5690840866e+01   5.4303594261e+01    0.1923677     0.182132  89.27 0.0003680193    1.187    0.158
        19 -12.1120    150.7557      7.9066   6.8394098192e+01   4.6788200699e+01    0.4604447    0.3287617  42.80  0.002441125    1.397    0.284
        20 -11.5737     58.4715      4.2920   8.9903890584e+01   6.7607901403e+01     0.544282    0.2857372  37.11  0.002948797    1.769    0.435
        21 -10.8937     53.4858      4.4759   9.1974176588e+01   6.8406356511e+01    0.2821301     0.188976 -38.95  0.001685065    1.794    0.443
        22 -10.9394     22.2396      9.3309   1.0924634590e+02   7.1862495760e+01    0.3041979    0.1884371  -9.62  0.001196466    1.598    0.374
        23  -9.8660     10.0669      1.4927   1.1202463568e+02   7.4152356787e+01    0.1741948    0.1191705  13.16  0.001111911    1.482    0.325
        24 -11.8983      4.1173      9.0067   1.1916425381e+02   7.3420424952e+01    0.3085561     0.296387  62.11   0.00126424    1.685    0.407
        25 -10.1806      1.8706      2.8875   1.1764468166e+02   7.4555872990e+01    0.1985119    0.1181547 -37.78   0.00137165    1.260    0.206
        26 -10.7251     12.9855      7.9373   1.1360791048e+02   7.2928181368e+01    0.3588619    0.3160516  17.66  0.002019018    1.483    0.326
        27 -10.3029      7.9695      5.4519   1.1526442987e+02   7.3717754514e+01    0.2147642    0.1560476   9.15  0.000933244    1.421    0.296
        28 -11.6531     70.8226      6.9878   8.6772781484e+01   6.5133951569e+01    0.3012416    0.2510032  21.96  0.000411877    1.057    0.054
        29 -10.2435    210.0572      7.2356   6.1018166574e+01   3.1582272487e+01    0.2443349    0.1485029 -48.69 0.0009059993    1.558    0.358
        30  -9.4173    182.7045      7.8568   6.4062019439e+01   3.8504444692e+01    0.2338195    0.1128175  40.20 0.0005472759    2.677    0.626
        31 -11.4126     65.9789      6.4840   8.8225860181e+01   6.6067854052e+01    0.6348485    0.2456624  30.79  0.002485544    3.347    0.701
        32 -10.8831    217.9988      7.2449   6.0297284497e+01   2.9612930557e+01       0.2637    0.1491026  71.49  0.001063005    1.634    0.388
        33 -10.8950    119.9394      4.4796   7.2592337001e+01   5.4788592977e+01     0.419855    0.1819618  53.05   0.00184755    1.929    0.482
        34  -9.7165    235.6296      4.6764   5.8233663620e+01   2.5650022734e+01    0.1273865   0.09216931  43.96 0.0007033768    1.807    0.447
        35 -11.2468     92.8932      8.4973   8.0683168290e+01   6.0576454529e+01    0.4326394    0.2116646 -24.37 0.0005609716    2.087    0.521
        36 -11.4116    130.1073      3.4988   7.0277101357e+01   5.2393322090e+01    0.3314478    0.2416404  76.22  0.001357452    1.387    0.279
        37 -10.9455     19.0372      2.8551   1.0762532558e+02   7.3128727563e+01    0.3478671    0.1889724  10.84  0.002054074    2.048    0.512
        38 -10.2758    243.7413      2.7291   5.7198410683e+01   2.3980972768e+01     0.264377    0.1845567  14.73  0.001397535    2.446    0.591
        39 -10.2149    147.0122      2.5220   6.7130811889e+01   4.8224023370e+01    0.2122733    0.1214546  67.28 0.0004565472    1.547    0.354
        40 -10.2373    199.0289      3.0138   6.0953116039e+01   3.4781601938e+01    0.1684761    0.1451336 -87.67 0.0008986185    1.012    0.012
        41 -11.9506     80.4458      1.7865   8.1146329715e+01   6.3791804506e+01    0.4194548    0.1662502  49.38  0.001720727    2.169    0.539
        42 -10.6687     55.2907      7.9429   9.3045774684e+01   6.7712760337e+01     0.247049    0.2092327 -26.40 0.0003519458    1.327    0.246
        43  -9.8317     28.8693      1.4192   1.0159171920e+02   7.2239100971e+01    0.1563972    0.1003319  29.21  0.001015095    1.591    0.371
        44 -10.6471     65.6059    111.8355   1.2451913428e+02   4.6165687396e+01    0.4847351    0.1660492 -49.09  0.001779292    2.801    0.643
        45 -12.2044      2.1209    222.0601   1.5049425883e+02   2.8901298754e+01    0.7309939    0.1180742 -78.02  0.002905749    4.973    0.799
        46 -13.1936      8.6677    246.3291   1.5042100283e+02   2.3950890561e+01     1.322113    0.3678742  35.84  0.006703549    3.636    0.725
        47 -11.6314      4.1908    232.6068   1.5058596834e+02   2.6788311606e+01    0.2540551    0.1542551  69.68 0.0006659362    1.126    0.112
        48 -10.2657    249.1528    111.8222   8.2309583170e+01   7.7511198722e+00    0.1912813    0.1594819   1.68  0.001074841    1.316    0.240
        49 -11.6555      5.1813    108.7831   1.4193376559e+02   5.2705449559e+01    0.2784392    0.2225891   7.58  0.001961414    1.700    0.412
        50 -10.5243     58.3653    107.6324   1.2584585818e+02   4.8103433841e+01    0.2606215    0.1724434 -31.51 0.0008384835    1.940    0.485
        51  -9.3927     79.5793    106.8060   1.1923350308e+02   4.5319023802e+01    0.1995877    0.1300675 -66.47 0.0004611176    1.571    0.363
        52  -9.5316     18.6505    104.7089   1.3745446894e+02   5.2731562485e+01    0.1236544   0.07731652 -44.41 0.0003311189    1.669    0.401
        53 -10.3427      3.7691    113.8474   1.4289186803e+02   5.1639558920e+01     0.273526    0.1304322  -7.36  0.001244053    4.253    0.765
        54  -9.5416    113.3324    102.6855   1.0838021086e+02   4.0231884154e+01     0.155864    0.1198933  87.56 0.0003584491    1.683    0.406
        55 -10.5560     57.8502    101.1479   1.2464865359e+02   4.9690813875e+01    0.2097758    0.1781805 -86.82  0.001238744    1.215    0.177
        56  -9.1968    129.4946     97.5226   1.0257779425e+02   3.7944841236e+01    0.1531637    0.1510591 -64.55 5.575362e-05    1.004    0.004
        57 -10.5587     38.5189     96.7942   1.2991799473e+02   5.2863121722e+01    0.3749692    0.2185733  87.95  0.001415607    2.340    0.573
        58  -9.0471     38.3122     92.2996   1.2909570438e+02   5.3923212375e+01    0.1584629     0.126054 -21.34 0.0002545136    1.501    0.334
        59 -11.4186     17.5093     94.6743   1.3629168764e+02   5.5123350403e+01    0.2855946    0.2201201 -44.26  0.001392336    1.324    0.245
        60 -10.1868     20.4950     91.4692   1.3480072426e+02   5.5640310200e+01    0.2041024    0.1473612 -49.87 0.0007616078    1.268    0.212
        61 -10.6271     78.8328     94.7955   1.1653363231e+02   4.8205743279e+01     0.207486    0.1832704 -32.18 0.0003708987    1.178    0.151
        62 -10.0952      3.2093     95.2532   1.4086450177e+02   5.5888345933e+01    0.1572738    0.1143032  84.38 0.0005635392    1.338    0.253
        63 -10.8222     84.3437     93.6591   1.1451694682e+02   4.7576716083e+01    0.3167533    0.2581756   1.98   0.00166063    1.538    0.350
        64 -11.0845     27.5173     90.8236   1.3237720436e+02   5.5237125801e+01    0.5031405    0.2927626  58.24  0.002617395    2.262    0.558
        65  -9.9606     25.4714     84.9864   1.3195767343e+02   5.6734615114e+01    0.2577881    0.1625057 -65.69 0.0008657344    1.312    0.238
        66 -11.5730     11.1828     88.1552   1.3730715489e+02   5.7027000090e+01    0.5713468    0.1914232 -67.37  0.002610631    2.249    0.555
        67  -9.9250     16.0427     89.4680   1.3592321748e+02   5.6412978982e+01    0.2096283    0.1771407 -11.83  0.001016467    1.472    0.321
        68  -9.7138     18.7782     86.9828   1.3459190074e+02   5.6786628387e+01    0.1832537    0.1278595 -66.05  0.001141348    1.148    0.129
        69 -10.6845     76.4076     89.2642   1.1585828071e+02   4.9832996101e+01    0.2498528    0.2327565 -46.32 0.0004230137    1.027    0.026
        70  -9.9605     44.0443     89.6199   1.2662503448e+02   5.3956337365e+01    0.2632414    0.1423074  42.83  0.001305032    2.155    0.536
        71 -10.4538      1.7675     89.6978   1.4057871860e+02   5.7214863875e+01    0.2102545    0.1211262 -70.04 0.0002198442    1.315    0.240
        72 -10.9717    103.9862     87.9640   1.0696109882e+02   4.5296494062e+01    0.2366141    0.1851419 -87.28 0.0007504331    1.689    0.408
        73  -9.0718    250.6702     87.7090   7.6457547398e+01   1.1171113399e+01     0.134192    0.1058453  13.76 0.0002559604    1.625    0.384
        74  -9.8141    123.8913     86.8517   1.0098865685e+02   4.1404258688e+01     0.231354    0.2127809   4.18 0.0006953649    1.184    0.156
        75 -10.7698     54.6525     84.2798   1.2178473436e+02   5.3963432152e+01    0.3001097    0.2084457 -60.97 0.0008747812    1.321    0.243
        76 -10.6412      3.7926     82.8737   1.3893853943e+02   5.8635278433e+01    0.2567047    0.1136451 -60.29  0.001257541    1.657    0.396
        77  -9.5937    100.3250     83.3121   1.0668399375e+02   4.6994765622e+01    0.1499099    0.1161787  -6.84 0.0003039836    1.660    0.398
        78  -9.4208     78.2396     83.3531   1.1364334432e+02   5.0857947267e+01    0.1810338    0.1307226  47.93 0.0002669272    1.551    0.355
        79 -11.6546     64.2893     80.7913   1.1758497503e+02   5.3490607434e+01    0.5786879    0.4167995 -63.63  0.003100363    1.414    0.293
        80  -9.8228    250.3755     80.7887   7.4860285828e+01   1.2282414550e+01    0.1952935    0.1236707 -24.42 0.0005759195    1.651    0.394
        81 -10.0467     89.2921     80.3490   1.0921224261e+02   4.9654329089e+01     0.284695    0.1882284 -56.96 0.0007869569    1.590    0.371
        82  -8.9746    124.4482     79.4378   9.8583698635e+01   4.2778233855e+01    0.1517021    0.1462698 -75.45 0.0001943023    1.082    0.076
        83  -9.6065     24.0650     78.9716   1.3124732558e+02   5.8200725957e+01    0.2048164    0.1192668 -39.76  0.001130952    1.702    0.412
        84  -9.9750    176.9634     77.0368   8.5612368948e+01   3.0478274412e+01    0.2442259    0.2364275  85.64   0.00129984    1.020    0.020
        85  -9.5554     74.9854     75.6769   1.1249326632e+02   5.3030799634e+01    0.1780293    0.1711026  13.53 0.0001740431    1.115    0.103
        86 -11.0236     55.6788     75.6048   1.1915819553e+02   5.5762708051e+01    0.2821932    0.2406653  -8.28    0.0017095    1.304    0.233
        87 -10.6515     15.2199     75.9987   1.3380344577e+02   5.9495363576e+01    0.1860328    0.1709696 -17.92  0.001261872    1.285    0.222
        88  -9.1032     70.2923     75.3348   1.1398607075e+02   5.3819165729e+01    0.1420535    0.1004521 -24.02 0.0002502862    1.638    0.390
        89 -10.7799     32.1315     72.9200   1.2699369148e+02   5.8874068522e+01    0.3062536    0.1990408  48.20            0    1.961    0.490
        90 -11.0189     35.7684     72.2503   1.2549102725e+02   5.8686772669e+01    0.4461083    0.2775469 -61.84  0.001773698    1.424    0.298
        91  -9.0132    224.3014     74.2755   7.6809024082e+01   1.9185175521e+01     0.138684    0.1129183  21.70 0.0002460488    1.538    0.350
        92  -9.8721    136.6567     74.0888   9.3723966400e+01   4.1000550040e+01    0.2153716    0.1937025 -30.15 0.0004906082    1.128    0.114
        93 -11.3027      3.8413     73.7434   1.3745460943e+02   6.0653564928e+01    0.2787428    0.2068132  14.38  0.001112586    1.720    0.419
        94  -9.7761    216.9535     72.4427   7.7419351276e+01   2.1236224866e+01    0.2284896    0.1862804 -35.92 0.0004903424    1.188    0.158
        95  -9.2346     95.7087     73.3309   1.0502299766e+02   4.9943615121e+01    0.1431805    0.1157517 -80.44 0.0004725418    1.628    0.386
        96 -10.2295     81.0037     72.0503   1.0936557774e+02   5.2822067315e+01    0.3075363    0.1921606 -69.48  0.001290167    2.493    0.599
        97 -10.3067    105.9145     71.4404   1.0129999656e+02   4.8318508958e+01    0.2551244    0.2059225 -33.36 0.0004513837    1.220    0.180
        98  -9.8457     92.4719     72.4634   1.0576534595e+02   5.0723378785e+01    0.2106917    0.1335581 -53.91 0.0001475925    1.680    0.405
        99  -9.8025     65.6383     75.1933   1.1554875106e+02   5.4524519932e+01    0.1943243    0.1587591 -38.42  0.001112103    1.129    0.114
       100 -10.3371     46.8581     69.1750   1.2057732243e+02   5.8206251369e+01    0.4738083    0.2471068  19.61  0.002029427    2.493    0.599
       101 -10.6253     10.4461     68.8765   1.3415464806e+02   6.1358454249e+01    0.2489791    0.1666604 -59.63  0.001601569    1.152    0.132
       102  -9.2574     57.3185     67.6321   1.1628181923e+02   5.7265865994e+01    0.1316767    0.1036849  89.33 0.0007037321    1.785    0.440
       103  -9.0418    114.4767     66.4969   9.7179321588e+01   4.7466318448e+01    0.1469557    0.1440311 -51.28 3.334549e-08    1.069    0.064
       104 -11.4546     34.2463     65.0540   1.2421685910e+02   6.0389997627e+01    0.2807105    0.2002664 -38.89   0.00044337    1.262    0.207
       105 -11.4191     39.8577     61.4107   1.2103263205e+02   6.0610580872e+01    0.5956302    0.2270683 -41.65  0.002402313    2.477    0.596
       106 -11.4221     17.1098     64.2237   1.3063393877e+02   6.1946781284e+01    0.3006229    0.2568171 -29.11  0.002139723    1.225    0.184
       107 -11.5459     10.9233     48.9475   1.2943086785e+02   6.5554458697e+01     1.039838    0.4644573 -11.18  0.004815313    3.507    0.715
       108 -12.8919     20.7143     57.6410   1.2761048252e+02   6.3093919948e+01    0.3945005    0.3491578  60.16 0.0008078627    1.455    0.313
       109 -10.7282     20.2905     51.4248   1.2611945175e+02   6.4417055962e+01    0.3513596    0.1580221 -44.11 0.0009569008    1.810    0.447
       110 -11.1683     17.4211     45.2060   1.2557283328e+02   6.5886434824e+01    0.4609455    0.3529756  30.09  0.003155943    1.618    0.382
       111 -10.7575    130.7100     63.8105   9.1905953980e+01   4.4278921746e+01    0.5598611    0.3596894  75.65   0.00224701    2.313    0.568
       112  -9.6331     72.8012     63.3582   1.0937516469e+02   5.5923305913e+01    0.2594691    0.1018856 -49.32  0.001001822    2.455    0.593
       113 -10.9059      7.8001     55.8428   1.3241544215e+02   6.4301747198e+01    0.2291409    0.2115808  73.60  0.001199121    1.362    0.266
       114 -11.2154      8.4938     62.5252   1.3360128359e+02   6.2843839568e+01    0.3806503    0.1802679 -29.97  0.001978126    2.448    0.592
       115  -9.8892    100.8426     61.8330   9.9614265965e+01   5.1186343284e+01     0.197963    0.1726523 -67.40 0.0006080684    1.360    0.265
       116 -10.6687     62.8503     61.9016   1.1246870930e+02   5.7701019672e+01    0.2130811    0.1643174 -26.11 0.0007853051    1.279    0.218
       117 -10.6834     60.4880     57.9468   1.1204045529e+02   5.8825635362e+01    0.2519701    0.2143515 -41.78 0.0005796885    1.090    0.083
       118 -10.2839     51.2403     59.2802   1.1598083250e+02   5.9766185551e+01    0.3824174    0.2228988 -63.27  0.001097887    2.071    0.517
       119 -10.8870     54.4730     57.0116   1.1400771745e+02   5.9817707377e+01    0.5636897    0.3110438 -62.75  0.002552765    2.398    0.583
       120 -10.5450      2.2979     59.7162   1.3544098085e+02   6.3763525896e+01    0.2292361    0.1652613  73.84   0.00150405    1.776    0.437
       121  -9.6686     71.4464     57.6972   1.0794233995e+02   5.7252407477e+01    0.1781945    0.1194934 -34.36 0.0003272908    1.409    0.290
       122  -9.6046    158.1727     57.0413   8.3347157587e+01   3.8634382474e+01    0.2556208     0.162881 -57.04   0.00107142    1.882    0.469
       123  -9.8543     83.4781     56.9806   1.0350382351e+02   5.5377549817e+01     0.194828    0.1575898 -34.40 -5.356713e-05    1.159    0.137
       124 -11.8002     87.4770     53.9925   1.0109492721e+02   5.5205459343e+01    0.4143717    0.3217933  29.46  0.001441116    1.330    0.248
       125 -10.2032     99.7397     56.0746   9.7930915651e+01   5.2460257312e+01    0.2010604    0.1727843 -25.18  0.000438955    1.128    0.114
       126 -11.0243    114.9950     53.8586   9.2673768082e+01   4.9605482191e+01    0.3436622    0.2881035  36.39  0.001253548    1.183    0.155
       127 -10.1018    106.5324     53.5909   9.4996116295e+01   5.1490397488e+01    0.3657234     0.237661 -68.58  0.001469224    2.729    0.634
       128  -8.9594    162.3191     54.3366   8.1647626140e+01   3.7995166306e+01    0.1589096    0.1166096  24.28  0.000704936    1.704    0.413
       129 -12.0356     66.0478     52.5163   1.0808817883e+02   5.9075822725e+01    0.5740452    0.2572768  34.91  0.002261833    2.438    0.590
       130  -9.7672     34.8895     53.0074   1.2050704100e+02   6.2842058223e+01    0.2045093    0.1196973 -31.81 0.0007097505    1.701    0.412
       131  -9.4533    176.1760     52.3556   7.8426175416e+01   3.4702679665e+01    0.2059115     0.140147  74.80 0.0003580287    1.578    0.366
       132  -9.1598    178.9910     56.0504   7.9038012572e+01   3.3409643718e+01    0.1771659    0.1694188  85.82 0.0009563213    1.009    0.009
       133 -10.0884     46.4133     49.7208   1.1473015055e+02   6.2253299357e+01    0.4326464     0.132359 -39.86   0.00157493    3.314    0.698
       134  -9.2432    147.5366     50.0031   8.3311359238e+01   4.2440928256e+01    0.2191016     0.147903 -34.00 -8.246045e-05    1.515    0.340
       135  -9.1387     59.6230     49.2773   1.0935096449e+02   6.0624123121e+01    0.1216564    0.1048589  79.32 0.0002604793    1.702    0.412
       136  -9.7385     38.1594     49.0485   1.1789097975e+02   6.3304003925e+01     0.194354    0.1391872 -30.61 0.0009607938    1.266    0.210
       137  -8.9665    211.9956     48.7853   7.1840470092e+01   2.6009451132e+01    0.1805234    0.1142688  67.23 0.0003363336    1.578    0.366
       138  -9.8388    169.7153     52.9049   7.9773412206e+01   3.6300252819e+01    0.2019035      0.19053 -57.41 0.0002801712    1.066    0.062
       139  -9.9177    105.8178     47.3416   9.2916794972e+01   5.2689559787e+01    0.2980887    0.1361406  58.07  0.001101769    2.765    0.638
       140 -10.4916     77.9387     46.0327   1.0137941544e+02   5.8326877004e+01    0.3248368    0.2155893  29.19 0.0008889224    1.602    0.376
       141 -10.6108     67.9581     46.7396   1.0525606310e+02   5.9849695216e+01    0.3676547    0.1932028  40.26   0.00147229    2.044    0.511
       142 -10.0865     31.3451     46.5670   1.1995073702e+02   6.4468518034e+01    0.2638406    0.1296022 -51.57  0.001374101    1.698    0.411
       143  -9.5149     91.1905     44.7637   9.6429286935e+01   5.6101357117e+01    0.1899733     0.153253   3.51 0.0004429882    1.300    0.231
       144 -11.0813     19.7201     31.6944   1.2009667327e+02   6.8318844477e+01    0.4934758    0.2449533  -3.14  0.002417834    2.955    0.662
       145 -11.2305     25.3625     43.3349   1.2149756586e+02   6.5637786421e+01    0.3274936    0.2351265 -69.36  0.001128044    1.686    0.407
       146 -10.3184     22.7439     38.5910   1.2109998195e+02   6.6775342076e+01    0.2121793     0.192635 -46.35  0.001063887    1.227    0.185
       147 -11.1129     26.6333     35.1400   1.1810721402e+02   6.7089932621e+01    0.4195136    0.1878921 -41.10  0.001414817    1.828    0.453
       148 -10.0845    195.0752     42.6915   7.2525480722e+01   3.1173031644e+01    0.2355518    0.2056057 -37.44 0.0004358031    1.175    0.149
       149 -10.5303     70.5257     41.2489   1.0218267187e+02   6.0400050090e+01    0.3345737    0.2271076 -30.63  0.001427342    1.373    0.272
       150 -10.5177      2.8479     41.6592   1.3107056583e+02   6.7473732993e+01    0.3519466    0.1581077 -25.32  0.001857155    2.542    0.607
       151 -10.0521    182.4384     40.8926   7.3918356271e+01   3.4708104845e+01    0.2864559    0.2032217  88.44  0.001130274    1.548    0.354
       152 -10.9855    139.6894     40.3930   8.1749713361e+01   4.5827857844e+01    0.3555676    0.2270834 -39.28  0.001282863    1.624    0.384
       153 -10.1688     36.0359     40.7013   1.1591388739e+02   6.5134048440e+01    0.3044659    0.1632799 -36.61  0.001630866    1.642    0.391
       154 -10.5467     13.0032     38.5299   1.2554674902e+02   6.7509199411e+01    0.3272445    0.1132374 -54.49  0.001591321    2.155    0.536
       155  -8.9689     51.3166     39.6859   1.0905597889e+02   6.3515404145e+01    0.2198398    0.1496324 -77.75 0.0009488675    3.590    0.721
       156 -11.5192     50.5444     33.8458   1.0704152275e+02   6.4635888585e+01      0.34846    0.2348119  30.86 0.0005679468    1.580    0.367
       157 -10.1628    130.8026     37.8249   8.2849204302e+01   4.8381440460e+01    0.2600783    0.2040105  53.76   0.00101787    1.219    0.179
       158 -11.9521    121.4254     36.3646   8.4573851822e+01   5.0832711218e+01    0.5312453     0.450886 -86.33  0.002791088    1.447    0.309
       159 -10.0625     70.1864     35.3826   9.9932426310e+01   6.1426665140e+01    0.3330829    0.1594665 -24.95  0.001392803    2.528    0.604
       160 -10.2097      1.8123     35.8680   1.2997367126e+02   6.8672207486e+01    0.2010099    0.1305752 -53.67   0.00136107    1.176    0.150
       161 -10.4132      3.0588     32.5057   1.2839837498e+02   6.9262338593e+01     0.187691    0.1688239  70.39  0.001204842    1.565    0.361
       162 -11.0646    134.3740     33.9641   8.0646374700e+01   4.8028812003e+01    0.2472387    0.1873165  46.20 0.0003526891    1.254    0.202
       163  -9.9534    166.5952     31.5897   7.3623451782e+01   4.0078967234e+01    0.3465835    0.1247565 -33.35  0.001249604    2.700    0.630
       164 -11.5147    145.0263     32.9035   7.8021844679e+01   4.5493568159e+01    0.2624452    0.2222802  54.43 -0.001320134    1.110    0.099
       165 -10.0323    195.3079    249.6913   1.1830145639e+02  -2.8694420658e+00    0.1077568   0.08259534  56.52 0.0006101868    1.615    0.381
       166 -10.6499     43.5153     26.5086   1.0696195676e+02   6.6770446115e+01    0.4062605    0.2109522  38.30  0.002149562    2.186    0.543
       167  -9.8629    104.0984     29.5929   8.6524342074e+01   5.5696635451e+01    0.2741896    0.1644033  18.21  0.001187855    2.239    0.553
       168  -9.4104    187.5014     29.4850   6.9786807952e+01   3.4863604223e+01    0.1435838    0.1335702  81.45 -6.122005e-05    1.034    0.033
       169 -10.4127    150.1336     29.3322   7.5800733970e+01   4.4637587659e+01    0.4075527    0.1813831  71.52  0.001476534    2.651    0.623
       170 -10.1506     69.7485     28.1425   9.7014918450e+01   6.2618876702e+01    0.2328905    0.1985444 -34.21  0.001026398    1.263    0.208
       171  -9.7379      7.6027     28.2061   1.2478713276e+02   6.9821526693e+01    0.1737981    0.1252516  24.06 0.0007976688    1.702    0.412
       172 -13.1299      9.4626    229.5826   1.4960066418e+02   2.6819933117e+01    0.5966353    0.3137457  87.75  0.002710588    1.527    0.345
       173  -9.9278    214.0382     25.9921   6.5519447148e+01   2.8486485913e+01    0.1689041    0.1504814 -73.06  0.000375168    1.011    0.011
       174 -10.1278    201.0012     25.9888   6.7031405430e+01   3.1792576810e+01    0.2089944    0.1882568 -77.70   0.00121056    1.017    0.017
       175 -10.0166    171.5139     25.5197   7.0921719639e+01   3.9528546790e+01    0.2426674    0.1455241  -7.58  0.000812588    2.302    0.566
       176 -10.1250    153.6108     25.8647   7.3990403004e+01   4.4159101800e+01     0.307581    0.1922476  76.43 0.0009264853    1.713    0.416
       177  -9.7210    217.4485    245.0000   1.1377959385e+02  -5.7119802756e+00    0.2630403   0.05308582  41.00 0.0009416768    3.991    0.749
       178 -10.2895     58.8560     24.3735   9.9531313917e+01   6.4947092704e+01    0.2512466    0.1795733 -13.45  0.001007755    1.325    0.246
       179  -9.4087     34.3845     25.2261   1.1056338544e+02   6.8062804038e+01    0.1547959    0.1011448 -46.86 0.0005516128    1.532    0.347
       180 -10.0639     51.3143     22.8547   1.0194686534e+02   6.6295234901e+01    0.3030744    0.2289141  -2.31  0.001900932    1.236    0.191
       181  -9.5787     89.3963     22.8086   8.8015554237e+01   5.9680939991e+01    0.2721168    0.1290027 -26.87  0.001157428    2.142    0.533
       182 -10.1833     85.8383     20.9061   8.8298425960e+01   6.0635683012e+01    0.5078366    0.1674731  36.12   0.00154759    4.132    0.758
       183 -10.4093     85.9349     17.2617   8.6650939087e+01   6.1062066371e+01    0.2208194    0.2007172  79.59 0.0006068423    1.457    0.314
       184 -11.1939     37.6431    241.7923   1.4553755947e+02   2.1607821761e+01    0.3834656    0.1111524  60.18  0.001753706    3.177    0.685
       185  -9.5914    202.4992    240.0766   1.1566077230e+02  -2.8040272649e+00    0.1487856    0.1156445 -27.49 0.0006760594    1.517    0.341
       186 -11.2235     13.4887     20.6726   1.1898623454e+02   7.0782079411e+01    0.3010136    0.2704142  12.89  0.001535458    1.394    0.283
       187  -9.3898     60.4479    241.0000   1.4159278413e+02   1.8952699365e+01    0.2343307   0.05152714  38.99 0.0009261267    3.866    0.741
       188  -9.5027    218.6630     25.3534   6.4851894403e+01   2.7412441765e+01    0.1548222   0.08947757 -62.48 0.0007043804    1.797    0.444
       189 -11.1303     14.8414    239.0852   1.4914434750e+02   2.4579745312e+01    0.1711342   0.09412013  67.49 0.0006327794    1.296    0.228
       190 -10.4130     30.9607     19.8349   1.0981699830e+02   6.9320617747e+01    0.2374567    0.1424436 -42.74  0.001301412    1.526    0.345
       191 -12.0736     26.3834    236.0562   1.4710534000e+02   2.3893274827e+01    0.3263645    0.2212082  84.09  0.001651073    1.215    0.177
       192 -10.0305    175.4435     20.2505   6.8714089352e+01   3.9102655625e+01    0.1917176    0.1277661 -42.28 0.0003928831    1.536    0.349
       193 -11.1050     43.4951     30.4986   1.0867365355e+02   6.6110768348e+01    0.3331627    0.2523633  11.79 0.0009055128    1.339    0.253
       194  -8.7876    155.5522    235.5051   1.2358993703e+02   5.4999989199e+00    0.1239449   0.09966247  43.94 3.998251e-05    1.009    0.009
       195  -9.4655    148.4900     18.5834   7.2418485638e+01   4.6301976659e+01    0.1416166    0.1291527  66.15 8.382859e-05    1.024    0.024
       196 -10.0192    199.8759     17.1284   6.4716544178e+01   3.3104097591e+01    0.2182814    0.1679378 -65.81 0.0005209983    1.250    0.200
       197 -10.4034    107.5022     16.5969   8.0310087376e+01   5.6516982177e+01     0.390647    0.2129575  67.19  0.001740937    2.165    0.538
       198  -9.8025    249.1588    234.1399   1.0673997804e+02  -9.1609082517e+00    0.1742761    0.1191837  15.61  0.000561258    1.186    0.157
       199  -9.6683    140.0768    227.0686   1.2542496707e+02   9.4153984514e+00    0.2008972    0.1313262  64.22 0.0006236559    1.698    0.411
       200 -10.2330     32.5484    225.1366   1.4543576000e+02   2.5206785019e+01    0.2650771    0.1135222  48.94  0.001557216    1.810    0.447
       201 -10.1294     25.6998    224.9979   1.4662502742e+02   2.5986973148e+01     0.155239     0.108237  79.66 0.0006756691    1.113    0.102
       202 -11.5731      7.7048    217.6672   1.4935685132e+02   2.9194633661e+01    0.2765458    0.1765381  81.58    0.0014431    1.164    0.141
       203 -10.7688     20.0701     16.8214   1.1392654712e+02   7.0890173215e+01    0.1954025    0.1447959  11.09 0.0004005086    1.397    0.284
       204  -9.7857    240.3374     15.3036   6.0346605060e+01   2.3386704597e+01    0.1237289   0.09712341  41.80  0.000484452    1.669    0.401
       205 -12.1719      5.2721    240.6662   1.5073059062e+02   2.5262613769e+01    0.4346377    0.2249428  46.31  0.003124112    1.618    0.382
       206 -10.2530    190.5081     14.0078   6.4921574049e+01   3.5855032326e+01    0.1982879    0.1364228 -29.61 0.0008115827    1.550    0.355
       207  -9.9020    144.3366     14.2492   7.1640888090e+01   4.7817972118e+01    0.1958281     0.161507  53.95 0.0008266384    1.109    0.098
       208  -9.1054     76.4523     14.5040   8.8459781462e+01   6.3235117824e+01    0.1315905    0.1089919  12.31 0.0002276964    1.060    0.057
       209  -9.5564    209.4046    211.8176   1.0992358774e+02  -1.7444877012e-01    0.1667056    0.1142285 -18.33 0.0009447067    1.647    0.393
       210 -11.0072     15.3873    211.5001   1.4770113720e+02   2.9623844025e+01    0.2723754    0.1208468  57.69  0.001634114    1.766    0.434
       211  -9.8555     20.6089    209.7908   1.4666239305e+02   2.9428782698e+01    0.1544632   0.07874827  84.00 0.0003997085    1.649    0.394
       212  -9.7671    246.7371    207.0483   1.0251215959e+02  -5.6468515119e+00    0.1708003     0.133751  -7.95 0.0009751943    1.160    0.138
       213 -10.8653      1.8174    248.7842   1.5155962221e+02   2.4209086870e+01    0.3427335    0.1441921 -85.86  0.002276964    2.026    0.506
       214  -9.4471    197.1752    204.1487   1.1088609360e+02   3.0828879837e+00    0.1699672    0.1513224  55.58 0.0006968685    1.313    0.238
       215 -11.2687      9.3086    203.4106   1.4836632395e+02   3.1793722995e+01    0.2159934    0.1632619  70.09 0.0009142712    1.122    0.109
       216  -9.0038    181.5238    199.4981   1.1311117061e+02   6.6594279230e+00    0.1344101    0.1181118  36.87 -1.882908e-05    1.035    0.033
       217  -9.6969     23.2406    197.5808   1.4541108955e+02   3.1596616967e+01    0.1327633    0.1057123  35.52 0.0004177613    1.612    0.380
       218  -9.9327      6.5728    191.6854   1.4824079560e+02   3.4394427794e+01    0.1522189   0.07852226  84.33 0.0009317332    1.542    0.352
       219 -10.2633     15.4566    185.4123   1.4613346848e+02   3.4874564571e+01    0.2180544   0.09039285 -80.95  0.001157916    2.018    0.505
       220  -9.5466      1.3246    183.2643   1.4878419362e+02   3.6572205075e+01    0.1507733   0.07620362  88.63 0.0005655611    1.547    0.354
       221  -8.9876    250.3044    183.3504   9.7477230878e+01  -3.1311068215e+00    0.1337311    0.0863493   4.41  0.000704111    1.702    0.413
       222 -10.8563      4.6727    167.1865   1.4714277203e+02   3.9685330541e+01     0.299921    0.1760232  65.09  0.001455221    1.461    0.315
       223  -9.1045    111.5771    162.5643   1.2186146577e+02   2.6981997400e+01    0.1422669    0.1283036  75.10 9.636227e-05    1.017    0.017
       224  -9.2341     41.6904    158.3368   1.3807302667e+02   3.8131384087e+01    0.1342386   0.07940485  71.99 0.0007043756    1.682    0.405
       225  -9.2170    247.4544    155.5295   9.2293002750e+01   1.3338164102e+00    0.1335363    0.1166077  -7.06 0.0001245391    1.003    0.003
       226  -9.4484    243.0000    154.9758   9.2913293054e+01   2.2318255632e+00    0.2173451   0.07117533 -34.74 0.0005765907    2.881    0.653
       227  -9.8998      2.7318    153.7442   1.4664181383e+02   4.2755956245e+01    0.1697978   0.06666511  43.61 0.0009040464    2.420    0.587
       228  -9.6965     14.5447    150.4964   1.4368826292e+02   4.2544579585e+01    0.1196178   0.09151671 -89.87 0.0004060289    1.005    0.004
       229 -10.1960      8.8314    148.8326   1.4487767029e+02   4.3377991802e+01    0.1628152    0.1061305  78.96 0.0003657551    1.291    0.226
       230 -10.3406     22.0380    143.2184   1.4120452842e+02   4.3551272006e+01    0.2243069    0.1453551 -79.79  0.001129594    1.245    0.197
       231  -9.6311      2.7231    138.5785   1.4548031064e+02   4.6119110864e+01    0.1516493   0.09276659  48.38 0.0009618569    1.694    0.410
       232 -10.8185     12.9367    130.7748   1.4221988104e+02   4.7147453856e+01    0.3673064    0.1621254  70.12   0.00138466    2.753    0.637
       233  -9.6309     21.3996    126.2089   1.3949014325e+02   4.7529085376e+01    0.1772653    0.1299243 -81.01 0.0004380258    1.102    0.092
       234 -11.8245     23.9265    121.9422   1.3827479801e+02   4.8309600622e+01    0.4794147    0.2349065  87.71  0.000582949    2.323    0.569
       235 -10.3863      3.4962    119.0188   1.4350277207e+02   5.0481795830e+01     0.164447    0.1404267  87.30 0.0004402254    1.146    0.127
