#   1 NUMBER                 Running object number                                     
#   2 MAG_AUTO               Kron-like elliptical aperture magnitude                    [mag]
#   3 X_IMAGE                Object position along x                                    [pixel]
#   4 Y_IMAGE                Object position along y                                    [pixel]
#   5 X_WORLD                Barycenter position along world x axis                     [deg]
#   6 Y_WORLD                Barycenter position along world y axis                     [deg]
#   7 A_WORLD                Profile RMS along major axis (world units)                 [deg]
#   8 B_WORLD                Profile RMS along minor axis (world units)                 [deg]
#   9 THETA_WORLD            Position angle (CCW/world-x)                               [deg]
#  10 FWHM_WORLD             FWHM assuming a gaussian core                              [deg]
#  11 ELONGATION             A_IMAGE/B_IMAGE                                           
#  12 ELLIPTICITY            1 - B_IMAGE/A_IMAGE                                       
         1 -14.8054      7.8636    152.0761   1.4652904630e+02   4.2664808899e+01     9.209073      3.70634  67.42   0.04433451    2.725    0.633
         2 -13.3357    195.5427     28.8930   6.9044114757e+01   3.2275814875e+01     1.489711     1.366005 -51.96  0.007844696    1.118    0.106
         3 -13.4400    210.1307      8.9080   6.1905373968e+01   3.0696423864e+01     1.268098    0.9353986  42.46  0.006951333    1.587    0.370
         4 -12.1660      2.4185     22.6528   1.2742939616e+02   7.0724228992e+01     1.016536   0.09339258 -58.03  0.003091027    6.403    0.844
         5 -11.5025      2.6344      9.8533   1.2252249917e+02   7.2977243703e+01    0.5338709    0.1218425 -45.81  0.002467069    2.766    0.638
         6 -10.0304     81.8160    248.8271   1.3949498834e+02   1.5294467454e+01    0.1654034    0.1000843  61.85  0.001077368    1.357    0.263
         7 -12.0592    247.3914    248.4102   1.0983856741e+02  -1.0163741520e+01    0.5232003    0.3989342 -10.96  0.003927324    1.385    0.278
         8 -11.1183    139.7220    249.4742   1.2912829582e+02   6.5015812838e+00     0.263776    0.2329841  54.98  0.001959004    1.189    0.159
         9 -11.1710    124.5185    249.7689   1.3193303998e+02   8.8498622729e+00    0.4733385    0.1024899  41.53  0.001772916    3.460    0.711
        10 -10.9582     97.7709    249.5215   1.3673009839e+02   1.2918944680e+01    0.3123216    0.1688179  48.56  0.001910588    1.378    0.274
        11 -11.4542     35.2285    244.7606   1.4716678618e+02   2.1836563212e+01    0.4053286    0.3698084 -18.81  0.003269826    2.116    0.527
        12  -9.7870     46.8538    249.1777   1.4549416222e+02   1.9745847757e+01    0.1673841    0.1037512  64.23 0.0005113014    1.186    0.157
        13 -10.9589    198.0950    246.1584   1.1805581676e+02  -2.4766372513e+00    0.2162867    0.1756407 -32.00  0.001528893    1.578    0.366
        14 -10.5891    128.4342    245.2204   1.3072787216e+02   8.9243431723e+00    0.1931524    0.1157323 -50.13   0.00115518    2.195    0.544
        15 -10.2157     30.3680    250.3870   1.4824364604e+02   2.1439684214e+01    0.2643408    0.1039027  44.53  0.001049184    1.912    0.477
        16  -9.7019     22.5214    245.0482   1.4924437795e+02   2.3177049299e+01    0.2024837   0.09150401  55.66    0.0008652    1.569    0.363
        17 -10.0575     12.6964    240.8510   1.5062641433e+02   2.4896487691e+01    0.1581532     0.119732  52.10  0.001320128    1.361    0.265
        18  -9.4927     56.8416    240.1731   1.4322303731e+02   2.0042574514e+01    0.1332919     0.116726  64.68 0.0005515257    1.320    0.242
        19 -10.3550    120.0360    239.4939   1.3166436439e+02   1.1142285855e+01    0.1926387   0.09477747  42.83 0.0005404244    1.587    0.370
        20  -9.2967    183.3410    238.3097   1.1962908089e+02   9.2052642600e-01    0.1255162   0.08169892  18.79 0.0005580292    1.692    0.409
        21 -11.7267    237.8279    247.3362   1.1127987738e+02  -8.6893181032e+00    0.3429078     0.241554  -6.29  0.002411345    1.409    0.290
        22 -10.0965    225.9774    249.1886   1.1358732893e+02  -7.1363354887e+00    0.2032375    0.1022725  21.45  0.001095285    1.997    0.499
        23 -10.7736    140.8448    230.6929   1.2666129452e+02   9.1634805339e+00    0.2994373    0.1369355  33.87  0.001382813    2.205    0.546
        24 -10.5729    173.8912    222.5706   1.1911436702e+02   4.7440318722e+00    0.3729737    0.2685174  63.04  0.002118205    1.770    0.435
        25 -12.4227      9.1561    207.1278   1.4967787600e+02   3.1310065307e+01    0.6549135    0.4639459  30.15  0.003435722    1.855    0.461
        26  -8.7368    152.4990    213.0189   1.2192361032e+02   1.0024833327e+01     0.160693    0.1334698 -50.83 4.414735e-05    1.457    0.314
        27 -11.4798     61.8378    199.4569   1.3898393025e+02   2.6992152585e+01    0.2743469    0.2391251 -45.50 0.0006148455    1.624    0.384
        28  -9.5655    192.0348    193.3495   1.1066152513e+02   5.9402023759e+00    0.3609642    0.2229014 -68.62  0.001353838    4.174    0.760
        29 -10.6390     17.7234    198.7264   1.4764238784e+02   3.2125711456e+01    0.3332409    0.1257071  51.38  0.001182967    2.142    0.533
        30 -10.4890    150.2367    229.7520   1.2472259688e+02   7.7300242510e+00    0.2459184     0.129526  44.20  0.001292149    1.508    0.337
        31 -11.7104     67.9511    191.1797   1.3687040496e+02   2.7866838446e+01    0.2555971    0.2206339 -71.80 0.0004201971    1.286    0.222
        32 -11.0109      6.6114    189.0725   1.4919678961e+02   3.5053627402e+01     0.213744    0.1637517 -81.51  0.001639745    1.265    0.210
        33 -10.7360     78.0134    178.2770   1.3314941535e+02   2.9174907052e+01    0.2280305    0.2035732  66.55 0.0003259791    1.093    0.085
        34 -13.0015     64.7478    176.3875   1.3593160565e+02   3.1420726932e+01    0.4509727    0.2729635 -47.34  0.001654636    2.131    0.531
        35  -8.7441    100.1627    176.8742   1.2787409212e+02   2.6049961407e+01    0.2069643    0.1573256  69.28 0.0005359797    1.292    0.226
        36 -11.6308     85.7605    168.9710   1.3009381675e+02   3.0039487272e+01    0.6457769    0.5454132  13.83   0.00299607    1.592    0.372
        37  -9.7967     98.1309    152.8326   1.2450612063e+02   3.1641160023e+01    0.2642216    0.2602551 -55.56 0.0007874341    1.161    0.139
        38 -11.8319     86.5739    152.0244   1.2729134013e+02   3.3694069867e+01    0.2746751    0.2473298 -46.21 0.0007008274    1.271    0.213
        39  -8.9636    100.9736    148.6215   1.2303340427e+02   3.2105288488e+01    0.1955002    0.1709731  45.89  0.000445755    1.142    0.124
        40 -12.6236     35.4011    233.9298   1.4653542181e+02   2.3686116312e+01    0.2710039    0.2297036  87.32 0.0007421484    1.349    0.259
        41 -12.1335     67.2348    143.7687   1.3095292075e+02   3.8396901669e+01    0.6799068    0.4316399  64.20  0.003459944    1.732    0.423
        42  -8.1479    181.2601    144.6232   1.0294873795e+02   1.6637747075e+01    0.1483468     0.120329 -76.32 0.0006854073    1.664    0.399
        43 -14.2138     40.8301    226.3133   1.4512277836e+02   2.4429203612e+01     1.548571     1.327452   8.35  0.005629018    2.058    0.514
        44  -9.5491    109.6060    137.6392   1.1866492478e+02   3.3047472382e+01    0.3575782    0.2486116 -17.78  0.001284568    2.353    0.575
        45 -10.2911     96.8526    134.8720   1.2149366128e+02   3.5937392239e+01    0.2434416    0.2216761 -25.95 0.0003458417    1.281    0.219
        46  -8.3320    192.2607    144.2846   1.0054334810e+02   1.4285734572e+01    0.1454571    0.1128696   8.52 0.0002560674    1.484    0.326
        47  -8.2559     91.2483    131.6664   1.2237681893e+02   3.7613138631e+01     0.141826    0.1065004  85.79  0.000223625    1.554    0.357
        48 -10.8489     33.7831    132.8926   1.3824394317e+02   4.4752074392e+01     0.321577    0.1732231  55.62  0.001676638    2.013    0.503
        49  -8.6947     80.5428    132.5330   1.2547701444e+02   3.9101809437e+01    0.1412263    0.1251531  85.46    7.326e-05    1.094    0.086
        50  -8.8727    106.7213    124.1031   1.1652811927e+02   3.6642230996e+01    0.1875018    0.1823664 -50.02 0.0002700743    1.064    0.060
        51  -9.4716    167.6317    112.7905   9.8207184774e+01   2.5900379406e+01    0.2927423     0.250357  80.75  0.001096448    1.373    0.272
        52  -9.0148    203.4907    111.5197   9.0365101126e+01   1.7591727481e+01    0.1528835    0.1444751  10.32 0.0001092433    1.046    0.044
        53 -10.5007    241.5021     83.9921   7.7150795713e+01   1.3270641821e+01    0.2266282    0.1305674 -32.85  0.001017016    1.619    0.382
        54  -8.3988    184.6886     77.3260   8.4794762822e+01   2.8143658714e+01    0.1607742    0.1204712 -70.71 0.0002991648    1.661    0.398
        55  -9.1415    157.4909     76.4566   9.0274137366e+01   3.5237935999e+01    0.1571341    0.1512987  40.05 9.813881e-05    1.010    0.009
        56 -10.5292      1.7702     60.9974   1.3740924962e+02   6.3096654576e+01    0.2472191   0.09350776 -59.49  0.001291597    1.845    0.458
        57  -9.1649     35.3767     63.8350   1.2496111339e+02   6.0231747658e+01    0.2694911    0.1440821  42.93 0.0009734136    2.420    0.587
        58 -10.7337     16.1262     55.9318   1.3061752393e+02   6.3396331617e+01    0.2481174    0.1769913  37.03  0.001089797    1.773    0.436
        59 -10.5676      2.3261     51.1274   1.3519019947e+02   6.5138968974e+01    0.2389483   0.07880853 -61.16  0.001168095    2.144    0.534
        60 -10.2023    217.8558    248.8501   1.1494589396e+02  -5.8734877695e+00    0.1527526    0.1239504  37.49  0.001092624    1.335    0.251
        61  -9.4454    162.4697    249.5038   1.2497222228e+02   2.8422550955e+00    0.1216354   0.09165514  39.83 0.0001324301    1.004    0.004
        62  -9.8375    152.5007    249.4861   1.2679212845e+02   4.4533851847e+00    0.1216761   0.09154498  42.67 0.0004596143    1.003    0.003
