#   1 NUMBER                 Running object number                                     
#   2 MAG_AUTO               Kron-like elliptical aperture magnitude                    [mag]
#   3 X_IMAGE                Object position along x                                    [pixel]
#   4 Y_IMAGE                Object position along y                                    [pixel]
#   5 X_WORLD                Barycenter position along world x axis                     [deg]
#   6 Y_WORLD                Barycenter position along world y axis                     [deg]
#   7 A_WORLD                Profile RMS along major axis (world units)                 [deg]
#   8 B_WORLD                Profile RMS along minor axis (world units)                 [deg]
#   9 THETA_WORLD            Position angle (CCW/world-x)                               [deg]
#  10 FWHM_WORLD             FWHM assuming a gaussian core                              [deg]
#  11 ELONGATION             A_IMAGE/B_IMAGE                                           
#  12 ELLIPTICITY            1 - B_IMAGE/A_IMAGE                                       
         1 -14.5810     45.7217    119.6979   1.1860561863e+02   4.5944594915e+01     1.932328     1.528971  47.34   0.01019662    1.383    0.277
         2 -13.9451    205.7863     15.5279   5.2583491549e+01   3.1456284548e+01     1.810779    0.9654338  51.52   0.00787033    1.927    0.481
         3 -13.7743    192.6897     31.0774   5.9086126473e+01   3.3136902953e+01     1.192306     1.011186  39.61  0.005466806    1.239    0.193
         4 -10.5596     48.7604     11.2247   8.7072179593e+01   6.8315329376e+01     0.210336   0.08556712 -30.30 0.0008966466    2.487    0.598
         5 -10.4669    248.0086     21.1818   5.0029400058e+01   2.0292722968e+01    0.2400685    0.1345735 -63.54   0.00109461    2.024    0.506
         6 -13.1330    139.3800    249.6523   1.1490681999e+02   9.7069125940e+00     1.270667     0.204362  40.81  0.004174837    5.944    0.832
         7 -11.0926     70.8311    249.0412   1.2547261326e+02   1.8946675497e+01    0.3473468    0.1724546  40.56   0.00108722    1.813    0.448
         8 -13.5983      2.2801    186.7197   1.3332898706e+02   3.6429009619e+01     1.374974    0.2027432 -79.47  0.005291199    5.511    0.819
         9 -14.1585     32.1714    225.6656   1.3016146887e+02   2.6889110941e+01     1.576003     1.096159  84.62   0.01202358    1.254    0.202
        10 -14.6525      2.2515     32.6818   1.1708504328e+02   6.8680699272e+01     5.275083    0.3434159 -64.41   0.01529744    6.280    0.841
        11 -13.9947     13.1009    205.4529   1.3229979275e+02   3.2149363029e+01     1.683424    0.7609243 -62.45    0.0107408    2.726    0.633
        12 -13.5891     36.6629    244.1084   1.3034087657e+02   2.3569785027e+01    0.4923959    0.2604187  68.20 0.0008489501    1.402    0.287
        13 -13.3766     28.2115    248.9474   1.3178169016e+02   2.3744604351e+01    0.6335582    0.2826676  53.96  0.003648252    1.478    0.323
        14 -14.3469     13.0055    249.3517   1.3396005136e+02   2.5197429632e+01    0.6212003    0.4370189  42.93  0.003527136    1.650    0.394
        15 -15.3669      3.9275    245.2477   1.3510959778e+02   2.6652104751e+01     1.353092    0.5120392 -69.23  0.007930972    3.024    0.669
        16  -9.5220     56.5787    240.3364   1.2713623328e+02   2.1908115471e+01    0.1791364    0.0954361  44.76 0.0006238841    1.546    0.353
        17 -11.2462    193.6536    237.3138   1.0499317498e+02   3.0686641852e+00    0.2155673    0.1924008 -52.27   0.00176294    1.608    0.378
        18  -8.4788    101.4668    233.4436   1.1950403855e+02   1.7223010212e+01    0.1085766    0.0767858  58.59 9.798163e-05    1.063    0.059
        19 -11.9633    127.0578    230.2262   1.1498598461e+02   1.4034236863e+01    0.3581399    0.1917276  55.32    0.0022304    1.595    0.373
        20 -11.0998    149.3809    228.2231   1.1106192788e+02   1.0944395153e+01    0.1744929    0.1453776 -83.03  0.001324735    1.516    0.341
        21 -10.9858    115.2321    229.5192   1.1688114046e+02   1.5855494483e+01    0.2494669    0.1646022 -85.66  0.001496512    1.869    0.465
        22  -9.8849     52.9560    227.9879   1.2698320177e+02   2.4222525518e+01     0.154348    0.1014724  65.20 0.0003547813    1.087    0.080
        23  -9.8280     95.0117    225.4972   1.1989194148e+02   1.9290284487e+01    0.1615687    0.0826268  46.19 0.0004142883    1.526    0.345
        24  -8.9815     77.1278    223.9031   1.2275088259e+02   2.1911802045e+01     0.125549    0.1108626  69.63 0.0006664717    1.316    0.240
        25 -10.0219     53.3295    222.4923   1.2658628725e+02   2.5055428950e+01    0.1789161    0.1531601  87.14 0.0009587204    1.383    0.277
        26 -10.4789     69.0281    217.6424   1.2363916895e+02   2.3943779492e+01    0.2670243    0.1511238  51.34  0.001445272    1.360    0.265
        27 -12.0066     49.5667    212.7674   1.2659482909e+02   2.7093087630e+01     0.608626    0.2184305 -67.76  0.001550557    2.804    0.643
        28 -12.5515     58.7560    203.8575   1.2438381480e+02   2.7532145458e+01    0.7423376    0.4861153 -79.55  0.003729337    1.483    0.325
        29  -9.1975     73.5053    213.0372   1.2251743355e+02   2.4131859232e+01    0.1418388   0.09341742 -84.28 0.0006027406    1.506    0.336
        30 -11.5734     92.5306    204.7923   1.1842608807e+02   2.2948531980e+01    0.4879959    0.2835622  42.51  0.002023999    1.555    0.357
        31 -12.1627     83.7383    202.1008   1.1975790328e+02   2.4622310529e+01    0.6448811    0.4140373  56.79   0.00296467    1.243    0.196
        32  -9.9140     32.4601    206.7895   1.2912977198e+02   2.9995198555e+01    0.4448116   0.06471444  52.39  0.001807839    4.409    0.773
        33 -14.0218    101.7480    185.4693   1.1461548427e+02   2.4962223744e+01     1.360372     1.197592  42.19  0.007061179    1.315    0.240
        34 -12.2435    111.8788    189.5612   1.1316410022e+02   2.2688652432e+01    0.7954941     0.490695 -30.06  0.003713321    3.721    0.731
        35  -9.2730     44.0080    199.7961   1.2670258580e+02   2.9964033385e+01    0.1760339    0.1198491 -67.30  0.001281252    1.676    0.403
        36 -10.6019    199.0175    199.0002   9.8701793631e+01   6.6474486109e+00    0.1934836    0.1570009  31.24  0.001052482    1.024    0.023
        37  -9.1514    208.6577    186.6827   9.5041379275e+01   6.5385966779e+00    0.1291271   0.08370394  18.33 0.0007048884    1.714    0.417
        38 -10.8424     73.1876    183.3609   1.1992867972e+02   2.9400795390e+01    0.3833473    0.2403908 -47.70  0.001322853    2.325    0.570
        39 -11.2201     77.0472    177.9129   1.1860871991e+02   2.9909026569e+01    0.2603342    0.2532871 -30.90 0.0007764771    1.524    0.344
        40 -10.8556     50.3578    177.3513   1.2382143784e+02   3.3383368535e+01    0.4732959     0.324611 -59.66  0.002732284    1.730    0.422
        41 -11.6290     45.7732    171.0857   1.2419129972e+02   3.5125035527e+01    0.4946917     0.360691  72.08  0.002186263    1.082    0.076
        42 -12.7438     32.4620    163.0011   1.2621103533e+02   3.8156712392e+01     1.077084    0.6692056 -74.12  0.007222089    1.442    0.307
        43 -11.3660     80.3841    139.4282   1.1298652612e+02   3.7217728141e+01    0.9404963    0.6128815  63.08  0.005223637    1.535    0.348
        44 -11.8568     84.8906    166.7727   1.1572997735e+02   3.0965278161e+01    0.5962448    0.3744952 -77.53  0.001473312    1.606    0.377
        45 -13.2763     74.2186    163.4442   1.1756419966e+02   3.3114809761e+01    0.8774108    0.5668672 -56.54    0.0052524    1.719    0.418
        46 -12.4511     50.3744    162.0134   1.2242201508e+02   3.6404042245e+01    0.9874511    0.7357304  30.43  0.006586891    1.760    0.432
        47 -13.7030     69.2229    146.8926   1.1660362732e+02   3.7183034499e+01     1.707323    0.9111403 -84.24  0.007341223    2.094    0.523
        48 -12.9390     53.2317    148.8322   1.2043044952e+02   3.8782285842e+01     1.450483    0.7058169  39.86  0.007858541    2.071    0.517
        49 -12.4633     23.3986    132.7786   1.2558152330e+02   4.5297910699e+01    0.9049464    0.5182503 -66.64   0.00483471    1.541    0.351
        50 -11.0764     90.4045    161.2309   1.1385493168e+02   3.1253347513e+01    0.3252473    0.2741164  -2.39  0.001852247    1.943    0.485
        51 -12.5730    104.5816    148.9376   1.0896379739e+02   3.1506313073e+01     1.355625     1.083691  60.22  0.008215529    1.152    0.132
        52 -13.0238    135.1474    112.7828   9.4775558667e+01   3.3273936543e+01     1.334655    0.6205202 -33.27  0.004700347    3.144    0.682
        53 -12.6626    117.4105    139.3080   1.0443493404e+02   3.1270000240e+01      1.25512    0.8785373 -19.28  0.005814049    2.595    0.615
        54 -13.4016    126.9564    120.0446   9.8350524665e+01   3.3428864246e+01     1.851328    0.9848825 -62.51  0.007567555    2.373    0.579
        55 -10.8930    109.4327    120.5119   1.0263969824e+02   3.6589472160e+01    0.3207718    0.2759558 -18.57 0.0006253326    1.534    0.348
        56 -11.0377     92.0803    144.0189   1.1099355505e+02   3.4504556068e+01    0.2206937    0.2096606 -56.25 0.0004470021    1.280    0.218
        57 -11.4355    120.8101    248.8777   1.1773976088e+02   1.2427044876e+01    0.2687904    0.1579739  37.56 0.0009252744    1.601    0.375
        58 -13.4961    115.5287    124.3960   1.0197460297e+02   3.4676221607e+01     1.216193     1.029598 -26.24  0.006799055    1.494    0.331
        59  -9.9968    100.4401    129.0634   1.0648957260e+02   3.6317902887e+01    0.2429748    0.2080016 -30.09 0.0008376573    1.513    0.339
        60 -10.8366     81.2207    111.2251   1.0791360147e+02   4.3246906022e+01    0.4420935    0.3793701 -22.27  0.002158249    1.563    0.360
        61 -10.5226     67.8649    119.6569   1.1291751785e+02   4.3265251733e+01    0.3481436    0.2581275 -71.89  0.001418376    1.193    0.162
        62 -12.3529     75.8961    116.9127   1.1037433440e+02   4.2764379463e+01    0.8940124    0.5005814  36.84  0.004472874    2.002    0.501
        63 -11.0118     91.4701    115.8300   1.0616644999e+02   4.0640424885e+01    0.7750493    0.3682254 -45.93  0.003326361    2.310    0.567
        64 -10.8220    103.2411    112.3029   1.0243959377e+02   3.9435756014e+01    0.4125051    0.3233288 -58.40  0.002273888    1.216    0.178
        65  -9.5982    167.6785    112.5177   8.7526763020e+01   2.6360851562e+01    0.2823528    0.2127545 -70.64 0.0007825851    1.722    0.419
        66  -9.8624     65.4862    172.5137   1.2036118403e+02   3.2473686743e+01    0.2867545    0.2254559  20.95  0.001863956    1.942    0.485
        67 -10.7613     77.9699     85.6943   1.0318527392e+02   4.9412245364e+01    0.4020554    0.1862549 -49.39  0.001754367    1.964    0.491
        68 -13.6447    134.8580     87.7677   8.8369597251e+01   3.8341872601e+01     1.704249     1.051142 -22.65  0.006901369    2.288    0.563
        69 -10.8023    112.2432     69.5312   8.8748445419e+01   4.6731404348e+01    0.4089034    0.2089992  35.41  0.001593138    2.501    0.600
        70 -12.8958    182.1296     45.0968   6.5209091754e+01   3.4074139045e+01      1.01792     0.505313 -42.47  0.003981079    2.027    0.507
        71 -15.1457      3.6324    107.3646   1.2809091856e+02   5.2330992179e+01      12.4688          nan -68.84   0.03040037    9.431    0.894
        72 -11.6440    132.9662    246.9889   1.1566124843e+02   1.0954344884e+01    0.2460639    0.1360249  45.83 0.0008332964    1.319    0.242
        73  -9.6499     87.4045    240.7001   1.2234170840e+02   1.8053623868e+01    0.1702362    0.1088507  66.19 0.0006050491    1.293    0.226
        74 -12.3029    185.6437     36.2378   6.1783034408e+01   3.4347162580e+01    0.5025514    0.4382693  79.71  0.001448531    1.198    0.165
