#   1 NUMBER                 Running object number                                     
#   2 MAG_AUTO               Kron-like elliptical aperture magnitude                    [mag]
#   3 X_IMAGE                Object position along x                                    [pixel]
#   4 Y_IMAGE                Object position along y                                    [pixel]
#   5 X_WORLD                Barycenter position along world x axis                     [deg]
#   6 Y_WORLD                Barycenter position along world y axis                     [deg]
#   7 A_WORLD                Profile RMS along major axis (world units)                 [deg]
#   8 B_WORLD                Profile RMS along minor axis (world units)                 [deg]
#   9 THETA_WORLD            Position angle (CCW/world-x)                               [deg]
#  10 FWHM_WORLD             FWHM assuming a gaussian core                              [deg]
#  11 ELONGATION             A_IMAGE/B_IMAGE                                           
#  12 ELLIPTICITY            1 - B_IMAGE/A_IMAGE                                       
         1 -16.0443    244.3206     68.6235   4.2873413097e+01   1.7051122444e+01     7.468815     6.191489 -20.16   0.02385258    1.591    0.372
         2 -14.2047    248.5684     41.3085   3.6881898309e+01   2.0129552525e+01     4.241576     1.531273 -61.74   0.01641654    3.579    0.721
         3 -13.8803    238.9054     34.1435   3.6277064139e+01   2.3016541523e+01     1.216982    0.7937754 -24.51  0.003176121    2.093    0.522
         4  -8.8578    204.7250      8.3563   3.3740099901e+01   3.3438247782e+01    0.3864692    0.2217664  75.72   0.00218893    1.540    0.351
         5  -8.5346    225.6146      7.5299   3.1886603248e+01   2.8983356458e+01    0.2019893    0.1656935  76.89 0.0005066245    1.303    0.232
         6  -8.6803    250.0495      4.6540   2.9691580005e+01   2.4334536915e+01    0.2030816    0.1406854 -51.90 0.0005988396    1.242    0.195
         7  -8.4944    240.3796      3.0049   2.9976923812e+01   2.6430435816e+01    0.1893331    0.1376607  69.66 0.0006679406    1.516    0.340
         8  -8.2385    166.6826      3.0909   3.6222282331e+01   4.2736019393e+01    0.1620342    0.1489441 -69.73 0.0005426052    1.168    0.144
         9  -9.5437    203.9927    187.2417   7.4223707510e+01   3.6920861937e+00    0.3380201    0.2878385  69.63  0.001919352    1.631    0.387
        10  -8.3471    197.1864    249.9105   8.6249120695e+01  -5.5457742348e+00    0.1617298    0.1450129  15.23 0.0003608362    1.195    0.163
        11  -7.6450     39.9554    180.0485   1.1171758345e+02   3.2203328492e+01    0.1560289    0.1309431  86.04 0.0009411911    1.018    0.018
        12 -10.1837    193.6171    174.6149   7.3800599542e+01   7.8584384894e+00    0.5670537    0.2620834 -29.15  0.002041873    3.033    0.670
        13  -9.6007    194.3405    168.3174   7.2380986143e+01   8.9465927229e+00    0.2504734    0.1944405 -14.69  0.001296811    1.425    0.298
        14  -9.2701    242.5467    173.7525   6.4699389743e+01  -1.6164895171e-01     0.226376    0.1733898  32.13  0.001378817    1.439    0.305
        15  -9.1402    229.4560    167.0371   6.5584756931e+01   3.0507357287e+00    0.2844355    0.2169415  56.16 0.0008013634    1.704    0.413
        16  -9.0622    228.0511    171.8619   6.6783974627e+01   2.4403004093e+00    0.2761637    0.1745799  60.13   0.00130645    2.527    0.604
        17  -9.0243    176.8394    171.0782   7.6571545690e+01   1.1653561202e+01    0.3341835     0.204447 -48.33 0.0008844631    1.656    0.396
        18  -9.1207    224.7253    169.5929   6.6918105165e+01   3.3840682175e+00    0.3119164    0.1473441 -29.90  0.001304475    2.338    0.572
        19  -8.3689    179.7480    167.4411   7.5209053705e+01   1.1846083726e+01    0.2643064    0.1755226 -55.02 0.0007344515    1.669    0.401
        20 -12.6080    234.0329     63.9858   4.3038224139e+01   1.9816175388e+01     1.017058     0.549033 -50.13  0.005205208    1.597    0.374
        21  -7.2807    236.3050    244.6881   7.8323200866e+01  -9.9478775479e+00   0.09522985   0.09069376  25.82 0.0003361948    1.616    0.381
        22 -11.9432     60.3527    137.7703   1.0018835761e+02   4.0308783672e+01     1.617313    0.8774989 -43.78  0.003544884    2.019    0.505
        23  -9.9962    216.3284    226.2565   7.8888178392e+01  -4.7138280082e+00    0.2161513    0.1809497   4.81 0.0002084996    1.029    0.028
        24 -10.4993    182.6835    144.3419   6.9644455598e+01   1.6009134374e+01    0.4366918    0.3755541  81.20 0.0006842315    1.388    0.280
        25  -9.2548    178.0669    146.3880   7.1066897534e+01   1.6521508834e+01    0.3824579    0.2070387 -38.65  0.001094116    1.864    0.464
        26  -8.6614    186.4925    217.3674   8.3150734121e+01   1.1989732786e+00    0.2315345     0.182301  21.35  0.000277398    1.170    0.145
        27 -11.2736    180.2791    133.4207   6.7670635668e+01   1.8751397900e+01     1.092128    0.4098939  49.93  0.003746147    2.892    0.654
        28  -8.9864    186.1497    128.8555   6.5421679876e+01   1.8449010819e+01    0.3461373    0.2703622 -71.11  0.001086586    1.512    0.339
        29  -9.6893    181.9177    125.8273   6.5568062459e+01   1.9957345166e+01    0.5515355    0.2359135 -44.92  0.001909355    2.229    0.551
        30  -9.2291    187.0903    140.2844   6.7836194465e+01   1.5942769155e+01    0.2768697    0.2023889 -48.64 0.0001824565    1.328    0.247
        31 -10.7795    187.7913    134.6273   6.6417994959e+01   1.6943274400e+01    0.5838747    0.4202817 -30.06  0.002099789    1.479    0.324
        32  -8.8448    204.4031    161.0616   6.8915192829e+01   8.4985626811e+00    0.3500732    0.1964715  59.96  0.001249287    2.768    0.639
        33  -9.2120    143.1523    137.7231   7.7087334235e+01   2.5631006029e+01    0.3463382    0.2041011 -53.66  0.001286997    1.747    0.428
        34  -9.3118    142.1303    129.8327   7.5487432127e+01   2.7630570740e+01    0.2964813     0.221738 -55.22 0.0008128551    1.353    0.261
        35  -9.0571    137.4650    136.9951   7.8333859022e+01   2.6973462837e+01    0.2454884    0.1516888 -48.65  0.001032877    1.597    0.374
        36 -10.5506    160.4136    130.3025   7.1257423927e+01   2.3628086544e+01    0.5257162    0.4458806 -67.91  0.001724282    1.263    0.208
        37  -9.1826    191.7685    129.0944   6.4370841562e+01   1.7227327332e+01    0.3643705    0.1933649 -45.59  0.001265623    1.782    0.439
        38 -11.0069    172.5269    123.5098   6.6969950848e+01   2.2452647152e+01    0.7134969    0.4062957  62.20  0.002809123    2.265    0.558
        39 -10.0456    136.6140    126.7664   7.6131725057e+01   2.9488279572e+01     0.381077    0.3019865 -60.81   0.00125261    1.311    0.237
        40  -9.5154    141.0271    122.7868   7.4052342881e+01   2.9445466251e+01    0.3643465    0.2401208  63.33  0.001121392    1.861    0.463
        41 -10.9503    133.8070    120.2783   7.5255575565e+01   3.1549124676e+01    0.6191321    0.5516821 -21.47  0.003141921    1.247    0.198
        42 -10.4997    162.8195    119.7768   6.8176829065e+01   2.5352522959e+01    0.7720209    0.3438246 -60.71  0.002152353    4.347    0.770
        43 -10.2576    187.7023    122.9861   6.3747845915e+01   1.9296628198e+01    0.5610379    0.3189748 -61.49  0.002193492    2.363    0.577
        44 -10.3885    188.0451    155.6778   7.1012274102e+01   1.2638900826e+01    0.5763627    0.3346177  62.53  0.002273035    2.658    0.624
        45  -9.5514    156.9159    120.0194   6.9570786937e+01   2.6597421999e+01    0.4236147    0.2295267 -60.54  0.001380314    2.451    0.592
        46  -8.8755    182.0719    120.0040   6.4159720739e+01   2.1100562776e+01    0.2310075    0.2128193 -63.76 0.0004870844    1.070    0.065
        47  -9.3379    140.6542    118.0206   7.2959766088e+01   3.0583111784e+01    0.2247714    0.2007278 -55.83 0.0005903007    1.106    0.096
        48  -9.6826    191.7238    152.9962   6.9693010633e+01   1.2463102189e+01    0.3425171    0.2407095 -47.82 0.0003963705    1.395    0.283
        49  -9.9860    175.7680    113.3466   6.3830873918e+01   2.3818404185e+01    0.4567901    0.2045693 -40.74  0.001707103    2.185    0.542
        50  -9.0854    146.5786    114.7291   7.0678610669e+01   3.0007593810e+01    0.2849404    0.1927463 -54.48 0.0009713792    1.527    0.345
        51 -11.8463    134.4282    107.6440   7.1861335257e+01   3.4207342909e+01     1.046204     0.737839 -43.52  0.003039572    1.412    0.292
        52 -10.8547    131.7607     98.0603   6.9972316069e+01   3.6834079928e+01    0.9708287    0.3931492  39.69  0.003225328    2.869    0.651
        53 -11.6236    115.8921    107.4722   7.6774206191e+01   3.8185479570e+01     1.202632    0.9453759 -78.35  0.005664689    1.554    0.356
        54 -10.2862    121.0066     99.5168   7.3219200911e+01   3.8861377407e+01    0.4251572     0.299876 -41.92  0.001229627    1.424    0.298
        55  -8.5022    157.3997    113.2393   6.7770215428e+01   2.7926675845e+01    0.2165595    0.1421257 -54.21 0.0005062418    1.580    0.367
        56 -11.2445     17.0280    154.3554   1.1490102048e+02   4.0825476585e+01    0.6876879     0.487353   5.75  0.003916134    1.948    0.487
        57 -11.6003    126.0216    106.5039   7.3752018308e+01   3.6273847778e+01     1.255005     0.611657 -57.14  0.004440132    2.539    0.606
        58  -9.1647    151.1574    110.2319   6.8444285007e+01   2.9951698815e+01    0.2263308    0.2142193   2.55 0.0005325121    1.174    0.149
        59 -11.4886     15.4914    149.1050   1.1476441760e+02   4.2252113649e+01    0.6829221       0.4901   0.38  0.003829777    1.937    0.484
        60  -9.3293    113.0514     96.1204   7.4493575824e+01   4.1264820723e+01    0.3392111    0.2788098 -77.44  0.001633853    1.445    0.308
        61 -10.1996    130.1532     92.5065   6.8847170654e+01   3.8338479871e+01    0.4790514    0.3308736 -86.64  0.001948796    2.275    0.560
        62 -10.3078     91.9230     92.7373   7.9877224014e+01   4.6161853900e+01    0.2456854    0.2210587 -46.74 0.0002407488    1.090    0.082
        63  -9.0322    142.4591     90.9531   6.5364204853e+01   3.5872276606e+01    0.2320098    0.2096204  57.13   0.00050581    1.102    0.093
        64  -8.6651    115.8135     90.7968   7.2210524696e+01   4.1809939859e+01    0.2103487    0.1822926  88.93  0.000781455    1.334    0.251
        65  -7.7014    204.4814    156.4902   6.7945134680e+01   9.3571241492e+00    0.1411484    0.1312571 -35.68 4.561112e-05    1.048    0.046
        66  -7.5686    126.3393     81.2685   6.6608421012e+01   4.1422389896e+01    0.1500559    0.1178961  17.37 0.0002785881    1.600    0.375
        67  -8.5488    137.2546     80.3610   6.3619765749e+01   3.9114053756e+01     0.202371     0.194371 -32.04 0.0007441791    1.091    0.083
        68  -9.1626    133.3411    148.9176   8.2041428876e+01   2.5044549911e+01    0.5049667    0.2873968 -49.84  0.002085136    1.744    0.426
        69  -9.2552    131.9439    141.4737   8.0754795615e+01   2.7060676878e+01    0.5986798    0.2929488 -59.66  0.001753113    2.484    0.597
        70  -9.2938    157.5008     75.3541   5.7691219097e+01   3.5281470651e+01    0.2849167     0.247933 -80.06 0.0007446429    1.178    0.151
        71  -7.3281    114.2907     76.2862   6.8347624763e+01   4.5031179301e+01    0.1448409    0.1163535   8.50            0    1.537    0.350
        72 -10.5016    192.9913     64.5469   4.8550692557e+01   2.8719530905e+01    0.6324165    0.2478846 -40.88  0.002500997    2.370    0.578
        73 -11.4143    197.8605     58.9384   4.6457721442e+01   2.8469395387e+01     1.439432    0.6863014 -20.52  0.004705579    4.568    0.781
        74  -8.3967    143.4168    147.6821   7.9267851220e+01   2.3309910128e+01    0.3599786    0.1880605 -54.42  0.001389661    2.025    0.506
        75  -9.8748    182.2491     69.1894   5.1436363724e+01   3.0473822301e+01    0.3091021    0.2573373 -47.22 0.0004693054    1.177    0.150
        76 -10.8700     68.5474    144.8582   9.9030745749e+01   3.7377068604e+01     2.139213     1.024838 -56.52  0.008888253    1.915    0.478
        77  -7.7015    128.4056     69.2144   6.2482702648e+01   4.3183256086e+01     0.206267    0.1359687 -50.65 0.0007713471    1.633    0.388
        78 -10.5322    168.1969     66.8539   5.3282683923e+01   3.4186506128e+01     0.485602    0.2068323 -33.67  0.001545504    2.593    0.614
        79  -8.4876    150.8739     64.8575   5.6097881880e+01   3.8656098217e+01    0.2175038    0.2031177  23.35 0.0007377145    1.217    0.179
        80  -9.8898    136.1309     63.5448   5.8922618105e+01   4.2366891536e+01    0.3549095    0.2191949 -28.66  0.001076032    1.877    0.467
        81  -9.1665    186.0197     62.6936   4.9159323686e+01   3.0635658045e+01    0.2964867    0.1993058 -36.32 0.0006431692    1.537    0.349
        82  -9.2551    146.5391     59.2561   5.5369834339e+01   4.0602324854e+01     0.332988    0.1498478 -25.43  0.001146292    3.330    0.700
        83 -11.1667     44.4127    142.3219   1.0567207500e+02   4.1126153114e+01    0.5628936    0.5021647 -22.14  0.001345252    1.342    0.255
        84  -8.1477    128.0266     57.2277   5.8877326271e+01   4.5291846443e+01    0.1921609    0.1140039  53.91 0.0004506512    1.602    0.376
        85  -8.4792    163.6087     52.2186   5.0092127570e+01   3.7583654289e+01    0.1886416    0.1385195 -21.36 0.0006940985    1.689    0.408
        86 -10.0326    205.4960     49.0772   4.3074315174e+01   2.8185861166e+01    0.3883523    0.2649949 -57.70  0.002122029    1.350    0.259
        87  -9.6824    149.9902     47.3471   5.1184421424e+01   4.1579617154e+01    0.3235295    0.1829726 -50.55  0.001457049    1.931    0.482
        88  -9.2857    144.0045     45.9902   5.1940960974e+01   4.3212601511e+01    0.2197975    0.1667298  27.74 0.0006011821    1.639    0.390
        89  -7.8006    162.2693     44.0148   4.8035182782e+01   3.9086872197e+01    0.1854566    0.1704029 -69.17 0.0004185529    1.081    0.075
        90  -9.4251    154.8833     42.6665   4.8925906212e+01   4.1057035707e+01     0.222412    0.2005475  -9.19  0.000750022    1.339    0.253
        91  -9.3087    198.4186     49.0068   4.3963621643e+01   2.9810697959e+01    0.2636475    0.2382789 -51.99 0.0007277888    1.168    0.144
        92  -9.5677    132.5811     44.7722   5.3928309231e+01   4.6106566268e+01     0.376949    0.2219133  -8.94  0.001509843    2.937    0.660
        93  -8.8192    193.1313     34.4158   4.1075021733e+01   3.3024693723e+01    0.2218693    0.2046373 -11.22 0.0005473269    1.425    0.298
        94  -8.7510    183.2610     35.0318   4.2486706528e+01   3.5261051192e+01    0.3383748      0.19259 -23.49  0.001230038    2.306    0.566
        95  -8.5744    123.1781     35.8226   5.3108465575e+01   4.9526882032e+01    0.1835081    0.1506363  32.34 0.0003534491    1.287    0.223
        96 -11.5341     52.3704    139.6097   1.0288892114e+02   4.0868754807e+01    0.8794442    0.5866486 -68.40  0.003245046    1.375    0.273
        97  -9.9801    153.4294    211.5379   8.9115499607e+01   7.7005136462e+00    0.2521126    0.2421849 -59.14  0.000345195    1.162    0.139
        98 -10.4250    193.5041    198.7850   7.8461269282e+01   3.3523442042e+00    0.4466917    0.3058452  42.18  0.002369659    1.512    0.339
        99  -8.0103     37.9380    195.2448   1.1373305699e+02   2.8797628508e+01    0.1690361    0.1436289  72.17            0    1.054    0.051
       100  -8.6311    176.1238    196.9754   8.1708612260e+01   6.6381444835e+00    0.2202448    0.1879544  28.84  0.001254861    1.120    0.107
