#   1 NUMBER                 Running object number                                     
#   2 MAG_AUTO               Kron-like elliptical aperture magnitude                    [mag]
#   3 X_IMAGE                Object position along x                                    [pixel]
#   4 Y_IMAGE                Object position along y                                    [pixel]
#   5 X_WORLD                Barycenter position along world x axis                     [deg]
#   6 Y_WORLD                Barycenter position along world y axis                     [deg]
#   7 A_WORLD                Profile RMS along major axis (world units)                 [deg]
#   8 B_WORLD                Profile RMS along minor axis (world units)                 [deg]
#   9 THETA_WORLD            Position angle (CCW/world-x)                               [deg]
#  10 FWHM_WORLD             FWHM assuming a gaussian core                              [deg]
#  11 ELONGATION             A_IMAGE/B_IMAGE                                           
#  12 ELLIPTICITY            1 - B_IMAGE/A_IMAGE                                       
         1 -14.3112      9.7364    206.4717   2.9288642431e+02   5.3303928299e+00    0.5584047    0.3261817  36.65   0.01902565    1.692    0.409
         2 -14.6729      2.9714    152.8123   2.9264581601e+02   5.9932691904e+00    0.2344707    0.1123922 -60.69   0.01626124    2.020    0.505
         3 -13.1357      2.1498     33.4894   2.9194271303e+02   7.3842578729e+00    0.2347839   0.02632963 -50.52    0.0116846    6.525    0.847
         4 -11.3482      1.8957     13.1862   2.9182409066e+02   7.6213052898e+00   0.03332166   0.01466605 -69.40  0.002683107    2.629    0.620
         5 -12.1696      2.2952      4.9021   2.9176978350e+02   7.7150965914e+00   0.04293706   0.03485417  21.70  0.004960325    1.252    0.201
         6 -13.5162    206.1242      9.7231   2.8942019629e+02   6.4786707697e+00   0.08176668   0.05452494 -27.98   0.00821917    1.788    0.441
         7 -13.1974    191.9948     28.7268   2.8969906932e+02   6.3406450309e+00   0.06416725   0.05864334  17.78  0.006675606    1.108    0.097
         8  -9.9291     82.4479    242.8622   2.9225656031e+02   4.4881912983e+00   0.02814908   0.01317068  64.83  0.001685137    5.356    0.813
         9 -11.4456    139.6774    249.4996   2.9163048391e+02   4.0803851054e+00   0.02328642    0.0145982  36.25  0.002365404    1.579    0.367
        10  -9.9869    109.7728    250.5665   2.9198459313e+02   4.2408437867e+00   0.01563523  0.006168328  29.05  0.001232758    2.451    0.592
        11 -10.8603     98.3228    249.7025   2.9211262233e+02   4.3170231913e+00   0.01737722   0.01565906  26.70  0.002106529    1.115    0.103
        12 -10.2665     29.3302    249.4178   2.9291361137e+02   4.7181997137e+00   0.01672902   0.01538533  65.52  0.001368089    1.146    0.127
        13 -10.8626     34.7841    244.9969   2.9282387400e+02   4.7381974290e+00   0.03134654   0.01685372 -46.67  0.002926809    1.878    0.468
        14  -9.8198      5.9404    240.9828   2.9313570831e+02   4.9508928733e+00   0.01118831  0.009468094  23.97  0.000418942    1.193    0.162
        15 -10.5327      6.7873    249.0130   2.9317352833e+02   4.8526379836e+00   0.03544525  0.008353463  31.17  0.002358468    3.656    0.726
        16  -9.9610      1.9251    248.7100   2.9322831010e+02   4.8841244957e+00   0.02892792  0.009645349 -60.72  0.002179136    2.824    0.646
        17 -10.3851      1.6964    240.5296   2.9318241319e+02   4.9805696054e+00   0.02741589  0.008828984 -58.62  0.002057676    2.821    0.646
        18 -10.2629     12.2826    240.5600   2.9305938224e+02   4.9193245281e+00   0.01433363   0.01275742 -16.30  0.001187959    1.181    0.153
        19  -9.0806     71.5872    239.2770   2.9236158270e+02   4.5925469346e+00   0.01276716  0.006634138 -69.20  0.001129659    2.106    0.525
        20  -9.6039    183.0305    238.5021   2.9106088418e+02   3.9572578068e+00  0.009909826  0.006554177  24.90 0.0004435758    1.533    0.348
        21  -9.8791    233.0514    235.8732   2.9046408382e+02   3.6979087462e+00   0.01656662  0.009047125  84.82  0.001246026    3.391    0.705
        22  -9.7580    229.6393    230.2061   2.9046981025e+02   3.7834943328e+00   0.01893019   0.01037843 -87.88  0.001515485    2.940    0.660
        23  -9.3459    128.3308    245.3160   2.9173747300e+02   4.1946133203e+00  0.007078126   0.00490964 -27.29 0.0007046335    1.683    0.406
        24 -10.4316    247.7555    248.6469   2.9036977634e+02   3.4643573665e+00   0.01717518   0.01266152 -25.77  0.001836293    1.543    0.352
        25  -9.5113    122.0145    226.4855   2.9169862934e+02   4.4499884605e+00  0.009855883  0.005701487  -7.69 0.0008103034    2.693    0.629
        26 -10.5949    173.7731    222.6059   2.9107352161e+02   4.1955455340e+00   0.02203488    0.0155537  68.97  0.002257836    1.766    0.434
        27 -10.6774      8.1188    226.1275   2.9302210952e+02   5.1111176890e+00   0.01782825   0.01542284 -39.36  0.002028429    1.166    0.143
        28  -9.1227     94.4461    216.6570   2.9196079334e+02   4.7235572438e+00   0.01320808  0.008885708  55.17  0.000727589    1.710    0.415
        29 -10.5863    148.8026    229.4388   2.9140467571e+02   4.2607148558e+00   0.01658743  0.006756662  23.23  0.001308547    2.649    0.622
        30  -8.4911    152.4789    212.9576   2.9126349634e+02   4.4309536756e+00  0.009411769  0.006486528 -62.86 0.0003810907    1.444    0.308
        31 -11.1946     20.5312    199.9219   2.9272172664e+02   5.3444304304e+00   0.02175459   0.01254792  48.99  0.000849569    1.944    0.486
        32 -11.1317     65.0603    198.4598   2.9219440459e+02   5.1047708476e+00   0.02108185   0.01218954 -36.68  0.001526313    1.991    0.498
        33  -9.7794    192.4072    193.9835   2.9068573058e+02   4.4200666727e+00   0.03668085   0.01749495  87.82  0.001951227    6.915    0.855
        34 -10.9875     13.1779    196.9136   2.9278947829e+02   5.4217406875e+00   0.02083317   0.01416032  38.31  0.001375887    1.474    0.322
        35  -8.6066     51.0550    197.1956   2.9234997242e+02   5.2002559442e+00  0.009023185  0.008376834  24.54 0.0004548633    1.084    0.077
        36  -9.7062    161.8049    249.3835   2.9137255158e+02   3.9537238951e+00  0.009451399  0.006383264   9.59 0.0003557888    1.702    0.412
        37 -11.5149     70.6500    190.6398   2.9208268144e+02   5.1634310579e+00   0.01503879   0.01191975 -37.38 0.0007562881    1.306    0.234
        38 -10.5937     80.0249    177.9494   2.9189777706e+02   5.2568345119e+00   0.01240132   0.01069043 -32.17 0.0003569891    1.197    0.165
        39 -12.9821     67.1715    175.9416   2.9203551616e+02   5.3543870933e+00   0.02680925   0.01349225 -40.70  0.001579926    2.240    0.554
        40  -8.6688    102.1799    178.4330   2.9164264460e+02   5.1231974457e+00  0.009073935  0.005883544  41.07  0.000473066    1.567    0.362
        41 -11.6427     87.5055    168.2489   2.9175272535e+02   5.3263850064e+00   0.03297897   0.02949779   0.90  0.003983045    1.167    0.143
        42 -12.4239     39.5444    233.0719   2.9269757041e+02   4.8494390365e+00   0.01897806   0.01412105 -40.97 0.0007622523    1.380    0.276
        43  -9.9867    188.0609    151.5121   2.9048197364e+02   4.9385764642e+00   0.02123143    0.0122891  68.69  0.001790784    2.684    0.627
        44  -9.8142     99.3806    152.2760   2.9151895053e+02   5.4433963413e+00   0.01468202    0.0120528 -53.06 0.0008390305    1.196    0.164
        45 -11.8667     88.1191    151.6986   2.9164670137e+02   5.5152058498e+00   0.01430066   0.01161991 -30.76 0.0005519291    1.304    0.233
        46 -12.2939     67.0154    143.9145   2.9184612019e+02   5.7275833335e+00   0.03891781   0.02700185  65.68  0.003946293    1.785    0.440
        47  -8.9906    182.8605    146.0981   2.9051003542e+02   5.0316257005e+00   0.01033159  0.008575726  62.84 0.0006068684    1.326    0.246
        48 -11.1136     30.1354    144.6933   2.9228069339e+02   5.9312566037e+00    0.0176724    0.0136546 -22.84  0.001584979    1.452    0.311
        49  -8.3190    191.9788    143.9935   2.9039134236e+02   5.0031562912e+00  0.007894976  0.007302525 -59.09 0.0003373671    1.072    0.067
        50  -9.4776    110.5341    137.0757   2.9129810623e+02   5.5555218239e+00   0.01760617  0.009029652 -38.89  0.001370624    2.270    0.559
        51  -9.9248     85.7491    135.8968   2.9157986172e+02   5.7125492626e+00   0.01398152  0.009301036  46.88  0.001076548    1.598    0.374
        52 -10.7853     96.9965    134.6261   2.9144118900e+02   5.6622931053e+00   0.01770348   0.01184949  21.64  0.001133503    1.547    0.354
        53 -14.2955     45.4680    225.5545   2.9258389592e+02   4.9027165434e+00    0.1300149   0.09263623  -6.46  0.005509856    1.709    0.415
        54 -11.1395      4.5013    229.0000   2.9308129107e+02   5.0985207168e+00   0.01997506    0.0158407  72.60  0.002103442    1.458    0.314
        55 -11.2120     55.4401    127.2105   2.9188126033e+02   5.9885410691e+00   0.02821918   0.01409375 -86.56  0.002000156    3.785    0.736
        56  -9.2496    107.2446    124.0593   2.9125854282e+02   5.7257913334e+00  0.009369232  0.008308486 -33.47 0.0003539776    1.149    0.130
        57  -9.2628    161.1641    126.0020   2.9064212635e+02   5.3908723343e+00   0.01627836  0.009171982  63.37  0.001369157    2.631    0.620
        58 -10.3921    167.9910    113.1008   2.9048530675e+02   5.5010900863e+00   0.01581515   0.01200734  59.84 0.0007985528    1.491    0.329
        59  -9.3352    203.6976    111.1384   2.9005797277e+02   5.3165624360e+00   0.01296645  0.008363731 -15.78  0.001074027    2.074    0.518
        60  -9.6147     74.0846     86.7219   2.9142162927e+02   6.3512832495e+00   0.01748807  0.008899124  49.09  0.001235515    2.300    0.565
        61 -11.6036      2.0820     79.9773   2.9222155823e+02   6.8448640311e+00   0.03297777   0.01069078 -61.33  0.002440876    2.940    0.660
        62 -11.8615     10.8946     64.3276   2.9202510110e+02   6.9759005360e+00   0.03393509   0.01144566  38.31  0.002569836    2.855    0.650
        63  -8.6427     36.7635     63.7903   2.9171985182e+02   6.8330646930e+00   0.00897035  0.007407131  55.40  0.000397527    1.300    0.231
        64 -10.0463     29.8222     61.0335   2.9178438833e+02   6.9051020474e+00    0.0155944  0.009113846  34.26 0.0009682624    1.680    0.405
        65  -9.8388     13.2150     55.3969   2.9194457663e+02   7.0662417566e+00  0.009697363  0.005815613  38.22 0.0009468017    1.663    0.399
        66 -10.0658     81.2347    248.6750   2.9230528287e+02   4.4276182989e+00   0.01329718  0.009748831  55.55  0.001262878    1.522    0.343
        67  -9.7651     46.3389    248.3596   2.9270940828e+02   4.6325272372e+00   0.01972462   0.01058611  63.38 0.0009606408    2.951    0.661
        68 -10.4858    121.8812    249.8024   2.9183922222e+02   4.1797552129e+00   0.01952852  0.006876138  32.17  0.001519875    2.642    0.621
        69 -10.0644    198.4576    245.9703   2.9092623963e+02   3.7811528064e+00   0.01047123  0.006494592 -63.68  0.001036898    1.616    0.381
