#   1 NUMBER                 Running object number                                     
#   2 MAG_AUTO               Kron-like elliptical aperture magnitude                    [mag]
#   3 X_IMAGE                Object position along x                                    [pixel]
#   4 Y_IMAGE                Object position along y                                    [pixel]
#   5 X_WORLD                Barycenter position along world x axis                     [deg]
#   6 Y_WORLD                Barycenter position along world y axis                     [deg]
#   7 A_WORLD                Profile RMS along major axis (world units)                 [deg]
#   8 B_WORLD                Profile RMS along minor axis (world units)                 [deg]
#   9 THETA_WORLD            Position angle (CCW/world-x)                               [deg]
#  10 FWHM_WORLD             FWHM assuming a gaussian core                              [deg]
#  11 ELONGATION             A_IMAGE/B_IMAGE                                           
#  12 ELLIPTICITY            1 - B_IMAGE/A_IMAGE                                       
         1  99.0000    205.4422     55.8090   7.9788364346e+01   2.6061151280e+01     3.054323      2.25349 -86.32   0.01529141    1.606    0.377
         2 -17.2674    169.8279     32.8400   7.7907930551e+01   3.8311006476e+01     5.128781     2.572335  86.65   0.01815877    2.773    0.639
         3 -13.8951    245.6411     33.7641   6.9661494876e+01   1.9386655832e+01     3.042962    0.7570925 -27.94   0.01091572    3.166    0.684
         4 -14.8675    233.6670      6.5757   6.3710118152e+01   2.4788760525e+01     1.080662     1.005926  57.59  0.004752821    1.254    0.202
         5 -12.1678    150.4812     42.4933   8.4621642904e+01   4.2296751524e+01    0.4549398    0.2539544  53.02   0.00153372    1.712    0.416
         6  99.0000    238.4880    122.8904   9.1639877818e+01   1.0055210099e+01     2.529487     1.790469  -1.78    0.0145813    1.403    0.287
         7 -16.3461    210.8755    124.6880   9.6443617250e+01   1.5077653699e+01     1.424371     1.284026  43.01   0.00682824    1.205    0.170
         8 -18.2041    247.0646    189.9588   1.0329046989e+02   9.8281763516e-01     4.936453    0.8489718 -29.88   0.01703787    5.975    0.833
         9 -18.3295    232.5115    157.6961   9.9728133515e+01   6.7830652394e+00     2.949497     1.897895  -9.18   0.01388963    1.538    0.350
        10 -17.2241    188.6094    240.6974   1.2049230587e+02   3.9066116461e+00     2.096954     1.153338  36.73   0.01382862    1.357    0.263
        11 -14.0654     41.2276    198.6979   1.4573952444e+02   3.0380716564e+01    0.6913922    0.3462189  16.91  0.003295152    3.295    0.696
        12 -18.5770    143.0685    232.6351   1.2776415599e+02   1.1299374256e+01     3.388605     1.872228  32.73   0.02079245    1.408    0.290
        13 -11.4565    152.5565    196.8070   1.2137991969e+02   1.4915457692e+01    0.2639925    0.1381641  27.52  0.001073212    1.963    0.491
        14 -13.8990    144.0560    188.9127   1.2200005519e+02   1.7546565168e+01    0.7428535    0.4675641 -52.82  0.002954895    2.012    0.503
        15 -12.2449    150.1341    183.5973   1.1991268342e+02   1.7377474795e+01    0.3324008    0.2880877  -8.06   0.00124139    1.331    0.249
        16 -11.8020    194.2409    193.4094   1.1276656843e+02   8.5986495333e+00    0.2760498     0.169124  29.62  0.001428737    1.352    0.260
        17 -11.4042     90.4590    192.0408   1.3420777310e+02   2.5408549650e+01    0.2101364     0.148565  33.62  0.000315356    1.323    0.244
        18 -13.1851     95.2487    188.7285   1.3275912423e+02   2.5324163564e+01    0.5723832    0.4238531  67.09  0.003417959    1.357    0.263
        19 -10.5289     14.2116    189.7362   1.5121468635e+02   3.4759364843e+01     0.106334   0.05817159  61.11            0    1.391    0.281
        20 -12.7394     44.7986    182.4814   1.4391065906e+02   3.3131021229e+01    0.2195885    0.1868076  38.51 0.0007044823    1.276    0.216
        21 -11.5224    197.9147    176.2810   1.0918631486e+02   1.0239090600e+01    0.1966016    0.1721198 -32.24 0.0008944693    1.400    0.286
        22 -11.5793     99.2570    180.7501   1.3089266188e+02   2.6218664585e+01     0.165289     0.143809  21.96 0.0008009311    1.323    0.244
        23 -13.0530    100.3611    170.8914   1.2936014068e+02   2.7953185942e+01    0.5916857    0.2655348 -42.22   0.00236247    3.521    0.716
        24 -16.9622    116.9265    219.3776   1.3143841132e+02   1.6965406816e+01     1.617302    0.8077183  60.91  0.007845781    2.812    0.644
        25 -11.9589    194.2008    223.1125   1.1721627603e+02   5.0372842909e+00    0.3893328    0.1179536  35.07  0.001751726    2.624    0.619
        26 -11.5687    105.5270    160.0789   1.2654589044e+02   2.9274059014e+01    0.2013718    0.1631555  44.72 0.0004069604    1.077    0.072
        27 -13.0413     23.6094    156.2561   1.4741377305e+02   4.0785164462e+01    0.3547639    0.1505948  28.92  0.001325324    2.273    0.560
        28 -13.5100     95.2604    154.3474   1.2829676663e+02   3.2136483947e+01    0.3284797    0.2884277   1.84 0.0009883427    1.466    0.318
        29 -12.7991    108.8470    153.5902   1.2469209761e+02   3.0032631355e+01    0.5029916     0.312583 -29.27  0.001989791    2.677    0.627
        30 -11.8971     10.6076    215.0110   1.5273376106e+02   3.0441641025e+01    0.2464994    0.1350697 -54.19  0.001521036    2.944    0.660
        31 -13.0523    133.7587    144.4117   1.1685192358e+02   2.7327504802e+01    0.7866909    0.1894003 -54.37  0.001855381    7.599    0.868
        32 -13.1234      6.8559    139.9730   1.5100398144e+02   4.5735706948e+01    0.1956737    0.1563383  45.85 0.0005024735    1.228    0.186
        33 -14.6034    159.1320    137.2723   1.0947333616e+02   2.3622668523e+01    0.8168379     0.341273  41.79  0.002571374    2.211    0.548
        34 -15.7897    161.5054    122.4372   1.0563469914e+02   2.5791747910e+01     1.950524     1.236502 -43.73   0.00905859    1.698    0.411
        35 -12.7853    106.0801    130.7896   1.2137250932e+02   3.5345584779e+01    0.3615541    0.2933199  71.24  0.001423796    1.301    0.231
        36 -12.2450    182.4573    128.2831   1.0254722176e+02   2.0336348328e+01    0.4841499    0.3454013  89.84  0.002088484    2.689    0.628
        37 -12.8037    120.1768    130.0508   1.1742263310e+02   3.2853085212e+01    0.2228813    0.2014473   5.64 0.0008976175    1.283    0.221
        38 -12.2071    109.0962    125.6438   1.1951110493e+02   3.5909312652e+01     0.256526    0.2168138 -46.18  0.000520147    1.301    0.232
        39 -12.0332     33.7642    210.5633   1.4792937260e+02   2.8999003185e+01    0.2241822    0.1211145  34.03 0.0009335389    1.616    0.381
        40 -12.5595    191.5717    122.5846   9.9461022389e+01   1.9341890984e+01    0.5034609     0.294301  13.45  0.001962836    2.827    0.646
        41 -12.0644    196.6648    117.3197   9.7277591214e+01   1.9087884660e+01      0.35809    0.2595572  20.35  0.001664443    1.506    0.336
        42 -12.7729    116.2271    138.2517   1.2008652468e+02   3.1887503854e+01    0.3385836    0.1858948 -37.65  0.001405862    2.443    0.591
        43 -12.4971     93.9860    203.9962   1.3465451869e+02   2.2767630567e+01    0.3475665    0.2057942 -48.57  0.001978593    2.297    0.565
        44 -11.9316    114.1485    118.8098   1.1664921890e+02   3.6423375049e+01    0.1981115    0.1767342  12.18  0.000382018    1.297    0.229
        45 -12.4579    181.4896    115.8744   9.9846870773e+01   2.2582166020e+01    0.5034729    0.3821807 -85.13  0.002362053    2.063    0.515
        46 -12.7325    106.1088    138.6578   1.2284136484e+02   3.3640327181e+01    0.2929497    0.2275229  47.49 0.0006393428    1.164    0.141
        47 -11.7041      3.3271    112.3174   1.5065468894e+02   5.2302690638e+01    0.1191199   0.07985859 -52.02 0.0004244814    1.677    0.404
        48 -13.1960     39.8752    133.6858   1.4109904777e+02   4.4289723614e+01    0.2494029    0.2153607  39.80 0.0004663228    1.225    0.183
        49 -13.0880    249.0819     80.9102   8.0700400991e+01   1.3258080956e+01     1.039308     0.315189 -28.20  0.003985572    2.838    0.648
        50 -12.2438     93.7405    199.9644   1.3430171112e+02   2.3508885457e+01     0.441077    0.2039582  51.21  0.002217117    1.913    0.477
        51 -11.4150     20.6143    236.5538   1.5144211946e+02   2.5910357021e+01   0.09659082   0.07318667  53.88 0.0004926083    1.158    0.136
        52 -10.5052     25.5713    232.3921   1.5039555207e+02   2.6100260935e+01   0.09997276    0.0741385  51.03 0.0003467558    1.130    0.115
        53 -19.8868     63.7912    163.4233   1.3760498556e+02   3.4784101853e+01     18.19565     3.556444 -69.57   0.05444184    5.911    0.831
        54 -11.5283    152.4907     47.5146   8.5972760638e+01   4.1014160661e+01    0.2794924    0.2706962  57.78  0.001117589    1.025    0.024
