#   1 NUMBER                 Running object number                                     
#   2 MAG_AUTO               Kron-like elliptical aperture magnitude                    [mag]
#   3 X_IMAGE                Object position along x                                    [pixel]
#   4 Y_IMAGE                Object position along y                                    [pixel]
#   5 X_WORLD                Barycenter position along world x axis                     [deg]
#   6 Y_WORLD                Barycenter position along world y axis                     [deg]
#   7 A_WORLD                Profile RMS along major axis (world units)                 [deg]
#   8 B_WORLD                Profile RMS along minor axis (world units)                 [deg]
#   9 THETA_WORLD            Position angle (CCW/world-x)                               [deg]
#  10 FWHM_WORLD             FWHM assuming a gaussian core                              [deg]
#  11 ELONGATION             A_IMAGE/B_IMAGE                                           
#  12 ELLIPTICITY            1 - B_IMAGE/A_IMAGE                                       
         1 -12.0635      3.3118    126.0563   1.2894649299e+02   4.8167322170e+01     1.578273    0.2971549 -76.81  0.006063635    3.975    0.748
         2 -12.5510    162.5114     54.4312   6.9555497548e+01   3.7720917572e+01     1.666432     1.172091  29.71  0.005652043    1.647    0.393
         3 -12.8283    175.9657     39.7613   6.2196379174e+01   3.6362110568e+01      1.15149    0.9950804  40.42  0.003752279    1.172    0.146
         4 -12.8695    196.8413      9.5349   4.9534607112e+01   3.4338595090e+01      1.31554    0.7290258  40.77  0.004864542    2.068    0.516
         5 -12.7241    194.2653      3.5466   4.7975475803e+01   3.5605609799e+01     1.634728    0.6580037  55.32  0.005426098    2.318    0.569
         6 -10.9805    226.5108      2.3543   4.4549335043e+01   2.7347436852e+01    0.5922531    0.2634139  77.88  0.002502128    2.287    0.563
         7  -9.0908    172.7717    189.3938   9.9452528282e+01   1.2166977569e+01     0.183016    0.1026721  36.12 0.0003437345    1.607    0.378
         8 -10.4649    188.0607    246.7477   1.0470116278e+02   2.3743465821e+00    0.2863636    0.1718321 -39.47 0.0009664427    2.274    0.560
         9  -9.0424    140.9132    249.3703   1.1269726193e+02   9.0595565495e+00    0.1877493    0.1468401 -87.52 0.0007920166    1.709    0.415
        10  -9.2075    139.7525    242.9052   1.1224726548e+02   1.0050622118e+01    0.2404591      0.19042 -52.79  0.001871277    1.719    0.418
        11  -9.8641    126.3358    248.5924   1.1501824375e+02   1.1257167020e+01    0.1916362    0.1802738  19.93 0.0009622016    1.473    0.321
        12 -18.5358     46.2401    239.3436   1.2739949677e+02   2.2907921550e+01      4.04419     2.993968  54.39   0.01850985    1.221    0.181
        13  -8.9195    163.5026    203.4123   1.0329160402e+02   1.1715518924e+01    0.2462496    0.1778997  73.98 0.0009254924    1.932    0.482
        14  -9.9458    105.1753    198.4238   1.1374188638e+02   2.1957917857e+01    0.2794243    0.1898865  67.16  0.000536826    1.408    0.290
        15  -9.9339    247.7485    181.6436   8.4936629363e+01   6.3193666463e-02    0.2761319    0.2541876 -89.94  0.001389169    1.890    0.471
        16 -10.8051    101.2448    194.6458   1.1408557353e+02   2.3205535225e+01    0.4198755    0.2108728  58.62  0.001043618    1.959    0.490
        17 -10.8447     44.4164    166.2162   1.2285722012e+02   3.6106020246e+01    0.5064089    0.2680048  71.78  0.002876186    1.818    0.450
        18 -11.5515     36.8585    161.8055   1.2409429995e+02   3.7806243156e+01    0.6670614    0.3278925 -79.54  0.003815934    1.815    0.449
        19 -10.5014     35.5701    153.0337   1.2362847804e+02   3.9744334828e+01    0.3834027    0.2445224 -52.18  0.001995203    1.942    0.485
        20 -10.0364     42.5823    178.1577   1.2421144467e+02   3.3944424831e+01    0.3798892    0.2546688 -81.68  0.002303486    1.350    0.259
        21 -10.7965     47.8758    174.3315   1.2282835338e+02   3.4102776452e+01    0.6120977    0.2658435  55.33  0.003287591    2.030    0.507
        22 -10.4480     31.5856    171.1251   1.2591228665e+02   3.6474934967e+01    0.3840556    0.2002068  27.84  0.001936104    2.463    0.594
        23 -10.1916     35.4799    168.2322   1.2489714882e+02   3.6653166191e+01    0.2812494    0.1778576  32.05   0.00154363    1.859    0.462
        24  -9.0062    235.8196    176.8448   8.5993253970e+01   2.6295398807e+00    0.1879028    0.1403739  16.63 0.0004410691    1.164    0.141
        25  -8.0631     19.0033    177.0818   1.2879653214e+02   3.6524043030e+01    0.1228013   0.09020063  72.17 0.0009297787    1.028    0.027
        26  -9.8559      2.9293    177.1001   1.3186538509e+02   3.7909253230e+01    0.1456871    0.1140715  76.85  0.001202583    1.149    0.130
        27 -10.1281    143.8746    173.9108   1.0266725977e+02   1.9853340129e+01    0.3754623    0.2290158  82.37  0.001547735    3.318    0.699
        28  -9.2299    131.2257    172.8436   1.0511587894e+02   2.2277559048e+01    0.3365296    0.2384761 -30.42  0.001809756    2.033    0.508
        29  -9.6314    137.9682    172.5876   1.0367415956e+02   2.1139433772e+01    0.2320374     0.181088 -83.60 0.0007010713    1.550    0.355
        30 -10.9734    193.0103    196.1618   9.6804892835e+01   7.6472960601e+00    0.8403088    0.4415192 -60.17  0.003201357    5.195    0.808
        31 -13.8786     13.2918    245.1510   1.3269095213e+02   2.5434016154e+01     0.372934    0.1708369 -76.57  0.002776871    2.232    0.552
        32  -8.5768    152.2569    212.0498   1.0652634916e+02   1.2335324387e+01    0.1551347    0.1352036  53.70 0.0003966975    1.134    0.118
        33  -9.0276    236.6353    172.0665   8.4959056096e+01   3.0646845274e+00      0.19453    0.1535027  37.38 0.0003854972    1.241    0.194
        34 -11.1479    204.0036    166.0541   8.9507696011e+01   9.8299544697e+00    0.5688612    0.3980522  -9.09  0.003080843    1.686    0.407
        35 -10.5140    194.0563    168.1018   9.1742836190e+01   1.1420913549e+01    0.3240204    0.3159066  37.94 0.0008456191    1.194    0.162
        36  -9.3960    190.1321    161.6617   9.1264484776e+01   1.3151294211e+01    0.2646139    0.2393783  38.38  0.000616278    1.085    0.078
        37  -9.8567    189.8191    156.1981   9.0256543620e+01   1.4063823016e+01    0.3875137    0.3437039 -49.66  0.001512444    1.335    0.251
        38  -7.5925      9.6480    170.7410   1.3027281326e+02   3.8570625373e+01   0.08868247   0.07543804 -59.90 0.0002429253    1.609    0.378
        39  -9.1823     17.6168    168.8651   1.2858807817e+02   3.8245173922e+01    0.3299389    0.1428335  50.44  0.001660145    1.911    0.477
        40 -10.2095     25.8379    166.2622   1.2674794188e+02   3.8001593684e+01    0.5380372    0.2150726  26.70  0.002286969    3.390    0.705
        41 -11.7625      6.9158    141.8446   1.2917258330e+02   4.4592916431e+01     1.268912    0.4716538  87.59  0.006331905    2.493    0.599
        42  -9.4821    247.1055    242.2353   9.4824673240e+01  -5.7542764632e+00    0.1598967    0.1252571  19.65 0.0003828147    1.196    0.164
        43 -10.0482    204.1753    200.7361   9.5560754675e+01   5.1387926824e+00    0.2258393    0.1446187   5.49  0.001241162    2.034    0.508
        44  -8.9834    157.5304    200.2566   1.0395527675e+02   1.3193931465e+01    0.1937968    0.1234118 -56.02   0.00111039    2.024    0.506
        45 -10.1380     99.6062    159.2053   1.0991827915e+02   3.0158574281e+01    0.2344696     0.209355  69.57 0.0002692435    1.045    0.043
        46  -8.6833    120.0887    156.8595   1.0498208651e+02   2.7227938909e+01    0.2146502    0.1660454  66.24 0.0009551219    1.278    0.218
        47 -11.3089    104.5177    152.3973   1.0777978781e+02   3.0748609229e+01    0.5671077    0.4703638 -13.24  0.003242043    1.807    0.447
        48  -9.6699     13.3494    153.0962   1.2849099485e+02   4.1770688423e+01    0.1951126     0.182065  -9.22 0.0007996507    1.652    0.395
        49 -12.0825     89.3458    153.1958   1.1138366247e+02   3.2963899726e+01     0.307943    0.2820091 -31.86 0.0009951893    1.453    0.312
        50  -8.9184    132.4687    139.9762   9.9160231177e+01   2.8308339475e+01    0.3304761    0.1701298 -51.27  0.001453388    2.064    0.516
        51  -9.7415    134.3851    149.1997   1.0046748380e+02   2.6140068935e+01    0.3730536    0.2415677 -64.36  0.001632911    1.840    0.457
        52  -9.2797    133.7577    144.7728   9.9785272390e+01   2.7118919881e+01    0.2797022    0.1845693 -61.54  0.001383433    1.723    0.420
        53  -9.2409    250.0264    199.7786   8.7778927149e+01  -2.2361849753e+00    0.1822001    0.1418543  -1.19 0.0003870791    1.192    0.161
        54  -8.3522    224.6262    147.1521   8.2008770603e+01   8.5303202449e+00    0.1789792    0.1499501   0.71 0.0004698668    1.119    0.107
        55  -8.1229    152.5998    144.7784   9.5609784540e+01   2.3463181809e+01    0.1746977    0.1351055 -59.93 0.0002689531    1.475    0.322
        56 -11.9608     21.5483    158.3251   1.2709427395e+02   3.9996774385e+01    0.8064262    0.6029686  20.66  0.005057008    1.908    0.476
        57  -8.4285    157.9448    167.7187   9.8756210215e+01   1.8341001286e+01    0.1813577    0.1523958  44.72  0.000286963    1.047    0.045
        58 -10.7393    112.4793    138.7750   1.0361431216e+02   3.2206769800e+01    0.4737692    0.3157415 -44.04   0.00241027    1.712    0.416
        59 -11.0156    102.2306    138.1183   1.0595921081e+02   3.4090592256e+01    0.2593465    0.2330231  70.41 0.0003583626    1.023    0.022
        60  -9.0714    141.1223    198.9180   1.0687609941e+02   1.6162048012e+01    0.2055891    0.1736615 -81.47 0.0005763523    1.406    0.289
        61  -9.8531     30.1850    133.8818   1.2310212356e+02   4.4340329383e+01    0.1785188    0.1309313  75.46 0.0005638602    1.172    0.147
        62  -8.4537     16.2969    131.3455   1.2622976038e+02   4.6085815598e+01    0.1102466   0.07309456 -55.46 0.0007034021    1.673    0.402
        63  -9.0712    160.2308    128.4517   9.0493379109e+01   2.4938279091e+01    0.3502244    0.2050233 -53.68  0.001519448    2.016    0.504
        64  -9.5779    118.1689    129.6226   1.0049843367e+02   3.3093962467e+01    0.2508933    0.2253217 -35.34 0.0006642346    1.278    0.217
        65 -10.0205    134.7106    122.7754   9.5064226223e+01   3.1324394603e+01    0.3784743    0.2578702 -57.07  0.001823014    1.583    0.368
        66  -9.8061    106.4938    125.4100   1.0255234419e+02   3.6075197865e+01    0.2642409    0.2253698 -38.52 0.0007860204    1.351    0.260
        67  -9.9523    111.5377    211.0052   1.1390704394e+02   1.8901746697e+01    0.3990092    0.2463843  24.01  0.002154659    2.488    0.598
        68  -8.8519    112.4939    118.9823   9.9716957215e+01   3.6381689604e+01    0.2026515    0.1850023  60.34 -3.094708e-05    1.067    0.063
        69 -10.9898     66.8420    116.8060   1.1137345859e+02   4.4058523495e+01    0.3373926    0.2081185  46.39  0.001803109    1.653    0.395
        70 -11.4425     60.3051    109.3073   1.1190632690e+02   4.6586483912e+01    0.4583614    0.3373107   1.61  0.002495202    2.122    0.529
        71  -9.0613    168.0207    113.5733   8.5302650297e+01   2.5996931994e+01     0.359974     0.261474  85.20  0.001586672    2.056    0.514
        72  -9.6170     86.6139    108.5326   1.0438997359e+02   4.3073513746e+01    0.3391296    0.2373083  68.81  0.001042497    1.663    0.399
        73  -8.8526     24.4951    109.5252   1.2196164980e+02   5.0208214975e+01    0.1192105   0.09532302 -84.82 0.0002548226    1.005    0.005
        74 -10.1346    106.2828    206.9594   1.1445825724e+02   2.0347389523e+01    0.3428204    0.2546908 -68.95  0.001774251    1.543    0.352
        75  -8.9530     51.4963    108.5005   1.1426154240e+02   4.7812117649e+01    0.1266605    0.1089791 -73.04 -0.0002053841    1.064    0.060
        76 -10.1731      2.1774    193.0938   1.3265671571e+02   3.5026328963e+01    0.1460384    0.1236969  67.83  0.000503969    1.331    0.249
        77  -8.8861    236.9281    166.9975   8.3936783472e+01   3.6347621957e+00    0.1913072    0.1573676  18.09 0.0003569284    1.019    0.018
        78  -8.5534      1.7322    167.4548   1.3165852268e+02   3.9848160189e+01    0.1076761   0.09918017  35.85 0.0006895883    1.557    0.358
        79  -8.6949    166.9937     99.0544   8.1814219394e+01   2.8893101090e+01    0.2163093    0.2101043   2.83   0.00117719    1.034    0.033
        80  -8.0180    130.2749     97.6905   9.0113658100e+01   3.7360101951e+01    0.1467123    0.1168719 -84.10 0.0002642569    1.552    0.356
        81  -7.8305    113.3286     95.2863   9.3940283567e+01   4.1289220425e+01    0.1429246     0.116841  -1.55 0.0002707481    1.613    0.380
        82  -9.3539    223.1008     92.2715   6.9419391077e+01   1.6833795938e+01    0.2229644    0.1928767 -15.48  0.000377778    1.111    0.100
        83  -8.7980    229.6713    166.3391   8.5027260615e+01   5.0192701640e+00    0.1161752    0.1048456 -83.58 0.0007051763    1.735    0.424
        84  -8.1726    149.3226     81.2925   8.0855376870e+01   3.6325514970e+01    0.1557394    0.1202957  15.50  0.000338541    1.612    0.380
        85  -8.2691    110.2202     79.7881   9.0568291378e+01   4.5150811428e+01    0.1874212    0.1683078  -0.64 0.0003248592    1.260    0.206
        86  -9.7374    103.2189    202.3921   1.1455177540e+02   2.1569431549e+01    0.2489417    0.2091908  49.07 0.0008982337    1.174    0.148
        87  -9.7233    167.9943    232.5730   1.0632178338e+02   7.0700433571e+00    0.1733899    0.1661522 -44.60 0.0005283359    1.398    0.285
        88 -11.9289    180.1134     32.5513   5.9149794298e+01   3.6209438394e+01    0.6157489    0.4804446  28.20  0.001444077    1.422    0.297
        89 -10.4358    123.8999     57.8355   7.9825683124e+01   4.6537278455e+01    0.2465304    0.2323679 -19.23 0.0002401794    1.043    0.042
        90  -8.9668    219.7465     44.0292   5.6868783163e+01   2.4390552216e+01     0.341515    0.2001605 -26.59  0.001532059    1.662    0.398
        91  -9.5487    193.4714     35.9653   5.8162311279e+01   3.2218799918e+01    0.2415678    0.2045212 -71.43 0.0006373684    1.260    0.206
        92  -9.7219    199.4956     23.9927   5.3641160014e+01   3.2076628782e+01    0.2287026    0.1435716 -24.39  0.001042473    1.619    0.382
        93  -8.4378     27.1004    192.5161   1.2814607436e+02   3.2848689467e+01    0.1433908   0.08807101  43.70 0.0005632196    1.518    0.341
        94  -9.5950    130.7193    214.5333   1.1076566594e+02   1.5410904842e+01    0.2166942    0.1650066  79.99 0.0005449284    1.511    0.338
