#   1 NUMBER                 Running object number                                     
#   2 MAG_AUTO               Kron-like elliptical aperture magnitude                    [mag]
#   3 X_IMAGE                Object position along x                                    [pixel]
#   4 Y_IMAGE                Object position along y                                    [pixel]
#   5 X_WORLD                Barycenter position along world x axis                     [deg]
#   6 Y_WORLD                Barycenter position along world y axis                     [deg]
#   7 A_WORLD                Profile RMS along major axis (world units)                 [deg]
#   8 B_WORLD                Profile RMS along minor axis (world units)                 [deg]
#   9 THETA_WORLD            Position angle (CCW/world-x)                               [deg]
#  10 FWHM_WORLD             FWHM assuming a gaussian core                              [deg]
#  11 ELONGATION             A_IMAGE/B_IMAGE                                           
#  12 ELLIPTICITY            1 - B_IMAGE/A_IMAGE                                       
         1  -8.4833    111.6934     34.5725   9.0365032642e+01   5.2147379292e+01    0.2294386    0.1599439 -46.27 0.0006689948    1.700    0.412
         2  -8.9343     73.9875     19.6264   9.5651958469e+01   6.1532521507e+01    0.2867128    0.1700396 -38.57 0.0008399712    1.800    0.445
         3  -7.5838     83.4592     10.9734   8.8742527930e+01   6.0877264302e+01    0.1726235   0.09987763 -45.46 0.0008077265    2.436    0.589
         4  -8.5346     55.6332     10.1437   9.7967483030e+01   6.5753895829e+01    0.1801789    0.1611533  11.02 0.0006221762    1.271    0.213
         5  -7.9272     47.5158     10.0687   1.0116237978e+02   6.6939125174e+01    0.1798676    0.1024279 -32.43  0.001015823    1.575    0.365
         6  -8.5521     90.7061      9.1306   8.5782937801e+01   5.9658110614e+01    0.1972596    0.1530063 -35.18 0.0006157673    1.487    0.328
         7  -7.7459    101.3913      8.1830   8.2481685905e+01   5.7538694107e+01    0.1761232    0.1158102 -31.30 0.0004977885    1.625    0.385
         8  -7.5370     69.0000      7.8971   9.2022768388e+01   6.3860608549e+01    0.1952208   0.06483367 -27.89 0.0004111424    2.835    0.647
         9  -8.5803     33.3891      5.2754   1.0492146275e+02   6.9408958004e+01    0.2591855    0.1567405 -53.53  0.001290239    3.258    0.693
        10  -8.4454     79.1046      3.9290   8.6866618194e+01   6.2462373932e+01    0.2862736    0.1522751 -33.49  0.001284786    2.010    0.503
        11  -7.9139     15.8280      3.1422   1.1231797987e+02   7.1550848380e+01    0.1587166   0.09974968 -19.61 0.0005180659    1.300    0.231
        12  -7.8278    115.4775      2.5064   7.6812211040e+01   5.4945087357e+01    0.1328673    0.1195936  32.19 0.0008096711    1.052    0.050
        13  -8.4129     62.3111      1.6297   9.1331890619e+01   6.5699826998e+01    0.1862259      0.14345  47.78 0.0005238821    1.576    0.365
        14  -7.6479     39.4363      1.4901   1.0031004747e+02   6.9149566835e+01    0.1188405   0.09143102  -7.86 8.570869e-05    1.030    0.029
        15  -9.2141    120.3350    245.4929   1.3400988303e+02   1.0668857131e+01    0.3120107    0.1808278  70.71  0.001741636    2.270    0.560
        16  -8.8032    249.2622    248.9078   1.1264819519e+02  -9.1576582072e+00    0.2809248    0.1697572  -4.15  0.001872445    1.681    0.405
        17  -9.6240    248.5318    242.1024   1.1171733499e+02  -8.4027601713e+00    0.3266425     0.181421 -28.60  0.001064266    2.017    0.504
        18  -9.0548    247.8914    234.8301   1.1066939616e+02  -7.5856864772e+00    0.2259759    0.1963131   2.32  0.000779931    1.348    0.258
        19  -9.5752    246.5932    229.4738   1.1001220616e+02  -6.8425984844e+00    0.4538983    0.2136189 -20.70  0.002464394    2.378    0.580
        20  -8.9942    211.3933    247.4693   1.1863943850e+02  -3.5173935815e+00    0.3138108    0.2346046 -67.92  0.001742032    2.996    0.666
        21  -8.6733     93.8665    249.1922   1.3881668651e+02   1.3852416414e+01    0.2543433    0.1339278  69.03  0.001251089    2.170    0.539
        22  -7.3737     86.2665    250.6246   1.4018388589e+02   1.4651602454e+01    0.1090898   0.06335902  68.61 0.0006903816    1.674    0.403
        23  -9.0242     78.4245    244.0602   1.4094467074e+02   1.6697805952e+01    0.3596811     0.135118  64.38  0.001539842    3.970    0.748
        24  -8.5854     67.6582    245.0415   1.4278118551e+02   1.7908397150e+01     0.226103    0.1103992 -80.96  0.001007911    2.319    0.569
        25  -9.2277      9.6474    244.6778   1.5170527636e+02   2.4321210295e+01    0.2641206    0.0876851 -89.09  0.001494543    2.976    0.664
        26  -8.0726     49.8486    243.8712   1.4555372063e+02   2.0229445115e+01    0.2597528   0.09587141  85.30  0.001092276    4.865    0.794
        27  -8.5257    201.9949    243.4845   1.1966141687e+02  -1.6324181382e+00    0.1739841    0.1610872 -58.47 0.0007571918    1.625    0.384
        28  -8.5785    169.0458    243.3286   1.2532194276e+02   3.5307343417e+00    0.1801185    0.1672913  83.83 0.0006005469    1.399    0.285
        29  -7.9904    139.3276    244.6379   1.3064471615e+02   7.9538387686e+00    0.1167178   0.07581758  65.59 6.485642e-05    1.795    0.443
        30  -8.8354    194.5020    240.7320   1.2055687026e+02  -1.3976714441e-01    0.3107308    0.1998978 -51.81  0.001309009    2.358    0.576
        31  -9.3365    160.2248    240.3494   1.2648291134e+02   5.3141220706e+00    0.3264425    0.2076899 -70.78  0.001412509    2.764    0.638
        32  -8.4708     88.1765    242.5658   1.3919638223e+02   1.5646601892e+01    0.1786634    0.1235229  85.09 0.0009356741    1.488    0.328
        33  -9.0855    213.3121    241.5902   1.1746455013e+02  -3.1550432613e+00    0.3161576    0.1261529  32.16  0.001546639    2.255    0.557
        34  -9.1854    183.1618    240.1739   1.2244550829e+02   1.7146299187e+00    0.3587211    0.2247445  62.63   0.00195695    2.468    0.595
        35  -8.0743    153.1732    242.1537   1.2794266336e+02   6.1698862810e+00    0.1568008    0.1161636  57.33 0.0005272589    1.344    0.256
        36  -7.7616    148.4900    242.4849   1.2880080473e+02   6.8508304148e+00    0.1469906    0.1109534 -73.39 0.0009846335    1.816    0.449
        37  -8.3334    146.2810    239.6628   1.2885020474e+02   7.5920149124e+00    0.1793838    0.1377616  63.48 0.0005947239    1.376    0.273
        38  -8.8604    241.5188    238.4949   1.1229158243e+02  -7.0373160580e+00    0.4310077    0.2033459  -0.11  0.001810918    4.161    0.760
        39  -8.6779    135.7641    239.0745   1.3063227910e+02   9.3012202145e+00    0.1779036    0.1298578  61.43  0.001099352    1.347    0.258
        40  -8.5434    129.0024    238.3763   1.3174299141e+02   1.0435575422e+01    0.1974376    0.1395918  72.00  0.000999142    1.614    0.380
        41  -8.8624    230.8674    237.0782   1.1383029584e+02  -5.3172366668e+00    0.2075001      0.18679  87.52  0.001001563    2.145    0.534
        42  -7.7890    189.6422    237.2399   1.2090621164e+02   1.0581652635e+00    0.1400253    0.1066636 -18.26 0.0007414449    1.566    0.362
        43  -8.2861     25.4121    237.2341   1.4899179503e+02   2.3977627672e+01    0.1411927   0.07083901  83.69 0.0009526784    1.757    0.431
        44  -9.8356    215.0122    233.4375   1.1594910613e+02  -2.4843967435e+00    0.4553905    0.3433591  87.73  0.002361355    3.663    0.727
        45  -8.7599    203.2033    234.8170   1.1819399060e+02  -7.9288725137e-01    0.2317046    0.1789621 -61.54  0.001133513    2.213    0.548
        46  -9.6825    175.9067    233.6048   1.2281577183e+02   3.7291805654e+00    0.3883953    0.2343779 -59.72  0.002130441    2.714    0.631
        47  -7.9586    170.1988    236.1380   1.2417430429e+02   4.3041218278e+00    0.1544687    0.1239474  57.21 0.0005445208    1.357    0.263
        48  -9.3611    109.0333    234.6034   1.3485457983e+02   1.3988223997e+01    0.3842644    0.1700421  53.44  0.001262974    2.045    0.511
        49  -8.4358     99.7861    234.4617   1.3646319787e+02   1.5337781942e+01    0.2071983    0.1297995  82.95  0.001271859    1.907    0.476
        50  -9.0261     79.2110    234.6767   1.4004099176e+02   1.8111479917e+01    0.2656239    0.1354302  65.09  0.001331775    1.973    0.493
        51  -9.2426      8.2195    235.0236   1.5150458209e+02   2.6025950843e+01    0.1381814    0.0923929  73.12 0.0006817869    1.038    0.036
        52  -8.4766    194.8758    233.2296   1.1941150874e+02   7.2776762425e-01    0.1845893    0.1619291  70.29 0.0007846634    1.621    0.383
        53  -9.0070    144.5078    233.0302   1.2835610896e+02   8.8333984053e+00    0.3133921    0.1808905  67.86  0.001570157    2.695    0.629
        54  -8.7351    139.9857    230.0101   1.2879724577e+02   9.9995171782e+00    0.2431502    0.1455736  68.68   0.00102839    2.396    0.583
        55  -8.2608    122.8319    234.1084   1.3235873654e+02   1.2019749377e+01    0.1833943     0.129423  64.62  0.001169676    1.403    0.287
        56  -8.6989     92.6678    232.8461   1.3755220284e+02   1.6596720257e+01    0.2854953    0.1688931 -87.55  0.001722647    2.062    0.515
        57  -9.1716     68.5807    232.5544   1.4167632959e+02   1.9832829146e+01    0.4478433    0.1490717  58.80  0.001970397    3.452    0.710
        58  -8.4588    132.5491    233.2241   1.3052346222e+02   1.0671455485e+01    0.1965312    0.1483583  51.94  0.001146836    1.102    0.093
        59  -7.8721     37.6625    233.3298   1.4684118354e+02   2.3334939436e+01    0.1122653   0.05467265  65.51  0.000379022    1.734    0.423
        60  -9.1736    235.8989    230.9316   1.1201896501e+02  -5.4078512702e+00    0.2878494     0.194704  -0.93  0.001121352    1.455    0.313
        61  -9.1947    186.4757    230.6162   1.2051233888e+02   2.4172870082e+00    0.2844796    0.2236458 -82.75  0.001316531    2.234    0.552
        62  -7.8553    157.8293    231.8414   1.2581023845e+02   6.8854041230e+00     0.155544    0.1256319  61.59 0.0004373303    1.338    0.253
        63  -8.8309      1.8417    231.1072   1.5229496944e+02   2.7260009732e+01    0.1598633   0.08663401  68.76  0.001187443    1.336    0.251
        64  -9.0293    151.3143    228.9634   1.2661010643e+02   8.3518452267e+00    0.2754542    0.1796232  81.98  0.001290573    2.786    0.641
        65  -9.1511    148.7510    224.7307   1.2652189363e+02   9.4010237329e+00    0.4119563    0.2455766  70.21   0.00163975    2.812    0.644
        66  -7.7170     30.5128    230.4617   1.4781773806e+02   2.4584724737e+01    0.1024008    0.0735243  70.28 0.0001166935    1.004    0.004
        67  -8.4533    229.8396    228.9090   1.1271143868e+02  -4.2628521002e+00    0.1823098    0.1503341 -19.69 0.0007474092    1.400    0.286
        68  -8.8712    162.5336    227.8784   1.2442805474e+02   6.6940530328e+00    0.3030006    0.1837603  61.59   0.00110771    2.166    0.538
        69  -8.6667    128.0688    227.3857   1.3064271592e+02   1.2271180428e+01    0.2614048    0.1714387  73.40  0.001175111    1.933    0.483
        70  -8.1936    119.9590    227.7574   1.3215973736e+02   1.3456806350e+01    0.1950697    0.1081354  60.88  0.001043106    1.940    0.485
        71  -7.9476    223.2235    227.0102   1.1353216187e+02  -3.0194521914e+00     0.162983    0.1312255   8.77 0.0004759269    1.127    0.113
        72  -9.1317    225.2257    221.7489   1.1233257215e+02  -2.7162231135e+00     0.284753    0.1864982 -23.08  0.001237472    1.645    0.392
        73  -9.1128    206.1821    225.6466   1.1627462260e+02  -1.4032299736e-01    0.2925086    0.1960834 -38.48  0.001128884    1.825    0.452
        74  -8.1383     49.6485    226.6815   1.4443393324e+02   2.3123563897e+01    0.2146654   0.09908579  79.42  0.001064082    2.468    0.595
        75  -8.0333    200.1297    226.2392   1.1743434909e+02   7.6613486932e-01     0.151519    0.1333964  50.28 0.0005191496    1.376    0.273
        76  -9.0105     94.1863    224.5893   1.3648044484e+02   1.7761186545e+01    0.3646662    0.1784986  66.75  0.001566289    2.608    0.617
        77  -8.9252    216.6165    223.9111   1.1417414414e+02  -1.6051808432e+00     0.223998    0.2023809 -55.21  0.001008705    1.699    0.411
        78  -8.6768    180.7781    224.5449   1.2064360543e+02   4.1673259091e+00    0.2394681    0.1802562  68.41  0.001190303    1.890    0.471
        79  -8.7157    104.9173    224.0510   1.3448212516e+02   1.6310320782e+01    0.2660061    0.1560868  69.92  0.001491334    1.992    0.498
        80  -8.6206    172.9462    223.1003   1.2185609157e+02   5.6668371757e+00    0.2084214    0.1709727 -84.57 0.0008519773    1.797    0.443
        81  -8.0397    113.9878    224.0654   1.3282840682e+02   1.4961072770e+01     0.192572    0.1197839  66.46 0.0009430823    1.747    0.428
        82  -7.8263     68.6260    224.3114   1.4099395330e+02   2.1233390819e+01    0.1212578   0.06421834  64.73 0.0003959873    1.782    0.439
        83  -7.7580     38.3053    224.6683   1.4619340827e+02   2.4747882940e+01    0.1118354   0.05780763  67.40 0.0003472386    1.660    0.398
        84  -7.5066    233.5208    223.5087   1.1120779041e+02  -4.2188358636e+00    0.1202673   0.09257382  19.01 0.0002822825    1.004    0.004
        85  -8.7381    159.0852    220.7861   1.2407531725e+02   8.3050570086e+00    0.2415418    0.1744577  61.81 0.0008488031    1.575    0.365
        86  -8.3435    140.1015    223.0021   1.2789049025e+02   1.1063144047e+01    0.1837292    0.1301395  69.05  0.000628827    1.663    0.399
        87  -9.1450    239.0375    221.2417   1.0989958081e+02  -4.8117633150e+00    0.2501923    0.1595045 -20.71 0.0009300237    1.618    0.382
        88  -9.2280    192.3713    221.3072   1.1805802385e+02   2.6874067307e+00    0.2566894     0.220723  82.21  0.001067603    1.759    0.432
        89  -7.9727      8.6650    222.6639   1.5087338565e+02   2.8075070335e+01   0.08531045   0.06930247 -62.40 -0.0004037566    1.744    0.427
        90  -8.5429    202.6621    220.4919   1.1608408675e+02   1.0921344418e+00    0.1940465    0.1515749 -32.98 0.0007401251    1.511    0.338
        91  -8.3575     82.9384    220.7253   1.3812910428e+02   1.9980737555e+01    0.2510456    0.1277421  68.24  0.001320633    2.281    0.562
        92  -7.8518     72.9930    220.7298   1.3991306172e+02   2.1298611605e+01    0.2013696   0.09027098  73.47 0.0008808527    3.414    0.707
        93  -7.9883     27.5678    220.7254   1.4772524306e+02   2.6574893518e+01    0.1869128   0.08049715 -71.90  0.001148061    2.151    0.535
        94  -8.3945    210.0550    219.2813   1.1457586208e+02   3.2510000587e-02    0.1782759    0.1709261  83.65 0.0005872817    1.547    0.354
        95  -9.1317    120.3953    219.1283   1.3106800395e+02   1.4801965157e+01    0.3879244    0.2140312  67.02  0.001676209    2.444    0.591
        96  -8.6129    179.4134    217.7704   1.1987477306e+02   5.3469372521e+00    0.2000749    0.1219242 -47.11 0.0009098488    2.043    0.511
        97  -9.0689    132.9896    216.3752   1.2835938631e+02   1.3270325104e+01    0.4240449    0.2389923  72.59  0.001878291    3.221    0.690
        98  -8.3806     61.9626    217.3824   1.4158714570e+02   2.3288064012e+01    0.2466668    0.1229985  71.23   0.00110476    2.177    0.541
        99  -8.7928     51.5989    217.1111   1.4339290412e+02   2.4581820521e+01     0.219858    0.1124103 -88.93 0.0008340202    2.017    0.504
       100  -8.5235    169.3801    216.4036   1.2152630953e+02   7.2392329941e+00    0.2423096     0.172351  75.04 0.0008582405    2.232    0.552
       101  -8.4555    142.9462    216.5807   1.2650934687e+02   1.1620592811e+01    0.2427644    0.1720465  80.90  0.001325197    1.975    0.494
       102  -8.4400     18.4493    216.7217   1.4899552108e+02   2.8192381300e+01    0.1883295   0.08060388 -84.66  0.001139513    2.083    0.520
       103  -8.7511    246.7465    215.6424   1.0765514492e+02  -5.3613494714e+00    0.2246859    0.1307044 -13.68  0.001299354    1.787    0.440
       104  -8.6447    232.3178    214.6906   1.0992702891e+02  -3.0020118847e+00    0.2072129    0.1951072  63.72 0.0008650662    1.673    0.402
       105  -8.5588    185.6861    214.3848   1.1819305155e+02   4.7682744845e+00    0.1892525    0.1553965 -54.45 0.0006765795    1.615    0.381
       106  -8.2427    154.2196    215.1702   1.2418757126e+02   9.9772255651e+00    0.1624219    0.1363826  72.06 0.0006487998    1.378    0.275
       107  -8.9656     93.4297    214.2219   1.3554561123e+02   1.9666617280e+01    0.3991757    0.1613591  57.86  0.001752334    2.865    0.651
       108  -9.4332     73.2267    212.0850   1.3907752580e+02   2.2813087940e+01    0.5418856    0.2264052  65.14  0.002375411    3.275    0.695
       109  -8.8265     39.4182    213.8318   1.4527308132e+02   2.6551458632e+01    0.2462923   0.07383308  50.31  0.001038154    2.690    0.628
       110  -9.3563    213.8556    212.1956   1.1272628460e+02   3.1475765199e-01    0.3032429    0.2322838  52.08  0.001579871    1.594    0.373
       111  -8.5789    161.7801    212.4563   1.2236345093e+02   9.1259649075e+00    0.2217896     0.176425  67.00 0.0008388007    1.489    0.328
       112  -8.0546    106.5150    212.9917   1.3294848826e+02   1.7969121748e+01    0.1584877    0.1142247 -71.68 0.0005888125    1.524    0.344
       113  -8.7422    204.4838    211.1595   1.1423299264e+02   2.0240092970e+00    0.2296213    0.1906565 -62.38 0.0009507662    1.857    0.462
       114  -9.4867    175.5765    210.1892   1.1941320690e+02   7.1113174514e+00    0.3977192     0.274736  75.00  0.001653853    2.562    0.610
       115  -9.2501      6.7966    209.4631   1.5052435387e+02   3.0574815383e+01    0.4568024    0.1373745  74.71  0.001887311    4.608    0.783
       116  -7.9991    192.3419    210.6626   1.1636758304e+02   4.1601926833e+00    0.1712599    0.1427485  70.44 0.0008440926    1.689    0.408
       117  -8.7427    147.9517    210.5492   1.2471624531e+02   1.1764782203e+01    0.2596379    0.1832934  69.67    0.0011964    1.788    0.441
       118  -8.7284    116.4667    210.6373   1.3076933164e+02   1.6859437776e+01    0.2946866    0.1709103  64.45  0.001112052    2.005    0.501
       119  -8.3357    224.9265    212.7340   1.1086880802e+02  -1.5751883988e+00    0.1776187    0.1548215 -36.95  0.000630323    1.533    0.348
       120  -8.4338     85.7180    209.7426   1.3651724396e+02   2.1556213125e+01     0.239401    0.1327277  69.81 0.0009846522    2.053    0.513
       121  -9.0422    236.4568    207.8824   1.0803098144e+02  -2.8446398368e+00     0.274765    0.2077872 -38.62  0.001739428    1.716    0.417
       122  -7.9007    112.1257    217.7031   1.3244265364e+02   1.6309087827e+01    0.2049544    0.1074188  68.38 0.0009412818    2.772    0.639
       123  -9.4133    246.2926    207.3585   1.0627252857e+02  -4.3412303595e+00    0.2395457    0.1848833 -11.57 0.0005433832    1.239    0.193
       124  -7.8898    156.4133    208.2399   1.2275509182e+02   1.0705203465e+01    0.1527777    0.1224109 -67.24 0.0005341692    1.580    0.367
       125  -8.2325    139.2619    208.1664   1.2604935228e+02   1.3609622865e+01    0.2318608    0.1422877  62.61 0.0007420043    1.941    0.485
       126  -9.0940     99.4000    205.9698   1.3348819937e+02   2.0283318639e+01    0.3437586    0.1945637  79.08  0.001672189    2.537    0.606
       127  -8.3939     56.7935    205.7528   1.4153063831e+02   2.6046022572e+01    0.2734749    0.1214271  63.04  0.001337573    2.372    0.578
       128  -8.8643     10.4795    203.0037   1.4956418923e+02   3.1423229837e+01    0.2036906    0.1203499  69.55   0.00103192    1.325    0.246
       129  -9.3613    194.8976    203.5391   1.1470416511e+02   4.7359424749e+00    0.3774814    0.2742503 -46.01  0.001227916    1.709    0.415
       130  -9.2645    192.4585    197.5924   1.1413424417e+02   6.0395981611e+00    0.2930529     0.248526 -65.65 0.0009710347    1.670    0.401
       131  -8.9764    183.6636    204.1882   1.1691891066e+02   6.6063104201e+00    0.2981712    0.1813284  53.18 0.0008211473    1.810    0.448
       132  -8.4087    131.1334    203.9910   1.2704654197e+02   1.5667991027e+01    0.2776502    0.1930938  79.41 0.0009334259    1.895    0.472
       133  -8.0536    109.0201    205.5170   1.3156939509e+02   1.8917207116e+01    0.1831138    0.1027373  46.98 0.0007520761    1.542    0.352
       134  -8.4836     24.9941    205.2246   1.4719830981e+02   2.9636931915e+01    0.1629249   0.08735878  75.18  0.001038253    1.618    0.382
       135  -8.5314    227.6700    203.2678   1.0873021554e+02  -8.3440559050e-01    0.2233402     0.159414   9.19 0.0007573104    1.326    0.246
       136  -9.4123    250.0906    201.9156   1.0465382873e+02  -4.2966374643e+00    0.3498367     0.166513 -26.70  0.001478108    2.111    0.526
       137  -8.2101     17.3704    203.1948   1.4839390318e+02   3.0752360044e+01    0.1505649   0.07542502  87.67 0.0009469005    1.720    0.418
       138  -9.1500    243.0109    200.7966   1.0563804739e+02  -3.0368901403e+00    0.2562527     0.168692 -28.64 0.0007705649    1.583    0.368
       139  -8.3812    210.9071    201.6722   1.1143630092e+02   2.2180733074e+00    0.2179513    0.1659844 -52.14 0.0006208582    1.881    0.468
       140  -8.9627    140.6570    201.1412   1.2476358491e+02   1.4570563045e+01    0.3385575    0.2187157  72.70  0.001255193    2.252    0.556
       141  -8.3323     80.1721    201.4743   1.3669962146e+02   2.3850858368e+01    0.2908055    0.1391231  71.84  0.001265168    3.163    0.684
       142  -8.1593     47.9785    201.9728   1.4283508824e+02   2.7792186536e+01    0.1920147    0.1028037  70.37  0.001086445    1.808    0.447
       143  -9.4346    163.9306    202.9669   1.2049328265e+02   1.0253156539e+01    0.3956466    0.2488091  57.93  0.001143967    1.842    0.457
       144  -9.4178    149.6348    198.7649   1.2263036014e+02   1.3437994592e+01    0.3750038    0.2587525  83.66  0.001302264    2.322    0.569
       145  -8.8936    123.9704    199.3269   1.2781146921e+02   1.7667103038e+01     0.276364    0.1872067  88.21  0.001411539    2.012    0.503
       146  -9.1688    113.1500    198.7723   1.2989135982e+02   1.9502417139e+01     0.385261     0.222823  69.52  0.001589979    2.319    0.569
       147  -8.9281     88.6668    198.7265   1.3473812549e+02   2.3186406184e+01    0.3097131    0.1898594  77.85  0.001700312    1.899    0.473
       148  -9.0127    236.8011    198.2627   1.0623391962e+02  -1.7108699313e+00    0.2723761    0.1832366 -38.01  0.001061654    1.781    0.439
       149  -8.6075    177.2296    198.8141   1.1724766551e+02   8.5658781198e+00    0.2161265    0.1913014  80.92 0.0006937516    1.467    0.319
       150  -8.5425    202.2033    197.5424   1.1230146593e+02   4.3184902712e+00    0.2203123    0.1775909 -27.46 0.0006141051    1.351    0.260
       151  -8.9768     61.5225    197.2202   1.3986075876e+02   2.7088867555e+01    0.3386522    0.1723516  69.04  0.001484843    2.168    0.539
       152  -9.0209     12.7101    197.2045   1.4884461656e+02   3.2303025891e+01    0.3135239    0.1125426  86.76  0.001530334    2.999    0.667
       153  -8.7283    215.9323    195.7933   1.0946837431e+02   2.1566916052e+00    0.2432184    0.1838515 -44.89 0.0008164057    1.704    0.413
       154  -8.9507    185.1203    195.1379   1.1510143496e+02   7.7262696875e+00    0.2260695    0.2134646 -60.39 0.0007396588    1.329    0.247
       155  -7.9881    133.0237    196.0425   1.2552909768e+02   1.6755965194e+01     0.198207     0.144899  76.31 0.0006645097    1.676    0.403
       156  -7.7961     36.2997    196.6647   1.4456456113e+02   3.0091624942e+01    0.1171773    0.0644255  69.95 0.0003667222    1.655    0.396
       157  -8.5459    224.4048    194.4205   1.0769475877e+02   8.7792899917e-01    0.2369453    0.1797759 -44.47 0.0008922492    1.732    0.423
       158  -8.6311    161.0136    194.4911   1.1969423349e+02   1.2158237603e+01    0.2793039    0.2022495  66.65 0.0009433292    1.747    0.428
       159  -8.9168     43.7379    193.5057   1.4291791459e+02   2.9895623067e+01    0.3568612    0.1645936  75.37  0.001789162    2.555    0.609
       160  -9.3489    245.8201    192.7722   1.0367047739e+02  -2.5026091060e+00    0.4016258    0.2149441 -18.05  0.001417934    1.988    0.497
       161  -8.7103     77.0734    193.8262   1.3647468449e+02   2.5734592770e+01    0.2321906     0.160273  79.75 0.0006187395    1.426    0.299
       162  -8.1410    230.7153    194.1811   1.0653546857e+02  -1.6762018195e-01    0.1810494    0.1528756 -31.04 0.0006335485    1.407    0.289
       163  -8.1083    198.8931    191.8958   1.1190475728e+02   5.7378164742e+00    0.1826287    0.1604104  77.43 0.0004412871    1.617    0.382
       164  -8.0037    179.0090    191.9476   1.1572469424e+02   9.3329716529e+00    0.1954376    0.1593675  75.49 0.0006323287    1.685    0.407
       165  -8.3082    172.3762    192.0030   1.1703206996e+02   1.0527233666e+01    0.2226653    0.1754789  63.81 0.0009195626    1.522    0.343
       166  -9.1534    139.6096    190.7733   1.2339434084e+02   1.6575632325e+01    0.3339455     0.239172  85.60  0.001035439    1.962    0.490
       167 -10.3451     92.0015    188.6808   1.3285613305e+02   2.4638582822e+01    0.8497661    0.2471769  50.80  0.003038084    3.828    0.739
       168  -8.3556      6.4819    190.9690   1.4957392670e+02   3.4031437535e+01    0.1560213   0.06126576  77.04 0.0008100849    2.549    0.608
       169  -8.5258    148.5771    189.0843   1.2130022791e+02   1.5303561030e+01    0.2561215    0.1610971 -62.40 0.0008941257    2.056    0.514
       170  -8.9628    216.6188    187.8564   1.0786758559e+02   3.1474473128e+00     0.291649    0.2124071 -40.27  0.001193995    1.612    0.380
       171  -9.2094    156.0471    187.5457   1.1952898753e+02   1.4236898791e+01    0.3190222    0.2164508 -60.13 0.0008898634    1.846    0.458
       172  -8.9795    129.2904    188.6727   1.2518029998e+02   1.8728977627e+01    0.2716068    0.1930067  75.26  0.001093596    1.747    0.428
       173  -9.7907    120.9905    186.9144   1.2662912959e+02   2.0449472771e+01    0.4985328    0.2795151 -77.01  0.002167711    2.899    0.655
       174  -8.4792     34.4344    188.5655   1.4427479268e+02   3.1861146146e+01    0.2580238    0.1275368  72.69 0.0009893192    2.052    0.513
       175  -7.5435    242.5325    188.4736   1.0341079551e+02  -1.4154882561e+00    0.1278501    0.1046988   9.88 0.0003670129    1.019    0.019
       176  -8.0522    236.8403    188.3501   1.0436585459e+02  -4.4093615845e-01    0.1710977    0.1441093 -12.32 0.0006704999    1.186    0.157
       177  -8.5955    191.5195    187.5410   1.1251211172e+02   7.7436458502e+00    0.2598439    0.1999346  85.97 0.0009588012    2.272    0.560
       178  -8.8286    164.7527    186.8561   1.1765499765e+02   1.2774360790e+01    0.2667387    0.2093294 -74.84 0.0008728346    1.756    0.431
       179  -8.8669     54.8609    187.1918   1.4018653731e+02   2.9861913903e+01    0.3303365    0.1627063  72.29   0.00152395    2.420    0.587
       180  -7.9956    230.5148    186.9700   1.0520685555e+02   8.2799365954e-01    0.1849998    0.1201514 -29.83  0.001024105    1.578    0.366
       181  -9.2082    109.6951    186.1773   1.2886737976e+02   2.2424280523e+01    0.3452505    0.2128896  74.82  0.001200429    2.190    0.543
       182  -8.4451    249.0551    185.4985   1.0173398713e+02  -2.1189031213e+00    0.2187331    0.1651637 -37.63  0.000807295    1.623    0.384
       183  -9.0470    210.5086    183.8358   1.0822602502e+02   4.8295846264e+00    0.3890306    0.2061565 -25.86  0.001708481    2.158    0.537
       184  -8.7839    202.7898    184.4318   1.0978450074e+02   6.1517130113e+00    0.2703714     0.175781 -52.44  0.000890213    2.153    0.535
       185  -8.6487    182.9453    184.7154   1.1365872194e+02   9.7756991530e+00    0.2376577    0.1941106 -48.17 0.0006765696    1.441    0.306
       186  -8.9017     66.6571    184.3024   1.3751750906e+02   2.8986286647e+01    0.3315953    0.1735408  69.71  0.001030742    2.258    0.557
       187  -8.6852    224.0663    183.3622   1.0565832788e+02   2.4571394665e+00    0.2713326    0.1654617 -38.94  0.001079008    1.836    0.455
       188  -8.9963    174.2788    183.6664   1.1518168491e+02   1.1557885580e+01    0.2574167    0.2117072  78.74 0.0008117576    1.645    0.392
       189  -8.1966      2.3151    183.8715   1.4990713274e+02   3.5740004204e+01    0.1769506    0.1072244  54.52  0.001279431    1.474    0.322
       190  -9.0811     44.3557    182.4212   1.4181491498e+02   3.2021749740e+01    0.3074754    0.1631453  73.56  0.001125549    1.970    0.492
       191  -9.1122    147.5683    180.4974   1.2006723134e+02   1.7029653776e+01    0.3588539    0.2621416 -82.99  0.001131186    1.958    0.489
       192  -9.4624     25.7045    179.2175   1.4520563053e+02   3.4591646056e+01    0.5512027    0.2094437  78.54  0.002276199    3.868    0.741
       193  -8.0762    240.4018    181.1828   1.0236008504e+02  -1.0119697501e-01    0.1750915    0.1135609 -38.13 0.0009517788    1.753    0.430
       194  -8.0896    235.6231    180.8618   1.0312418207e+02   7.6807164830e-01    0.2674368     0.114493 -24.22   0.00111838    2.704    0.630
       195  -8.6271    137.4347    179.3735   1.2199743415e+02   1.9054095884e+01    0.2877968     0.222436 -85.56  0.001086052    1.626    0.385
       196  -9.4002    191.4983    178.3720   1.1079457067e+02   9.2006987420e+00    0.3052426    0.2419236  60.28 0.0005890312    1.541    0.351
       197  -8.1019    169.4859    178.5430   1.1520964494e+02   1.3325755176e+01    0.2162794    0.1317409 -55.72 0.0008882225    2.116    0.527
       198  -9.1423     35.8913    176.8113   1.4299234877e+02   3.4062924987e+01    0.4830533    0.1889021  84.17   0.00187159    4.173    0.760
       199  -8.6451    250.4990    172.8617   9.8989882393e+01  -7.2567649933e-01    0.2333121    0.1752681 -14.12 0.0005894646    1.199    0.166
       200  -9.1660    248.9043    177.3853   1.0016433309e+02  -1.0490388360e+00    0.2576823    0.2415823  20.17 0.0004545448    1.337    0.252
       201  -7.9146    247.3164    173.7163   9.9695344253e+01  -2.9455823128e-01    0.1931963     0.143744 -19.27 0.0002213434    1.251    0.200
       202  -8.4765    205.2184    177.7573   1.0804024545e+02   6.7203023055e+00    0.2346507    0.2093712 -66.17  0.001045475    1.553    0.356
       203  -8.4678    129.1987    177.6010   1.2344722007e+02   2.0836364324e+01    0.2722807    0.1950519  86.49  0.001040569    1.865    0.464
       204  -8.1015     97.1220    177.7797   1.3033095540e+02   2.6040911854e+01    0.1907952    0.1502719   8.15  0.001071747    1.906    0.475
       205  -8.3157    231.1612    177.0227   1.0314678533e+02   2.0827843242e+00    0.1834233     0.170154 -27.97 0.0005937376    1.331    0.249
       206  -8.4031    217.2879    176.9030   1.0562234793e+02   4.6118645611e+00    0.2196046     0.156151 -34.32 0.0007494058    1.492    0.330
       207  -9.2974    183.0615    176.2245   1.1204400997e+02   1.1151354183e+01    0.2530076     0.236749 -61.74 0.0004824129    1.296    0.228
       208  -9.2175    159.0975    175.4006   1.1676522408e+02   1.5830943993e+01    0.3745975    0.2539038  73.27  0.001335352    2.300    0.565
       209  -9.1789    104.4353    174.8845   1.2833897395e+02   2.5490651015e+01    0.4723858     0.246656  67.04  0.001872622    2.994    0.666
       210  -8.6449     89.0013    177.0485   1.3196505415e+02   2.7399267278e+01    0.2545527    0.1663267  71.12 0.0009294374    1.682    0.406
       211  -9.9719     57.4522    173.3407   1.3821097742e+02   3.2368580779e+01    0.7482449    0.3288596  78.54  0.002695576    4.553    0.780
       212  -8.6914     12.8815    176.8007   1.4749545770e+02   3.6244579284e+01    0.2531684    0.1069762  62.62  0.001061599    2.295    0.564
       213  -7.8385    211.5426    176.5246   1.0661014335e+02   5.7298320243e+00    0.1343666    0.1191244  16.69 0.0001951112    1.046    0.044
       214 -10.5864     75.9450    170.5028   1.3390944104e+02   3.0591112229e+01     1.085428    0.4107568 -75.71  0.003667903    4.596    0.782
       215  -8.2159     79.2008    158.5933   1.3154097088e+02   3.2665506651e+01    0.3354085    0.1286038  32.62  0.001341215    3.141    0.682
       216  -8.3840    224.4051    174.2485   1.0379702197e+02   3.6959850820e+00    0.1772342    0.1215566 -40.11 0.0007078995    1.655    0.396
       217  -9.4047    175.7292    172.2301   1.1274966049e+02   1.3232330821e+01    0.3401115    0.2453945 -34.75  0.001050521    1.494    0.331
       218  -8.1019    142.9409    172.9439   1.1972276983e+02   1.9277338975e+01    0.2127754    0.1616451  76.17 0.0005835154    1.660    0.398
       219  -8.8280    134.6649    171.8432   1.2130392960e+02   2.0984464498e+01    0.2521611    0.1946229  84.09 0.0008435851    1.612    0.380
       220  -9.4795    121.4712    170.6057   1.2395728099e+02   2.3540580688e+01    0.3592843    0.2600664  87.77   0.00127008    1.758    0.431
       221  -9.1739     45.0791    170.8549   1.4054176542e+02   3.4309538055e+01    0.3848296    0.1815729 -87.30  0.001443923    2.390    0.582
       222  -8.9500    230.3462    170.4652   1.0196747126e+02   3.1579238797e+00    0.2359504    0.1926514 -19.75 0.0007336007    1.197    0.165
       223  -8.3161    205.8478    170.5121   1.0647907687e+02   7.7265315220e+00    0.2539981    0.1765274 -53.09 0.0008156607    1.952    0.488
       224  -8.5354    198.4953    170.5010   1.0788744421e+02   9.1361270727e+00    0.2458953    0.2242118  73.70 0.0008733142    1.423    0.297
       225  -8.2834    185.3108    171.3161   1.1064201664e+02   1.1542914767e+01    0.1418577      0.10316   9.25 0.0007032618    1.637    0.389
       226  -8.2703    237.1157    169.6822   1.0061918713e+02   2.0462538614e+00    0.2078893    0.1713787 -29.26 0.0006427875    1.304    0.233
       227  -9.1423    167.2721    168.9617   1.1385491991e+02   1.5435852896e+01    0.3597785    0.2594198  69.63 0.0009266705    1.912    0.477
       228  -8.4221    149.8296    169.5871   1.1764584961e+02   1.8637544873e+01    0.2531416    0.1823824 -70.54 0.0007226762    1.838    0.456
       229  -7.8291    244.4092    169.2704   9.9282752196e+01   8.0952350622e-01    0.1686389    0.1155618 -35.05 0.0005162898    1.546    0.353
       230  -8.2071    219.0278    168.6139   1.0363002887e+02   5.5227076377e+00    0.2127203    0.1813855 -36.01 0.0005834848    1.329    0.248
       231  -8.2030     88.8494    168.7483   1.3084405591e+02   2.9131418496e+01    0.2462534     0.152983  85.07  0.001049653    2.068    0.517
       232  -8.4884    111.5572    167.5423   1.2563398237e+02   2.5829307025e+01    0.2934547    0.1848007  77.74 0.0009058819    2.315    0.568
       233  -8.8821    191.8908    166.7229   1.0841585480e+02   1.1034753454e+01    0.2446306    0.2002317 -41.94 0.0005702047    1.353    0.261
       234  -9.0736    184.9499    166.6820   1.0979063081e+02   1.2398202124e+01    0.2519636    0.2017835 -45.30 0.0006721184    1.396    0.283
       235 -10.0047     95.0573    163.0606   1.2861191927e+02   2.9390842448e+01    0.7373799    0.3856713  75.55  0.002613029    4.081    0.755
       236  -9.0307     20.7592    166.4080   1.4514996745e+02   3.7658857051e+01    0.3131569    0.1343843  61.42  0.001390735    2.431    0.589
       237  -9.7847    136.8664    164.5740   1.1952739582e+02   2.2004265447e+01    0.6172665    0.2921833  57.65   0.00231065    2.946    0.661
       238  -8.4669    233.8362    165.1006   1.0024529072e+02   3.2905767559e+00    0.1920624    0.1744335 -26.30 0.0005398355    1.267    0.211
       239  -8.6755    159.4857    164.4357   1.1461101622e+02   1.7764606207e+01    0.2821967    0.2247092  81.79 0.0009159811    1.675    0.403
       240  -9.2650     33.6448    163.4826   1.4221102554e+02   3.7049088426e+01    0.4859622     0.170526  56.24  0.002103282    3.336    0.700
       241  -8.9722    245.8483    162.0127   9.7535731566e+01   1.5537372330e+00    0.4792492    0.1599987 -36.93  0.001863269    2.965    0.663
       242  -7.9821    239.8832    164.4937   9.9068841924e+01   2.2773462960e+00    0.1838425    0.1232024  39.96 0.0004374799    1.473    0.321
       243  -8.5948    212.8799    163.6419   1.0373930259e+02   7.4532385183e+00    0.2508515    0.1913758 -39.10  0.000659126    1.435    0.303
       244  -9.2714     59.8678    161.5677   1.3630314033e+02   3.4556191756e+01    0.4631213    0.3373412 -42.32  0.002779393    1.756    0.430
       245  -8.5103    204.8969    163.0890   1.0513523766e+02   9.0890071960e+00    0.1981168    0.1928516 -87.97 0.0005581363    1.307    0.235
       246  -9.3533      3.6657    162.4854   1.4829020541e+02   3.9882194789e+01    0.3541423    0.1407633  56.28  0.001629962    2.435    0.589
       247  -8.2463    199.2240    162.1743   1.0603976298e+02   1.0349869040e+01    0.1761254    0.1673282  87.09 0.0004281892    1.342    0.255
       248  -9.1111    177.5417    160.8456   1.1010993328e+02   1.4875003510e+01     0.314473    0.2665469 -81.70  0.001017987    1.587    0.370
       249  -8.8852    151.6902    161.1730   1.1564711609e+02   1.9881132447e+01    0.2876226    0.2256303 -83.43 0.0009758014    1.703    0.413
       250  -7.9597    241.9899    160.0163   9.7768974700e+01   2.5279549998e+00    0.1630893    0.1337267 -10.83  0.000321309    1.097    0.089
       251  -8.5429    227.5017    159.3229   1.0015128997e+02   5.3176764854e+00     0.259034    0.2069283 -60.96 0.0009006289    1.878    0.468
       252  -9.6086    250.2122    157.7714   9.5914885336e+01   1.3631953318e+00    0.3256417    0.1679275 -29.74  0.000795275    1.816    0.449
       253  -8.1306    237.1663    159.1530   9.8414470408e+01   3.5347080091e+00    0.1734199    0.1577479 -39.92 0.0006157671    1.369    0.269
       254  -9.1761    167.7545    157.4723   1.1145957098e+02   1.7432461802e+01    0.3523961    0.2694259 -85.59 0.0009835102    1.978    0.494
       255  -8.2263    128.0618    159.0148   1.2046176153e+02   2.4714613680e+01    0.2207042    0.1640279  79.10 0.0006143523    1.705    0.413
       256  -9.4777    105.8255    157.9204   1.2532662610e+02   2.8767995478e+01    0.4294656    0.2811994  82.56  0.001090531    2.130    0.530
       257  -8.6768    196.5238    157.9154   1.0567133408e+02   1.1592688081e+01    0.2461068    0.2228623  81.75 0.0006880764    1.441    0.306
       258  -8.1100    187.8913    157.8900   1.0738498027e+02   1.3325749540e+01    0.2427356    0.1897845 -41.38 0.0006025559    1.371    0.271
       259  -8.3028    217.8805    156.5683   1.0130993070e+02   7.5872267531e+00    0.2626025    0.1720134 -48.17 0.0009517255    1.905    0.475
       260  -9.0328    157.6374    156.0662   1.1333858662e+02   1.9699670397e+01    0.3149076    0.2408942 -67.29 0.0009384126    1.649    0.394
       261  -9.1838    119.5593    155.4847   1.2174443560e+02   2.6950109999e+01      0.37856    0.2530075 -81.05  0.001610422    2.071    0.517
       262  -9.0614     50.0805    155.5471   1.3775456858e+02   3.6999233092e+01    0.4350108    0.1916468  61.99  0.001789177    3.020    0.669
       263  -9.2681     81.4669    154.6295   1.3042719564e+02   3.3200449927e+01    0.4342193     0.245779  71.80  0.001482539    2.505    0.601
       264  -8.8028    241.6490    154.4131   9.6633112944e+01   3.3892893782e+00      0.33002    0.2440767  73.27  0.001633189    2.436    0.589
       265  -7.8436    204.5622    155.4999   1.0358994139e+02   1.0387407656e+01    0.1402371    0.1293666  10.19 7.079176e-05    1.042    0.040
       266  -8.5326    144.6391    154.7340   1.1592538986e+02   2.2486517783e+01    0.2729775    0.2170139 -74.88 0.0007273926    1.541    0.351
       267  -9.6501    132.8279    153.0986   1.1826103221e+02   2.5045014882e+01    0.4534596    0.3133836  78.17   0.00122246    2.109    0.526
       268  -9.2081    133.4710    148.4965   1.1720303387e+02   2.5864065348e+01    0.3221466     0.247052 -42.84 0.0009609926    1.361    0.265
       269  -9.1445     68.1087    153.6668   1.3338618928e+02   3.5224456559e+01    0.4099101    0.2232102  72.21   0.00147143    2.545    0.607
       270  -8.7554    151.7956    152.5692   1.1390070471e+02   2.1521887291e+01     0.229895     0.171369 -50.62 0.0006775629    1.427    0.299
       271  -9.1285     20.1537    152.8132   1.4408527325e+02   4.0556969066e+01    0.1732868    0.1230553  79.94 0.0006909436    1.217    0.178
       272  -8.1952    182.7678    151.7006   1.0710528448e+02   1.5448641832e+01    0.2544951    0.1870915 -67.94 0.0008820962    2.012    0.503
       273  -9.4718     29.3257    150.7796   1.4187195148e+02   4.0166949737e+01    0.4065914    0.1838296  72.22  0.001761636    2.924    0.658
       274  -9.3795    248.7188    149.4362   9.4375531495e+01   2.7990458689e+00    0.2907927    0.2008646 -28.22 0.0008988489    1.350    0.260
       275  -8.4558    243.0830    150.4810   9.5540908084e+01   3.6895519313e+00    0.2502572    0.1722908 -41.42 0.0009000593    1.627    0.386
       276  -8.7972    189.7027    150.5443   1.0544183404e+02   1.4233806649e+01    0.2614753    0.2273706 -58.57 0.0008040936    1.393    0.282
       277  -8.2997    162.3097    151.0236   1.1127918948e+02   1.9728724747e+01    0.1956128    0.1874981 -39.14 0.0005815042    1.097    0.089
       278  -8.4567     98.2648    150.8420   1.2587444076e+02   3.1493190182e+01    0.2515378    0.1878706  84.99 0.0007496217    1.531    0.347
       279  -8.8262      2.8023    150.8354   1.4761610392e+02   4.2346658121e+01    0.2179171    0.1172173  83.17 0.0009728048    1.625    0.384
       280  -8.8445    238.3124    150.0618   9.6260104001e+01   4.6445875101e+00    0.3164674    0.1481954  31.38  0.001295519    2.495    0.599
       281  -8.2400    212.9987    150.0419   1.0079707253e+02   9.5859856180e+00    0.2129514    0.1926339   3.06 0.0004331041    1.021    0.020
       282  -9.8753     39.8879    148.0525   1.3918033272e+02   3.9722436152e+01    0.5015105    0.2291265  65.88  0.002235928    2.974    0.664
       283  -7.7485    228.9748    148.9811   9.7650383691e+01   6.5957361300e+00    0.1693922    0.1489227   4.21   0.00044642    1.006    0.006
       284  -8.4792    198.8919    149.0873   1.0329283786e+02   1.2602569018e+01    0.2074405    0.1964072 -75.68 0.0005127226    1.314    0.239
       285  -9.8322     89.2800    146.3411   1.2724230273e+02   3.3859583526e+01    0.6259391    0.3469669 -89.29  0.002397669    3.333    0.700
       286  -8.8401    233.1547    147.6762   9.6628186682e+01   5.9836899366e+00    0.2314672    0.1767086 -34.33 0.0006603647    1.336    0.252
       287  -8.8153     78.2310    147.2589   1.3004337347e+02   3.5263176445e+01    0.2607623    0.1645602  75.15  0.000685758    2.003    0.501
       288 -10.5991     54.8373    143.3607   1.3506873342e+02   3.9118827219e+01    0.9300507    0.4925696 -79.74  0.003214472    2.025    0.506
       289  -8.0614    223.3059    146.9632   9.8218206742e+01   8.0191408875e+00    0.1933556    0.1679526 -13.05  0.000326228    1.081    0.075
       290  -8.0395    206.6887    146.5743   1.0122282696e+02   1.1429036354e+01    0.2215844    0.1730249 -55.14 0.0007104954    1.630    0.387
       291 -10.1233    148.9809    145.0133   1.1294626855e+02   2.3564475260e+01     0.534767    0.3734001 -88.76  0.001624588    2.404    0.584
       292  -9.7108    139.1668    145.1499   1.1520819049e+02   2.5461305165e+01    0.5657162     0.324539 -64.12  0.002047131    2.445    0.591
       293  -9.0260    140.4306    136.7956   1.1312481129e+02   2.6918296311e+01    0.3618813    0.2529584   7.30  0.001568639    2.212    0.548
       294 -10.0799    106.8105    144.6748   1.2273018728e+02   3.1427345084e+01    0.6560125      0.37943  73.81  0.002503893    3.184    0.686
       295  -8.3366    104.6959    139.3159   1.2222133504e+02   3.2941261143e+01    0.2528645    0.1891304 -71.49 0.0009224548    1.429    0.300
       296  -9.2635     13.4203    146.2075   1.4494968508e+02   4.2517918261e+01    0.3166565    0.1573273  62.88    0.0011551    2.109    0.526
       297  -8.1188    175.5110    146.0358   1.0737768806e+02   1.7966020626e+01    0.2106192    0.1435391 -40.77 0.0004647283    1.516    0.341
       298 -10.9327     69.3531    139.9135   1.3102949405e+02   3.8089329807e+01    0.9232434    0.3786483 -62.15  0.002865671    2.242    0.554
       299  -9.6147     73.1755    129.5710   1.2832782322e+02   3.9891714679e+01    0.4690039    0.2375549 -69.59   0.00112806    2.155    0.536
       300  -8.9915    240.6847    144.8493   9.4711176963e+01   4.9611148642e+00    0.3543303    0.1948737  24.49  0.001522087    2.240    0.554
       301  -9.7752    125.2519    143.1607   1.1804000380e+02   2.8500052542e+01    0.5051674    0.3437042  87.04  0.001445805    2.304    0.566
       302  -9.3491    247.0719    143.7921   9.3412591561e+01   3.9102858020e+00    0.2452372    0.1759076 -18.19 0.0005057106    1.285    0.222
       303  -8.8159    165.6680    144.0762   1.0905040213e+02   2.0365000856e+01    0.2911113    0.2034361  60.83 0.0008399353    1.707    0.414
       304  -9.1838      2.7138    141.8506   1.4692283424e+02   4.4237533663e+01    0.3353293    0.1494239  78.25  0.001526336    2.387    0.581
       305  -8.3602    182.1209    141.7016   1.0502494519e+02   1.7379451711e+01    0.2398854    0.1995754 -51.63 0.0005426337    1.354    0.262
       306  -7.8851    199.4435    144.4540   1.0215102191e+02   1.3276286090e+01    0.1425437    0.1348749   9.19 -1.298446e-05    1.056    0.053
       307  -7.9970    194.3886    144.2151   1.0309694626e+02   1.4367114522e+01    0.1942742    0.1345637 -46.05  0.000326323    1.594    0.373
       308  -7.4650    134.2662    140.6242   1.1539316532e+02   2.7332585739e+01    0.1457235    0.1129299 -85.94 0.0006988886    1.675    0.403
       309  -9.8167     23.4207    138.2066   1.4188294872e+02   4.3418783798e+01    0.4943311    0.2341457  73.18  0.002152953    2.699    0.630
       310  -7.8390    218.5345    138.9417   9.7276785665e+01   1.0250254375e+01    0.2096416    0.1345868 -31.40 0.0004281418    1.516    0.340
       311  -8.7382    172.1881    138.5398   1.0640056332e+02   2.0052461073e+01    0.2948376    0.2250439 -68.80 0.0007789034    1.779    0.438
       312  -8.1860    207.4858    138.0535   9.9135827723e+01   1.2682370448e+01     0.213098    0.1378365 -37.11 0.0006658712    1.548    0.354
       313  -8.5992    197.5957    137.5579   1.0093971538e+02   1.4847445329e+01    0.2811717    0.2122542 -52.45 0.0008639616    1.579    0.367
       314 -10.2500     83.2128    133.1443   1.2641008613e+02   3.7676479456e+01    0.5907115    0.3291192 -60.27  0.001791096    1.696    0.410
       315  -8.7186    151.0757    136.0966   1.1051429892e+02   2.4917495901e+01    0.3672071    0.2271523  22.73  0.001498135    2.272    0.560
       316  -9.6142     39.0646    136.3240   1.3792782079e+02   4.2382744504e+01    0.2609938     0.162871  84.40 0.0007993267    1.684    0.406
       317  -9.0373    250.6784    130.0575   8.9756976910e+01   5.2167966344e+00    0.4921933    0.1186139 -32.07  0.001488872    3.840    0.740
       318  -8.9048    248.1895    135.3049   9.1340248553e+01   4.9290286915e+00    0.2934881    0.1879882 -30.76 0.0007091466    1.440    0.305
       319  -8.4614    246.8648    130.3665   9.0436398586e+01   5.9062725519e+00    0.2425632    0.1730798 -27.50 0.0005900119    1.280    0.219
       320  -7.7930    187.7803    135.9312   1.0253303421e+02   1.7220517309e+01    0.1915175    0.1193577 -34.96 0.0006095312    1.624    0.384
       321  -8.2209    162.6500    136.3478   1.0797460858e+02   2.2472925171e+01    0.2197085    0.1775868 -87.57   0.00072035    1.677    0.404
       322  -8.5858    179.5131    133.8674   1.0376334353e+02   1.9364088989e+01    0.3265712    0.2290218 -61.67 0.0009108739    1.938    0.484
       323  -8.3323    237.5507    133.7329   9.2740416511e+01   7.2289995609e+00    0.1903123    0.1232761 -39.60  0.000936784    1.579    0.367
       324  -9.9689    132.2975    131.3212   1.1383426496e+02   2.9646488156e+01    0.5914676    0.4045465  84.60  0.001679007    2.430    0.588
       325  -9.7654    134.5090    124.1625   1.1165849235e+02   3.0703827072e+01     0.476216    0.3452008 -10.75  0.002150046    1.954    0.488
       326  -9.5355    130.6767    118.5699   1.1126398365e+02   3.2634135762e+01    0.4455643     0.312265 -80.50  0.001216407    2.205    0.546
       327  -8.9342    112.6812    133.2094   1.1902879050e+02   3.2891767731e+01    0.3046323     0.224805 -82.79  0.000956311    1.714    0.416
       328  -9.1542    143.0666    131.7707   1.1138224189e+02   2.7417749159e+01    0.3047019    0.2336334 -67.48   0.00071271    1.574    0.365
       329 -10.5282     98.5236    130.9256   1.2210428852e+02   3.5798658764e+01    0.5909718    0.3194148 -61.25  0.001713636    1.935    0.483
       330  -8.7467     98.6701    121.1701   1.2003420101e+02   3.7927676133e+01    0.5825154    0.3639999   3.86  0.002170542    3.550    0.718
       331  -8.0024    204.5807    130.7020   9.7971927148e+01   1.4536261367e+01    0.1968645    0.1352103 -43.80 0.0009292082    1.551    0.355
       332 -10.1845     12.9887    129.2685   1.4339439764e+02   4.6200451261e+01    0.5041915     0.242619  81.40   0.00205107    2.378    0.580
       333  -7.8126    220.7418    130.0197   9.4806810092e+01   1.1228947363e+01     0.183582    0.1184544 -31.79 0.0007033949    1.491    0.329
       334  -8.3149    192.8824    130.1745   1.0014227590e+02   1.7147658998e+01    0.2187558    0.2031266 -71.57 0.0005665598    1.292    0.226
       335  -9.4274    168.2935    129.2975   1.0508694397e+02   2.2630508191e+01     0.340193    0.2490351 -60.39 0.0008925882    1.698    0.411
       336  -8.1745    161.6935    130.3128   1.0678446328e+02   2.3844395989e+01    0.1472451    0.1205877 -86.84 0.0006292404    1.621    0.383
       337  -9.4479    152.7531    128.6124   1.0840448598e+02   2.6063017645e+01    0.5250002    0.2598609 -48.62  0.001326078    2.150    0.535
       338  -8.3254     25.1795    130.3079   1.4056157776e+02   4.4999874979e+01    0.1980291    0.1140978  12.62  0.001076839    2.701    0.630
       339  -8.1047      2.0900    130.6253   1.4609326297e+02   4.6668143602e+01    0.1927636   0.08299458  38.27  0.001096344    2.508    0.601
       340  -8.0460    211.4568    129.2453   9.6324862062e+01   1.3313108948e+01    0.2018468    0.1326459 -44.72 0.0008856189    1.651    0.394
       341 -10.6573     45.1267    124.2219   1.3470506379e+02   4.4465028663e+01    0.9386753    0.4828201  76.95  0.003942056    3.224    0.690
       342 -10.3625     59.9831    125.1212   1.3097723823e+02   4.2586903618e+01    0.6484202    0.3713542  78.71  0.002551576    2.686    0.628
       343  -9.9119    117.8274    125.3157   1.1603950869e+02   3.3664734803e+01    0.5075319    0.3448984  75.22   0.00133861    2.203    0.546
       344  -8.0890    228.3809    125.2702   9.2339821040e+01   1.0394199359e+01    0.2009337    0.1250062 -39.59   0.00094133    1.610    0.379
       345  -8.8360    179.2890    124.8403   1.0164975236e+02   2.1078062077e+01    0.2675979    0.2460089  84.79 0.0007543077    1.290    0.225
       346 -10.2621     28.5498    122.4880   1.3873339348e+02   4.6441354316e+01    0.6582859    0.3149347  76.94  0.002657439    3.257    0.693
       347  -8.6371     27.5904    114.0685   1.3782403850e+02   4.8400872195e+01    0.3094227    0.1598548  16.65  0.001601021    2.795    0.642
       348  -8.2870    188.4364    124.2008   9.9597983947e+01   1.9182614222e+01    0.2075786     0.139453 -47.13 0.0005599746    1.618    0.382
       349  -8.9651    240.0795    122.4613   8.9711856716e+01   8.4300937599e+00    0.2423664    0.1785447 -15.11 0.0005710326    1.318    0.242
       350  -8.9553    158.7204    121.8654   1.0541861342e+02   2.6129623304e+01    0.3469517    0.2648652 -77.50 0.0008705247    1.850    0.459
       351  -8.4501     84.4278    122.9082   1.2413765047e+02   3.9784101221e+01    0.2493674       0.1857   8.55 0.0006821266    1.894    0.472
       352  -9.4898     71.7130    120.4239   1.2702841000e+02   4.2147325391e+01    0.5913107    0.3392851  74.96  0.002403745    3.092    0.677
       353  -7.3402      1.6611    123.3032   1.4550948825e+02   4.8269289704e+01    0.1137842   0.06869961  71.40 0.0006584793    1.672    0.402
       354  -7.8457    203.1985    122.2043   9.6190945428e+01   1.6285374182e+01    0.2362157     0.102931 -44.04 0.0005412524    2.482    0.597
       355  -7.7731    195.0000    122.0461   9.7750552364e+01   1.8117511962e+01     0.239093   0.08354793 -36.52  0.000661957    2.835    0.647
       356  -8.8057    172.0301    121.7829   1.0244891940e+02   2.3244434004e+01    0.2586788    0.2123175 -39.59 0.0004890644    1.230    0.187
       357 -10.0289    141.5779    118.2177   1.0852070523e+02   3.0491616203e+01    0.5934059    0.3285978 -51.57  0.002107906    1.955    0.488
       358  -9.6332      3.0226    117.6560   1.4461092423e+02   4.9405428198e+01    0.4468883    0.2070295  75.02  0.002251775    2.649    0.623
       359  -7.6608    231.4727    117.5194   8.9967499955e+01   1.0962921915e+01    0.1419922    0.1314036 -24.50 0.0008079201    1.097    0.088
       360  -7.8073    159.3120    117.3267   1.0415599549e+02   2.6888895791e+01    0.1563346    0.1191802   4.63  0.000704143    1.664    0.399
       361  -7.7029    219.3082    116.6891   9.1867471085e+01   1.3689712523e+01    0.1418619    0.1153099 -65.82 0.0004214038    1.620    0.383
       362  -8.3334    153.4041    115.6862   1.0509710278e+02   2.8494333276e+01    0.2798112    0.1430798 -46.11 0.0008599326    2.010    0.502
       363  -9.6942    109.1849    114.2053   1.1570051642e+02   3.7638598052e+01    0.4814202    0.3150732 -73.17  0.001183816    2.140    0.533
       364  -8.8115    109.3151    107.6826   1.1408897022e+02   3.9024827017e+01     0.433077    0.2525447  15.86  0.001555056    3.329    0.700
       365  -8.9007     59.6894    115.2412   1.2930848047e+02   4.4852901586e+01    0.3415716    0.2069773   5.59  0.001541704    2.978    0.664
       366  -8.1629    193.0109    115.0878   9.6411815842e+01   1.9786254124e+01    0.2271451    0.1822566 -69.71 0.0004703218    1.651    0.394
       367  -9.9951     92.7494    112.5741   1.1971196033e+02   4.0796325359e+01    0.4894683     0.316323 -72.04  0.001358027    1.937    0.484
       368  -8.9935     93.2305    104.8775   1.1778729763e+02   4.2414791501e+01    0.3982773    0.2369005 -20.35  0.001520926    3.078    0.675
       369  -9.8502     78.9786    112.7311   1.2351038305e+02   4.2863991290e+01    0.5390315    0.3524789 -88.62  0.001728482    2.240    0.554
       370  -8.5715     78.6941    105.1529   1.2193422279e+02   4.4598542868e+01    0.3416292    0.2376808   2.73  0.001262925    2.177    0.541
       371  -8.0647    167.4111    114.2396   1.0156098946e+02   2.5697108001e+01    0.2090636    0.1428062 -48.22 0.0004974303    1.559    0.358
       372  -8.4123    174.9780    112.2216   9.9399480184e+01   2.4378144523e+01    0.2693876    0.2085801 -60.49  0.000705334    1.570    0.363
       373  -8.5966    159.3408    111.9909   1.0278973040e+02   2.7920903453e+01    0.3067356    0.2279807 -62.21 0.0008408326    1.670    0.401
       374  -9.9825    133.4618    109.4642   1.0830431717e+02   3.3963800541e+01    0.6909323    0.3403877 -41.30  0.002282771    2.021    0.505
       375  -9.9344    121.7214    112.0907   1.1193475900e+02   3.5755003078e+01    0.4731278    0.3057411 -71.80 0.0007826282    2.347    0.574
       376 -10.0269     66.3747    109.9922   1.2644282427e+02   4.5202506676e+01    0.5465602    0.2775213 -64.77  0.001799944    1.962    0.490
       377  -9.8357     13.8723    111.0257   1.4106248672e+02   5.0138217917e+01    0.3471661    0.2112756  82.42  0.001373708    1.735    0.424
       378  -8.8467     43.1779    109.5252   1.3285033207e+02   4.7974960235e+01    0.2836708    0.1835221   9.99  0.001539396    2.239    0.553
       379 -10.0862    248.4968    108.6220   8.5124794449e+01   8.7942891420e+00    0.3407388    0.2836095 -17.61  0.001322968    1.090    0.082
       380 -10.1044    249.1820    102.9224   8.3668603218e+01   9.4940043870e+00    0.4820192    0.2906935  -4.06  0.002093629    2.292    0.564
       381  -8.5177      4.5277    109.4574   1.4333046072e+02   5.1096521205e+01    0.1897986    0.1152225  20.34  0.001209827    2.180    0.541
       382  -8.2181    189.3764    108.2165   9.5379521809e+01   2.1825865856e+01    0.2148254    0.1366358 -44.80 0.0005511643    1.644    0.392
       383 -10.5034     45.6585    102.4517   1.3087276231e+02   4.9312264222e+01    0.7184256    0.4018938  77.81  0.003061278    3.203    0.688
       384  -9.3372     46.2783     92.7962   1.2877961415e+02   5.1407012846e+01    0.3997614    0.2126008  12.41  0.001843013    2.955    0.662
       385 -10.6770     22.8375    102.6404   1.3744115304e+02   5.1334144471e+01    0.6928486    0.3576657  75.96   0.00268811    2.992    0.666
       386  -8.6443    166.6899    104.4031   9.9148876482e+01   2.7720527745e+01    0.2770013    0.2518898 -78.48 0.0007570195    1.283    0.221
       387  -9.4812    150.5479    103.0326   1.0246374235e+02   3.1610824471e+01    0.4706017    0.2819318 -59.12   0.00126338    2.293    0.564
       388  -9.2164    139.8326    104.4089   1.0540864324e+02   3.3662308813e+01    0.3770003    0.2806754 -67.60 0.0009733568    1.734    0.423
       389  -9.6112    128.5584    102.2111   1.0764529133e+02   3.6460366851e+01    0.3507631    0.2766762  81.46 0.0008605291    1.709    0.415
       390  -8.1954    130.1098     97.3813   1.0594328589e+02   3.7126454615e+01    0.3148164    0.1950993  26.23  0.001293825    2.099    0.524
       391  -9.3805      6.8308    103.0800   1.4194568574e+02   5.2349414208e+01    0.2233372    0.1571815  67.17   0.00115609    1.572    0.364
       392  -7.7474    175.4626    102.2595   9.6677368366e+01   2.6102899887e+01    0.2104401    0.1430857 -47.35 0.0005036652    1.567    0.362
       393 -10.5122    108.8699     98.7075   1.1191748430e+02   4.1024060317e+01     0.782285     0.457059  67.48  0.001670177    3.290    0.696
       394  -8.9628    108.3737     92.4947   1.1038298785e+02   4.2422558119e+01    0.4574317    0.2918229  21.65  0.001984212    2.116    0.527
       395  -8.3466    159.7823    101.1236   9.9811428114e+01   2.9911001555e+01    0.2343619    0.2027828 -62.12 0.0005663375    1.314    0.239
       396  -8.9675     82.0953     99.9855   1.1976294849e+02   4.5240620471e+01    0.3202962    0.2328786 -85.68 0.0007841018    1.866    0.464
       397  -9.0594     95.0113     97.0456   1.1534112390e+02   4.3824046826e+01    0.3049073    0.2155008 -60.80 0.0005393504    1.504    0.335
       398 -10.0862     63.8303     95.8376   1.2415022144e+02   4.8697290255e+01    0.5473596    0.3578327 -89.73  0.001524548    2.349    0.574
       399  -9.0517     67.0057     87.1862   1.2113019392e+02   5.0188016658e+01    0.6322502     0.319575  12.83  0.002258023    4.254    0.765
       400  -7.6880    183.2584    109.6552   9.6996536424e+01   2.2967523602e+01    0.1502053    0.1189803 -64.83 0.0002996909    1.593    0.372
       401  -7.9361    151.3575     95.3148   1.0015684746e+02   3.2923873148e+01    0.1621188    0.1196219  10.84 0.0007044197    1.747    0.427
       402  -8.2922    176.5242     93.4525   9.4056873352e+01   2.7443555534e+01    0.3014354    0.2076894 -53.74   0.00103108    1.698    0.411
       403  -9.9746    123.6839     91.4093   1.0594589069e+02   3.9656000168e+01    0.5607703    0.4175482  21.66  0.001338767    1.580    0.367
       404  -9.1540    138.9140     92.2981   1.0230869740e+02   3.6265191677e+01    0.3497336    0.2674628 -79.91 0.0007671955    1.881    0.468
       405  -9.5086      5.4739     92.4629   1.4091524181e+02   5.4751907050e+01    0.3258492    0.1781105  53.71  0.001195661    2.316    0.568
       406  -8.0573    157.8700     91.6357   9.7615853987e+01   3.2133899302e+01    0.2550925    0.1774696 -41.95 0.0006354813    1.441    0.306
       407  -9.6267     34.5984     89.7042   1.3172849062e+02   5.3228265994e+01    0.4331642    0.2424554 -83.49  0.002092104    2.364    0.577
       408  -9.1475     22.9689     90.2454   1.3538012144e+02   5.4072372511e+01    0.2564455    0.1986751 -23.57  0.001091364    1.540    0.351
       409  -8.2428    150.6524     89.2166   9.8595428181e+01   3.4240189117e+01    0.2170925    0.1418829 -27.95 0.0003603144    1.630    0.387
       410  -8.1841    164.8113     94.1137   9.6755596659e+01   3.0068169932e+01    0.2332431      0.20373 -62.53 0.0005037386    1.303    0.233
       411  -9.7622     86.2278     86.4866   1.1510774654e+02   4.7525977727e+01    0.4078342    0.3110965 -84.29  0.001099494    1.847    0.458
       412  -8.6588     87.4818     80.5165   1.1306829063e+02   4.8578263665e+01    0.6529869    0.2515476  26.35  0.001789255    5.893    0.830
       413  -7.6444    164.3301     87.1909   9.4905182848e+01   3.1441983918e+01    0.2182194    0.1351648 -44.70  0.000487628    1.673    0.402
       414  -9.7695     48.4861     84.3362   1.2624391090e+02   5.3040805102e+01    0.4464546    0.2919427  77.57  0.001921228    2.499    0.600
       415  -7.5259    179.2904     85.6620   9.1312022106e+01   2.8150607837e+01    0.1554957    0.1200579 -66.21 0.0004452778    1.641    0.391
       416  -9.6259    104.7134     83.3864   1.0883774986e+02   4.4981294973e+01    0.4215225    0.3155179 -79.71  0.001027123    2.002    0.500
       417  -8.6474    104.8471     77.7241   1.0712269517e+02   4.6096359601e+01    0.4732991     0.271614  23.03  0.001892221    2.519    0.603
       418  -8.2000    157.8574     84.0506   9.5438622421e+01   3.3529012639e+01    0.2295239    0.2029401 -59.33 0.0004221696    1.261    0.207
       419  -9.0479    140.7440     82.7038   9.9071117677e+01   3.7700299377e+01    0.3874079    0.2472418 -46.03 0.0006053603    1.623    0.384
       420  -9.3123      9.8849     81.0623   1.3784115386e+02   5.6974154779e+01    0.3396869    0.1861307  63.05  0.001397723    2.700    0.630
       421  -8.0409    185.4580     82.5584   8.9211816521e+01   2.7193164184e+01    0.1501765    0.1472325 -17.62 0.0001908542    1.033    0.032
       422  -9.6192     24.7970     80.7184   1.3304371324e+02   5.6024336633e+01    0.4017638    0.2433386  86.71  0.001068725    2.334    0.572
       423  -8.3385    150.1769     80.6692   9.6206147412e+01   3.5929768266e+01    0.2665367    0.2032932 -47.53 0.0009078009    1.383    0.277
       424  -8.7902    119.5417     79.9037   1.0369040294e+02   4.2783993136e+01    0.4368652    0.2523867 -42.98  0.001443146    1.685    0.406
       425  -8.8747     74.6176     80.4359   1.1700031396e+02   5.0580429748e+01    0.3025835    0.2173993 -67.80  0.001127444    1.662    0.398
       426  -8.2569    166.8347     79.8442   9.2234117162e+01   3.2146963684e+01    0.2281729    0.2021082   7.41 0.0004507988    1.179    0.152
       427  -8.5631     63.3828     64.4993   1.1606541905e+02   5.5448387507e+01    0.5215281    0.2567619 -27.02  0.002064642    2.968    0.663
       428  -9.3084     65.3032     77.6615   1.1919456584e+02   5.2462974933e+01    0.2808352    0.2283759 -60.92  0.001123052    1.253    0.202
       429  -9.8346     63.3944     73.6249   1.1870782612e+02   5.3566449224e+01    0.4632032    0.2284516 -60.35  0.001733926    2.316    0.568
       430  -8.2330     35.3317     82.3026   1.2998897645e+02   5.4792400565e+01    0.1286032   0.08001013 -36.42            0    1.654    0.395
       431  -8.1409     49.6434     77.7087   1.2428928989e+02   5.4354750129e+01    0.1329427   0.08784338 -28.26 0.0004655168    1.686    0.407
       432  -7.6850    157.2866     76.6291   9.3370603778e+01   3.4985208860e+01    0.1578571    0.1197512 -65.78 0.0007019821    1.709    0.415
       433  -8.5471    140.5349     75.3757   9.6907361690e+01   3.9099487244e+01    0.2632402    0.2130762 -59.57 0.0007579194    1.456    0.313
       434  -9.2533    128.1494     75.3204   1.0000927946e+02   4.1850137978e+01    0.3778717    0.2519501 -53.01 0.0006841458    1.737    0.424
       435  -7.7494    128.6869     70.6569   9.8409965073e+01   4.2592531207e+01    0.1544886    0.1467904  -7.41 0.0008370159    1.008    0.008
       436  -8.2097    163.4754     73.4705   9.1064477008e+01   3.4049696235e+01    0.3029448    0.1474001 -35.60 0.0009266469    2.021    0.505
       437  -9.5780     82.4092     72.7574   1.1235815893e+02   5.0989871901e+01    0.3682608    0.2779768 -73.58  0.001026503    1.848    0.459
       438  -8.0346    151.4599     73.5062   9.3745659452e+01   3.6907752724e+01    0.1525851    0.1462968   1.38 0.0001540798    1.005    0.005
       439  -8.5950    115.7646     72.9378   1.0257736593e+02   4.4892522885e+01    0.2589795    0.1984547 -56.06 0.0006118318    1.505    0.336
       440  -9.2511     95.1543     71.2199   1.0797432686e+02   4.9153114688e+01    0.4068038    0.2214621 -55.17 0.0008651104    2.242    0.554
       441  -8.2511     42.6650     73.1407   1.2547190198e+02   5.6073686403e+01    0.1971414    0.1429213 -69.28 0.0006127806    1.453    0.312
       442  -7.7962    175.5014     72.5308   8.8290593512e+01   3.1281826023e+01    0.1515907     0.147465   5.78 0.0001356746    1.002    0.002
       443  -9.1503    105.8015     71.1049   1.0480497167e+02   4.7209665006e+01    0.4405755    0.1893577 -45.55  0.001081925    2.315    0.568
       444  -8.8477     28.4855     71.0084   1.2976682513e+02   5.7830200589e+01    0.3135231    0.1595424 -34.15  0.001353458    2.156    0.536
       445  -8.5104     31.8232     68.3844   1.2800703473e+02   5.8107236569e+01    0.2415922    0.1633114 -34.90  0.001035581    1.420    0.296
       446  -9.4661     51.4154     69.7006   1.2162112467e+02   5.5859460506e+01    0.3743899    0.2118073 -66.51  0.001462686    2.166    0.538
       447  -9.1258     16.7629     70.2607   1.3359109246e+02   5.8866028970e+01    0.2698789    0.1721419 -80.74  0.000918188    1.736    0.424
       448  -7.5233    157.2108     69.9389   9.1356639087e+01   3.6154912840e+01    0.2005237    0.1210315 -34.64 0.0003794369    1.640    0.390
       449  -8.6497    147.0170     68.4924   9.3221359924e+01   3.8819663744e+01    0.2827365    0.2014161 -47.89 0.0005868255    1.525    0.344
       450  -8.9591    138.6138     66.1869   9.4493868524e+01   4.1164205070e+01    0.3710583    0.2298009 -51.38  0.000994433    1.931    0.482
       451  -8.8115    121.5205     66.0807   9.8823914607e+01   4.4963173015e+01    0.3121827    0.2343116 -60.55 0.0008200188    1.707    0.414
       452  -8.5096     83.6731     65.6644   1.0976891975e+02   5.2200605608e+01    0.5643908    0.3181412   0.80  0.001825683    4.611    0.783
       453  -8.4764     95.6095     64.6339   1.0573667030e+02   5.0343387461e+01    0.2225124    0.1638448  -4.36 0.0009300355    1.619    0.382
       454  -8.7194     37.3396     64.3454   1.2506174470e+02   5.8455848123e+01    0.2722728     0.194377 -72.32   0.00100475    1.621    0.383
       455  -8.9223    110.0378     63.3341   1.0108068983e+02   4.7831925318e+01     0.408995     0.198349 -38.13  0.001304948    1.978    0.494
       456  -7.2895    187.6665     63.3457   8.3286202052e+01   2.9730328945e+01    0.1596014    0.1148536 -65.53 0.0007049589    1.766    0.434
       457  -8.5659    158.0694     62.0588   8.8723482535e+01   3.7246846803e+01    0.2265009    0.1970524  14.62 0.0004104165    1.195    0.163
       458  -7.9230    193.9560     60.7888   8.1443584549e+01   2.8551085926e+01    0.1977231    0.1911729  54.57 0.0003450649    1.046    0.044
       459  -9.1365     97.8687     60.7726   1.0377715867e+02   5.0650373867e+01    0.3257016    0.2484171  56.67  0.001140381    1.624    0.384
       460  -9.5686     73.3574     59.5788   1.1116132488e+02   5.5004113518e+01    0.3930601    0.2371242 -55.47 0.0009731515    1.907    0.476
       461  -7.6746    164.3369     60.2663   8.6846159249e+01   3.5996653506e+01    0.1563617    0.1125327  25.97 0.0003456542    1.591    0.372
       462  -8.0685     89.0159     59.9326   1.0621244181e+02   5.2396813941e+01    0.2044755    0.1711004 -70.90 0.0006084697    1.617    0.382
       463  -8.2510    147.1871     59.2368   9.0233379078e+01   4.0321659984e+01    0.2058036    0.1765654 -61.83 0.0005713695    1.368    0.269
       464  -9.8298     23.3717     56.4882   1.2806974113e+02   6.1286129840e+01    0.4136428    0.2595972 -86.60  0.002137071    2.610    0.617
       465  -8.5770    130.6657     57.9835   9.3776677220e+01   4.4360960703e+01    0.2136983    0.1811288 -28.48 0.0004246563    1.159    0.137
       466  -9.5094      7.4433     57.2527   1.3412050194e+02   6.2181643570e+01    0.2793354     0.198208  80.06  0.001514316    1.927    0.481
       467  -9.0637    119.1748     55.6132   9.5954963048e+01   4.7285606624e+01    0.3962351    0.2131008 -46.54   0.00139238    2.104    0.525
       468  -9.5194     54.3121     55.6642   1.1648560560e+02   5.8373463656e+01    0.3327525    0.2103058 -59.61  0.001106389    1.819    0.450
       469  -8.1090    139.9135     56.1457   9.0909785340e+01   4.2536204224e+01    0.2245143    0.2017324 -65.15 0.0005415152    1.307    0.235
       470  -8.6279     44.0802     55.5884   1.2016632178e+02   5.9566411987e+01    0.2319449    0.1599737 -62.47 0.0008925145    1.610    0.379
       471  -8.4877    105.7746     53.1143   9.8813166202e+01   5.0485243040e+01    0.2131297    0.1885318 -48.39  0.000628008    1.280    0.219
       472  -9.4327     92.3009     50.5744   1.0194542063e+02   5.3498663901e+01    0.4340106    0.2285715 -47.72  0.001268972    2.141    0.533
       473  -8.3162    129.8658     49.3161   9.1027091508e+01   4.5935936640e+01    0.2521698    0.1907414 -39.73 0.0005882699    1.375    0.273
       474  -8.0140    144.8062     49.0232   8.7408811352e+01   4.2480165795e+01    0.2016912    0.1146334 -30.34 0.0008535801    1.765    0.433
       475  -8.8887    120.9292     47.3555   9.2610465812e+01   4.8242561890e+01    0.2645792    0.2036524 -18.89 0.0004932065    1.294    0.227
       476  -8.6580    248.7490     46.9766   7.0142162479e+01   1.7390909774e+01    0.2088026    0.1893344  74.00  0.000456832    1.174    0.148
       477  -8.4416    112.1855     47.0038   9.4829350200e+01   5.0178721460e+01    0.2112482    0.1875175 -49.77 0.0004915511    1.309    0.236
       478  -8.8421     82.1601     46.6978   1.0377725428e+02   5.5957413286e+01    0.2500606    0.2227552 -53.10 0.0006707048    1.372    0.271
       479  -7.8014    150.4864     45.4689   8.4982984395e+01   4.1624064225e+01    0.1489216    0.1399708  22.93 0.0003272098    1.017    0.017
       480  -8.6226     32.1510     44.6924   1.2132241946e+02   6.2903394838e+01    0.2676782    0.1367872  -2.29  0.001200525    3.262    0.693
       481  -8.7120     16.6545     44.8435   1.2752013998e+02   6.4130452935e+01    0.2046908    0.1586958 -78.57 0.0008153578    1.638    0.390
       482  -8.5363    132.9722     43.5101   8.8251634900e+01   4.6094700260e+01    0.2738312    0.1957814 -47.13 0.0008860503    1.596    0.373
       483  -8.8081     58.2000     42.6544   1.1064158526e+02   6.0324091243e+01    0.3095278     0.191323 -58.15  0.001145889    2.238    0.553
       484  -9.2068     69.7224     41.7421   1.0615744281e+02   5.8823737216e+01    0.3435943    0.2494567 -60.82  0.001106055    2.032    0.508
       485  -9.5551      5.1989     42.2118   1.3141181804e+02   6.5361767190e+01    0.2993015    0.1764269 -72.38  0.001472695    1.863    0.463
       486  -8.5233     45.0430     44.6446   1.1629455354e+02   6.1587202919e+01    0.2267257    0.1570009 -56.49  0.000661118    1.595    0.373
       487  -8.5684    105.9858     41.4002   9.4510627370e+01   5.2342602730e+01    0.2576942    0.1855573 -44.37 0.0005745321    1.551    0.355
       488  -7.9827    140.4268     41.5082   8.5834441935e+01   4.4621553093e+01    0.1452213    0.1384093  12.84 0.0001113486    1.026    0.026
       489  -8.6405     36.9167     40.9019   1.1818902537e+02   6.3162473802e+01    0.2100232    0.1618845 -52.66 0.0007808447    1.345    0.257
       490  -8.9677     95.4062     38.1842   9.6392465998e+01   5.4943283200e+01    0.2738044    0.2175979 -37.03 0.0007864324    1.311    0.238
       491  -8.1505     80.6892     36.9852   1.0058815496e+02   5.7823813692e+01    0.1915363    0.1578193 -24.36 0.0004122087    1.118    0.106
       492  -9.3525     26.1350     35.5745   1.2076676585e+02   6.5175389377e+01    0.2838015    0.1946113 -61.04 0.0008271472    1.677    0.404
       493  -8.4156     92.8121     43.0250   9.9022525045e+01   5.4671586956e+01    0.2747216    0.1846702 -13.25   0.00135782    1.623    0.384
       494  -7.9751    125.9220     35.5382   8.7095707525e+01   4.8850980126e+01    0.2073957    0.1369877  51.66 0.0003566055    1.486    0.327
       495  -9.2829    233.0481    246.4477   1.1489870509e+02  -6.6178698688e+00    0.3745244    0.2179396 -12.27  0.001602245    1.978    0.495
       496  -8.8883     48.4839     33.5352   1.1091905038e+02   6.3185992773e+01    0.2221105     0.196493 -40.83 0.0005982665    1.312    0.238
       497  -8.2633    119.2470     33.2155   8.7888797153e+01   5.0678223359e+01    0.1867689    0.1658404 -51.77  0.000418558    1.347    0.257
       498  -8.5988     60.6220     32.7579   1.0596551823e+02   6.1689102098e+01    0.2135409    0.1819474 -57.34 0.0004391669    1.627    0.386
       499  -8.9605     72.0580     31.3819   1.0128758083e+02   6.0153190031e+01    0.2354151    0.1687934 -43.55  0.000579727    1.554    0.357
       500  -8.7506     13.0697     30.7261   1.2473332276e+02   6.7096315052e+01    0.2212975    0.1610622 -62.45  0.001199498    1.520    0.342
       501  -7.8081     41.7055     30.3170   1.1238453148e+02   6.4549278567e+01      0.10776   0.09567252 -62.22 0.0002767477    1.605    0.377
       502  -8.0946    101.4118     29.2530   9.1138495370e+01   5.5042565198e+01    0.1876421     0.122576 -37.13 0.0005394824    1.605    0.377
       503  -8.9635     81.4222     27.5824   9.6560520870e+01   5.9120036823e+01    0.2570029    0.2132791 -52.23 0.0008585454    1.623    0.384
       504  -8.4949      3.8322     27.7442   1.2787084079e+02   6.8228934583e+01    0.1858725    0.1344169 -80.88 0.0008081026    2.012    0.503
       505 -10.1634    143.5305     26.7070   8.0012413684e+01   4.5793201750e+01    0.2982638    0.2298859  44.23 0.0002175928    1.214    0.176
       506  -7.8140    104.3424     34.6644   9.2423200455e+01   5.3682278188e+01    0.1366225    0.1118533 -66.96 0.0007050378    1.762    0.433
       507  -8.7918     91.6912     26.0627   9.2700974009e+01   5.7415948084e+01    0.3349683    0.1821476 -42.19  0.001135736    2.126    0.530
       508  -7.8918    104.3553     23.1282   8.7872469981e+01   5.5229240502e+01      0.18841    0.1178997 -35.12 0.0007266843    1.672    0.402
       509  -7.8697     34.4452     23.2089   1.1258147850e+02   6.6555709333e+01    0.1584874    0.1014427 -48.18 0.0005425896    1.635    0.388
       510  -8.0433    154.5520     22.1878   7.6349595815e+01   4.3579098706e+01    0.1898375    0.1361694   0.08 0.0004285526    1.588    0.370
       511  -7.8841    112.2674     22.5912   8.5580342891e+01   5.3588404047e+01    0.1380037    0.1036089 -53.04 0.0004060802    1.757    0.431
       512  -8.8809     63.5812     21.2574   1.0005138628e+02   6.3017391484e+01     0.262445    0.1907343 -42.08 0.0008687737    1.597    0.374
       513  -8.8183     48.4086     21.8232   1.0615533662e+02   6.5113328273e+01    0.1993344    0.1786104 -35.80  0.000561692    1.395    0.283
       514  -8.3026     19.8327     21.7828   1.1850177140e+02   6.8192751910e+01    0.1466582    0.1224119 -46.53 0.0006196204    1.350    0.259
       515  -7.8092    120.6654     21.3167   8.3029528768e+01   5.1853568054e+01    0.1366163    0.1095088 -65.17 0.0007047855    1.694    0.410
       516  -7.5768    117.2962     21.3475   8.3846398642e+01   5.2615420618e+01    0.1491669   0.09693953  21.08 0.0007033569    1.676    0.403
       517  -8.2391    191.4481    249.5047   1.2228571797e+02  -7.1269625057e-01    0.1958545   0.08655432  48.15  0.000651682    2.162    0.537
       518  -7.7265     12.2803     20.6537   1.2155867070e+02   6.8978632022e+01   0.09884436   0.08438211 -67.31 0.0002370557    1.638    0.390
       519  -7.8141     87.8073     17.7955   9.0406079470e+01   5.9237092117e+01    0.1651564    0.1492675 -28.99 0.0003977893    1.293    0.227
       520  -7.9019     38.8088     18.6074   1.0874997240e+02   6.6807381106e+01    0.1427909    0.1095173  34.20 0.0005080972    1.621    0.383
       521  -7.8673    112.8335     16.8523   8.3167112780e+01   5.4128026169e+01    0.1725649    0.1610261 -46.61 0.0002993183    1.296    0.229
       522  -8.0216     29.9975     16.0274   1.1149282415e+02   6.8191761951e+01    0.1612747    0.1371998 -52.83  0.001059285    1.667    0.400
       523  -7.9613      7.5376     15.5106   1.2186025107e+02   7.0204918337e+01    0.1114669   0.08395462 -35.09 2.276283e-05    1.068    0.064
       524  -7.7211     17.2065     14.3869   1.1673288294e+02   6.9663363430e+01    0.1296941     0.101045  24.47 0.0004532253    1.598    0.374
       525  -9.1600    175.7545    247.4338   1.2469146752e+02   1.9594222390e+00    0.2898321    0.2140953  84.93   0.00111214    2.451    0.592
       526  -8.7240    156.4779    248.3204   1.2811360610e+02   4.8237500490e+00     0.224666    0.1537234  67.97 0.0007477293    1.930    0.482
       527  -8.7665    132.3526    248.0557   1.3222188651e+02   8.5199769215e+00    0.2322551    0.1560767  75.24 0.0007245069    1.915    0.478
       528  -7.6221     27.7308     10.3322   1.0995870425e+02   6.9310648372e+01    0.1009531   0.08581465 -44.62 0.0005589216    1.587    0.370
       529  -8.3638    113.1193    248.2859   1.3551532279e+02   1.1301966563e+01    0.2179047    0.1327027 -79.06  0.001367664    2.195    0.545
       530  -9.1496    103.9638    246.9990   1.3693694963e+02   1.2792181991e+01    0.3726942    0.1989318  88.95  0.001927172    3.085    0.676
       531  -8.8944    242.9961    246.8373   1.1333929288e+02  -8.0826473000e+00     0.293445    0.1464625 -22.46  0.001766635    2.239    0.553
       532  -8.6537    218.6447    247.5266   1.1743646861e+02  -4.6107028087e+00    0.2977108    0.1540667 -24.09  0.001535526    2.383    0.580
       533  -9.9430    223.9309    244.1758   1.1606511597e+02  -5.0408364509e+00    0.3640997    0.2311853 -41.70  0.002331599    2.240    0.554
       534  -8.7915     63.9278    247.9000   1.4358485881e+02   1.7915358175e+01    0.1575999    0.1156101  65.32  0.001073585    1.025    0.025
       535  -7.7697     40.6718    248.3227   1.4724907050e+02   2.0553522206e+01    0.1080117   0.05211399  64.72 0.0007048949    1.692    0.409
       536  -8.9963    147.1154    246.3491   1.2949408004e+02   6.5262648932e+00    0.2343585     0.151796  70.32    0.0013917    2.144    0.534
