#   1 NUMBER                 Running object number                                     
#   2 MAG_AUTO               Kron-like elliptical aperture magnitude                    [mag]
#   3 X_IMAGE                Object position along x                                    [pixel]
#   4 Y_IMAGE                Object position along y                                    [pixel]
#   5 X_WORLD                Barycenter position along world x axis                     [deg]
#   6 Y_WORLD                Barycenter position along world y axis                     [deg]
#   7 A_WORLD                Profile RMS along major axis (world units)                 [deg]
#   8 B_WORLD                Profile RMS along minor axis (world units)                 [deg]
#   9 THETA_WORLD            Position angle (CCW/world-x)                               [deg]
#  10 FWHM_WORLD             FWHM assuming a gaussian core                              [deg]
#  11 ELONGATION             A_IMAGE/B_IMAGE                                           
#  12 ELLIPTICITY            1 - B_IMAGE/A_IMAGE                                       
         1 -15.3527    216.9150    116.4094   9.1393224845e+01   1.5285640400e+01     5.823145     2.567101  54.93   0.02330015    2.811    0.644
         2 -11.2605    161.5295     50.8059   8.3374461745e+01   3.8294643659e+01     1.453944    0.7869777 -65.88  0.004692391    3.456    0.711
         3 -12.1033    241.4556     15.6730   6.3126974565e+01   2.2572526868e+01    0.6502014    0.1949338 -51.40  0.002049987    3.536    0.717
         4 -13.9348    183.5865      6.6505   6.5468465308e+01   3.7595021380e+01     6.573579     2.015824  63.26   0.02343857    2.786    0.641
         5 -15.6581    237.4060     32.2976   6.7599350096e+01   2.1759156226e+01     5.456457     2.399714  78.18   0.02231576    2.810    0.644
         6 -12.7967    103.9824     33.3574   9.1175244271e+01   5.6007263916e+01     1.098292    0.8351704 -87.61  0.004981267    1.883    0.469
         7 -12.4424    115.3760     29.0667   8.5897625404e+01   5.3773957160e+01     1.009148    0.3429105  54.52  0.003343071    2.640    0.621
         8 -12.3580      7.6351      6.5415   1.3213686584e+02   7.6541490838e+01     1.292921     0.719726 -23.42  0.007200088    1.739    0.425
         9 -10.0184    115.9871     12.5142   7.8338002109e+01   5.5706870800e+01    0.3775494    0.2496809  62.71  0.001149362    1.422    0.297
        10 -11.2290    120.3017      8.8940   7.5716725850e+01   5.4916246163e+01    0.4939447    0.4223951  67.28  0.001477855    1.123    0.110
        11 -14.6847    219.6982     37.6912   7.0749224545e+01   2.5193272632e+01     2.394775    0.9845048  64.72  0.009909791    2.483    0.597
        12  -9.2541    243.3283      8.1295   6.1159039889e+01   2.2880749279e+01    0.1416826   0.09935095 -36.70 0.0002582937    1.226    0.184
        13  -9.5194    230.4227    167.1933   9.9830207647e+01   6.0893539669e+00    0.1633388    0.1082266 -34.31 0.0009479664    1.720    0.419
        14 -14.7839    231.7769    237.6287   1.1122197129e+02  -1.6695459478e+00     3.172234     1.199963  26.65   0.01670801    2.105    0.525
        15  -9.8780    182.8663    195.9277   1.1375409004e+02   9.9394045092e+00    0.1992316    0.1545071  22.10 0.0002930521    1.002    0.002
        16 -10.3009    214.7479    168.0510   1.0275112595e+02   8.5164646159e+00     0.579159    0.3406303  60.30   0.00230724    4.206    0.762
        17  -9.1336     58.3030    162.3200   1.3839135193e+02   3.5054812092e+01    0.1188453   0.09779403 -30.65  0.000231811    1.629    0.386
        18 -12.2051    245.9810    146.5229   9.3217662648e+01   6.1214827282e+00    0.7025736    0.6096441  15.56  0.004369131    1.236    0.191
        19 -12.1643    235.0156    145.2620   9.4704675285e+01   8.0776123250e+00     1.231446    0.5183683  43.51  0.005694644    2.376    0.579
        20 -10.2228     69.6533    145.3211   1.3333436806e+02   3.7435164949e+01    0.3414609    0.2529913  68.55  0.001319727    1.356    0.262
        21 -10.3091     66.4983    144.4842   1.3413171059e+02   3.8037768451e+01     0.459462    0.3091407  88.75  0.001699512    1.622    0.383
        22  -8.8222    192.2635    144.1047   1.0222297450e+02   1.5948723798e+01    0.1857166    0.1665067  -1.98 0.0003796497    1.104    0.094
        23  -8.8823    128.1102    142.1574   1.1662654530e+02   2.8691225584e+01     0.205133     0.179489  18.53 0.0002561354    1.158    0.137
        24 -10.2369     96.9806    248.7035   1.3712185715e+02   1.4727074039e+01    0.1657103    0.1062876  37.82 0.0009923375    1.103    0.093
        25 -11.5014    134.6362    109.3178   1.0752829840e+02   3.4164640298e+01     1.204425    0.3399541 -42.57   0.00351015    3.788    0.736
        26 -10.6763    160.4492    128.1617   1.0558835887e+02   2.5014979753e+01    0.4614463    0.3420612  -1.24  0.002208214    1.635    0.388
        27 -10.2033    142.3420    101.4992   1.0343583408e+02   3.4058408113e+01    0.3383816    0.2359506  15.45  0.001082967    1.889    0.471
        28  -9.7741    136.5078    127.2341   1.1130302724e+02   3.0104956394e+01    0.3802512    0.2599598 -56.36  0.001164312    1.738    0.425
        29  -8.2953    125.4561    127.4435   1.1429554710e+02   3.2248985794e+01    0.1502519    0.1384542  43.50  4.64833e-05    1.041    0.040
        30  -9.8803    148.2533     96.4724   1.0054669128e+02   3.3696466051e+01    0.3711003    0.2650113  22.86 0.0008706824    1.635    0.388
        31  -9.8441    134.5309     93.9005   1.0342787898e+02   3.7344646612e+01    0.2858231    0.2410288  78.41 0.0009235075    1.450    0.310
        32  -9.6981    157.1649     89.2850   9.6343061808e+01   3.2952116791e+01    0.4107357    0.2794233  33.53  0.001262639    1.553    0.356
        33  -9.7470    160.4625     86.5294   9.4781464502e+01   3.2659019172e+01    0.3145136    0.2767482 -62.23  0.001002713    1.313    0.238
        34 -10.3971    185.4050     85.5999   8.9270709408e+01   2.6837616883e+01     0.557583    0.3197115 -43.95  0.001426776    1.868    0.465
        35 -10.0184    181.8732     68.3966   8.5007167029e+01   3.0387921960e+01    0.2613302    0.2274945 -11.19 0.0003374948    1.176    0.150
        36  -9.3176    181.9109     77.0290   8.7520378453e+01   2.9038422360e+01    0.6309329     0.333759  64.26  0.002439918    2.289    0.563
        37 -11.1747    174.6606     74.5656   8.8218906460e+01   3.1214575360e+01    0.7001556    0.4169034  37.51  0.001361286    1.835    0.455
        38 -10.3961    142.3260     85.1517   9.8806319828e+01   3.7264068069e+01    0.3716563    0.3302467  58.27 0.0007662353    1.169    0.145
        39  -9.1523    250.2653     80.5452   7.8048250558e+01   1.3496266188e+01    0.1500111    0.1303547  64.37 0.0007320821    1.401    0.286
        40 -11.6362    156.8098     76.4408   9.2618983028e+01   3.5338672232e+01    0.3806607    0.2925743 -20.03  0.000684617    1.406    0.289
        41  -9.0234    206.5848     65.2472   8.0000814321e+01   2.4827295834e+01    0.3769535    0.1842776 -62.07  0.001154921    4.413    0.773
        42  -8.7660     91.6622     66.1384   1.0842598507e+02   5.2499743615e+01    0.2388238    0.1880387 -66.61  0.001131702    1.519    0.342
        43 -11.3998    203.9665     56.9589   7.8073118390e+01   2.6572895082e+01     1.054404    0.4464621 -58.51  0.002838998    5.567    0.820
        44 -10.2657    191.5045     60.2588   8.0936707613e+01   2.9181546417e+01    0.2888714    0.2424288  31.50  0.001160072    1.255    0.203
        45 -11.0392    196.8276     56.1220   7.8891807100e+01   2.8433042224e+01    0.4211907    0.2859836  35.65  0.001408433    1.656    0.396
        46 -12.4145    173.9521     57.5506   8.3169602269e+01   3.4035564129e+01    0.6132731    0.4303745   8.27  0.002685476    1.851    0.460
        47  -9.0133     61.3038    247.9539   1.4382759631e+02   1.9011753596e+01    0.1364219    0.1042842  51.27 0.0003774071    1.123    0.110
        48 -10.1354    230.0619     61.9858   7.5952440497e+01   1.9918458339e+01     0.435544    0.2605848 -72.20  0.001615548    2.667    0.625
        49  -8.7329    225.4723     62.9266   7.6769239223e+01   2.0807895058e+01    0.1856686   0.09713469 -48.81 0.0007718058    2.129    0.530
        50  -9.9359    144.4274     59.4730   9.0061143617e+01   4.1406259586e+01    0.4752868    0.2939557 -57.35  0.001859048    2.148    0.534
        51 -10.4434    141.0136    121.4404   1.0880377861e+02   3.0352853417e+01    0.4295321    0.2889504  78.17  0.001650941    2.777    0.640
        52 -10.4189    229.8484     56.5034   7.4570169118e+01   2.0642121476e+01    0.3165512    0.2511347 -71.16 0.0008651218    1.465    0.318
        53  -9.2672    114.5551     57.2596   9.7463426834e+01   4.9269772850e+01    0.2979065    0.1504581 -42.75 0.0007942267    2.054    0.513
        54  -8.2905     72.5455     58.4376   1.1335736566e+02   5.7748259764e+01    0.1458439     0.139774 -19.87 0.0001256797    1.004    0.004
        55  -9.3701     34.1311     57.3921   1.3101946745e+02   6.2996799166e+01    0.2417202    0.1794981 -77.99 0.0005454025    1.387    0.279
        56  -9.0083    180.0622     51.7241   8.0264952992e+01   3.3293139016e+01    0.2752846    0.1962517 -46.97  0.001289821    1.460    0.315
        57  -9.5097    136.7240    242.4153   1.2894123013e+02   1.0433697082e+01    0.2291046   0.07690898  38.02  0.001129645    2.079    0.519
        58  -8.4696     39.0622    226.4364   1.4707483900e+02   2.4784541485e+01     0.154868   0.08191141  34.84 0.0004000504    1.505    0.336
        59 -13.2114      8.4527    212.5317   1.5266146811e+02   2.9997180446e+01    0.7674569    0.5371537  59.66  0.004032456    1.059    0.055
        60  -8.6188    133.2121     51.2339   8.9950388967e+01   4.5687969279e+01    0.2073985    0.1806634 -64.98 0.0002863063    1.306    0.235
        61 -13.2638     25.6407    197.7106   1.4862314075e+02   3.1218717840e+01     1.161372    0.6623647  76.40  0.007450678    1.601    0.375
        62 -12.2651    133.1889     38.7532   8.5258478538e+01   4.7662685481e+01     1.110087     0.584323  71.80  0.003986893    2.477    0.596
        63 -11.7871    107.6704     22.4326   8.5102791820e+01   5.6687544222e+01    0.8576871    0.2212021  45.97  0.002422697    3.797    0.737
        64 -13.4050     39.7795    187.2830   1.4492299715e+02   3.1877873029e+01    0.8680675    0.6816564  39.78  0.001950284    1.192    0.161
        65 -11.5812    114.2789     25.1956   8.4502592543e+01   5.4599894095e+01    0.6720564     0.242983  44.07  0.002187453    2.845    0.648
        66 -12.0169    123.3318     37.9048   8.7429730412e+01   5.0391798066e+01    0.9482858    0.5394906 -64.24  0.003204109    3.199    0.687
        67 -13.3081     51.2074    177.5181   1.4152695022e+02   3.2642627380e+01     1.007189     0.748359  54.31  0.002780586    1.108    0.098
        68  -9.1106    101.0039    175.9941   1.2903753957e+02   2.6414261764e+01    0.1821454    0.1535189  42.57  0.001114508    1.012    0.012
        69 -11.1425    234.4870    173.6495   1.0035882528e+02   4.6831455228e+00     0.301034     0.218984  43.44  0.001270348    1.704    0.413
        70 -10.8675     67.3545    170.1310   1.3681837120e+02   3.2277866872e+01    0.3053757    0.1489265 -67.72  0.001459327    2.196    0.545
