#   1 NUMBER                 Running object number                                     
#   2 MAG_AUTO               Kron-like elliptical aperture magnitude                    [mag]
#   3 X_IMAGE                Object position along x                                    [pixel]
#   4 Y_IMAGE                Object position along y                                    [pixel]
#   5 X_WORLD                Barycenter position along world x axis                     [deg]
#   6 Y_WORLD                Barycenter position along world y axis                     [deg]
#   7 A_WORLD                Profile RMS along major axis (world units)                 [deg]
#   8 B_WORLD                Profile RMS along minor axis (world units)                 [deg]
#   9 THETA_WORLD            Position angle (CCW/world-x)                               [deg]
#  10 FWHM_WORLD             FWHM assuming a gaussian core                              [deg]
#  11 ELONGATION             A_IMAGE/B_IMAGE                                           
#  12 ELLIPTICITY            1 - B_IMAGE/A_IMAGE                                       
         1 -13.0203    162.6032     57.4085   6.2316152692e+01   3.7199716757e+01      1.42443     1.137936  13.92  0.003709998    1.507    0.337
         2 -13.0257    176.3807     42.6106   5.5160245779e+01   3.5883239030e+01     1.103441    0.9512965   1.84  0.003738733    1.346    0.257
         3 -14.6131    123.7215     19.5707   5.7629900577e+01   5.2048286095e+01      3.52466     3.002529 -22.70   0.02032059    1.241    0.194
         4 -13.0742    195.5179     11.4860   4.3401948394e+01   3.4754760898e+01     1.017724    0.9526669  40.65  0.004268053    1.225    0.184
         5 -12.8896    221.8708      4.5940   3.9022919644e+01   2.8987429591e+01     1.649339    0.4960689  75.75  0.006067802    3.298    0.697
         6 -10.7233     10.1162    216.3819   1.2907989905e+02   2.8203700726e+01    0.1471917   0.08940292 -51.37 0.0009192693    2.592    0.614
         7 -12.8455    247.2653    245.0888   8.8593924519e+01  -1.0552384898e+01     1.138408    0.6012915 -19.58  0.006885928    1.993    0.498
         8  -9.3866    167.7715    247.9726   1.0302990542e+02   1.0016854482e+00    0.2730986    0.1512118 -45.20  0.001573832    2.288    0.563
         9  99.0000     13.6233     93.3842   1.1735434273e+02   5.4969961237e+01     12.48452     5.602154 -80.15    0.0588473    2.271    0.560
        10 -18.4336     44.8335    236.3618   1.2422028194e+02   2.0751485968e+01     5.326019     2.517779  34.87   0.02213915    2.313    0.568
        11 -12.0392     75.3455    193.9112   1.1466520340e+02   2.5154863269e+01    0.4787171    0.2705798 -61.38  0.001494055    1.801    0.445
        12  -9.0664    216.0961    197.8666   8.6016210870e+01   2.2956385918e-01    0.1792346    0.1707026  20.68 0.0005021961    1.251    0.201
        13  -9.4116     46.7670    198.0707   1.2100327520e+02   2.7972796394e+01    0.1423121    0.1159722  72.93 0.0002530269    1.070    0.066
        14 -11.1002    247.5598    195.5424   7.9937434015e+01  -4.6433577242e+00    0.2630438    0.2219929  -0.15  0.001745608    1.089    0.082
        15  -9.1869    159.2126    195.9016   9.6975469877e+01   1.0812409942e+01    0.2033574    0.1774697  62.10 0.0005954339    1.217    0.178
        16 -10.4946     35.5853    196.2457   1.2308754310e+02   2.9626937524e+01    0.1680633    0.1311249  49.89  0.000219835    1.316    0.240
        17 -10.1587    242.0035    194.4883   8.0697680091e+01  -3.6152264223e+00    0.1909288    0.1130008  35.71 0.0007604489    1.592    0.372
        18  -9.4071    217.0295    192.9599   8.4921744856e+01   8.0580625587e-01    0.1977594    0.1710589  15.68  0.001223233    1.035    0.034
        19 -10.8486    192.8330    196.2878   9.0197864968e+01   4.5947808867e+00     0.881794    0.4540449 -60.89  0.002961864    5.001    0.800
        20  -9.3149     74.7006    199.3102   1.1539736364e+02   2.4114529248e+01    0.1723788    0.1046412  56.53 0.0004650905    1.466    0.318
        21  -9.2370    217.5376    188.4583   8.3965659333e+01   1.4047290551e+00    0.1349188    0.1156625  10.78 4.813326e-05    1.014    0.014
        22 -10.7696    153.6431    186.0049   9.6450855867e+01   1.3696272905e+01    0.3421131    0.2631309 -85.91   0.00122394    1.758    0.431
        23  -9.6413     61.2541    204.1750   1.1863968920e+02   2.4917909190e+01    0.1609041     0.107718  64.53 0.0005942099    1.275    0.216
        24  -9.6475    228.1580    202.9821   8.4744173793e+01  -2.5394678567e+00    0.2302806    0.1937874  84.46   0.00131984    2.233    0.552
        25 -10.7982    243.4590    184.4339   7.8498650783e+01  -2.4451885691e+00    0.3369616    0.1897514  -8.70  0.001569426    2.267    0.559
        26 -10.1615    185.3567    184.2735   8.9465060882e+01   8.0137851954e+00    0.2260424    0.2136923  42.76 0.0002692105    1.137    0.121
        27 -10.5819    137.8288    184.8685   9.9701811652e+01   1.6847641238e+01    0.2021593    0.1870215  17.94 0.0004161924    1.200    0.166
        28 -10.7203    188.9114    177.7612   8.7477269765e+01   8.4828348161e+00    0.5746823     0.349354 -52.97  0.002638014    2.072    0.517
        29 -12.1254    140.4539    176.4556   9.7656652551e+01   1.8068540427e+01    0.6289037    0.4257074  46.15  0.002758843    1.379    0.275
        30 -10.9587    139.3151    169.2561   9.6599192547e+01   1.9777251205e+01    0.4990705    0.3527433  23.44  0.001717995    1.736    0.424
        31  -9.6798    195.9375    174.7123   8.5446032742e+01   7.6642827490e+00    0.2997573    0.2432862 -38.78  0.001651664    1.307    0.235
        32  -9.0338     73.0029    176.2868   1.1307395235e+02   2.9316383456e+01    0.1802387    0.1497838  65.20 0.0003819461    1.092    0.084
        33  -8.6597    207.2805    171.9238   8.2633498064e+01   5.9654388146e+00    0.2143688    0.1049684 -56.10 0.0007014173    4.131    0.758
        34  -9.3918     53.7001    171.4080   1.1688913647e+02   3.2936127842e+01    0.3461957    0.1219324  49.68  0.001440105    2.795    0.642
        35  -8.7244     70.8595    180.7960   1.1411426549e+02   2.8612004924e+01    0.1438688   0.09881827  38.33 0.0002725586    1.529    0.346
        36 -10.6835     34.8278    168.9122   1.2088387003e+02   3.5631307422e+01    0.4128678    0.2897348 -23.49  0.002275041    2.572    0.611
        37  -8.7016    206.1524    168.1541   8.2073746641e+01   6.8249690422e+00    0.1695777    0.1652583 -58.69  0.001003799    1.245    0.197
        38  -9.1444     43.2535    164.8294   1.1855702368e+02   3.5646802586e+01    0.2729291    0.1338803  44.11  0.001400404    1.980    0.495
        39  -8.5199    123.6535    162.2589   9.8957626105e+01   2.4225860682e+01    0.1483175     0.107232  69.19 0.0002882926    1.597    0.374
        40 -10.7903     99.3383    157.3521   1.0398229926e+02   2.9608997737e+01    0.2688568    0.2526735 -65.62 0.0003593603    1.123    0.109
        41 -11.5238    103.6566    151.2349   1.0181745470e+02   3.0291490373e+01    0.6507196    0.4948404 -31.09  0.002063544    1.696    0.410
        42  -9.1497    119.3326    156.6681   9.8952439937e+01   2.6264318917e+01    0.4193206    0.2007387  58.75  0.001474915    2.970    0.663
        43 -11.9784    140.0214    198.2519   1.0140000708e+02   1.3837490889e+01    0.4704286    0.2753093 -57.64   0.00191175    1.977    0.494
        44  -9.4437    188.1445    155.8768   8.3093230664e+01   1.2640852959e+01    0.4115331    0.1809128  41.96   0.00157317    2.234    0.552
        45 -10.7361    133.6412    146.3071   9.3379477038e+01   2.5847782035e+01     1.259894    0.3113902 -55.18  0.002869103    6.445    0.845
        46  -9.1904    129.2437    141.2331   9.3379348391e+01   2.7851622806e+01    0.2884397    0.2120017  51.67 0.0008018855    1.374    0.272
        47 -12.6282     88.9687    151.2211   1.0552391816e+02   3.2710445704e+01    0.3732892    0.3031903 -35.69 0.0008503157    1.509    0.338
        48  -9.6502    112.3889    151.5953   9.9699214014e+01   2.8674740271e+01    0.2203542    0.1672357  78.51 0.0008990124    1.519    0.342
        49  -9.7398    143.8747    147.4291   9.1149011521e+01   2.3544053831e+01    0.4571956    0.2004424 -61.95  0.001338073    4.129    0.758
        50 -10.3392    112.5232    137.8580   9.6916008750e+01   3.1818005582e+01     0.494079    0.2676212 -41.43  0.002010854    2.086    0.521
        51 -11.5976    101.9041    136.9892   9.9517492321e+01   3.3921487648e+01    0.2618171    0.2558397  88.94  0.000336952    1.067    0.063
        52  -9.3513    160.2611    128.7880   8.2988617039e+01   2.4049199330e+01    0.3177755    0.2466955 -51.82  0.001126359    1.335    0.251
        53  -9.2324    117.9549    129.3005   9.3627675551e+01   3.2774746860e+01    0.2577598    0.2074837 -24.00 0.0007328728    1.508    0.337
        54  -9.7680    135.0000    125.4451   8.8316942808e+01   3.0223865660e+01    0.3422997   0.08737958 -47.02 0.0009291722    3.890    0.743
        55 -10.0946    106.3054    124.7528   9.5716062398e+01   3.6013825730e+01    0.2576046    0.2332168 -26.99  0.000496194    1.227    0.185
        56  -8.9012    112.4917    118.8630   9.2656897322e+01   3.6231375674e+01    0.2159721     0.145825 -52.31 0.0003701769    1.438    0.305
        57  -8.4998    151.6211    117.1610   8.2127101731e+01   2.8430260875e+01    0.2043063    0.1478784 -32.61 0.0002467414    1.474    0.322
        58  -9.8063    168.1658    114.0440   7.7455724253e+01   2.5310419093e+01     0.411797    0.3021344 -76.57  0.001237621    1.925    0.481
        59  -9.3959    207.9830    113.9595   6.9246515078e+01   1.6155035869e+01    0.2159732    0.2080886 -19.24 0.0003285291    1.016    0.015
        60  -9.5483     84.4363    108.4839   9.8196784823e+01   4.3581390767e+01    0.3233804    0.2149124  58.28 0.0009426422    1.838    0.456
        61  -9.5185    134.4915    105.9715   8.3470346827e+01   3.4624607863e+01    0.4286251    0.1524432 -44.71  0.001372089    2.766    0.638
        62 -14.1373     75.4130    248.3980   1.1977156242e+02   1.4775294422e+01    0.3409954    0.2233815 -71.65  0.001989709    1.692    0.409
        63  -8.6663    149.4746     82.4912   7.2979869900e+01   3.6017127660e+01    0.1562838    0.1521012   2.93 0.0008097762    1.038    0.037
        64 -10.4198    112.1015     72.5951   7.9779206753e+01   4.6385749513e+01    0.2612045      0.23143 -32.86 0.0001669478    1.092    0.084
        65  -8.5448    102.3359     73.3025   8.2922324738e+01   4.8216689773e+01    0.1522558     0.114845  -0.94 0.0007037126    1.663    0.399
        66  99.0000     12.2101    243.6994   1.2999307648e+02   2.3012252044e+01    0.2630681    0.1184891  75.27  0.001687632    1.802    0.445
        67  -9.4594    167.1336    228.3634   1.0046098056e+02   3.9716181473e+00    0.1970563    0.1800013 -67.58 0.0005521202    1.387    0.279
        68 -11.6825    181.1381     35.8872   5.2356714589e+01   3.5566325926e+01    0.4386797    0.3633741  -1.22  0.001229695    1.443    0.307
        69  -8.3632    208.4639     65.5029   5.6483562647e+01   2.4344437612e+01     0.146309    0.1403559 -55.12 0.0007353824    1.026    0.025
        70 -14.2774     69.0987    245.4377   1.2064377847e+02   1.6116542467e+01    0.5306052    0.3455469 -39.74  0.003040486    3.148    0.682
        71 -12.1182    151.3469    195.8936   9.8626179194e+01   1.2247831216e+01    0.5546517    0.4832337  36.68  0.003313548    1.070    0.066
