#   1 NUMBER                 Running object number                                     
#   2 MAG_AUTO               Kron-like elliptical aperture magnitude                    [mag]
#   3 X_IMAGE                Object position along x                                    [pixel]
#   4 Y_IMAGE                Object position along y                                    [pixel]
#   5 X_WORLD                Barycenter position along world x axis                     [deg]
#   6 Y_WORLD                Barycenter position along world y axis                     [deg]
#   7 A_WORLD                Profile RMS along major axis (world units)                 [deg]
#   8 B_WORLD                Profile RMS along minor axis (world units)                 [deg]
#   9 THETA_WORLD            Position angle (CCW/world-x)                               [deg]
#  10 FWHM_WORLD             FWHM assuming a gaussian core                              [deg]
#  11 ELONGATION             A_IMAGE/B_IMAGE                                           
#  12 ELLIPTICITY            1 - B_IMAGE/A_IMAGE                                       
         1 -15.0056    226.6709     63.4415   2.3117149492e+01   1.9824002418e+01     2.337806     1.639004  -6.48   0.01096461    2.083    0.520
         2 -14.5582    238.7955     56.1074   1.9786369794e+01   1.8110501455e+01     1.356344       1.1567 -81.99  0.008027468    1.140    0.123
         3 -14.9252    240.4300     71.5845   2.3244554524e+01   1.5427044579e+01     1.402599     1.100811  32.50  0.007575098    1.625    0.385
         4 -14.5746     54.0396     53.7196   6.2572155097e+01   5.9598260085e+01     1.434865      0.49605 -50.96  0.005540586    2.968    0.663
         5 -15.0847     64.4804     42.0385   5.4417721879e+01   6.0232201869e+01    0.9223719    0.6879315  -6.50  0.005334245    1.331    0.249
         6 -14.2274    214.9300     42.2126   1.9350681861e+01   2.5722146007e+01     1.047345    0.5692365 -84.05  0.004226698    2.558    0.609
         7 -14.2657     77.0209     29.7812   4.5033118634e+01   6.0060883091e+01    0.5926836    0.4148673 -19.13  0.003324722    1.379    0.275
         8 -14.1246     59.8689     15.5672   4.5126800351e+01   6.4866744605e+01      0.59834    0.4323995  53.05  0.003524313    1.900    0.474
         9 -14.4893     92.9080      3.3527   2.8992508841e+01   5.9975862147e+01     1.170207    0.4312634  51.40  0.005135355    2.224    0.550
        10 -14.2555     82.1253     13.3557   3.6403456771e+01   6.1174620652e+01    0.5182572    0.3617407  -2.64  0.002166021    1.438    0.305
        11 -13.8399     88.3043     11.7114   3.3825880769e+01   6.0125030734e+01    0.8825388    0.6229402  83.81  0.004406297    2.536    0.606
        12 -11.9626    123.8953      9.8230   2.4278167656e+01   5.2414447310e+01    0.2244948    0.2046165 -43.07 0.0007742685    1.271    0.213
        13 -13.1225    111.5158      4.3076   2.4860961229e+01   5.5799129562e+01    0.3682841    0.2620365  29.07   0.00194507    1.351    0.260
        14 -11.3514    138.5051      5.0505   1.9833242441e+01   4.9301705896e+01    0.2192934    0.1608965  62.61 0.0005180169    1.193    0.162
        15 -13.9466     74.9615     13.3637   3.8723964955e+01   6.2528409565e+01    0.5176625    0.2681251  30.67  0.002549946    1.922    0.480
        16 -12.8722    115.4959     12.3285   2.7032408686e+01   5.4144634950e+01    0.2506312    0.2296394 -54.78   0.00101109    1.314    0.239
        17 -14.2790    195.7072    111.8706   4.0651744385e+01   1.8877157953e+01    0.7227451    0.5597713   8.32  0.003350498    1.651    0.394
        18 -12.3173    209.5103    117.1418   3.9314748112e+01   1.4722599530e+01    0.4178714    0.1436706 -37.80  0.001379297    2.794    0.642
        19 -13.1520    185.7833    114.6481   4.3373873365e+01   2.0672624956e+01    0.4163615     0.366561 -32.32  0.002117136    1.136    0.120
        20 -11.4776      2.4825    115.5077   9.3154598653e+01   5.0582315946e+01    0.1189694   0.09112155 -74.40 0.0008103813    1.005    0.005
        21 -13.5566    217.2163    112.2067   3.6704154513e+01   1.3878887193e+01    0.5402282    0.3959975 -58.02  0.002592701    1.553    0.356
        22 -14.1705    223.3540    130.6987   4.0019585777e+01   9.2648327351e+00    0.6876044    0.4928667  75.93  0.003168281    2.072    0.517
        23 -13.1187    119.3234    103.3576   5.6430285076e+01   3.8171712329e+01    0.3720348    0.2777089 -64.84  0.001712898    1.555    0.357
        24 -12.8862    134.3857     99.2134   5.1246254731e+01   3.5816006369e+01    0.6413797    0.3529829 -37.54  0.002534738    1.895    0.472
        25 -11.0851    202.7238     91.0133   3.3947810756e+01   2.1022330465e+01    0.3406325    0.2009208  46.30  0.001315212    1.782    0.439
        26 -12.0230     43.1960     99.0434   7.8478867663e+01   5.1124597859e+01    0.2117564    0.2015175  10.08   0.00125887    1.223    0.182
        27 -12.8595    205.6443     96.4392   3.4825612765e+01   1.9362751563e+01     0.403502    0.2732039  34.37  0.001796682    1.764    0.433
        28 -12.7327    113.5186     96.5966   5.6195293131e+01   4.0833016709e+01    0.4183837    0.2425426  59.62  0.001624822    2.326    0.570
        29 -10.7318    246.3028    183.3492   4.7309499473e+01  -3.6478521790e+00     0.137648   0.09013889   1.74 0.0007039901    1.695    0.410
        30 -10.9565    138.6649    152.3464   6.3132270233e+01   2.3232964218e+01    0.1598935    0.1190788  82.19  0.000704889    1.772    0.436
        31 -14.1054    239.5934     91.3536   2.8049754248e+01   1.2479131330e+01    0.7410509    0.6664568 -36.76  0.002969716    1.050    0.048
        32 -14.7438    236.0570     81.5216   2.6213336997e+01   1.4844084891e+01      1.05592    0.8978854  62.79  0.005822864    1.258    0.205
        33 -10.8703    212.4957    148.5168   4.6129582666e+01   8.3630746843e+00    0.1470232    0.1358246  -0.98 1.233814e-05    1.024    0.024
        34 -13.4383     31.9310     88.0664   7.9890492866e+01   5.4712505625e+01    0.5759617    0.2740039  21.06  0.002803547    2.598    0.615
        35 -12.5678    218.7667     94.3095   3.2013712852e+01   1.6659436518e+01    0.5516626    0.4190995  67.20  0.002413989    1.449    0.310
        36 -12.1482     40.3332     81.1158   7.5467930824e+01   5.5475116186e+01    0.2306989    0.1950763  33.82  0.001321598    1.389    0.280
        37 -12.8711     28.6255     80.9360   7.9499282762e+01   5.6589247750e+01    0.2215407    0.1917832  34.93  0.001483473    1.396    0.284
        38 -11.0848    176.3640     79.5681   3.5870689701e+01   2.9551048787e+01    0.3204719    0.2259567 -61.94  0.001261412    1.686    0.407
        39 -12.6502     19.0166     77.4964   8.2125030603e+01   5.8085432510e+01    0.2249592    0.1871919  26.40  0.001459206    1.471    0.320
        40 -11.6311    202.7405     72.1419   2.8970026150e+01   2.4232270104e+01    0.3831862    0.1680156  44.89  0.001375687    2.653    0.623
        41 -10.6352    164.0180     71.5102   3.6100868838e+01   3.4061984348e+01    0.2448238    0.1500966  55.19  0.001035813    1.599    0.375
        42 -13.0050    247.5130    144.6272   3.8998723933e+01   2.1190462343e+00    0.4849787    0.3600031  77.28  0.002424612    2.236    0.553
        43 -11.9106     51.6814    140.9528   8.3353605780e+01   4.0280883322e+01    0.4644348    0.1147903 -64.71  0.001548211    3.555    0.719
        44 -11.0029     43.5317     62.4959   6.9351485716e+01   5.9111080693e+01    0.1295355    0.1083487 -35.87 6.052156e-05    1.004    0.004
        45 -10.5457    169.1876     60.5645   3.1792969450e+01   3.4579848525e+01    0.2197546    0.1338198  46.31 0.0007481559    1.657    0.397
        46 -13.5551     38.9661     48.9453   6.6912680443e+01   6.2275167094e+01    0.7019014    0.3341455 -61.44  0.002982286    3.088    0.676
        47 -13.5889     41.5392     44.8677   6.4479818887e+01   6.2759461687e+01    0.4378276    0.3161973 -52.15  0.002638682    1.478    0.324
        48 -10.7092    151.6206     53.2079   3.3153756341e+01   4.0182001078e+01    0.2065333    0.1459586 -17.34 0.0007292597    1.660    0.398
        49 -12.4304     47.5399    141.5196   8.4518740929e+01   4.0627411107e+01    0.3296689    0.1303789  30.70  0.001403194    2.891    0.654
        50 -14.7004    215.6098     67.9470   2.5836330416e+01   2.1762117384e+01     1.413777    0.8080497 -35.54  0.006331527    1.695    0.410
        51 -11.4919    217.7695     38.2394   1.7991807927e+01   2.5565519096e+01    0.3975307    0.2493383 -89.62  0.001414681    1.759    0.432
        52 -12.0328    175.7887     33.0364   2.2447443213e+01   3.6835030385e+01    0.2584805    0.1970064  68.71 0.0006314541    1.226    0.184
        53 -10.5682    166.5012     33.0450   2.3987966527e+01   3.9222494732e+01    0.2114145    0.1444645 -29.30  0.001028793    1.577    0.366
        54 -11.9735      3.3114    139.8793   9.5422973503e+01   4.5011401034e+01    0.2965493    0.1918437 -75.79   0.00192171    1.194    0.163
        55 -12.2758    183.8753     30.6737   2.0523834468e+01   3.5054103974e+01    0.2397046    0.2063065 -11.93  0.001330427    1.370    0.270
        56 -12.6095     47.8888     24.7729   5.4025860268e+01   6.5357151118e+01    0.3055124    0.2294217 -55.20  0.001796004    2.046    0.511
        57 -11.0197    171.3263     29.3204   2.2063401394e+01   3.8445561149e+01    0.1493923    0.1030133  35.27 0.0005478638    1.682    0.406
        58 -11.0386    131.0000     23.9536   2.7837866865e+01   4.9233735995e+01    0.2182757   0.08067006 -26.23 0.0007470374    2.940    0.660
        59 -13.8024    249.0149    102.1882   2.9209539465e+01   8.7310811691e+00     1.019165    0.6092378 -38.46  0.004990053    1.484    0.326
        60 -14.4234    245.9299    113.8533   3.2349471533e+01   7.4572796141e+00     1.237387    0.7734292  52.74   0.00611957    1.777    0.437
        61 -15.3429    235.3095    128.6660   3.7466339277e+01   7.1389849236e+00     1.556759     1.080529  22.90  0.007575792    1.765    0.434
        62 -13.5465    238.3316    118.7049   3.4668115581e+01   8.2039619036e+00    0.5931064    0.3602221 -36.23  0.002318832    1.505    0.336
        63 -11.5787    122.1396    126.8652   6.1617116441e+01   3.2320188117e+01    0.2430567    0.2150068  84.15  0.001240265    1.227    0.185
        64 -10.9828     28.2395    126.0120   8.7468434598e+01   4.6247006229e+01    0.1755844   0.08873428 -68.77 0.0008860336    1.625    0.385
        65 -13.1298    205.5243    122.9931   4.1499305685e+01   1.4542657757e+01    0.5735469    0.2521771 -45.05  0.002106088    2.330    0.571
        66 -13.7473    220.7979    119.4082   3.7809666757e+01   1.1807943690e+01    0.4460713    0.3816955 -26.01  0.001685239    1.131    0.115
