#   1 NUMBER                 Running object number                                     
#   2 MAG_AUTO               Kron-like elliptical aperture magnitude                    [mag]
#   3 X_IMAGE                Object position along x                                    [pixel]
#   4 Y_IMAGE                Object position along y                                    [pixel]
#   5 X_WORLD                Barycenter position along world x axis                     [deg]
#   6 Y_WORLD                Barycenter position along world y axis                     [deg]
#   7 A_WORLD                Profile RMS along major axis (world units)                 [deg]
#   8 B_WORLD                Profile RMS along minor axis (world units)                 [deg]
#   9 THETA_WORLD            Position angle (CCW/world-x)                               [deg]
#  10 FWHM_WORLD             FWHM assuming a gaussian core                              [deg]
#  11 ELONGATION             A_IMAGE/B_IMAGE                                           
#  12 ELLIPTICITY            1 - B_IMAGE/A_IMAGE                                       
         1 -14.3895    206.6860      6.8541   4.7094379262e+01   3.2035390185e+01     2.180849     1.071102  51.21  0.009476508    2.081    0.519
         2 -13.7880    172.5136     49.4410   6.5142189922e+01   3.5726806724e+01     1.207513    0.8835204   8.18 0.0008650399    1.727    0.421
         3 -15.0000    187.2445     34.4494   5.7858992025e+01   3.3959711196e+01     2.460361     1.423311  23.79  0.009436978    2.614    0.617
         4 -11.4051    220.0971     16.8469   4.8410239327e+01   2.7521222775e+01     0.226845    0.1761265 -66.58 0.0006402862    1.266    0.210
         5 -18.5302     44.6364    246.3602   1.2887658305e+02   2.0578365232e+01     6.280223       3.6466  39.99   0.04483796    1.878    0.468
         6 -19.2450     21.0822     99.6549   1.2046602543e+02   5.2316115071e+01     17.42241     1.713959 -68.71   0.03987917    9.213    0.891
         7 -12.0899    113.0598    195.8109   1.1247363644e+02   1.9891444951e+01     0.407095    0.3071817   3.37  0.002152418    2.570    0.611
         8 -10.7551     81.8775    195.2243   1.1845792296e+02   2.4768621923e+01    0.2925245    0.2515237 -72.89  0.001643577    1.313    0.238
         9 -12.2340    193.0831    194.8424   9.6871822818e+01   5.7507619051e+00    0.9472762    0.5127332 -64.49  0.003155217    5.751    0.826
        10 -11.6839    153.0883    193.5788   1.0430645426e+02   1.3351688397e+01    0.3707707    0.2298735  67.32  0.001797604    2.110    0.526
        11 -10.6548     96.8862    189.3517   1.1484322584e+02   2.3681061131e+01    0.3603111    0.1997939  74.28  0.001742267    2.276    0.561
        12 -10.5588     58.7789    188.0976   1.2217545030e+02   2.9258131660e+01    0.2967907    0.2215574 -44.12  0.001887209    2.054    0.513
        13 -12.0095    111.1952    187.9409   1.1179933145e+02   2.1679362439e+01    0.4074987    0.2815812  -2.30  0.001701504    4.059    0.754
        14 -11.2810     95.0949    200.1816   1.1647647564e+02   2.1893375860e+01    0.3569067    0.2272181 -76.41 0.0006179261    1.641    0.391
        15 -11.1784    150.8760    182.5655   1.0296711048e+02   1.5694660353e+01    0.2281279    0.1922795 -74.48 0.0006133847    1.348    0.258
        16 -10.0393    100.0391    186.4777   1.1384950031e+02   2.3751105279e+01    0.1900247    0.1112877  45.59 0.0007060992    1.559    0.359
        17 -10.7961     99.4779    180.7725   1.1321462511e+02   2.4965411943e+01    0.2303189    0.1931084  63.27  0.000555171    1.065    0.061
        18  -9.3498    168.6697    177.3195   9.8478155950e+01   1.3232580648e+01    0.1374227    0.1052597  77.08 0.0007048153    1.690    0.408
        19 -11.4247    100.0246    197.2335   1.1518643050e+02   2.1693457038e+01    0.3428072    0.2289286  29.24  0.001907422    2.015    0.504
        20 -12.2632    106.8711    210.5845   1.1544490299e+02   1.8205332317e+01    0.5529275    0.2592689  47.24  0.001936454    1.773    0.436
        21 -10.2556    165.3116    172.2535   9.8229859333e+01   1.4783657252e+01     0.235212    0.2016976  84.40 0.0005926892    1.366    0.268
        22 -10.6417    201.6582    168.6017   9.0346148999e+01   8.1691278784e+00    0.3818883    0.2777284 -55.46   0.00186556    1.800    0.444
        23 -11.1416    204.3172    165.3045   8.9172808038e+01   8.1654930359e+00    0.4764115    0.2527802 -45.93  0.001661179    2.213    0.548
        24 -11.0970    158.6604    202.5290   1.0461169906e+02   1.0852559725e+01    0.4231159    0.2379987 -74.52  0.001660207    4.125    0.758
        25 -11.5013    193.8397    166.6574   9.1461254225e+01   1.0053361980e+01    0.3099447    0.3058406 -23.85  0.000720015    1.142    0.124
        26 -10.5600    190.6064    161.4334   9.1034777962e+01   1.1589276647e+01    0.3447145    0.2560773  66.60   0.00166639    1.697    0.411
        27 -10.2252    139.8581    168.1556   1.0278122480e+02   2.0462003204e+01     0.209093    0.1750165  70.68 0.0004430695    1.202    0.168
        28  -9.6035     72.4707    166.9652   1.1708572415e+02   3.1794583404e+01    0.1848466     0.110309 -67.95 0.0004886128    1.560    0.359
        29 -10.5308     87.5679    202.6018   1.1816693512e+02   2.2555443691e+01     0.269434    0.2283079 -74.34  0.001816122    1.309    0.236
        30 -10.7083    160.0476    164.7861   9.7913250588e+01   1.7189135139e+01     0.244717    0.1935696 -83.09 0.0006776262    1.605    0.377
        31 -12.9886    106.9009    203.6772   1.1463716904e+02   1.9434246811e+01    0.5140678    0.3854133  75.49  0.001241217    1.253    0.202
        32 -12.2110    203.5220    198.2108   9.5536466582e+01   3.3449749865e+00     0.366826    0.2616643 -29.95  0.002151268    1.580    0.367
        33 -11.3012    189.0055    154.8370   8.9978043840e+01   1.3059267639e+01    0.4394498    0.3882053  76.15  0.002335781    1.350    0.259
        34 -12.3406     98.5021    153.6020   1.0941190350e+02   3.0772119177e+01    0.5819758    0.4239761 -36.20  0.003073269    1.866    0.464
        35 -11.6053    133.8976    145.5067   9.9842586387e+01   2.6172326810e+01     1.152869    0.2968507 -55.45  0.002896153    5.964    0.832
        36  -9.7709    113.2055    151.3384   1.0567107911e+02   2.8774742309e+01    0.2996045    0.1589363 -78.39  0.001083799    3.352    0.702
        37 -10.6258    174.5878    149.0361   9.1684848664e+01   1.7140071694e+01    0.2653518    0.2388936  60.59 0.0005927294    1.147    0.128
        38 -10.9009    143.8755    146.5656   9.7806990488e+01   2.3982912769e+01     0.299883    0.1930223 -67.05  0.001332333    1.978    0.495
        39 -11.7480    108.7442    139.5761   1.0454770500e+02   3.2100007194e+01    0.5723192    0.3305401 -33.76  0.002353504    2.703    0.630
        40 -12.4793     97.5402    139.1610   1.0715466231e+02   3.4088655548e+01    0.2628511    0.2418386 -87.20  0.000384617    1.036    0.035
        41 -11.3825    105.9197    130.8170   1.0351895374e+02   3.4524300471e+01    0.4037535    0.2975921 -71.42  0.001145646    1.398    0.285
        42 -11.4533    103.5768    125.9331   1.0310623713e+02   3.6017905083e+01    0.2864938    0.2410731 -26.65 0.0007391784    1.479    0.324
        43 -11.3663    135.7366    128.0526   9.5700822782e+01   2.9478716938e+01    0.5849994    0.1612223 -50.55  0.001700149    3.930    0.746
        44 -10.9637    115.8804    129.9565   1.0089835824e+02   3.2926006020e+01    0.3087103    0.2716008 -18.52 0.0008620731    1.413    0.292
        45 -10.8100    160.3587    127.4552   8.9894418767e+01   2.4381301306e+01    0.3907732    0.2590213 -71.85  0.001588912    2.292    0.564
        46 -10.4982    120.7685    123.7401   9.8350637107e+01   3.3366038790e+01    0.2845401    0.1926836 -29.69  0.001275544    1.949    0.487
        47 -10.2806    110.9728    119.0040   9.9743768430e+01   3.6243139930e+01    0.2110492    0.2003293 -81.76 0.0003514119    1.015    0.015
        48 -10.2868    168.0442    112.8031   8.4571907071e+01   2.5548666459e+01    0.3081523    0.2452174 -67.06 0.0009289832    1.495    0.331
        49 -10.8508    135.0000    112.0586   9.2075512623e+01   3.3024273046e+01     0.414021   0.08478833 -45.44  0.001038663    4.820    0.793
        50 -11.4325    119.0577    110.5289   9.5693981123e+01   3.6580454017e+01    0.5494681    0.2858873  61.77  0.001982946    2.913    0.657
        51 -10.3974    205.5843    110.1274   7.6215621173e+01   1.7251086020e+01     0.287364    0.2152311  41.97 0.0006701956    1.347    0.257
        52 -10.0097    134.5933    105.3537   9.0464109665e+01   3.4525681914e+01    0.3093657    0.1426217 -49.04  0.001148076    2.200    0.545
        53 -11.7242    133.3644    203.9424   1.0963225923e+02   1.5046471059e+01    0.3429568    0.1995744 -87.51  0.001519416    3.136    0.681
        54  -9.7841     41.6631     91.9455   1.1321201658e+02   5.2246704118e+01    0.1771388    0.1333926 -63.77 0.0003901538    1.087    0.080
        55 -11.6397    136.2999    199.7817   1.0849304255e+02   1.5263295151e+01    0.3658057    0.1946337  58.31    0.0017755    1.970    0.492
        56 -11.0775    141.2722    198.2405   1.0731020794e+02   1.4663216224e+01    0.2408129    0.1959065  83.34 0.0007326351    1.352    0.260
        57 -12.3585    167.5990     67.5203   7.1812780342e+01   3.4081606033e+01     1.220182    0.6531979 -63.88  0.003419884    3.721    0.731
        58 -10.7793    169.0773    236.1879   1.0743073962e+02   4.0927356310e+00    0.1774936    0.1670257 -74.32 0.0004220452    1.362    0.266
        59  -9.8204    220.5166    229.0404   9.7616942652e+01  -3.4915801409e+00    0.2484982    0.0992216 -47.19    0.0010262    4.761    0.790
