#   1 NUMBER                 Running object number                                     
#   2 MAG_AUTO               Kron-like elliptical aperture magnitude                    [mag]
#   3 X_IMAGE                Object position along x                                    [pixel]
#   4 Y_IMAGE                Object position along y                                    [pixel]
#   5 X_WORLD                Barycenter position along world x axis                     [deg]
#   6 Y_WORLD                Barycenter position along world y axis                     [deg]
#   7 A_WORLD                Profile RMS along major axis (world units)                 [deg]
#   8 B_WORLD                Profile RMS along minor axis (world units)                 [deg]
#   9 THETA_WORLD            Position angle (CCW/world-x)                               [deg]
#  10 FWHM_WORLD             FWHM assuming a gaussian core                              [deg]
#  11 ELONGATION             A_IMAGE/B_IMAGE                                           
#  12 ELLIPTICITY            1 - B_IMAGE/A_IMAGE                                       
         1 -12.3441    180.8600     57.6653   4.5428333670e+00   3.2398976217e+01     1.174448     1.093549 -60.91  0.003760677    1.099    0.090
         2 -11.7155    188.6540     50.0880   1.5903382902e+00   3.1746465728e+01     2.773341     1.309562 -80.28    0.0102177    3.616    0.723
         3 -11.5569    181.9833     32.2065   3.5761207385e+02   3.5600424691e+01     0.675831    0.4086983 -29.94  0.001048868    1.696    0.410
         4 -11.2198    214.7742     32.8394   3.5487420250e+02   2.8439451068e+01    0.6140582    0.4798744 -77.16 0.0005675352    1.202    0.168
         5 -11.0405    207.8185     26.3320   3.5387186246e+02   3.0638086545e+01    0.5010532     0.290347 -58.65 0.0006518615    1.471    0.320
         6 -11.7108    187.1005     39.3200   3.5896483459e+02   3.3537200555e+01    0.8031587    0.4816699 -45.93  0.001998737    1.432    0.302
         7 -12.2885    220.5678     11.8132   3.4971347759e+02   2.9642260587e+01      1.57019    0.4834801 -58.54  0.005968861    2.957    0.662
         8  -8.1691    143.2100     16.7497   3.5736689001e+02   4.6824397118e+01    0.2837273    0.1782319 -69.77  0.001417436    1.576    0.365
         9 -13.2370    239.5383      5.0309   3.4738297922e+02   2.6717412910e+01     1.693226     0.991059  79.92   0.01120526    1.833    0.454
        10 -10.5468    119.0862      9.6601   3.5811556427e+02   5.3761357779e+01     0.660504    0.4294379  55.71   0.00243817    1.500    0.333
        11  -8.6102     98.7245     12.6707   2.9373003252e+00   5.8750779676e+01    0.2521801    0.2109776 -85.50 0.0006251069    1.173    0.148
        12  -8.1384    144.2974      6.1087   3.5376140401e+02   4.7616521054e+01     0.315389    0.1946074  16.25  0.001456716    2.698    0.629
        13  -9.3484     96.9917      2.6919   3.5884005626e+02   6.0126348423e+01    0.3049712     0.158371  55.35  0.001225337    1.728    0.421
        14  -9.0830    192.3214      2.8854   3.4916425963e+02   3.6483815780e+01    0.3251549    0.2177906 -62.26  0.002004221    1.202    0.168
        15  -8.2766    172.3405      2.8748   3.5042611390e+02   4.1054929680e+01    0.3171434    0.1314438 -53.24  0.001117117    2.091    0.522
        16  -7.9741     84.5946      4.2007   2.0625868652e+00   6.3175177282e+01    0.1747839    0.1312374   3.97 0.0006260967    1.631    0.387
        17  -8.8008    111.1713      1.7303   3.5615325959e+02   5.6527393323e+01    0.3399697    0.1596246 -85.16  0.001386128    2.440    0.590
        18  -7.8479    201.0014      1.5342   3.4836017768e+02   3.4723748191e+01    0.1777904    0.1034599  89.29  0.001031213    1.597    0.374
        19 -10.4645     86.7327    146.9984   4.9380826640e+01   3.3727959536e+01    0.5178246    0.2726623 -42.52  0.002014231    2.232    0.552
        20  -8.8947    133.8750    147.3075   3.6290577208e+01   2.5363947810e+01    0.6674418    0.1934602 -53.12  0.001924656    4.141    0.759
        21  -9.3278    101.7052    156.5288   4.6692564634e+01   2.8918694927e+01    0.3772489    0.2141003 -24.51  0.001317199    3.180    0.685
        22  -9.0714    192.8386    194.7830   3.2550926789e+01   7.1644246668e+00    0.6989012    0.3667202 -59.70  0.002420638    5.992    0.833
        23  -7.7782     11.1208    143.8808   7.4103612263e+01   4.3719322930e+01    0.1778782    0.1566977 -37.95 0.0003151605    1.317    0.240
        24  -8.3502    150.0036    142.3411   3.1385250800e+01   2.3443124243e+01    0.2117984    0.1954745 -58.59 0.0002730048    1.168    0.144
        25  -7.5097    163.2265    141.8270   2.8365357991e+01   2.1119640644e+01    0.1863339    0.1566038  -6.37 0.0004073968    1.270    0.213
        26  -8.0087     53.4680    141.9891   5.9358369915e+01   3.9942259585e+01    0.2103815    0.1450193 -71.02 1.330963e-06    1.450    0.310
        27 -10.0013      1.4664    138.2522   7.7042828043e+01   4.5862351984e+01    0.2349832    0.1470432 -89.22 0.0002022111    1.445    0.308
        28  -8.0966     11.2465    153.6341   7.4710045342e+01   4.1124516161e+01    0.2458693    0.1188494  25.33 0.0007744192    2.004    0.501
        29  -7.9939    160.7036    129.3436   2.6148551605e+01   2.4037063723e+01    0.1437022     0.114086 -77.54 0.0006280859    1.667    0.400
        30  -9.5148    136.0916    126.5203   3.1150138571e+01   2.9458938057e+01    0.6183478    0.1428657 -49.19  0.001606629    4.642    0.785
        31  -7.7137     84.4959    128.4715   4.6472781967e+01   3.8812719139e+01    0.1535497    0.1515629  -6.55 0.0008088442    1.076    0.071
        32 -10.3006    245.1900    125.9233   1.1651755227e+01   1.0323380364e+01    0.3352089    0.2013548 -44.72  0.002035149    1.504    0.335
        33  -8.0604     79.0405    123.3448   4.7207787104e+01   4.1065978100e+01    0.2410011    0.2039849 -46.27 0.0007938851    1.233    0.189
        34  -9.6753    241.7383    118.7813   1.0680761243e+01   1.1841582932e+01    0.2773457    0.2199642 -88.41  0.001824066    1.903    0.475
        35  -6.8437    227.3156    119.3189   1.2623444943e+01   1.3963284151e+01    0.1217389    0.0882939  -7.85 0.0007039313    1.654    0.395
        36  -9.7874    242.6876    114.0259   9.6283580337e+00   1.2381758160e+01    0.2998124    0.1625192 -61.91  0.001380442    3.299    0.697
        37  -8.9951    135.0609    106.6449   2.6488353792e+01   3.3932365847e+01    0.3363919    0.2177408 -39.73   0.00105659    1.567    0.362
        38  -7.9995    122.2857    115.0330   3.1942357974e+01   3.4806392410e+01    0.2148856     0.197172 -54.22 0.0004251298    1.085    0.078
        39  -7.4056     49.4268    114.1850   5.6206127411e+01   4.8011657888e+01    0.1973355    0.1440822 -84.32  0.000402586    1.454    0.312
        40  -9.0738    134.7401    112.1748   2.7989512282e+01   3.2826176196e+01    0.5408674    0.1323973 -44.97  0.001480009    4.018    0.751
        41  -7.3637    216.2017    108.5933   1.1879533642e+01   1.7446266796e+01    0.1618733    0.1186612  35.10 0.0004850901    1.688    0.407
        42  -9.2596    189.3380    105.4964   1.5220391291e+01   2.2874068861e+01    0.2509658    0.1160809 -38.76  0.001078263    1.930    0.482
        43  -8.6722     55.0462    102.9936   5.1651196717e+01   5.0250200185e+01    0.2239631    0.2163965  72.58 0.0003157631    1.022    0.022
        44  -9.6394    141.7139    100.3007   2.3225896802e+01   3.3795312885e+01    0.4913531    0.3703954  -1.13  0.001500378    1.960    0.490
        45  -8.1638    145.2423     95.3622   2.1100052947e+01   3.3999775679e+01    0.2715574    0.2291742 -72.70 0.0005801868    1.270    0.213
        46 -10.2041    188.2681     94.5554   1.2798795164e+01   2.4945059965e+01    0.5372098    0.2386855 -44.58  0.002281084    2.027    0.507
        47  -8.5070    123.1659    100.2653   2.7833167754e+01   3.7883813483e+01    0.3505358    0.2589822  -1.27  0.001478289    2.106    0.525
        48  -8.0945    107.8880     94.3472   3.0491087397e+01   4.2528452467e+01    0.2377988    0.2080066 -66.93  0.000326949    1.178    0.151
        49  -9.8530    151.6479     89.0337   1.8006589989e+01   3.3780507496e+01    0.5825593    0.4127391 -51.70  0.001785319    1.382    0.277
        50  -9.1581    153.9442     86.2103   1.6767608427e+01   3.3787053329e+01    0.5068497    0.3232391 -68.42   0.00172669    2.077    0.519
        51  -7.3761    229.4859     90.4424   6.3204865803e+00   1.7899002712e+01    0.1229986    0.1014962 -36.70 0.0002178683    1.074    0.069
        52  -8.2596    137.0879     88.6483   2.1100282467e+01   3.7165449588e+01     0.303725    0.1998575 -59.78  0.001023579    1.707    0.414
        53  -7.3068     57.5997     86.5613   4.6485449014e+01   5.4148353417e+01    0.1508018    0.1445377  85.18 -9.393261e-06    1.060    0.057
        54  -8.2737    148.8452     83.6591   1.7102080584e+01   3.5421568704e+01    0.2254287    0.1992446 -32.01 0.0004263793    1.196    0.164
        55  -7.7074    206.5161     82.4933   7.3331605692e+00   2.3270318473e+01    0.1329526    0.1111357 -49.02 7.183313e-05    1.028    0.027
        56  -8.5741    248.2392    249.0284   3.1672701459e+01  -5.7117390607e+00    0.2120041   0.09220155   3.70  0.001189213    2.748    0.636
        57  -9.7118    162.7159     77.3866   1.2689075178e+01   3.3366538273e+01    0.5706171    0.3527658 -54.27  0.002151855    1.641    0.391
        58 -11.7254    166.8616     73.2128   1.0831588862e+01   3.3129824497e+01     1.184277    0.8755168 -87.31  0.005597772    1.548    0.354
        59  -9.9453    164.7321     64.4284   8.7602945388e+00   3.5052971404e+01    0.3693236    0.3122417  -9.85  0.001029581    1.498    0.332
        60 -10.4602    161.1034     61.0526   8.3976808198e+00   3.6440079602e+01    0.4810944    0.3094807 -38.10   0.00101453    1.494    0.331
        61  -7.4214    232.9930     80.0311   3.7226222847e+00   1.8781067813e+01    0.1506998    0.1182342 -43.58 0.0004823147    1.010    0.010
        62  -8.9857    184.7494     77.4620   9.1197547845e+00   2.8490280507e+01    0.2674221    0.2309382 -12.03 0.0007825201    1.395    0.283
        63  -9.9246    146.4858     75.6994   1.5318362269e+01   3.7424253753e+01    0.4817229    0.3193347 -66.41  0.001937294    1.799    0.444
        64  -9.0466    206.8155     65.3119   3.2645898959e+00   2.5761394896e+01    0.4431819    0.1862915 -61.11  0.001618121    3.647    0.726
        65  -7.4850    236.4919     68.4386   9.1660877373e-01   1.9765986925e+01    0.1216563   0.09436937 -47.51 7.235943e-05    1.021    0.020
        66  -8.8238    191.6177     59.9887   3.7637068251e+00   2.9692971126e+01    0.2187026     0.187614  63.99 0.0004993448    1.308    0.236
        67  -9.8007     27.2558    233.2921   7.4635533454e+01   2.1076305544e+01    0.4790451    0.2712168 -30.56  0.002299158    3.277    0.695
        68 -10.4261    180.4580     36.4861   3.5892322699e+02   3.5411945158e+01    0.2788253    0.2229858 -76.51 0.0005884896    1.135    0.119
        69  -9.0176    244.0146    234.2337   3.0214564224e+01  -3.7345595899e+00    0.1273653     0.069717  20.94 0.0005821972    1.663    0.399
        70  -7.2990     67.3517     63.3500   3.4839207426e+01   5.7943185796e+01    0.1593964    0.1196245  -5.42 0.0007035963    1.831    0.454
        71  -8.5250    235.9139     62.5044   3.5970876375e+02   2.0658170604e+01     0.156004    0.1164894  75.81  0.001029625    1.580    0.367
        72  -8.1022    229.5462     60.9525   3.5994887874e+02   2.2007777962e+01    0.1604225    0.1017515 -11.29 0.0008083425    2.501    0.600
        73  -8.6194    212.9135     49.9543   3.5901646246e+02   2.6654897518e+01    0.6060938    0.1794633 -54.64  0.002002088    4.394    0.772
        74  -7.8913    236.2823     51.3857   3.5730910981e+02   2.2032017297e+01    0.1508708    0.1033394 -83.81 0.0009548304    1.606    0.377
        75  -8.5543    150.8643     50.2258   6.8931002521e+00   4.0576153151e+01    0.3205064    0.1698074  70.05  0.001376313    1.962    0.490
        76  -8.3499    226.4957     47.9588   3.5736077929e+02   2.4270737971e+01    0.2277246    0.1474632 -75.15  0.001362954    1.613    0.380
        77  -8.7691    205.2998     46.0405   3.5881509406e+02   2.8724042605e+01    0.2228263    0.1663525 -78.41 0.0004999369    1.311    0.237
        78  -8.1894    230.1290     43.1603   3.5601681275e+02   2.4190943484e+01    0.1799598    0.1099634 -55.99 0.0009073993    1.369    0.270
        79  -7.6943    214.2903     43.3431   3.5735164543e+02   2.7236631056e+01    0.1117072   0.09665973   6.86 0.0007025364    1.653    0.395
        80 -10.1328    205.9852     40.6220   3.5744584056e+02   2.9281694089e+01    0.3511454    0.2244398 -57.73 0.0004588981    1.358    0.264
        81 -10.9331    199.6945     34.6076   3.5654425942e+02   3.1367418751e+01    0.4160941    0.2519732 -55.24 0.0005692248    1.414    0.293
        82  -8.4575    141.6363     41.7650   5.7880182293e+00   4.4105323198e+01     0.226321    0.2073895 -83.65 0.0003554188    1.028    0.027
        83  -9.3082    223.1511     41.0106   3.5608414739e+02   2.5784166280e+01    0.3079727    0.1399989  60.88  0.001576413    2.536    0.606
        84  -8.3051     77.8536     38.8732   2.0657840053e+01   6.0428678333e+01    0.2101585    0.1894136  27.43   0.00115539    1.155    0.135
        85 -10.2626     16.2909    229.3232   7.6996762639e+01   2.2901222484e+01      1.11006    0.6074221  10.13  0.005787383    2.314    0.568
        86 -12.6352     36.1140    214.7215   7.1527536553e+01   2.4052781529e+01     1.265169    0.8723776  58.70  0.002562189    1.288    0.224
        87  -8.6993    233.9509     35.8344   3.5415538200e+02   2.4369677964e+01    0.1641669    0.1478612 -38.80 0.0009104344    1.293    0.226
        88 -10.6292     27.4627    208.0215   7.3313922352e+01   2.6390063386e+01    0.4337863    0.3752617 -22.22  0.001619123    1.512    0.339
        89  -8.9347    225.6155     32.3001   3.5395978205e+02   2.6363391136e+01    0.2337202    0.1292708 -34.35  0.001332912    1.576    0.365
        90  -8.0470    100.0313     29.0753   9.6752997686e+00   5.6477633084e+01    0.2081665    0.1955974  79.14 0.0004141815    1.029    0.028
        91  -8.6250     83.9881     27.9919   1.3659968078e+01   6.0627796193e+01     0.207692    0.1942309  75.85  0.001197008    1.061    0.058
        92  -9.6008     65.2310    228.2181   6.5384562039e+01   1.8043600814e+01    0.2079199    0.1904425  13.97 0.0003613151    1.218    0.179
        93  -8.3078    174.8443     23.4111   3.5592306410e+02   3.8313578767e+01    0.1816278    0.1107797  63.26 0.0009439785    1.698    0.411
        94  -8.5339    128.2730     22.2825   1.3663774897e+00   5.0038964702e+01     0.436071    0.1682106  61.63  0.001724887    2.285    0.562
        95  -8.8806    133.0657     19.5223   3.5966226643e+02   4.9116237702e+01    0.4922435    0.2455406  88.72  0.002038235    2.266    0.559
        96  -7.6466    227.8474     37.1267   3.5486589570e+02   2.5359263689e+01    0.1467497    0.1366221 -31.50 0.0005661192    1.341    0.254
        97  -7.7306     71.8316    227.1783   6.3723257967e+01   1.7474026194e+01    0.1640721    0.1353193   9.67 0.0003884757    1.316    0.240
        98  -8.1773    157.9658    221.0341   4.3501477696e+01   7.5601734577e+00    0.1794385    0.1544302  14.56 0.0004412268    1.115    0.103
        99  -7.4591    184.8504     13.1421   3.5229195621e+02   3.7127285622e+01    0.1553719    0.1439974  71.91 0.0004544424    1.306    0.235
       100 -12.5063     52.8359    193.3995   6.5542243408e+01   2.7015141092e+01     1.542578     1.393346 -88.78  0.005960483    1.175    0.149
       101  -7.3330    250.7265    191.3272   2.2611533845e+01   7.4987275296e-01   0.09467375   0.07545283 -37.61 0.0002071471    1.585    0.369
       102  -9.0779     86.9195    186.8334   5.5516060107e+01   2.4104677599e+01    0.3366436    0.2619182 -22.17  0.001020453    1.585    0.369
       103  -8.2076     10.3896    201.0923   7.7342147284e+01   2.9504751479e+01    0.1755745    0.1531511  33.99  0.001153872    1.196    0.164
       104  -7.4461     25.4834    179.5779   7.2099903030e+01   3.3269844601e+01    0.1335442    0.1198217  57.00 0.0001236737    1.057    0.054
       105  -7.7722     68.6449    166.0515   5.7915533784e+01   3.1645419475e+01    0.1941237    0.1815293  85.29 0.0004254974    1.085    0.078
       106 -10.7709     76.0618    160.5407   5.4888482487e+01   3.1972035208e+01    0.6052032    0.3844614   3.51  0.002494023    2.306    0.566
       107 -11.4760     94.3851    148.6496   4.7372873992e+01   3.2051968788e+01    0.7589285    0.5647388  -6.97  0.003449285    1.815    0.449
