#   1 NUMBER                 Running object number                                     
#   2 MAG_AUTO               Kron-like elliptical aperture magnitude                    [mag]
#   3 X_IMAGE                Object position along x                                    [pixel]
#   4 Y_IMAGE                Object position along y                                    [pixel]
#   5 X_WORLD                Barycenter position along world x axis                     [deg]
#   6 Y_WORLD                Barycenter position along world y axis                     [deg]
#   7 A_WORLD                Profile RMS along major axis (world units)                 [deg]
#   8 B_WORLD                Profile RMS along minor axis (world units)                 [deg]
#   9 THETA_WORLD            Position angle (CCW/world-x)                               [deg]
#  10 FWHM_WORLD             FWHM assuming a gaussian core                              [deg]
#  11 ELONGATION             A_IMAGE/B_IMAGE                                           
#  12 ELLIPTICITY            1 - B_IMAGE/A_IMAGE                                       
         1 -12.1250    190.2486     36.6283   5.5717362567e+01   3.2729493971e+01     1.009235    0.9189526 -18.08  0.003425414    1.054    0.051
         2 -12.5730    197.4520     27.2977   5.1870088417e+01   3.1994930698e+01     1.081974    0.7475781  -3.35  0.001314865    1.600    0.375
         3 -10.9903     49.9213      9.6274   8.0183036165e+01   6.9855215176e+01    0.4080615    0.1870075 -36.38  0.001822887    1.961    0.490
         4 -11.0322    218.9681      2.4645   4.2452292637e+01   2.9130932230e+01    0.7488229    0.3141529  78.54  0.003159282    2.587    0.613
         5  -8.8828    114.4429    222.6734   1.1120496058e+02   1.7063417617e+01    0.1695763    0.1090516 -68.96  0.001131345    2.095    0.523
         6  -9.8815    117.2499    250.0504   1.1317945799e+02   1.3045800764e+01    0.2348741    0.1247595  47.71  0.001618146    1.515    0.340
         7 -19.4241     11.2753    136.8190   1.2637774955e+02   4.4886922978e+01     17.07995     2.578827 -80.79    0.0498544    6.498    0.846
         8  -8.0625    106.5181    210.5343   1.1148994619e+02   1.9929356591e+01    0.1133449   0.08955406  45.43 0.0002255292    1.006    0.006
         9  -9.1071    107.9037    203.3914   1.1047474530e+02   2.0868593751e+01    0.1728461    0.1641796 -74.51 0.0003656748    1.270    0.213
        10  -8.5712     95.0891    200.1530   1.1268807454e+02   2.3124507504e+01    0.2116649    0.1268893  69.32  0.001215903    2.027    0.507
        11  -8.6379    191.6480    190.6523   9.2795237416e+01   1.0214031074e+01    0.2866891    0.1609207  48.15  0.001565704    1.984    0.496
        12  -8.3499    208.9925    197.9586   9.0969288458e+01   6.7269425456e+00     0.155925    0.1372855  49.23 0.0006191186    1.646    0.393
        13  -8.5659    141.1349    198.1354   1.0332814163e+02   1.6917554102e+01     0.174715    0.1412204  20.95 0.0004745067    1.224    0.183
        14  -8.8882     81.7938    195.4751   1.1492906377e+02   2.5649940805e+01    0.2409915    0.2049512  11.85  0.001707532    1.539    0.350
        15  -7.6228    198.6700    222.7000   9.6348105611e+01   5.4761135413e+00    0.1123199   0.06695464  15.26 0.0002561338    1.644    0.392
        16  -9.7435    195.7975    199.2191   9.3418288768e+01   8.5323026532e+00    0.2471772    0.1812233 -70.50  0.001282133    3.522    0.716
        17 -10.2168    159.4560    222.6672   1.0305749546e+02   1.0919973918e+01    0.2846927   0.08100426  38.09  0.001279753    2.717    0.632
        18  -8.5202     99.5992    180.8355   1.0961607582e+02   2.5864976711e+01    0.1977788    0.1495107  32.19  0.000760523    1.304    0.233
        19  -8.8610     71.4267    179.2553   1.1556573022e+02   2.9912246438e+01    0.1508123    0.1034752  87.45 0.0004283351    1.528    0.346
        20 -10.2754     77.5272    177.0229   1.1399778769e+02   2.9563102020e+01    0.2435448    0.2198356 -71.33 0.0005150351    1.257    0.205
        21 -11.0818     81.6846    171.6617   1.1248222043e+02   3.0046037889e+01    0.4876646    0.3221099 -56.93  0.002142179    1.687    0.407
        22  -9.9163    110.4340    172.5438   1.0619168875e+02   2.5788309836e+01    0.2748687    0.1558195  53.69  0.001301578    1.797    0.444
        23  -8.3056    164.7412    171.5417   9.4664423567e+01   1.7213151987e+01    0.1781287      0.15494 -79.12 0.0005911054    1.644    0.392
        24  -9.5919    103.6833    172.1581   1.0762612457e+02   2.6863740521e+01    0.1963391    0.1533389  79.98   0.00121023    1.430    0.301
        25  -9.0322    194.0477    166.6754   8.8227493211e+01   1.2986187594e+01    0.2382355    0.1858719  16.93 0.0008242357    1.126    0.112
        26  -8.5635    203.9597    164.3552   8.6016182060e+01   1.1635257333e+01     0.242911    0.1464308 -47.71 0.0009903979    2.406    0.584
        27 -10.0605    177.4946    218.4837   9.9365421140e+01   8.8952106205e+00    0.2401475    0.0869141  38.37  0.001142754    2.163    0.538
        28 -10.6747     95.1813    154.8714   1.0718014936e+02   3.1464182528e+01    0.5824882    0.4026909 -25.87   0.00299134    2.260    0.558
        29  -9.4348    133.7381    144.9230   9.6466215232e+01   2.7107906552e+01    0.7309925     0.188963 -53.92  0.001970137    6.230    0.839
        30  -8.0441     77.3261    149.3120   1.1074995721e+02   3.5154219051e+01    0.1207485   0.09979872 -23.33 0.0007041153    1.662    0.398
        31 -10.1505    107.0207    140.0430   1.0192515124e+02   3.2636140841e+01    0.4501675    0.3255951 -18.00  0.001725851    2.079    0.519
        32 -10.7932     94.7914    140.3355   1.0503098588e+02   3.4518946517e+01    0.2647453    0.2460262 -46.84 0.0003059028    1.198    0.165
        33  -9.3411    106.0758    130.8487   1.0048255316e+02   3.4704263767e+01    0.3185978     0.277642  74.43  0.001396324    1.192    0.161
        34 -10.0339    114.4162    130.1321   9.8231466130e+01   3.3425798872e+01    0.3610981    0.2531143 -36.97  0.001207172    1.634    0.388
        35  -9.2156    101.9116    126.7279   1.0077217326e+02   3.6275178466e+01    0.2414257    0.2137566 -30.07 0.0005701662    1.292    0.226
        36 -10.0101    119.6866    124.2471   9.5704039191e+01   3.3697402580e+01    0.5017656     0.269304 -27.49  0.001813372    3.382    0.704
        37  -8.7304    110.0139    119.3679   9.7152528102e+01   3.6455364929e+01    0.2234431    0.1901686 -41.06 0.0003722502    1.236    0.191
        38  -8.2315     88.4829    218.4830   1.1566060265e+02   2.1017934422e+01    0.1110864   0.08242862  50.96  0.000139492    1.067    0.063
        39 -10.2975    119.7691    110.8988   9.2699520938e+01   3.6444544602e+01    0.4167197     0.262761 -69.27  0.001761258    2.263    0.558
        40  -8.5583    205.7661    110.3683   7.4052034394e+01   1.8871809537e+01     0.187916    0.1213105  36.56 0.0004085872    1.558    0.358
        41  -8.4897    111.8456    217.5250   1.1117943875e+02   1.8158350449e+01    0.1688603   0.08770153  37.72 0.0008784432    1.523    0.343
        42  -7.9932    168.1850    112.7893   8.1803753428e+01   2.6271486237e+01    0.2357558    0.1632124 -78.42 0.0009498737    2.830    0.647
        43 -11.8441     50.1855    114.5896   1.1325771009e+02   4.6371603290e+01     0.518809    0.3183304 -60.51  0.002766916    1.520    0.342
        44 -10.1786     41.9066     91.9809   1.1228410659e+02   5.2695859805e+01    0.2691214    0.2041362   9.34  0.001128251    1.714    0.417
        45  -9.8997    162.8807     63.9789   6.9110277166e+01   3.5751859340e+01    0.3701807    0.2935089 -75.92 0.0008024359    1.618    0.382
        46  -8.4507    163.1787     55.8461   6.6411721142e+01   3.6947334029e+01     0.217964    0.1775846  14.59 0.0004578142    1.350    0.259
        47 -11.8393    178.7256     46.3759   6.0558512849e+01   3.4393797315e+01    0.8949963    0.6185951   7.62   0.00280206    1.774    0.436
        48  -8.4307    133.9527    247.3587   1.1012141607e+02   1.1289498968e+01    0.1705747   0.07153089  23.19 0.0007042638    4.453    0.775
        49  -8.2946     75.9128    232.8595   1.1905111250e+02   2.0344080602e+01    0.1422988    0.1147057  41.93 0.0005003114    1.186    0.157
        50  -9.5162    217.5126     14.0442   4.5879041260e+01   2.8430001816e+01    0.2172148    0.1239561 -23.00  0.001036336    1.601    0.376
        51 -10.7151    168.9356    225.0517   1.0169286685e+02   9.3133977115e+00      0.27451    0.1501739  35.87  0.001211716    1.395    0.283
