#   1 NUMBER                 Running object number                                     
#   2 MAG_AUTO               Kron-like elliptical aperture magnitude                    [mag]
#   3 X_IMAGE                Object position along x                                    [pixel]
#   4 Y_IMAGE                Object position along y                                    [pixel]
#   5 X_WORLD                Barycenter position along world x axis                     [deg]
#   6 Y_WORLD                Barycenter position along world y axis                     [deg]
#   7 A_WORLD                Profile RMS along major axis (world units)                 [deg]
#   8 B_WORLD                Profile RMS along minor axis (world units)                 [deg]
#   9 THETA_WORLD            Position angle (CCW/world-x)                               [deg]
#  10 FWHM_WORLD             FWHM assuming a gaussian core                              [deg]
#  11 ELONGATION             A_IMAGE/B_IMAGE                                           
#  12 ELLIPTICITY            1 - B_IMAGE/A_IMAGE                                       
         1 -14.7295    146.3458     61.6619   9.1735356155e+01   4.0173589136e+01     1.662818     1.282152  25.17  0.004098565    1.430    0.301
         2 -14.5717    156.7064     46.3129   8.4493283735e+01   3.9984335153e+01     1.160096     1.015175 -16.63  0.003585593    1.160    0.138
         3 -14.6022    167.9387     15.1561   7.2275214064e+01   4.0904870131e+01    0.9824983    0.9369394  53.23  0.003660429    1.019    0.019
         4 -13.2812    188.6260     13.7772   6.9031099694e+01   3.5715555037e+01    0.5802806    0.3558354 -62.75   0.00215984    1.902    0.474
         5 -11.8337     28.2554    235.4806   1.4879555961e+02   2.4464535832e+01    0.1830506    0.1102844 -88.63  0.001383042    1.422    0.297
         6 -13.5448    187.5231    250.3271   1.2386624989e+02  -7.2315261839e-02    0.9685211    0.1943272  40.81  0.003565138    3.965    0.748
         7 -13.2286    181.8370    248.9383   1.2463117897e+02   9.7834003400e-01    0.4195855    0.2199681  38.48 0.0006810731    1.489    0.328
         8 -11.8262    151.6367    250.3276   1.2985279359e+02   5.5095401035e+00    0.2451765    0.1217227  43.08  0.001434833    1.548    0.354
         9 -20.0702     94.4971    226.5470   1.3710931556e+02   1.7708344442e+01     7.759324     5.943904  66.78   0.05182127    1.087    0.080
        10 -11.6505     18.4208    150.9779   1.4453270107e+02   4.1596724252e+01    0.4570118     0.142592 -64.70  0.002190198    2.495    0.599
        11 -13.4984    174.0399    149.2614   1.0918704740e+02   1.7680894344e+01    0.6039152     0.364422 -51.72  0.002668323    1.926    0.481
        12 -13.1343     11.6067    205.8140   1.4982483211e+02   3.1331133692e+01    0.3554574    0.2655643  30.14  0.002326815    1.913    0.477
        13 -10.7581     24.7976    202.8285   1.4738896279e+02   3.0595439251e+01     0.142822    0.1092284  85.67 0.0002677625    1.118    0.105
        14 -19.0648     79.3006     90.6831   1.1854915664e+02   4.7968623868e+01     17.55475    0.7654629 -51.38   0.02371858   19.872    0.950
        15 -12.0191     26.8310    194.7308   1.4646731372e+02   3.1921123284e+01    0.1940454    0.1520023  73.82 0.0004979678    1.097    0.089
        16 -10.5964     21.1529    194.6071   1.4747940669e+02   3.2512786675e+01    0.1307144    0.1032584  70.80 0.0003961349    1.146    0.127
        17 -11.3698     13.4302    239.8930   1.5126061127e+02   2.5255198174e+01    0.1264578   0.08341157  82.79 0.0004783931    1.181    0.153
        18 -12.4842    174.6428    141.1044   1.0725212598e+02   1.9052294604e+01    0.2845895    0.2108063  38.70 0.0005458744    1.326    0.246
        19 -10.8502    242.0686    184.6880   1.0381100912e+02  -9.7636646865e-01    0.1790385    0.1417563  23.40 0.0004189857    1.107    0.097
        20 -11.7550     36.0332    136.0709   1.3887551972e+02   4.3181290922e+01    0.1852164    0.1496323 -84.79 0.0003827109    1.030    0.029
        21 -11.4108     21.7190    233.3830   1.4969247690e+02   2.5497409484e+01    0.1294017   0.08860432  80.04 0.0003840327    1.119    0.106
        22 -10.8948      4.9823    232.5160   1.5218804964e+02   2.7283412837e+01    0.1128655   0.07795916  51.89  0.000422577    1.393    0.282
        23 -13.1023    230.1015    168.0620   1.0252955405e+02   3.4165027363e+00    0.4744632     0.280751 -30.24  0.002419408    1.682    0.406
        24 -13.6583    160.5883    128.2875   1.0727451430e+02   2.4501456595e+01    0.4966449    0.4678263 -41.87  0.002094703    1.077    0.072
        25 -10.9459    218.4826    220.5407   1.1424964269e+02  -1.4848752921e+00    0.2783624    0.1121955 -39.53  0.001327241    3.005    0.667
        26  -9.6305     17.6201    129.7495   1.4253077828e+02   4.6241647489e+01    0.1079978   0.07759274 -44.89 0.0003882219    1.652    0.395
        27  -9.9576     11.3173    130.2903   1.4408917703e+02   4.6620429788e+01    0.1092747   0.07271633 -51.90 0.0003180951    1.597    0.374
        28 -12.5695    142.0285    121.4097   1.0982425557e+02   2.9830372932e+01     0.508102     0.289486  69.22  0.001595532    3.198    0.687
        29 -11.8451    192.3270    158.0383   1.0739828698e+02   1.2372042665e+01    0.3636191    0.2698649   7.61  0.001369507    1.604    0.376
        30 -12.2367     36.3179    117.0527   1.3613458349e+02   4.7387337741e+01    0.2284648    0.1859226 -52.09 0.0008511273    1.255    0.203
        31 -11.0639    167.6532    112.6572   1.0183919510e+02   2.5937612167e+01    0.3089658    0.2261513 -81.14    0.0013274    2.064    0.515
        32 -11.4057    192.4115    153.2034   1.0634622720e+02   1.3174595861e+01    0.2779714    0.2241549 -40.61 0.0008749432    1.315    0.239
        33 -10.9415    205.4357    110.1742   9.3655687620e+01   1.7700748626e+01    0.3258762    0.2086858  41.41  0.001038835    1.605    0.377
        34 -11.6918    151.8663    237.3309   1.2825990593e+02   7.2437695696e+00     0.293885    0.1774907  40.04 0.0009350985    1.367    0.268
        35 -11.0619     31.4861    104.5065   1.3544283275e+02   5.0649442012e+01    0.2343826    0.1555213 -50.01  0.000717578    1.405    0.288
        36 -11.3883     34.8482    103.3685   1.3430113493e+02   5.0592454837e+01    0.2529802    0.1771166 -23.55 0.0009325217    1.946    0.486
        37 -11.3734    124.4665     95.4970   1.0738717023e+02   3.8796509054e+01    0.2618293    0.1392095 -33.18 0.0007170404    2.121    0.529
        38 -11.2700     41.8903     91.9810   1.3007713890e+02   5.2437394940e+01    0.1948173    0.1614303 -59.24 0.0005696845    1.007    0.007
        39 -10.6462     23.5753     83.2819   1.3397387819e+02   5.6016645405e+01    0.1899302    0.1304409 -27.77 0.0006421041    1.730    0.422
        40 -11.0239    142.1234     81.1401   9.8828691887e+01   3.7748850046e+01    0.2348713    0.2066417   5.41 0.0004927923    1.221    0.181
        41 -10.9895     24.4578    215.9572   1.4827835570e+02   2.8231894682e+01    0.1368754    0.1006938  67.65 0.0002952126    1.100    0.091
        42 -10.9228    155.9212    247.2921   1.2877765624e+02   5.2449342164e+00    0.1601682    0.1423973  45.43 0.0004048514    1.152    0.132
        43 -13.2217    160.5999     37.2056   8.0735991400e+01   4.0242078235e+01    0.4686626    0.4428589  22.44 0.0007974301    1.049    0.047
        44 -11.1778     13.3800     59.8610   1.3242975982e+02   6.1759458212e+01    0.1621696    0.1538969 -73.07 0.0004482728    1.261    0.207
        45 -10.4083     23.1024    156.1529   1.4401628493e+02   4.0080317112e+01    0.1616475    0.1323659 -75.47 0.0004488539    1.194    0.163
        46 -11.6119    162.5099    245.1246   1.2740000928e+02   4.4958001696e+00    0.2504595    0.1787517  35.47 0.0006209199    1.208    0.172
