#   1 NUMBER                 Running object number                                     
#   2 MAG_AUTO               Kron-like elliptical aperture magnitude                    [mag]
#   3 X_IMAGE                Object position along x                                    [pixel]
#   4 Y_IMAGE                Object position along y                                    [pixel]
#   5 X_WORLD                Barycenter position along world x axis                     [deg]
#   6 Y_WORLD                Barycenter position along world y axis                     [deg]
#   7 A_WORLD                Profile RMS along major axis (world units)                 [deg]
#   8 B_WORLD                Profile RMS along minor axis (world units)                 [deg]
#   9 THETA_WORLD            Position angle (CCW/world-x)                               [deg]
#  10 FWHM_WORLD             FWHM assuming a gaussian core                              [deg]
#  11 ELONGATION             A_IMAGE/B_IMAGE                                           
#  12 ELLIPTICITY            1 - B_IMAGE/A_IMAGE                                       
         1  -9.1004    234.4228      6.9908   5.9252003387e+01   2.4913026909e+01    0.3567497     0.231621 -29.66  0.001967162    1.621    0.383
         2  -7.6572    206.6926      2.0476   6.0452511446e+01   3.2239291117e+01      0.17713    0.1626364 -84.18  0.000551253    1.079    0.073
         3 -10.3568     80.4157    247.5761   1.3964125137e+02   1.5691539057e+01    0.4287865    0.2454658  47.01  0.002626195    1.341    0.254
         4 -13.9952    225.1408    239.3211   1.1222676344e+02  -5.9293189871e+00     4.560685     1.485765  35.04   0.02035579    2.546    0.607
         5  -8.4565     98.7940    239.6315   1.3563192247e+02   1.4371985135e+01    0.1774473    0.0809283  49.12 0.0007676568    1.696    0.410
         6  -9.4612     54.1771    250.3956   1.4434831711e+02   1.8655137692e+01    0.2045323    0.1330036  69.26 0.0002402584    1.208    0.172
         7  -8.0897     46.8398    235.2137   1.4463682817e+02   2.2131110892e+01    0.1302342    0.1155298  70.61 0.0004529236    1.351    0.260
         8  -9.1396     10.2939    249.5410   1.5134931043e+02   2.3683239906e+01    0.1730159    0.1399776  85.36  0.001540226    1.398    0.285
         9 -10.1362     38.4936    242.4905   1.4650042718e+02   2.1850112525e+01    0.4197142    0.2214631  78.89  0.002768658    1.690    0.408
        10  -8.6763     32.1294    229.2189   1.4682767241e+02   2.4888301712e+01    0.1829333    0.1353641  81.86  0.000424262    1.164    0.141
        11  -7.8854    111.2517    245.9780   1.3396332782e+02   1.1473185139e+01    0.1252642   0.09835295 -75.36 0.0004250155    1.526    0.345
        12  -7.2600     29.4696    215.8021   1.4650404120e+02   2.7640989810e+01    0.1314031   0.08819338 -72.73 0.0004983803    1.545    0.353
        13  -9.8059     24.6805    249.1940   1.4909200477e+02   2.2255390386e+01    0.2768241    0.1104358  41.63  0.001718275    2.051    0.512
        14 -10.2528     44.1002    246.6029   1.4580098670e+02   2.0502129135e+01    0.3376524    0.2258359 -77.95  0.002533608    1.580    0.367
        15  -9.9572    236.1919    208.1724   1.0504776447e+02  -3.9767110899e+00      0.32674    0.2649348 -57.69  0.001959927    2.172    0.540
        16  -7.4476     51.5825    206.4444   1.4166146835e+02   2.6900633786e+01    0.1177086   0.08993369  70.54 3.730934e-05    1.020    0.019
        17  -9.6025    243.1924    204.9472   1.0323529330e+02  -4.7121049664e+00    0.2284806    0.1963821  84.73  0.001359281    2.356    0.576
        18 -10.3018     49.3326    241.0484   1.4457912514e+02   2.0818448579e+01    0.3400517    0.1568349  58.21  0.002062933    1.691    0.409
        19 -10.0578    176.8872    201.3554   1.1512037157e+02   7.4975530450e+00    0.2159901    0.1976271  25.63 0.0002494277    1.093    0.085
        20 -10.3597    249.7182    195.6700   1.0038694824e+02  -4.6100947694e+00    0.6533729    0.1993758 -33.41  0.002651612    3.298    0.697
        21 -10.4120    240.6735    194.1478   1.0166726880e+02  -2.9228447205e+00    0.3681504    0.1923505 -23.32  0.001846105    2.012    0.503
        22  -9.4374     30.2073    242.5237   1.4787492381e+02   2.2775496037e+01    0.3042608   0.09356806  56.72  0.001600858    2.484    0.597
        23  -6.9022    105.4272    194.5072   1.2917785781e+02   2.1565354970e+01    0.1313719    0.1137583  60.89 0.0002028731    1.025    0.024
        24 -10.2230     57.9603    240.5941   1.4305699079e+02   1.9829535970e+01    0.4060176    0.1416139  57.92  0.001999922    2.567    0.610
        25  -7.6354    177.5976    186.7998   1.1239785055e+02   9.7831253658e+00    0.2128547    0.1521838  45.73 0.0003020863    1.282    0.220
        26  -9.2958    125.3329    248.2781   1.3162756000e+02   8.9476831289e+00     0.340923    0.1130285  46.88  0.001554918    2.320    0.569
        27  -9.8241    245.7849    179.6502   9.7957848078e+01  -1.8613872322e+00    0.2859245    0.2088967 -22.45  0.001689255    1.313    0.238
        28  -7.2754     52.4777    165.0195   1.3744606515e+02   3.5459251568e+01    0.1522901   0.09302733 -47.15 0.0004067551    2.059    0.514
        29  -7.0292    164.4153    161.4840   1.1031123259e+02   1.7040021944e+01    0.1466694     0.137016  42.82 0.0001419287    1.036    0.035
        30  -6.9646    131.2783    155.6724   1.1683813406e+02   2.4959159671e+01    0.1471173    0.1129772  80.90 0.0001787486    1.595    0.373
        31  -8.1989      5.4479    154.8648   1.4727816137e+02   4.2245577001e+01    0.1643141    0.1294767 -68.14 0.0005793505    1.305    0.234
        32  -7.5922    192.3495    150.4114   1.0190602406e+02   1.3164419913e+01    0.2191084    0.1651824  10.04 0.0003114849    1.551    0.355
        33  -7.2974      7.6086    149.1650   1.4636240563e+02   4.3315529904e+01    0.1537639   0.08323573 -69.44 0.0002800147    1.539    0.350
        34  -9.1380    122.8081    146.9262   1.1717673431e+02   2.8492489319e+01     0.231989    0.2153061  38.87 0.0002788645    1.100    0.091
        35  -8.5332    187.9982    138.0057   9.9982622908e+01   1.6375259675e+01     0.221512     0.207211  21.68  -0.01509786    1.016    0.016
        36 -10.3785    233.9032    130.7432   8.9501828044e+01   7.6365860267e+00    0.2700292    0.2616386 -11.40 0.0004235589    1.118    0.105
        37  -8.1859    120.1329    131.8902   1.1467346052e+02   3.2331355365e+01    0.2110935    0.2076164  57.64 0.0003223524    1.039    0.037
        38  -7.1969    182.9891    124.4935   9.7792009199e+01   2.0039052882e+01    0.2311919    0.1499081  49.47  0.000499072    1.514    0.339
        39  -7.5467    163.0082    122.0134   1.0163673490e+02   2.5160396929e+01    0.2322804    0.1862973   2.79  0.001074378    1.535    0.349
        40  -8.2372    180.5295    115.8643   9.6145563626e+01   2.2243983181e+01     0.281432    0.2203145  56.81 0.0003745334    1.319    0.242
        41  -7.4529     44.7923    116.1559   1.3275018734e+02   4.7523693327e+01    0.1645412    0.1358627 -47.31 0.0003309127    1.250    0.200
        42  -7.4313    250.7154    112.0923   8.2477333604e+01   7.0620209424e+00    0.1897826    0.1143618 -23.23            0    1.669    0.401
        43  -8.0614    237.3222    111.8661   8.4504477197e+01   9.8959296496e+00    0.2212273    0.2020765  86.08 0.0006948215    1.306    0.234
        44  -7.8006     22.8527    111.7456   1.3849844891e+02   5.0552896625e+01    0.2185786    0.1439219  54.12 0.0009327204    1.689    0.408
        45  -8.5288    184.8927    110.9278   9.3942885626e+01   2.2124862531e+01     0.235491    0.2299746  86.22 0.0006975285    1.091    0.083
        46  -6.5777    178.3155     91.3056   9.0033715933e+01   2.7330622341e+01    0.1613372     0.122325  18.52 0.0005401852    1.625    0.384
        47  -7.9195    205.6114     90.0633   8.4403738310e+01   2.0754993675e+01     0.245699    0.2071303  72.35 0.0004253384    1.286    0.222
        48  -7.0863      8.6338     89.3035   1.3967697711e+02   5.6585875953e+01    0.1167623   0.07842363  69.07 0.0005355834    1.740    0.425
        49  -6.6598     12.7181     73.3014   1.3563718613e+02   5.9886034035e+01    0.1096427   0.08316876  80.90 0.0001607578    1.549    0.355
        50  -8.1003    151.6274     71.1398   8.9995950966e+01   3.7648013213e+01    0.2456472    0.2125591  64.81 0.0003992531    1.194    0.163
        51  -6.8312     38.5229     70.5545   1.2550479708e+02   5.8496597907e+01     0.126995    0.1075892 -46.31  0.000170513    1.006    0.006
        52  -8.9178    189.0235     68.1050   8.1343275768e+01   2.8528619417e+01    0.2307033    0.2168569 -37.21 0.0002855445    1.085    0.078
        53  -7.3421    149.4095     62.8616   8.7890812333e+01   3.9615520206e+01    0.2095979    0.1505143 -14.93 0.0005166841    1.650    0.394
        54  -9.8390    244.4181     55.6403   6.9895698358e+01   1.6677000551e+01    0.2643738    0.2344038  37.90 0.0002174687    1.312    0.238
        55  -8.5039    248.2617     51.5697   6.8484114452e+01   1.6351914560e+01     0.263839    0.2290512  29.76  0.001011701    1.409    0.290
        56  -7.3417    178.0335     54.0000   7.9199548608e+01   3.3563834066e+01     0.262533    0.0841482  60.16 0.0008093048    2.990    0.666
        57  -8.4732    130.0163     56.0067   9.0369603178e+01   4.5533452507e+01    0.2180025    0.2101163  28.99            0    1.029    0.028
        58  -7.7594    185.9290     41.8598   7.4218011332e+01   3.3179112123e+01     0.220424    0.1862115  39.58 0.0002716694    1.255    0.203
        59  -7.1486    103.0000     38.0454   9.1333871799e+01   5.4501294445e+01    0.2199814   0.07955285 -32.43 0.0007470578    2.815    0.645
        60  -8.0756    158.1183     34.1959   7.6658403885e+01   4.1554396440e+01    0.2321515    0.1911685  34.34 0.0007311519    1.253    0.202
        61 -10.4403    140.1150     32.5689   7.9744086576e+01   4.6437979561e+01    0.2530647    0.2359439  10.50 0.0001473774    1.107    0.097
        62  -7.9791    151.0296     27.9928   7.5930472613e+01   4.4176795394e+01    0.2136883    0.2062206  61.44 0.0003627888    1.056    0.053
        63  -8.4189    121.8987    239.9258   1.3136253649e+02   1.0779947926e+01    0.1911078    0.1185952  63.55 0.0008040193    1.674    0.402
