#   1 NUMBER                 Running object number                                     
#   2 MAG_AUTO               Kron-like elliptical aperture magnitude                    [mag]
#   3 X_IMAGE                Object position along x                                    [pixel]
#   4 Y_IMAGE                Object position along y                                    [pixel]
#   5 X_WORLD                Barycenter position along world x axis                     [deg]
#   6 Y_WORLD                Barycenter position along world y axis                     [deg]
#   7 A_WORLD                Profile RMS along major axis (world units)                 [deg]
#   8 B_WORLD                Profile RMS along minor axis (world units)                 [deg]
#   9 THETA_WORLD            Position angle (CCW/world-x)                               [deg]
#  10 FWHM_WORLD             FWHM assuming a gaussian core                              [deg]
#  11 ELONGATION             A_IMAGE/B_IMAGE                                           
#  12 ELLIPTICITY            1 - B_IMAGE/A_IMAGE                                       
         1 -11.9187    198.4811     43.2953   4.2572208679e+01   3.0599703023e+01    0.8641453    0.7765655 -76.85  0.003455087    1.072    0.067
         2 -12.0293    207.2374     34.5854   3.9479643466e+01   2.9771936855e+01    0.6127952    0.5916144  86.91  0.001328435    1.266    0.210
         3 -10.0367     32.6845      3.4683   6.9117778271e+01   7.0790688623e+01    0.2158569    0.1522661 -10.61  0.001189056    1.284    0.221
         4 -10.9651     33.0000     13.0002   7.3701142863e+01   6.9599892910e+01    0.3033361    0.1604041 -35.92  0.001735454    1.903    0.475
         5 -11.3330    228.9254      9.6985   3.2085998364e+01   2.8046881873e+01    0.7725975    0.3637849 -63.07  0.004067305    1.940    0.485
         6 -11.4459    233.3382      4.3910   3.0707531178e+01   2.7713716252e+01    0.8915267    0.3943846 -57.13  0.004792014    1.916    0.478
         7 -10.9429     40.9967      9.2620   6.8208797192e+01   6.8917928272e+01    0.6061035    0.1352499 -32.43  0.002220834    4.647    0.785
         8 -10.2641     58.8907      2.5894   5.7929188472e+01   6.6629877391e+01    0.2941833    0.1527136  39.38   0.00163238    1.632    0.387
         9  -8.4197    168.1852    232.8348   8.9367407911e+01   1.4136352826e+00    0.1853385    0.1670502  45.89 0.0006301909    1.223    0.183
        10  -9.1594    141.1936    250.3995   9.7359386155e+01   2.5598573682e+00     0.187039   0.09817991  43.47 0.0005984313    1.668    0.400
        11 -10.2300    107.3041    250.2495   1.0425824169e+02   7.6497908449e+00    0.3525766    0.1785545  40.14  0.001819817    1.625    0.385
        12  -9.3269     72.2554    249.9957   1.1132686476e+02   1.2655821516e+01    0.2745726    0.1686978  54.63 0.0003787607    1.365    0.267
        13 -10.0465     72.3154    245.2668   1.1089407496e+02   1.3562833155e+01    0.4340963     0.222117  52.04 0.0009983846    1.672    0.402
        14 -15.4861     48.1737    200.0314   1.1182174165e+02   2.6463231414e+01     16.86125     6.656159  82.51   0.04930549    5.594    0.821
        15  -8.7671    149.3344    228.3224   9.2613473723e+01   5.1949957335e+00     0.134203     0.099462  -0.06 -7.295091e-05    1.707    0.414
        16 -10.2881    113.3556    195.9212   9.5759919627e+01   1.7804126069e+01      0.33393    0.2306023 -23.40  0.001510362    2.197    0.545
        17  -9.4021    146.0074    222.8382   9.2502656809e+01   6.7571738744e+00    0.2248238    0.1517752   9.92  0.001093065    1.978    0.494
        18 -16.9023      8.6306    244.3627   1.2314044797e+02   2.1306107890e+01      14.1097     3.856618 -77.93   0.02198256    3.337    0.700
        19  -8.7344    191.7240    192.3691   7.7628643052e+01   4.8273920260e+00    0.1307107    0.1108604 -81.99    0.0003473    1.681    0.405
        20 -11.9018     56.6848    184.6908   1.0809019581e+02   2.9034504805e+01    0.8292397    0.6708508  67.85  0.003698279    1.133    0.117
        21  -7.9896     88.5429    210.0058   1.0359083310e+02   1.8614324987e+01    0.1925017    0.1305425 -65.48 0.0005515388    1.531    0.347
        22  -8.8588     99.4577    180.9527   9.6786065646e+01   2.3596261401e+01    0.2263457    0.1881877  44.58 0.0005917824    1.170    0.145
        23 -15.2129      5.7476    209.1165   1.2183669860e+02   2.8941280532e+01     3.008864    0.9976153 -74.01   0.01201035    2.543    0.607
        24  -9.0202    186.1798    174.4758   7.5290422389e+01   9.2366642241e+00    0.2849875    0.2438145 -44.21   0.00115005    1.178    0.151
        25 -10.5065    103.8737    171.8470   9.4128037222e+01   2.5036360142e+01    0.3636246    0.3072585  55.11  0.001534038    1.156    0.135
        26 -10.3443     70.5352    171.0699   1.0272040317e+02   3.0492760041e+01    0.4354717    0.2854455 -36.30  0.002009733    2.042    0.510
        27 -10.3201     33.4074    166.0460   1.1184143000e+02   3.6364395083e+01    0.4295057    0.2933384  62.04  0.001992332    1.442    0.307
        28 -10.6784     74.8630    166.2846   1.0084197836e+02   3.1054896929e+01    0.3849588    0.3363879 -37.56  0.001997562    1.332    0.249
        29 -11.8984     58.2363    130.7324   9.9550811481e+01   4.2369155300e+01     1.903193    0.4649661 -66.24  0.004677516    5.760    0.826
        30 -11.8929     71.5392    152.8782   9.9566762363e+01   3.4913822488e+01    0.5070056    0.4722684  84.93 0.0009884912    1.030    0.030
        31 -12.1810     69.2740    144.3494   9.8728939550e+01   3.7401708639e+01     1.121111    0.6717852  66.75  0.002886366    2.219    0.549
        32 -10.8070     90.2110    151.4620   9.4078487598e+01   3.2360165253e+01    0.7382298    0.4907829 -17.12  0.001856242    2.576    0.612
        33  -9.9886    134.1273    145.9701   8.1199266812e+01   2.5574585966e+01    0.7418476     0.220026 -53.55  0.002079467    3.824    0.738
        34 -11.2852     82.8230    158.3950   9.7377993978e+01   3.1816491675e+01    0.7659736    0.6306129  75.85 0.0005655514    1.252    0.201
        35  -9.2673     38.9329    146.3773   1.0785389088e+02   4.0707822144e+01    0.3035465    0.1896632  39.23 0.0009073857    1.685    0.407
        36  -9.4290    102.9007    138.2976   8.7856580397e+01   3.3418494647e+01    0.4931316    0.3099127 -27.75  0.001939076    2.342    0.573
        37 -10.5529     90.9612    137.3328   9.1055849910e+01   3.5758799259e+01    0.2835488    0.2648898 -33.12 0.0003585088    1.153    0.133
        38  -9.9871     72.2246    135.0189   9.6112730335e+01   3.9328879352e+01    0.3659228    0.1768585  49.87  0.001416185    2.408    0.585
        39 -10.3525     32.6419    130.8103   1.0745354510e+02   4.5281318215e+01    0.4387409    0.1792255 -62.09  0.001869813    2.022    0.505
        40  -9.3734    106.0533    130.9899   8.5345732840e+01   3.4616608445e+01    0.3643703    0.3208996 -72.18  0.001343515    1.155    0.134
        41 -10.2976     43.8008    130.2998   1.0393567283e+02   4.4236092035e+01    0.2619636    0.2409836 -89.39  0.000657347    1.076    0.071
        42  -8.8504    112.1015    129.1721   8.3230488866e+01   3.3901611864e+01    0.2393667    0.2121471 -11.09 0.0006559909    1.314    0.239
        43  -9.4259    107.5648    204.7867   9.8461794279e+01   1.6787569162e+01    0.3028467    0.1396667 -69.65  0.001141442    2.967    0.663
        44  -9.3870     99.3685    124.7544   8.5827373602e+01   3.7363014214e+01     0.314209    0.2514176  12.30 0.0006787828    1.545    0.353
        45  -7.5383     91.6490    124.3100   8.8003383437e+01   3.8850849402e+01      0.15845     0.117572  75.36 0.0007044554    1.718    0.418
        46  -7.8424     67.6630    124.6836   9.5433930460e+01   4.2589510457e+01    0.1512687    0.1092537 -27.77 0.0007048131    1.699    0.411
        47  -9.7528    118.5616    123.1539   8.0011923640e+01   3.4048162064e+01     0.303078    0.2149012  -2.14    0.0012131    2.305    0.566
        48  -9.1129    135.0000    120.5215   7.5010498584e+01   3.1240698310e+01    0.3481198   0.08798649 -46.74 0.0008911842    3.899    0.744
        49  -8.1121    108.2059    118.1884   8.1692562382e+01   3.7261320239e+01    0.2000294    0.1759258  79.76 0.0002931088    1.251    0.201
        50  -8.7839    231.2848    113.9115   5.4213547903e+01   1.2142481093e+01    0.2321044    0.2059774  43.64  0.001011722    1.317    0.240
        51  -8.5168    127.3134    112.6762   7.5023065937e+01   3.4633247535e+01    0.1596167    0.1237187 -89.69 0.0007040937    1.660    0.398
        52 -10.7908     43.3685    109.0420   1.0015687699e+02   4.9570408553e+01    0.3424529    0.2580598 -47.72  0.001724855    1.222    0.182
        53 -10.8388     49.6599    107.9434   9.7787794327e+01   4.9107569454e+01    0.4406379    0.2488871  33.20  0.002075554    1.906    0.475
        54  -8.5623    205.4781    110.4734   5.7568803432e+01   1.7942225719e+01    0.1439282    0.1320852 -50.42 0.0001225334    1.021    0.020
        55  -9.7515    115.1437    109.2839   7.7459547653e+01   3.7931302205e+01    0.3153381    0.1757951 -35.69   0.00121905    2.095    0.523
        56  -8.7935    134.8084    104.4391   7.0916352368e+01   3.4813077870e+01     0.309404    0.1176935 -47.37  0.001020596    2.646    0.622
        57  -9.9838    111.0279    203.4972   9.7463258773e+01   1.6506022248e+01    0.2525487    0.1931684  89.32 0.0006950359    1.507    0.337
        58  -8.2377    127.3398     94.7012   7.0192063918e+01   3.8508161681e+01    0.1567432    0.1216849  89.53 0.0003780492    1.664    0.399
        59  -8.8855     51.3085     93.6451   9.3936807056e+01   5.2305498088e+01    0.1388628    0.1072213  78.67 0.0007042826    1.724    0.420
        60 -10.2501    119.2505    213.4377   9.7024274452e+01   1.3022123034e+01    0.3704464    0.2479755 -50.28  0.001911027    1.640    0.390
        61  -8.7362    155.6049     87.6495   6.1464787650e+01   3.3472845481e+01    0.3000639    0.2074578 -80.10 0.0008417059    2.002    0.500
        62  -8.2210     74.5334     84.5405   8.3272670600e+01   5.0988788410e+01    0.1407446    0.1354623 -34.24 8.022076e-05    1.046    0.044
        63 -10.6690     49.2831    249.8430   1.1583223920e+02   1.5658497622e+01    0.2161657    0.1670097  66.25  0.000585449    1.040    0.038
        64 -10.9664    186.9349     51.9202   4.6278565890e+01   3.2060870928e+01     0.431756    0.3627437  49.63   0.00103227    1.353    0.261
        65  -9.0238    128.2968    212.3525   9.4820520890e+01   1.1756274369e+01    0.1370637    0.1075333 -11.92 0.0003637075    1.689    0.408
        66  -9.6431     32.6682     52.4633   8.9703501466e+01   6.3240284216e+01     0.224303    0.1046285 -49.93  0.001080801    1.957    0.489
        67 -10.9520    124.9046    244.1105   9.9909663898e+01   6.1319123542e+00    0.6463243    0.2056435 -51.08  0.002590976    3.566    0.720
        68 -10.8766    114.2488    247.0096   1.0246583147e+02   7.2123140348e+00    0.2802967    0.2235747  28.99  0.001756381    1.247    0.198
        69  -8.9610     30.3651    202.1704   1.1607067054e+02   2.8034771674e+01    0.3293724    0.1700634  31.34  0.001005895    2.069    0.517
        70 -11.2732     31.8483     16.6153   7.5960931750e+01   6.9271392032e+01    0.3383223    0.1894027  31.92  0.001986251    1.702    0.412
        71 -10.0371     78.9189    237.6243   1.0880920993e+02   1.4167682820e+01    0.3532673    0.2151784 -51.92  0.001921028    2.010    0.503
        72 -10.2228    122.5055    199.1441   9.4105113842e+01   1.5539813985e+01    0.3372835    0.2529747 -83.84  0.001031819    1.627    0.385
        73  -9.0323     59.9049    197.3736   1.0878630814e+02   2.5585653964e+01    0.2213832    0.1752757 -72.34 0.0002908759    1.234    0.190
        74 -10.2878     94.0823    235.8631   1.0542409159e+02   1.2340916355e+01    0.4187181    0.2015062 -67.79  0.001269407    2.425    0.588
