#   1 NUMBER                 Running object number                                     
#   2 MAG_AUTO               Kron-like elliptical aperture magnitude                    [mag]
#   3 X_IMAGE                Object position along x                                    [pixel]
#   4 Y_IMAGE                Object position along y                                    [pixel]
#   5 X_WORLD                Barycenter position along world x axis                     [deg]
#   6 Y_WORLD                Barycenter position along world y axis                     [deg]
#   7 A_WORLD                Profile RMS along major axis (world units)                 [deg]
#   8 B_WORLD                Profile RMS along minor axis (world units)                 [deg]
#   9 THETA_WORLD            Position angle (CCW/world-x)                               [deg]
#  10 FWHM_WORLD             FWHM assuming a gaussian core                              [deg]
#  11 ELONGATION             A_IMAGE/B_IMAGE                                           
#  12 ELLIPTICITY            1 - B_IMAGE/A_IMAGE                                       
         1 -14.8485    170.8678     41.2444   7.1694008064e+01   3.7580657398e+01     1.192568     1.055188   7.04  0.004031167    1.417    0.294
         2 -14.9457    191.3237      8.4202   6.0527791572e+01   3.6470439534e+01     2.268726    0.7911375  63.80  0.007612541    2.331    0.571
         3 -11.3192    125.0184    247.3721   1.2724861483e+02   5.7822785999e+00    0.3195662    0.1587425 -57.12  0.001325966    2.314    0.568
         4 -14.1069    176.3608    231.9207   1.1468204954e+02  -3.1580236197e-01    0.8111459    0.6250311 -38.11  0.003246855    1.446    0.308
         5 -14.0026    197.9072    246.4256   1.1279132776e+02  -6.3158796200e+00     0.818612    0.5431671  32.67   0.00474582    1.307    0.235
         6 -14.1942    178.1525    244.6498   1.1635032427e+02  -2.7648353346e+00     1.086265    0.8591968   3.47  0.006529438    1.452    0.312
         7 -10.3733    139.5981    250.1185   1.2473895353e+02   2.8465045738e+00    0.2636299    0.1481345  53.57  0.001338803    1.701    0.412
         8 -10.3116    133.7060    248.1985   1.2564414285e+02   4.1778708414e+00    0.2423793    0.1528074 -47.03  0.001000779    1.928    0.481
         9 -19.7863     61.2405    165.8155   1.3003301422e+02   3.3814240279e+01     19.54143     5.703189 -65.71   0.06551442    3.352    0.702
        10 -11.2193     16.8179    217.5589   1.4517685857e+02   2.7173951948e+01    0.1973792    0.1389802 -73.39  0.001332045    1.354    0.262
        11 -11.6552     96.7928    213.1198   1.2857355310e+02   1.7386228264e+01    0.2873991     0.217813 -47.26  0.001492173    1.606    0.377
        12 -11.1445    106.5061    206.5102   1.2552179833e+02   1.7216563387e+01    0.2493209    0.2216584  57.52 0.0007091615    1.090    0.083
        13 -12.0007    104.8300    202.3564   1.2527669657e+02   1.8429212908e+01    0.4210593    0.4049762  57.03  0.001541835    1.177    0.150
        14 -10.9716     30.1429    205.5747   1.4165452404e+02   2.8326199643e+01    0.1681783     0.142078  14.44  0.001103567    1.842    0.457
        15 -12.4427    161.5159    200.4885   1.1235625211e+02   8.3752846304e+00    0.5738751    0.3929932  81.22  0.002371362    2.336    0.572
        16 -11.9195    159.8901    197.1253   1.1209197341e+02   9.3827157166e+00    0.3901712    0.2858172  27.24  0.000304048    1.507    0.337
        17 -10.5549    153.3658    200.9691   1.1422412024e+02   9.8400708868e+00    0.2841303    0.2028572 -57.95  0.001352512    1.527    0.345
        18 -10.4403     20.4575    202.5451   1.4331431026e+02   3.0044256718e+01    0.1206681   0.09296433  88.03 0.0003031309    1.040    0.038
        19 -11.1147    140.2699    199.5250   1.1686867764e+02   1.2640130638e+01    0.4523186    0.3084602  23.02  0.001692107    1.902    0.474
        20 -10.6387    113.1670    196.0939   1.2241701837e+02   1.8389751248e+01    0.4643443    0.3174651 -10.87  0.001838978    3.175    0.685
        21 -11.1533    103.5358    195.3963   1.2450614970e+02   2.0230004902e+01    0.3614023     0.300532  67.65  0.001274063    1.122    0.109
        22 -12.6890    119.1213    241.0724   1.2761581565e+02   7.9425811773e+00    0.3481561    0.1960288 -67.47  0.001738616    2.120    0.528
        23 -10.6269      7.5763    196.4908   1.4535845328e+02   3.2644481691e+01    0.1980553    0.1547797  88.52 0.0005290997    1.081    0.075
        24  -8.9419      3.6749    194.3539   1.4595802757e+02   3.3467658258e+01    0.1471861    0.1173318 -34.64 0.0009977631    1.973    0.493
        25 -11.3393    180.6159    193.4635   1.0692054021e+02   6.0953901778e+00    0.3075374    0.2529382 -87.36  0.001453332    1.593    0.372
        26 -11.5708    152.5811    192.5480   1.1285838746e+02   1.1770427775e+01    0.3447934    0.2664053  74.51  0.001315097    1.552    0.355
        27 -12.7087    172.4097    189.0404   1.0781672081e+02   8.6019950269e+00    0.4972122    0.3642682  17.56   0.00214063    1.696    0.410
        28 -12.3516    175.3878    185.8399   1.0653859228e+02   8.6702841278e+00     0.598918    0.3657657 -67.60  0.002380093    2.529    0.605
        29 -11.2699    206.0412    190.4923   1.0109430515e+02   1.7998535117e+00     0.211333     0.136187  41.21 0.0004039854    1.546    0.353
        30 -11.7270    163.6580    188.0173   1.0953295651e+02   1.0551327696e+01    0.4605518     0.197518  31.47  0.001492859    3.304    0.697
        31 -12.2349    152.6784    185.2259   1.1144678166e+02   1.3332992768e+01    0.4929397    0.3263926 -83.45  0.001958434    2.417    0.586
        32 -10.5148    107.7107    183.9233   1.2166867296e+02   2.2164177435e+01    0.3116741    0.1938911  36.20 0.0004917499    1.720    0.418
        33 -11.6716    169.3150    181.9018   1.0707424315e+02   1.0710753233e+01    0.2939006    0.2719637   2.99  0.001221027    1.164    0.141
        34 -11.5635    168.0535    176.3439   1.0622160562e+02   1.2150454046e+01    0.3753504    0.2716271 -75.24 0.0006484419    1.861    0.463
        35 -12.3120    204.6922    176.4957   9.8501948431e+01   4.7289000091e+00    0.5141709    0.4050614 -58.93  0.001691936    1.464    0.317
        36 -12.4350    203.4692    166.2921   9.6582309113e+01   6.9788327219e+00    0.6517349     0.517419 -20.38  0.002568272    1.372    0.271
        37 -13.2014    144.6739    174.3709   1.1115086953e+02   1.7347139141e+01      0.85826    0.4706227 -54.27  0.003523523    1.895    0.472
        38 -13.6360    138.2986    171.9393   1.1216412509e+02   1.9179485915e+01    0.8530453    0.5068077  54.43  0.003583098    1.806    0.446
        39 -10.2479    198.5197    177.5206   9.9964708668e+01   5.7436238347e+00    0.3646411    0.2490661  86.18  0.001436365    2.889    0.654
        40 -12.5114    193.8458    166.6998   9.8632355979e+01   8.8593116199e+00    0.5666513    0.3551861 -49.95 0.0006894784    1.647    0.393
        41 -11.6453    190.1915    161.0661   9.8167591293e+01   1.0776735944e+01    0.3772217    0.3617725  17.98 0.0009635664    1.066    0.062
        42 -11.8726    189.8932    155.6184   9.7023315920e+01   1.1971944618e+01    0.4943929     0.457474  49.08  0.001564863    1.108    0.097
        43 -10.3977    129.0457    175.4928   1.1506186649e+02   2.0178167113e+01    0.2367525    0.1466764  41.94  0.001036659    1.603    0.376
        44 -11.7565     24.8926    165.8264   1.3878565534e+02   3.8005102397e+01    0.3870546    0.2429416   6.08  0.001186384    2.777    0.640
        45 -11.4646    229.9614    165.9749   9.1451089046e+01   1.8712139036e+00    0.2193491     0.174444 -71.85 0.0007100644    1.692    0.409
        46 -11.8387    120.4057    156.8763   1.1345946873e+02   2.6238995788e+01    0.2940083    0.2702302 -26.84 0.0007498114    1.242    0.195
        47 -13.7251    133.9663    145.7383   1.0763797526e+02   2.6155974252e+01     1.551972    0.4083439 -55.10  0.003612222    5.520    0.819
        48 -11.5202    166.6235    154.8958   1.0193294486e+02   1.7124783557e+01     0.482089    0.3073727  77.66  0.001560471    2.754    0.637
        49 -10.7616    174.3955    148.8650   9.8827817219e+01   1.6755469960e+01    0.3252151    0.2732193  88.15 0.0008497241    1.396    0.284
        50 -13.2316    144.1503    145.7672   1.0513587469e+02   2.4011447039e+01    0.8265507    0.5495552  81.67  0.003166914    2.410    0.585
        51 -12.5486    142.2643    138.9734   1.0401824436e+02   2.5973680239e+01    0.4138928    0.3379647 -76.93  0.001833005    1.379    0.275
        52 -13.4142    135.8077    127.5316   1.0286906595e+02   2.9969613403e+01     1.814336    0.3267644 -50.05  0.003756001    6.729    0.851
        53 -11.6856    128.4448    123.0489   1.0364086005e+02   3.2548572922e+01    0.3066787    0.2294871  24.36  0.001244591    1.637    0.389
        54 -12.6032    113.9689    118.9325   1.0645701453e+02   3.6435258526e+01    0.4731379    0.3254412 -64.11  0.001155596    1.647    0.393
        55 -11.7207    160.6371    127.6619   9.6892923182e+01   2.4447835897e+01    0.4643852    0.3292054 -66.42  0.001403862    1.680    0.405
        56 -11.6215    134.7555    106.0081   9.7585333109e+01   3.4935785336e+01    0.5619285    0.1802105 -44.49  0.001732654    3.087    0.676
        57 -10.7155    168.3570    113.2212   9.1517453500e+01   2.5744192536e+01    0.4098462    0.2747184 -87.10   0.00149018    2.363    0.577
        58 -10.0729    150.7591    246.5849   1.2205205246e+02   1.5712420659e+00     0.205069    0.1469093 -41.67 0.0008238618    1.684    0.406
        59 -12.8991    117.3211    109.3558   1.0307247270e+02   3.7908489590e+01    0.4061705    0.3839941 -81.79  0.001773809    1.107    0.096
        60 -10.8481    205.1039    110.3058   8.3417504835e+01   1.7780121306e+01    0.4068342    0.2240003  44.55  0.001150433    2.032    0.508
        61  -9.8624    126.4576    236.8635   1.2558369423e+02   7.5070670029e+00    0.2338143    0.1224745 -47.50  0.001102782    2.296    0.564
        62 -10.0372    131.5180    235.2490   1.2433151020e+02   6.9470569393e+00    0.1578213    0.1236401 -87.70 0.0002871629    1.461    0.316
        63 -10.8002    138.8493    228.9936   1.2192120116e+02   6.8689409575e+00    0.3115231    0.2521135 -74.84  0.001797602    1.399    0.285
        64  -9.5831    130.4485    219.4596   1.2225981689e+02   1.0257200750e+01    0.1389415    0.1236305  59.51 1.011492e-05    1.007    0.007
        65 -11.3959     20.4895    219.4617   1.4463976931e+02   2.6379768398e+01    0.1542137    0.1006365  48.34 0.0005477474    1.502    0.334
        66 -10.8879     92.4687     79.0404   1.0164785543e+02   4.8964452008e+01    0.2469458    0.2033943  34.44 0.0003838201    1.234    0.189
        67 -14.4622    158.1340     56.1461   7.8144764631e+01   3.8570633571e+01     1.313115     1.111201  63.21  0.001008841    1.108    0.097
        68 -11.9643    168.2456    246.6776   1.1860837202e+02  -1.4215119340e+00    0.3619402    0.2196606 -54.39  0.001913784    2.047    0.511
        69 -12.9508    175.0739     33.9084   6.9058774727e+01   3.7500283427e+01    0.3677615    0.3554912  42.62 0.0009176131    1.202    0.168
        70 -10.7329     13.4786     59.7442   1.2362856248e+02   6.2523641612e+01     0.183805    0.1552727 -32.30 0.0003884829    1.108    0.098
        71 -10.5833    156.0080     38.7177   7.3563221358e+01   4.1509463762e+01     0.196827    0.1649936  66.21 0.0004239359    1.083    0.077
        72 -11.4841    188.1008     31.1090   6.6458682692e+01   3.4695902881e+01    0.2065053    0.1741484  53.06 0.0008505128    1.282    0.220
        73 -11.0083    128.7141     27.9324   7.5627832902e+01   4.9206913692e+01    0.2375144    0.1756825  64.26 0.0004170134    1.295    0.228
