#   1 NUMBER                 Running object number                                     
#   2 MAG_AUTO               Kron-like elliptical aperture magnitude                    [mag]
#   3 X_IMAGE                Object position along x                                    [pixel]
#   4 Y_IMAGE                Object position along y                                    [pixel]
#   5 X_WORLD                Barycenter position along world x axis                     [deg]
#   6 Y_WORLD                Barycenter position along world y axis                     [deg]
#   7 A_WORLD                Profile RMS along major axis (world units)                 [deg]
#   8 B_WORLD                Profile RMS along minor axis (world units)                 [deg]
#   9 THETA_WORLD            Position angle (CCW/world-x)                               [deg]
#  10 FWHM_WORLD             FWHM assuming a gaussian core                              [deg]
#  11 ELONGATION             A_IMAGE/B_IMAGE                                           
#  12 ELLIPTICITY            1 - B_IMAGE/A_IMAGE                                       
         1 -13.3376    224.7958      6.9463   3.4174671492e+01   2.8405304190e+01     1.235178    0.8682415  57.81  0.005524109    1.566    0.362
         2 -14.3217    197.4732     37.6682   4.4505977848e+01   3.1221301430e+01     2.914778     1.754367  25.58   0.01230259    2.846    0.649
         3 -11.5392     37.8768     12.8178   7.6630024848e+01   6.8824691149e+01    0.3158809    0.1786029  15.92   0.00174613    1.783    0.439
         4 -11.4727     61.7755      3.2555   6.1794989934e+01   6.6149042313e+01    0.3897824    0.2213846  36.58  0.002190387    1.494    0.331
         5  -8.0344    224.2518    206.3856   7.9432568466e+01  -2.4299412479e+00    0.1352007   0.08658051  -5.69 0.0006956735    1.667    0.400
         6 -19.1797     12.3542    166.9724   1.2160891633e+02   3.7734634081e+01     18.47991      4.20949 -78.30   0.06191463    4.367    0.771
         7  -8.8213     96.3866    202.7475   1.0612976176e+02   1.9586136042e+01    0.2441002    0.1616821 -49.53  0.001279122    1.697    0.411
         8  -9.4261    168.1939    233.2535   9.5086649701e+01   2.3128612586e+00    0.2854691    0.1732795  45.78  0.001264508    1.625    0.385
         9  -9.6107     82.2442    194.9774   1.0834205820e+02   2.3367900190e+01     0.324956    0.2549142  38.05  0.001884393    1.281    0.219
        10  -9.0466     79.5083    192.4557   1.0865154072e+02   2.4319221595e+01    0.2400984    0.1882685  56.91  0.000628889    1.185    0.156
        11 -15.3948     70.8939    146.3862   1.0400062547e+02   3.6430663267e+01     11.32137     5.621704  78.26   0.01242954    6.727    0.851
        12  -9.7418    208.0108    191.4888   7.9719820863e+01   2.5876969150e+00    0.2026175    0.1076829  17.80 0.0008105631    2.591    0.614
        13 -10.4760    149.4630    187.8409   9.1565523207e+01   1.3767803038e+01    0.3565659    0.2977521 -87.81  0.001092758    1.561    0.359
        14 -12.0216    120.1461    194.2803   9.9441125744e+01   1.7577040072e+01    0.6822629    0.3157831  40.15 0.0004973952    1.986    0.496
        15 -11.2590    202.2424    199.0899   8.2332152540e+01   2.2990465541e+00    0.6456138    0.1731225  35.94  0.002089304    3.817    0.738
        16 -11.9830    163.1622    213.9748   9.3085611860e+01   6.3892491216e+00     0.528578     0.375486  41.84   0.00290169    1.313    0.239
        17  -9.2392     92.6044    184.8294   1.0450463416e+02   2.4102765972e+01     0.261108    0.1819189  45.30 0.0005696313    1.364    0.267
        18 -10.6628     98.8346    181.2141   1.0244814222e+02   2.3950425160e+01    0.4057564    0.3102097   6.54  0.001361408    1.787    0.440
        19  -9.6173    143.4065    179.2236   9.1368477660e+01   1.6661069918e+01     0.197894    0.1425257 -61.76 0.0004746893    1.630    0.386
        20  -8.9781     42.9149    179.3303   1.1566115823e+02   3.1954080034e+01    0.1944805    0.1642282 -84.59 0.0004109832    1.064    0.060
        21 -12.3604     50.5896    171.1030   1.1289802827e+02   3.3008718160e+01    0.8694786    0.6325289 -28.96  0.001831717    1.949    0.487
        22 -10.0891    188.5032    176.7232   8.0753786165e+01   8.6962890410e+00    0.4153039    0.3633463 -72.61  0.002249674    1.560    0.359
        23  -8.8092    149.0732    176.3257   8.9483301302e+01   1.6216774765e+01    0.2191273    0.1959453  70.50 0.0005788222    1.287    0.223
        24  -9.4092    146.8490    172.2959   8.9216210789e+01   1.7487501191e+01    0.2518195    0.2063464 -63.16  0.001283503    1.395    0.283
        25 -10.1199     84.2994    173.7940   1.0489227024e+02   2.7901598068e+01    0.2326401    0.2239307 -59.98 0.0002391834    1.130    0.115
        26  -8.6773    194.0699    171.6890   7.8538704336e+01   8.5914059093e+00    0.2059649    0.1772451  17.81 0.0006511981    1.100    0.091
        27  -9.9639    137.7802    169.3385   9.0806681470e+01   1.9834638693e+01    0.3482137    0.3017825  44.31  0.001309712    1.132    0.117
        28 -10.5571    240.1148    169.6166   6.9270048870e+01   7.6187449178e-01    0.2325195    0.1692783 -36.34 0.0006861864    1.340    0.254
        29  -9.3003    185.4550    169.7849   7.9959094349e+01   1.0585536819e+01    0.2688943     0.140757 -45.78 0.0008804801    2.017    0.504
        30 -11.5827     93.0953    151.6875   9.8869248400e+01   3.1820759989e+01    0.7372191    0.5783198 -25.95  0.003706403    1.558    0.358
        31 -10.8463    133.8983    145.7328   8.6821144446e+01   2.5867065530e+01     1.302119    0.3555876 -54.91  0.003020996    5.861    0.829
        32  -8.4990    187.3282    151.6548   7.5590242613e+01   1.3737879274e+01    0.1492607    0.1228167 -82.46 0.0003504731    1.750    0.429
        33  -9.4264    112.5003    150.9412   9.3524604787e+01   2.8694617176e+01    0.2769571    0.2051412  57.44 0.0005615127    1.494    0.331
        34  -9.4059    174.8478    148.9292   7.7699522444e+01   1.6830889015e+01     0.283971    0.2190372 -62.69  0.001133211    1.623    0.384
        35 -10.4138    105.4485    138.0172   9.2714441839e+01   3.3028199163e+01    0.5635236    0.3257944 -31.93    0.0021943    2.311    0.567
        36 -10.3843    105.9883    130.7771   9.0948950854e+01   3.4662394713e+01    0.3962957    0.3346846 -57.80  0.001282566    1.175    0.149
        37 -11.6810     93.0914    137.7247   9.6117728825e+01   3.5209279842e+01    0.2903102    0.2614954 -34.34 0.0004120592    1.157    0.136
        38 -10.8582    114.3816    129.5036   8.8299944829e+01   3.3412520403e+01     0.620101    0.4913465  44.49  0.001614399    1.299    0.230
        39 -11.1190    119.6337    122.9868   8.5262492553e+01   3.3916928949e+01    0.5443655    0.3840249 -12.95  0.002282775    1.994    0.498
        40 -10.3965    135.7849    128.6065   8.2310405210e+01   2.9368113753e+01    0.6275886    0.2068503 -49.44  0.001888054    3.193    0.687
        41  -9.3770    160.7971    128.0991   7.5955991848e+01   2.4151007098e+01    0.3470937    0.2192385 -53.92  0.001436007    1.789    0.441
        42  -8.5273     96.5195    128.5315   9.3149088465e+01   3.6862900915e+01    0.1500641    0.1437281 -72.13 7.919104e-05    1.055    0.052
        43 -10.3386    100.8668    125.0229   9.1083693631e+01   3.6950267412e+01    0.3094172    0.2547051 -13.12 0.0008391858    1.425    0.298
        44  -9.5697    135.1609    119.5999   8.0203093136e+01   3.1513428496e+01    0.3107269    0.1132117 -47.31 0.0009814169    2.766    0.638
        45  -9.2830    109.0591    118.2729   8.7076053822e+01   3.7049717591e+01    0.2474836    0.2120649 -46.24 0.0003717479    1.129    0.114
        46  -9.9564    231.2483    113.7081   5.8422601149e+01   1.1782194583e+01    0.2638116    0.2551648 -21.46 0.0007108026    1.090    0.082
        47  -9.0180    167.6524    112.6463   7.0398377724e+01   2.5827910963e+01    0.3203196    0.2325616 -77.89  0.001328194    2.090    0.521
        48 -11.7035    118.0410    109.4025   8.2198845287e+01   3.7331881050e+01    0.7642684    0.5944941  78.52   0.00291255    1.780    0.438
        49  -9.5087    205.2440    110.3586   6.2099127538e+01   1.7831094059e+01    0.3455225    0.2297776  33.19  0.001036513    1.766    0.434
        50  -9.7411    134.7122    106.8273   7.6919723505e+01   3.4405467673e+01    0.3798837    0.1384249 -45.57  0.001211662    2.746    0.636
        51 -11.7255    196.3123    204.6855   8.4569913672e+01   2.3688616446e+00    0.5713084    0.3479188  32.32  0.002921725    1.506    0.336
        52  -8.9683     63.6414     99.1210   9.6507670832e+01   4.8943120305e+01    0.2343996    0.1910725  45.55 0.0006573698    1.407    0.289
        53 -11.2556    184.2618    210.6713   8.8107963780e+01   3.3949086066e+00    0.4110636    0.2962533 -23.19  0.002268694    1.479    0.324
        54 -10.9880    193.3741    195.5060   8.3452425527e+01   4.4306745952e+00    0.8725398    0.4695247 -60.86  0.002983571    4.536    0.780
        55  -8.6619    156.6084     82.2389   6.4458143842e+01   3.4308316267e+01    0.2137034    0.1478776 -24.80 0.0005403258    1.597    0.374
        56 -11.5243    112.0706    205.5282   1.0297855680e+02   1.6550971251e+01    0.4958085    0.3258084 -39.45  0.002510471    1.896    0.472
        57 -12.8496    107.9362    203.5298   1.0362655548e+02   1.7625313489e+01     1.033686     0.560513 -45.36 0.0005274657    2.179    0.541
        58  -9.5793     63.5507     69.8216   8.8349584905e+01   5.5491630521e+01    0.2272178    0.1916339  16.64 0.0003813338    1.224    0.183
        59  -8.1086    168.2868    248.2490   9.7249351957e+01  -1.2435260603e-02    0.1175192   0.08246068  14.28            0    1.471    0.320
        60 -12.4978    181.9306     51.5607   5.0592229848e+01   3.3127987708e+01    0.7103158    0.6788628  57.50 0.0008588106    1.072    0.067
        61  -8.2540     93.6208    248.7352   1.1194292713e+02   1.1060622395e+01    0.1105509   0.08859264  14.01 0.0006985372    1.679    0.405
        62  -9.6290    189.8026     15.0842   3.9517686828e+01   3.5701538516e+01    0.2078637    0.1629292 -69.88 0.0006993061    1.237    0.191
        63  -8.4716     77.2048    212.8275   1.1158027706e+02   2.0242622646e+01    0.1531291    0.1487471 -45.85 0.0005361438    1.296    0.228
        64  -8.8189     93.0517    205.7169   1.0726587029e+02   1.9459245151e+01    0.2235488    0.1613038  30.38 0.0003570179    1.468    0.319
