#   1 NUMBER                 Running object number                                     
#   2 MAG_AUTO               Kron-like elliptical aperture magnitude                    [mag]
#   3 X_IMAGE                Object position along x                                    [pixel]
#   4 Y_IMAGE                Object position along y                                    [pixel]
#   5 X_WORLD                Barycenter position along world x axis                     [deg]
#   6 Y_WORLD                Barycenter position along world y axis                     [deg]
#   7 A_WORLD                Profile RMS along major axis (world units)                 [deg]
#   8 B_WORLD                Profile RMS along minor axis (world units)                 [deg]
#   9 THETA_WORLD            Position angle (CCW/world-x)                               [deg]
#  10 FWHM_WORLD             FWHM assuming a gaussian core                              [deg]
#  11 ELONGATION             A_IMAGE/B_IMAGE                                           
#  12 ELLIPTICITY            1 - B_IMAGE/A_IMAGE                                       
         1 -13.6667    196.1243     24.3872   6.4097747134e+01   3.3602521551e+01     1.838328     1.122445   0.20  0.007872065    3.520    0.716
         2 -13.9459    202.8091     19.6179   6.2179795588e+01   3.2587879672e+01     1.322991     1.174572 -24.13  0.007017104    1.443    0.307
         3 -13.3805    208.5033     13.1860   6.0099519286e+01   3.1993703480e+01    0.6675586    0.5818057   3.60  0.001552713    1.681    0.405
         4 -11.4667      2.1548      9.9794   1.1234451402e+02   7.1190983660e+01    0.3311728    0.1296394 -41.59  0.001949877    2.112    0.526
         5 -12.4008      2.4169      3.3622   1.0937724622e+02   7.2042104640e+01    0.5888506    0.2950425  16.26  0.003959666    1.909    0.476
         6 -12.7271      2.4093     21.6341   1.1676321521e+02   6.9494046994e+01     1.478579    0.1370875 -41.73   0.00526999    5.156    0.806
         7 -11.1734    189.9386     15.4626   6.2698958535e+01   3.6075758777e+01     0.243274    0.1602348 -55.43  0.001099792    1.543    0.352
         8 -11.4881    248.6837    248.3556   1.0409020810e+02  -1.4245635025e+01    0.4117237    0.2649836  -3.52  0.002533036    1.536    0.349
         9 -12.8010    140.2856    248.0675   1.2466481083e+02   2.9478980956e+00    0.7341391    0.5090847 -89.59  0.003954406    2.031    0.508
        10 -13.1620    125.5674    247.8784   1.2752960522e+02   5.4358246815e+00    0.7433161    0.4926538  41.44  0.003794199    1.334    0.250
        11 -14.9890     92.9558    246.9675   1.3373399337e+02   1.0827145855e+01     4.722753     3.038792  27.67  0.006854316    2.119    0.528
        12 -16.0743      8.3853    198.1642   1.4551285601e+02   3.1879503888e+01     8.110103     1.715659 -73.27   0.02164181    3.658    0.727
        13 -11.5943     66.1038    192.2125   1.3284555036e+02   2.6564413869e+01    0.3902184    0.2515199 -44.08  0.001735161    2.019    0.505
        14  -8.6595    181.4991    192.4472   1.0690219971e+02   6.0301609505e+00    0.1440806     0.137065  19.74 6.322403e-05    1.016    0.015
        15 -11.6006     71.3400    185.1244   1.3070956669e+02   2.7487614943e+01    0.2947934    0.2492203 -43.21 0.0005718186    1.460    0.315
        16 -11.0497     80.5373    173.6073   1.2681895341e+02   2.8879113325e+01    0.2496323    0.2287584 -71.11 0.0007309119    1.114    0.102
        17 -13.2401     67.8681    170.7641   1.2945183806e+02   3.1421436609e+01    0.5387475    0.2826684 -44.72  0.001526649    2.317    0.568
        18 -10.2276    104.7616    172.9795   1.2081604185e+02   2.5056062621e+01    0.2775206    0.1803221  56.31  0.001275465    1.618    0.382
        19 -12.5608     57.0906    128.9588   1.2517721305e+02   4.3004186704e+01     1.767555    0.6191698 -72.31   0.00396155    8.129    0.877
        20 -12.2515     86.7763    165.1790   1.2388270349e+02   2.9949556184e+01    0.9651406    0.5554786  58.32  0.002367074    2.011    0.503
        21 -13.0830     67.9951    144.9317   1.2515125714e+02   3.7701373714e+01     1.111604    0.6529256 -86.89  0.003222683    2.361    0.576
        22  -9.3813    102.9438    145.3187   1.1590989790e+02   3.2059371617e+01    0.2973337    0.1880751 -31.32   0.00122275    2.160    0.537
        23 -12.1499     88.7083    148.3791   1.2028989064e+02   3.3739114616e+01    0.2976086    0.2550389 -41.93 0.0005044782    1.247    0.198
        24 -14.5329     34.6830    245.7709   1.4423690043e+02   1.9092514295e+01     2.014048     1.319778  31.85   0.01269371    2.076    0.518
        25 -12.8031     40.7329    224.4148   1.4147515344e+02   2.2704825843e+01    0.3761778    0.2957412 -60.57 0.0008762321    1.553    0.356
        26  -9.5460    110.8603    135.2723   1.1160838359e+02   3.3021268890e+01    0.2886632    0.1923326 -27.53  0.001021869    2.032    0.508
        27 -10.4536     98.2324    132.3731   1.1436514499e+02   3.6007606397e+01    0.2834424    0.2228947 -30.20 0.0006893626    1.458    0.314
        28 -12.5710     62.4203    217.6688   1.3659611487e+02   2.1331728454e+01     0.813175    0.2523505  46.00  0.003337341    2.809    0.644
        29  -9.4678    107.6973    122.7009   1.0950545913e+02   3.6573801760e+01    0.1926248    0.1694681  89.57 0.0004121508    1.258    0.205
        30 -15.0401     50.3650    212.8468   1.3852745574e+02   2.3991079244e+01     2.341428     1.437062  53.60   0.01044985    1.482    0.325
        31 -11.1316    167.9683    113.0294   9.1941240248e+01   2.5791040646e+01    0.3802584    0.3091786 -83.48  0.001085395    1.441    0.306
        32  -9.8224    100.0768    149.1462   1.1745404309e+02   3.1636983959e+01    0.3278561    0.2111678 -45.50 0.0009631492    1.584    0.369
        33 -10.8399      1.6238     89.4346   1.3456189940e+02   5.6893934192e+01    0.3367358   0.08704942 -65.23  0.001376978    2.965    0.663
        34 -11.3622      2.1061     78.9210   1.3244662728e+02   5.9079836529e+01    0.4852999   0.08583589 -59.34  0.001900318    3.266    0.694
        35  -9.9436      1.5106     61.9846   1.2902700906e+02   6.2511643021e+01    0.1731061   0.08637677 -56.15 0.0004577657    1.541    0.351
        36 -10.3080    110.7221     43.6004   8.5460657045e+01   5.1093784953e+01     0.302222    0.2302074  73.18 0.0009032686    1.709    0.415
        37 -10.8118    229.3250    249.1203   1.0769426698e+02  -1.1621596847e+01    0.2149241    0.1416984  22.35 0.0006780657    1.335    0.251
        38 -11.4831    181.9265    249.8007   1.1675911371e+02  -4.3133904888e+00    0.5537783   0.08972915  38.62  0.001491397    5.876    0.830
        39  -9.7517    171.3351    246.9957   1.1839989160e+02  -2.1036240039e+00    0.1964704   0.09772002 -25.39 0.0007052154    4.390    0.772
        40 -11.9768     70.3936    236.3333   1.3694294028e+02   1.6282699986e+01    0.4020673    0.1836112  61.42  0.001881508    2.253    0.556
        41 -10.2803    226.8240    202.3293   9.9745873718e+01  -4.0731985835e+00    0.2708276    0.1971935 -57.32 0.0009322939    1.871    0.465
        42 -13.8588      5.5615    245.8156   1.4907196399e+02   2.2334764673e+01     1.405211    0.9747258  80.04   0.01002884    1.042    0.041
