#   1 NUMBER                 Running object number                                     
#   2 MAG_AUTO               Kron-like elliptical aperture magnitude                    [mag]
#   3 X_IMAGE                Object position along x                                    [pixel]
#   4 Y_IMAGE                Object position along y                                    [pixel]
#   5 X_WORLD                Barycenter position along world x axis                     [deg]
#   6 Y_WORLD                Barycenter position along world y axis                     [deg]
#   7 A_WORLD                Profile RMS along major axis (world units)                 [deg]
#   8 B_WORLD                Profile RMS along minor axis (world units)                 [deg]
#   9 THETA_WORLD            Position angle (CCW/world-x)                               [deg]
#  10 FWHM_WORLD             FWHM assuming a gaussian core                              [deg]
#  11 ELONGATION             A_IMAGE/B_IMAGE                                           
#  12 ELLIPTICITY            1 - B_IMAGE/A_IMAGE                                       
         1 -11.5215     27.1912      9.6415   9.3039152463e+01   6.8503771181e+01    0.5008606    0.3726932  30.01  0.003719466    1.435    0.303
         2 -10.0124    137.7979      4.3856   6.1508916545e+01   4.8671272552e+01    0.1857811   0.08508233  57.20 0.0009593595    1.737    0.424
         3  -9.1915    171.2074      2.0177   5.6537298059e+01   4.1493563000e+01    0.2021281    0.1092205 -64.14  0.001085836    2.085    0.520
         4  -8.3895     90.9654    246.9704   1.2802487671e+02   9.7192682445e+00    0.2261405    0.1333665  64.01  0.001116583    1.835    0.455
         5 -16.8792    114.1222     28.5391   7.2942673103e+01   5.1529329366e+01     25.89586     8.993967 -39.01   0.07805493    3.266    0.694
         6 -11.1152     60.9017    186.8558   1.2710999851e+02   2.8022933682e+01    0.6061991    0.4174949 -67.48  0.003144464    1.319    0.242
         7 -11.7817     50.0765    206.3382   1.3215167653e+02   2.4681937419e+01     1.685028    0.8602256  57.70  0.007763083    2.066    0.516
         8 -11.8421     45.3822    198.4336   1.3230289583e+02   2.7176646268e+01     1.241084     0.599293  74.73  0.004843274    2.982    0.665
         9 -12.1763     53.8488    193.1108   1.2966283166e+02   2.7408752390e+01     1.315396     0.780058  40.70  0.006568356    1.726    0.421
        10  -9.6396    209.3767    207.1264   9.6331256689e+01  -1.9581114012e+00    0.3300782    0.2207406  59.62  0.001549066    2.327    0.570
        11  -9.4485     80.4663    205.7251   1.2506521995e+02   2.0572614783e+01    0.6623043     0.315144  61.72  0.002445473    2.946    0.661
        12 -10.5253    204.3744    201.1709   9.6186676201e+01   6.5227495475e-03    0.5513618    0.3982183 -19.05  0.002409253    1.493    0.330
        13  -9.0674     72.1665    201.1453   1.2638402786e+02   2.2914007602e+01     0.350959    0.2219253 -75.95   0.00141378    1.582    0.368
        14  -9.4594     67.3964    200.6003   1.2743695204e+02   2.3732393623e+01    0.3960613    0.1981183  49.46  0.001742312    2.013    0.503
        15  -9.3282    236.9180    199.9615   8.9755416891e+01  -4.9630337699e+00    0.5178017    0.2618348 -16.72  0.001870897    3.791    0.736
        16  -9.1974     25.1176    202.3083   1.3726041229e+02   2.8570766541e+01    0.1788843    0.1653564 -33.92   0.00118925    1.473    0.321
        17  -9.1384    215.6762    198.8362   9.3504800825e+01  -1.4260963917e+00    0.4201621    0.3112136 -72.11  0.002069504    2.160    0.537
        18  -7.9106    250.2423    199.6567   8.7360144140e+01  -6.8460441518e+00    0.1186234   0.09286593 -54.14 0.0002808903    1.564    0.360
        19  -8.6374    231.8482    194.3969   8.9604057873e+01  -3.1870187502e+00    0.1814789    0.1221863  21.38 0.0004946246    1.707    0.414
        20  -9.7576    211.2771    188.2889   9.2286055037e+01   1.3422890122e+00    0.3769424    0.2242379 -24.83   0.00167033    2.004    0.501
        21  -9.5258    225.0353    185.4311   8.9098846067e+01  -4.2456966003e-01    0.4154567    0.1782592 -39.34   0.00172075    2.126    0.530
        22  -9.3517    223.6997    180.5599   8.8375074795e+01   7.2864232953e-01     0.228885    0.2120568  -2.99 0.0006465456    1.106    0.096
        23 -10.8525     49.4815    179.2111   1.2887452593e+02   3.1417442053e+01    0.6430819    0.3334906 -78.40  0.002103063    2.028    0.507
        24  -9.7268     45.6695    174.1782   1.2913686247e+02   3.3142886692e+01    0.5302712    0.2197879 -76.06  0.001974592    2.761    0.638
        25  -9.1579    247.5318    181.4497   8.4342725683e+01  -3.2526461237e+00    0.2495757    0.2200946 -82.45  0.001113587    1.576    0.366
        26  -9.5441    235.6376    176.6549   8.5444258495e+01  -5.0556378662e-01     0.247496    0.2179871 -47.99 0.0007249279    1.176    0.150
        27  -9.7227    236.4131    172.0728   8.4396831359e+01   2.2751344108e-01    0.3078582    0.2301391  10.57 0.0005076458    1.676    0.403
        28 -10.7855     60.8911    193.8286   1.2807366051e+02   2.6295779700e+01    0.4949078    0.3645368 -74.93  0.001212403    1.239    0.193
        29 -10.7341      8.2009    173.9356   1.3826996068e+02   3.6991297939e+01    0.5304896    0.2134878 -56.52  0.002477461    2.181    0.541
        30  -8.7337    209.5359    173.3928   8.9602922879e+01   4.6159894316e+00     0.233049    0.1877478 -62.64 0.0006648852    1.423    0.297
        31  -8.3021     22.6455    173.3178   1.3475167210e+02   3.5840935748e+01    0.1389858     0.085836  70.09 0.0007046153    1.747    0.428
        32 -10.9340    231.4161    169.5574   8.4765538867e+01   1.5368658125e+00    0.4533079    0.1930849 -43.96  0.001412382    2.066    0.516
        33  -9.1784    237.1325    167.1366   8.3285217794e+01   1.0385145411e+00    0.1789151    0.1531936 -60.05  0.001048234    1.291    0.225
        34  -9.6764     51.5386    164.5916   1.2621172913e+02   3.4843482671e+01    0.3654388    0.1392545  30.17  0.001398774    2.970    0.663
        35 -10.6560    239.2436    152.0501   7.9887488582e+01   3.5351518314e+00    0.3980558    0.2757499 -29.32  0.002097096    1.475    0.322
        36 -11.0143    233.3204    153.6820   8.1205777581e+01   4.2543733348e+00     0.824795    0.4413242 -26.64  0.003381112    2.528    0.604
        37 -11.0482     47.8612    156.2988   1.2589411680e+02   3.7384017004e+01    0.5377631    0.3630984  78.79  0.002440346    1.764    0.433
        38 -10.3291     24.6148    156.3242   1.3212796451e+02   3.9848941056e+01    0.3428717    0.2812124 -32.19  0.002028968    1.449    0.310
        39  -9.1969    250.6310    149.7354   7.7615144410e+01   2.0478353164e+00    0.3150209    0.1092377 -43.88 0.0009073109    2.400    0.583
        40 -10.0822    249.0406    141.5616   7.6233442107e+01   3.8194200527e+00    0.8567931    0.2135429 -50.31   0.00239912    5.049    0.802
        41  -9.9238    245.8414    131.0367   7.4603497102e+01   6.3161691891e+00    0.5379907      0.21265 -53.23  0.001818646    2.725    0.633
        42 -11.2949    242.4221    121.8334   7.3244861556e+01   8.6263543786e+00      1.89258    0.4942521 -53.58  0.003918781    9.420    0.894
        43  -8.5768     22.1200    148.0648   1.3166040617e+02   4.2114634784e+01    0.1963998    0.1476921 -53.62            0    1.221    0.181
        44  -9.9327    222.6732    146.4224   8.1527863505e+01   7.5971300258e+00    0.3836585    0.2936893  67.94  0.001555164    1.629    0.386
        45 -10.1252      3.1744    137.9219   1.3544953902e+02   4.6047295304e+01    0.3562992    0.1260838 -55.49  0.001614589    2.156    0.536
        46 -10.0830    112.7371    249.9281   1.2384764970e+02   5.7398362299e+00    0.4876786    0.2350836  30.18  0.001529661    2.337    0.572
        47  -8.8845    246.9272    242.1322   9.5628855185e+01  -1.3210838115e+01    0.1646042    0.1475136 -13.80 0.0003523838    1.296    0.228
        48 -10.3687     62.0271    129.7366   1.1693221563e+02   4.2211599709e+01    0.6017137    0.3745137  65.79  0.002555802    2.455    0.593
        49  -9.0526    203.7310    126.0823   8.0495052026e+01   1.5393091709e+01    0.4119857    0.2436396 -60.18  0.001758518    1.933    0.483
        50  -8.1446    205.5246    122.5220   7.9374548642e+01   1.5730977224e+01    0.2622031    0.1346816 -43.18 0.0006732412    1.795    0.443
        51  -8.9764    231.9179    119.3727   7.4311558624e+01   1.1052944162e+01      0.22874    0.1635509 -55.01 0.0004501537    1.258    0.205
        52 -10.5745    220.1660    238.0373   9.9860323923e+01  -9.0103963832e+00    0.3625228    0.2729921  50.04  0.002118398    1.826    0.452
        53 -10.6941      4.1176    119.2808   1.3259463719e+02   5.0382288237e+01     0.326695     0.172215 -63.18   0.00150826    1.466    0.318
        54  -8.2909     47.9365    116.0000   1.1836790565e+02   4.7274932848e+01    0.2012785   0.07973896  27.99 0.0006281019    2.844    0.648
        55 -10.3052    207.5842    110.9688   7.6429196082e+01   1.7552676410e+01    0.4794326    0.4203875 -57.47  0.001714397    1.031    0.030
        56  -9.7132    191.0954    107.9213   7.8662154377e+01   2.1690354768e+01    0.3380846    0.2969519  85.81 0.0009304252    1.159    0.137
        57  -9.9319      3.0092    107.5912   1.3108809347e+02   5.3132324228e+01    0.3404452     0.153512 -86.67  0.001301041    3.858    0.741
        58  -8.9308    103.2123    249.9122   1.2583225955e+02   7.2371588271e+00    0.2422601    0.1644358  43.94 0.0009225035    1.302    0.232
        59  -9.1678     47.2417    108.2978   1.1688742877e+02   4.9142376749e+01    0.2459222    0.1913559 -53.42 0.0006630682    1.155    0.135
        60 -10.4464    166.5310    100.5002   8.1691243885e+01   2.8627285870e+01    0.2821288       0.2542  67.16 0.0001675208    1.108    0.097
        61  -8.2670     82.8162    110.9403   1.0622898199e+02   4.3543509410e+01     0.204623    0.1589718   1.52 0.0006459844    1.547    0.354
        62 -10.5573    184.0895     97.5760   7.7511097400e+01   2.5227178024e+01    0.5483063    0.3935675  23.93    0.0024841    2.130    0.531
        63 -10.9868    187.5490     90.6103   7.5214838951e+01   2.5737925993e+01    0.5431163    0.4412727 -12.91  0.002791745    1.686    0.407
        64 -16.3307    150.2714    171.3530   1.0199678781e+02   1.6477318001e+01     1.109444    0.9147009 -42.57   0.00451318    1.205    0.170
        65  -9.7804    222.9741     92.3646   6.9930146124e+01   1.7752225041e+01    0.2374009    0.2143575 -68.50 0.0004006018    1.074    0.069
        66 -10.0152    178.6342     88.3996   7.6301934942e+01   2.8154047399e+01    0.5191717    0.3209676 -66.81  0.001956117    2.039    0.510
        67  -9.4607      4.2014     89.1943   1.2735765363e+02   5.7118477100e+01    0.2252806   0.07745639 -36.82 0.0009571562    2.871    0.652
        68  -7.7216     60.6966     88.7468   1.0748919070e+02   5.1706299069e+01    0.1338304   0.09735799 -14.21  0.000170509    1.506    0.336
        69  -8.0834    212.2768     86.6326   7.0259910942e+01   2.1004120896e+01    0.1473882   0.09530438 -68.20 0.0004656239    1.679    0.404
        70  -9.3838    236.4138     83.2043   6.6197643225e+01   1.6593011785e+01    0.1917843    0.1030504 -53.00 0.0004945057    1.640    0.390
        71  -9.7021    232.0146     79.5131   6.6004951175e+01   1.8089587644e+01    0.2135924    0.1577113 -52.96 0.0008213287    1.183    0.155
        72 -15.5609    123.0702    141.4881   1.0221659293e+02   2.9000430486e+01     2.909573     1.314622  32.30  0.005791632    2.831    0.647
        73 -10.7153    182.1019    243.6047   1.0837143327e+02  -4.2366408530e+00    0.4516551    0.2750988  21.74  0.002276321    1.737    0.424
        74  -9.3080      7.0000     76.9686   1.2374943404e+02   5.9503664168e+01      0.19958   0.05631098 -59.60  0.000780431    2.946    0.661
        75 -10.0971     83.4612    224.3139   1.2686992056e+02   1.5775262509e+01    0.5890428    0.2812718 -63.95  0.002499888    2.108    0.526
        76  -8.8456     66.4799     72.8297   1.0090907442e+02   5.3983437238e+01    0.2225071    0.1719761   3.04 0.0007682384    1.328    0.247
        77 -18.8641    136.3206    170.1801   1.0512510344e+02   1.9488786045e+01     5.326862     4.290915 -46.49   0.01599013    1.228    0.186
        78  -8.8661    228.1064    226.4547   9.6300945464e+01  -8.2382230021e+00    0.2261782    0.1608573 -32.50 0.0005652028    1.289    0.224
        79 -11.5634    144.4279     59.4873   7.5498108588e+01   4.0816149059e+01    0.5345131    0.3382181  40.33  0.002587699    1.711    0.415
        80 -10.5606     11.9499    218.8122   1.4141841086e+02   2.6120974715e+01    0.3952063    0.2143451  70.74   0.00217937    1.705    0.413
        81  -8.0262     46.4960    226.4768   1.3507484038e+02   2.0448181795e+01    0.1304691    0.1067483  78.75 -2.71284e-05    1.006    0.006
        82 -10.0418    232.9945     64.9509   6.2921897151e+01   2.0217686322e+01    0.2482321    0.1681696 -85.52 0.0004833357    1.476    0.322
        83  -8.3196     84.1132    214.4983   1.2543143375e+02   1.7936982705e+01    0.2063983    0.1309734  40.74  0.001014624    1.538    0.350
        84 -10.0402      2.6752    212.7714   1.4279485490e+02   2.8377831871e+01    0.2875018    0.2197779   6.59  0.001648178    2.122    0.529
        85 -11.2502     11.3386    206.6417   1.4057175753e+02   2.8957718955e+01     0.485543    0.4393262  19.15  0.003410679    1.551    0.355
        86 -10.5260    222.4600    207.0249   9.3774185969e+01  -4.0222959751e+00    0.7519535    0.3255121 -34.30  0.002009932    2.341    0.573
        87 -11.4739     10.9803     40.7658   1.1213177532e+02   6.5895766959e+01    0.8566715     0.418396  39.54  0.004461385    3.191    0.687
        88 -10.0490    219.4644     43.7245   6.0156417341e+01   2.6144879818e+01    0.4571897    0.1771517 -43.49  0.002098837    2.349    0.574
        89  -9.8472    221.5221     40.4561   5.9266708661e+01   2.6154547538e+01    0.2902231     0.169926 -61.77  0.001342675    1.579    0.367
        90  -9.6702    223.7870    203.4163   9.2835983894e+01  -3.5738807868e+00    0.2596583    0.1827376 -35.10 0.0003222789    1.284    0.221
        91  -9.4082     11.0870    225.7194   1.4210274518e+02   2.4669257486e+01    0.2379608    0.1654532  58.58  0.001549688    1.292    0.226
        92 -10.3600    171.0301    246.7036   1.1115338304e+02  -3.0346617424e+00    0.3729386     0.194325  51.73  0.001636205    2.471    0.595
