#   1 NUMBER                 Running object number                                     
#   2 MAG_AUTO               Kron-like elliptical aperture magnitude                    [mag]
#   3 X_IMAGE                Object position along x                                    [pixel]
#   4 Y_IMAGE                Object position along y                                    [pixel]
#   5 X_WORLD                Barycenter position along world x axis                     [deg]
#   6 Y_WORLD                Barycenter position along world y axis                     [deg]
#   7 A_WORLD                Profile RMS along major axis (world units)                 [deg]
#   8 B_WORLD                Profile RMS along minor axis (world units)                 [deg]
#   9 THETA_WORLD            Position angle (CCW/world-x)                               [deg]
#  10 FWHM_WORLD             FWHM assuming a gaussian core                              [deg]
#  11 ELONGATION             A_IMAGE/B_IMAGE                                           
#  12 ELLIPTICITY            1 - B_IMAGE/A_IMAGE                                       
         1 -12.9837    117.4325     24.8529   8.5380860028e+01   5.2265535019e+01     1.335681       1.1186 -16.29  0.007451226    1.178    0.151
         2 -10.1540    217.0697      9.5068   6.4699772535e+01   2.8960980364e+01     1.035286    0.3537107 -61.92  0.002692906    6.523    0.847
         3  -9.7139    172.5780      3.3401   6.7868377252e+01   4.0820962995e+01    0.5973531    0.2081415 -49.86  0.001949997    4.017    0.751
         4 -11.7341    119.4071      9.8373   7.9017624055e+01   5.3444150595e+01    0.7350519    0.6397017   2.76  0.002831214    1.126    0.112
         5  -9.4776    236.5318      2.0105   6.1108024032e+01   2.5018078571e+01    0.2897459    0.1403766 -80.42  0.001275814    2.419    0.587
         6 -11.1143     17.8401    194.5071   1.4806306361e+02   3.2853200604e+01    0.4579072    0.3086635 -80.08  0.002076753    1.290    0.225
         7 -18.7967    140.7164    173.1772   1.2089268090e+02   1.9774562085e+01     6.453525      5.76655  64.04   0.02614309    1.089    0.081
         8  -9.4811     44.0103    224.2764   1.4557618363e+02   2.4632871841e+01    0.3464667    0.1343069  63.03  0.001300023    2.501    0.600
         9 -10.3680    207.5748    111.2097   9.3528075390e+01   1.7039490873e+01    0.4659242    0.3850522 -37.58  0.001485268    1.198    0.166
        10  -8.7877     78.1289    218.4920   1.3922661735e+02   2.1376349685e+01    0.1625116   0.09367315  46.78 0.0004353423    1.490    0.329
        11 -10.1112     36.5298    214.4866   1.4615873024e+02   2.7211050032e+01    0.3226452    0.1686361  43.91  0.001864705    1.754    0.430
        12  -7.8634    225.2321    108.6015   8.9796728231e+01   1.3498615235e+01    0.1482989    0.1044897 -52.47 0.0003840729    1.658    0.397
        13  -9.0997     50.9335    183.3941   1.4094443908e+02   3.1498222418e+01    0.1972509    0.1312843 -87.87 0.0006132765    1.324    0.245
        14 -11.5361     50.1691    177.9041   1.4054672178e+02   3.2700043390e+01    0.5893472    0.2325888  43.72  0.002611207    2.339    0.572
        15 -10.7896     39.9010    211.0890   1.4533917211e+02   2.7453551601e+01    0.2342519    0.1642348  73.30  0.001284283    1.093    0.085
        16 -10.4615     79.5888    100.7010   1.2095337588e+02   4.5736079045e+01    0.4795035    0.2962018 -23.12  0.001141553    2.592    0.614
        17  -9.0344     66.1172    245.9187   1.4351181667e+02   1.8363084988e+01    0.1513083    0.1140215  65.95 0.0003350823    1.054    0.051
        18  -9.1577     24.7117    167.7954   1.4473806079e+02   3.7498275645e+01    0.3024913   0.07886293 -70.92  0.001303765    3.101    0.678
        19 -10.7186    184.8394     96.4221   9.3948932453e+01   2.4888357890e+01    0.3862885    0.2352228 -30.22  0.001017959    1.671    0.402
        20 -11.4775    105.0317    231.5086   1.3576611346e+02   1.5364078088e+01     0.648254    0.2798934  57.14  0.003265995    2.312    0.567
        21 -10.4719    101.5331    229.4889   1.3617085559e+02   1.6204388539e+01    0.3363322    0.2217704  32.79  0.001428103    1.784    0.440
        22 -14.8531    175.4672    164.2130   1.1202359181e+02   1.4708051822e+01     1.137856    0.6498852  33.41  0.005122584    1.870    0.465
        23  -9.2947      2.5559    212.8520   1.5166944843e+02   3.0890835827e+01    0.1564285    0.1253097 -85.57 0.0005190237    1.363    0.266
        24  -9.1146    220.7817    210.9950   1.1225970210e+02  -6.9545769774e-01    0.2445881     0.168422 -10.12 0.0009180862    1.581    0.367
        25  -9.6915    222.6559    206.6763   1.1118930077e+02  -4.6841242704e-01    0.2388213    0.1637815  29.28 0.0005884416    1.236    0.191
        26 -11.4486    169.4532     70.2241   8.9493169400e+01   3.3116039254e+01    0.4928451    0.2798074 -32.81  0.001424261    1.744    0.427
        27  -9.7796    223.5532    203.5195   1.1047790460e+02  -2.1971795576e-01    0.2427167    0.1885593  10.00 0.0006306455    1.178    0.151
        28  -8.2417    248.6372     83.2912   7.9968356212e+01   1.2167789647e+01    0.1426693    0.1025451 -62.77 0.0007027409    1.701    0.412
        29  -9.1077    236.1534     82.6302   8.1546750038e+01   1.5025800242e+01     0.357262    0.1429879 -35.13  0.001377139    2.226    0.551
        30 -10.3512    140.7360     80.7769   9.9050805302e+01   3.8132666479e+01    0.4563096    0.3127663   7.84  0.001888683    2.162    0.537
        31 -11.4812    210.3603    135.9428   9.9032460558e+01   1.2306992701e+01    0.5580195    0.5023475  22.82  0.002845869    1.066    0.062
        32 -10.5723     94.8570    227.3085   1.3712167797e+02   1.7529657365e+01    0.3938503     0.182685  65.50  0.001899203    2.707    0.631
        33 -10.9437     10.4910    207.2036   1.5008800456e+02   3.1181708429e+01    0.3993123    0.2502444  26.11  0.002762679    2.439    0.590
        34  -9.9881     49.9617    133.4147   1.3511893693e+02   4.2281815661e+01    0.2383006    0.1602426 -63.75 0.0007364202    1.289    0.224
        35 -10.1153    238.8285    131.1311   9.2947409650e+01   7.1482935842e+00    0.3245083    0.2315674 -51.14  0.001643637    1.739    0.425
        36 -10.6746    151.5200     71.9602   9.3840677499e+01   3.7196504745e+01    0.3800758    0.2863068  84.13 0.0009610046    1.799    0.444
        37 -10.7950    144.3003     73.1618   9.5866990540e+01   3.8692926839e+01    0.4485866    0.2882492  48.69  0.002001392    1.565    0.361
        38  -8.8825    192.0428     67.1476   8.4343387104e+01   2.7962419407e+01    0.2807226    0.2208502 -49.23  0.001045037    1.318    0.241
        39  -9.4258    105.9692     68.0776   1.0411900946e+02   4.7926696501e+01    0.2251078    0.2030699 -12.57 0.0005790986    1.081    0.075
        40 -10.4736    161.5106     61.4992   8.8417075556e+01   3.6496326986e+01    0.3732875    0.2765446 -54.17  0.001538168    1.531    0.347
        41 -10.8205    159.0000     59.9438   8.8443519527e+01   3.7364558127e+01    0.5013984      0.28885 -12.61  0.001912848    2.406    0.584
        42 -11.0633    144.0660     59.7841   9.1639046486e+01   4.1026017833e+01    0.4739818    0.3423162 -63.71 0.0008042559    1.829    0.453
        43  -8.8973    223.3433    128.8794   9.5041261105e+01   1.0694164561e+01    0.2282469    0.2030526  60.04 0.0007535166    1.310    0.237
        44  -9.1502    214.0702     50.1961   7.6098505229e+01   2.4904388342e+01    0.2280807    0.2228472  40.89 0.0004533968    1.073    0.068
        45  -9.3529    193.3311     50.3095   7.9212827280e+01   3.0106041026e+01    0.2508734    0.1770751  50.08 0.0005488875    1.421    0.296
        46  -9.5670    195.0707     46.9511   7.7954864620e+01   3.0123846892e+01    0.3418821    0.2514406  26.75 0.0005192219    1.611    0.379
        47 -11.0239    204.2036    124.0404   9.7342391325e+01   1.5633119633e+01    0.6788361    0.4855922  14.30  0.003171658    1.708    0.414
        48  -9.4586    135.1094     48.1746   8.9781517874e+01   4.4977496707e+01    0.2236664    0.1902574  16.36 0.0003793765    1.205    0.170
        49 -11.6563    119.2354     44.8420   9.2470608407e+01   4.9119485924e+01    0.5785345    0.2838308 -35.02  0.001032726    1.982    0.495
        50  -9.3302    194.8659     58.2319   8.1280254906e+01   2.8588824669e+01    0.2667335    0.2100865 -20.05 0.0002818922    1.320    0.242
        51  -9.5501    249.8240     44.0383   7.0146727384e+01   1.7218688027e+01    0.2124208    0.1907915  59.58 0.0004008289    1.219    0.180
        52  -9.6209    223.5105     43.5150   7.3042473871e+01   2.3465636016e+01    0.2602992    0.2180157  64.32 0.0005997617    1.223    0.183
        53 -10.1239    222.1414     40.1904   7.2323167975e+01   2.4223833935e+01    0.4444269     0.276671 -72.67  0.001045644    2.013    0.503
        54 -10.3303    241.7574     32.9517   6.8248729640e+01   2.0429019046e+01    0.6204327    0.3318312 -71.04  0.002663024    2.472    0.595
        55  -9.3636    176.9878     33.9793   7.6871457542e+01   3.6452001935e+01    0.2952531    0.2547453  81.51 0.0006122517    1.203    0.169
        56  -9.9700    178.5245     30.0843   7.5412502411e+01   3.6529082403e+01    0.4927312    0.2987709 -52.57  0.002074537    1.888    0.470
        57  -9.4213    234.4769    123.5190   9.1883503080e+01   9.1921250981e+00    0.3120406    0.2296329 -46.85 0.0008589869    1.515    0.340
        58 -10.2827     55.0559    124.4955   1.3243104230e+02   4.3687678352e+01    0.3062027    0.1628713 -60.26 0.0007908473    1.612    0.380
        59 -10.2213    144.1492     24.4384   7.9471148901e+01   4.5942487510e+01    0.2407097    0.2178958   0.02 0.0003205977    1.116    0.104
        60  -9.6701     58.2531    119.6437   1.3075882704e+02   4.4394341864e+01    0.2425954    0.1738667 -51.54 0.0005027439    1.328    0.247
        61  -9.0936    228.3613    225.4904   1.1338982789e+02  -3.6484963666e+00    0.2151998    0.1579105  10.90 0.0005651418    1.239    0.193
        62 -10.6832     43.7644    219.8593   1.4530838703e+02   2.5436939161e+01    0.4015652    0.2440092  39.29  0.002201365    1.759    0.431
        63 -10.7808    166.6615    242.9195   1.2641754048e+02   4.1266107598e+00    0.4145838    0.2593231  45.51  0.001819005    1.273    0.214
        64 -11.2827     97.3426    222.4594   1.3618958695e+02   1.7986133094e+01    0.6782357    0.2448715 -58.07  0.003299623    3.069    0.674
