#   1 NUMBER                 Running object number                                     
#   2 MAG_AUTO               Kron-like elliptical aperture magnitude                    [mag]
#   3 X_IMAGE                Object position along x                                    [pixel]
#   4 Y_IMAGE                Object position along y                                    [pixel]
#   5 X_WORLD                Barycenter position along world x axis                     [deg]
#   6 Y_WORLD                Barycenter position along world y axis                     [deg]
#   7 A_WORLD                Profile RMS along major axis (world units)                 [deg]
#   8 B_WORLD                Profile RMS along minor axis (world units)                 [deg]
#   9 THETA_WORLD            Position angle (CCW/world-x)                               [deg]
#  10 FWHM_WORLD             FWHM assuming a gaussian core                              [deg]
#  11 ELONGATION             A_IMAGE/B_IMAGE                                           
#  12 ELLIPTICITY            1 - B_IMAGE/A_IMAGE                                       
         1 -14.7432      7.0206    147.4780   1.3821969847e+02   4.3788814379e+01     7.403278     1.312524 -74.22    0.0189109    6.833    0.854
         2 -12.5042     18.4097     26.2903   1.0728864595e+02   6.7927954990e+01     0.773616    0.3766381  40.21  0.004101057    3.125    0.680
         3 -13.9394      5.4875     42.2715   1.1865526293e+02   6.6407140045e+01     1.888615     1.315497 -18.20   0.01110941    1.210    0.173
         4 -12.7088    199.7612     33.7391   6.2227678239e+01   3.1848561997e+01    0.9467805    0.8714966  24.98  0.006154895    1.515    0.340
         5 -13.2783    216.2994     16.1258   5.6647342487e+01   3.0267892378e+01    0.9562712    0.7888172  47.06  0.006364966    1.661    0.398
         6 -13.6595      4.2633     10.3533   1.0769060098e+02   7.1331968376e+01     1.493092    0.9423028 -28.60  0.007819344    1.295    0.228
         7 -12.1148    126.0381    232.0981   1.2107165954e+02   7.8172561213e+00    0.6470022    0.2866067  44.17   0.00275026    2.020    0.505
         8 -11.6350     93.4263    249.1821   1.3012630056e+02   9.6405640565e+00    0.4223604    0.3678719  54.85  0.002743016    1.109    0.098
         9 -12.3277     34.5882    247.9152   1.4143512416e+02   1.8042983245e+01     1.069719    0.4112529  33.64  0.005001501    2.937    0.660
        10 -11.2337     21.0878    245.1674   1.4369347614e+02   2.0181204619e+01    0.4053594    0.2302615  54.68  0.001532435    1.455    0.313
        11 -12.6714     12.7140    240.1224   1.4486661261e+02   2.2134132940e+01     1.024174    0.4455481  44.44   0.00575674    2.011    0.503
        12 -10.5398     16.3087    249.6083   1.4482201914e+02   1.9811122363e+01    0.3586157    0.2011563  62.78  0.001569176    1.415    0.293
        13 -10.6869      9.0114    250.1702   1.4611404229e+02   2.0485207640e+01    0.3967251    0.2641879  36.03  0.001600296    1.801    0.445
        14 -11.0899      2.4018    248.8165   1.4715942317e+02   2.1439158236e+01    0.7433038    0.2346624 -76.24  0.003695451    2.665    0.625
        15 -14.4103     40.8676    200.9377   1.3601964446e+02   2.7669289668e+01     7.675357     2.045747  52.83   0.02406266    4.838    0.793
        16 -13.0914      9.9337    207.4623   1.4314215026e+02   2.9483204668e+01    0.8508202    0.7074955  50.96  0.003104278    1.350    0.259
        17  -9.2197    228.1011    204.6049   9.4906729027e+01  -4.4720227693e+00    0.2440324    0.1766167 -53.83  0.001050702    1.700    0.412
        18 -11.1927     56.7156    193.3854   1.3153256564e+02   2.7482890414e+01    0.3542993    0.2556466 -45.10  0.001339006    1.682    0.405
        19  -9.3878    207.9922    246.5040   1.0629170677e+02  -8.3331990341e+00    0.1645136    0.1031037  54.01 0.0005284986    2.393    0.582
        20 -11.8704      3.9144    184.6217   1.4258411673e+02   3.5255029671e+01    0.4741798    0.3634931  79.59    0.0019909    1.122    0.108
        21 -10.4760     73.9898    173.7874   1.2450257420e+02   2.9898564368e+01    0.2636185    0.2297454 -59.67 0.0003999091    1.150    0.130
        22 -11.4149     63.1597    185.7653   1.2899075115e+02   2.8472157350e+01    0.3049415    0.2479412 -51.53 0.0004325198    1.346    0.257
        23 -12.8643     60.4577    171.2775   1.2758758382e+02   3.2431072486e+01     0.566516    0.2889427 -45.00  0.001726567    2.296    0.564
        24 -11.3802     82.0583    165.1650   1.2095200542e+02   3.0832375630e+01    0.5959571    0.5659302 -60.03  0.003399512    1.108    0.097
        25 -12.4063     28.0749    225.4755   1.4094824280e+02   2.3567592355e+01    0.3306904    0.2903837 -63.91 0.0007537648    1.442    0.306
        26  -9.4086     95.5600    150.0177   1.1441825366e+02   3.2408066827e+01     0.289869    0.2342093  39.58 0.0007981648    1.297    0.229
        27 -11.6081     83.8854    148.8330   1.1740843835e+02   3.4639557676e+01    0.3091689    0.2499352 -45.93 0.0004385127    1.243    0.196
        28 -12.0045     67.5963    144.0268   1.2106537822e+02   3.8282459004e+01    0.7229519    0.5073386  68.96  0.003177895    1.746    0.427
        29  -8.4817     98.6380    146.1313   1.1276093302e+02   3.2835856311e+01    0.2149841    0.1329196 -45.48  0.000294258    1.626    0.385
        30  -8.7585    108.2697    135.7214   1.0779179592e+02   3.3626148055e+01    0.2499308    0.1768087 -15.24  0.001033027    2.111    0.526
        31 -13.7124     34.0431    218.1039   1.3913224104e+02   2.4516577450e+01    0.9149738    0.7178959  74.81  0.002893297    1.051    0.048
        32 -10.1055     95.0950    132.7509   1.1082416177e+02   3.6734991858e+01    0.2626084    0.2174622 -37.49 0.0003918166    1.246    0.197
        33  -8.7012    105.8254    122.8423   1.0541738142e+02   3.7147045111e+01    0.1903481    0.1722153  80.34 0.0002782386    1.212    0.175
        34 -10.5608     53.3559    118.7505   1.2027248772e+02   4.6317070578e+01    0.4193611    0.1360464 -65.38  0.001258644    4.166    0.760
        35  -9.4501    167.5255    112.6680   8.7176459443e+01   2.6187230410e+01    0.2970766    0.2404879 -75.49 0.0008655901    1.380    0.275
        36  -9.1226    203.7349    111.4241   7.9676557556e+01   1.8254061666e+01    0.2003663    0.1400865  43.26 0.0009470555    1.627    0.385
        37 -10.8490    242.1404    101.9139   7.1489304566e+01   1.1955792067e+01    0.2210376    0.1674278 -66.82 0.0009205239    1.266    0.210
        38 -11.3137    242.8514     94.4606   6.9842922085e+01   1.3114831091e+01    0.3459025    0.2107564 -73.79  0.001647201    2.038    0.509
        39  -9.7776     56.0832    241.1511   1.3678650967e+02   1.6702397830e+01    0.1756929    0.1600509  79.18 0.0004318538    1.239    0.193
        40 -12.5504      6.5168    227.6522   1.4519957910e+02   2.5390121350e+01      1.00885    0.4653101  68.88  0.005452559    1.958    0.489
        41  -9.4839     48.7799    237.7988   1.3792126114e+02   1.8376315356e+01    0.1813063    0.1178402  69.53  0.000648935    1.336    0.251
        42 -11.4036     18.6418    233.6592   1.4335963432e+02   2.2851399318e+01    0.3101679    0.2300698 -84.11  0.001321709    1.201    0.167
