#   1 NUMBER                 Running object number                                     
#   2 MAG_AUTO               Kron-like elliptical aperture magnitude                    [mag]
#   3 X_IMAGE                Object position along x                                    [pixel]
#   4 Y_IMAGE                Object position along y                                    [pixel]
#   5 X_WORLD                Barycenter position along world x axis                     [deg]
#   6 Y_WORLD                Barycenter position along world y axis                     [deg]
#   7 A_WORLD                Profile RMS along major axis (world units)                 [deg]
#   8 B_WORLD                Profile RMS along minor axis (world units)                 [deg]
#   9 THETA_WORLD            Position angle (CCW/world-x)                               [deg]
#  10 FWHM_WORLD             FWHM assuming a gaussian core                              [deg]
#  11 ELONGATION             A_IMAGE/B_IMAGE                                           
#  12 ELLIPTICITY            1 - B_IMAGE/A_IMAGE                                       
         1 -13.8899    229.1200      4.4217   3.4656972835e+01   2.7325741813e+01     1.649099    0.8758696  54.46  0.005454474    2.149    0.535
         2 -13.9068    185.0234     47.9403   5.0808439908e+01   3.2725200176e+01     1.148864     1.016111   5.67 0.0008321929    1.335    0.251
         3 -14.0748    195.9222     39.5224   4.6853432036e+01   3.1146482732e+01     1.353032     1.069475 -37.07  0.003521658    1.281    0.219
         4 -14.6447    205.1316     29.6922   4.3068221573e+01   3.0127985769e+01     1.569998     1.338457  20.80  0.001451175    1.506    0.336
         5 -10.6501     64.7186      9.1516   6.5214314272e+01   6.5284395075e+01    0.2208293    0.1494554  60.12  0.001164378    2.074    0.518
         6 -11.5816     48.0114      2.8866   6.8603540586e+01   6.8776433229e+01    0.3366942    0.1169041  34.41  0.001457269    2.826    0.646
         7 -10.7017     32.3993      2.7639   7.5705433807e+01   7.1055468784e+01    0.1693677   0.09129635 -19.09 0.0009604403    1.697    0.411
         8 -11.1675     60.7070      2.4378   6.3354685577e+01   6.6684324859e+01    0.2281544    0.1126822  51.36   0.00114921    2.111    0.526
         9 -10.6631    187.6998    152.0156   7.7675457889e+01   1.3331900661e+01    0.2171824     0.196492 -25.61  0.000694071    1.080    0.074
        10 -12.0741    139.8638    249.5600   1.0474749897e+02   4.3354971834e+00    0.4164514    0.3277115  46.45  0.002785488    1.093    0.085
        11 -16.9186     71.5850    148.8999   1.0591696134e+02   3.5840711113e+01     21.76498     11.39789  84.33   0.04330256    3.697    0.730
        12 -11.5818    133.8205    145.0063   8.8654945195e+01   2.6005422584e+01     1.212945     0.334669 -54.61   0.00296561    5.272    0.810
        13  -9.3958    112.5645    150.7488   9.5351644217e+01   2.8756436084e+01    0.2035286    0.1438366 -67.37 0.0005380426    1.551    0.355
        14 -10.7723    174.3022    148.6915   7.9833584692e+01   1.6791294040e+01    0.3548456    0.2852641 -72.09  0.001237681    1.630    0.386
        15 -10.7564    143.9331    145.9569   8.6341502131e+01   2.3735395513e+01    0.3524062    0.2197542 -71.24  0.001312333    2.583    0.613
        16 -10.6570     84.9981    144.4190   1.0148706226e+02   3.4947815401e+01    0.2883344    0.2317308  65.72    0.0015145    1.320    0.243
        17 -11.0013    104.3251    139.0389   9.5122849620e+01   3.3017925800e+01    0.5427944    0.3393321 -29.72  0.002216347    2.221    0.550
        18 -12.2383     91.8237    139.0958   9.8574684982e+01   3.5147347834e+01    0.2824287     0.257918 -45.51 0.0003782376    1.125    0.111
        19 -10.3383     81.4529    194.7750   1.1010084557e+02   2.3740419951e+01    0.3050425    0.2647036  82.77  0.001898235    1.061    0.057
        20 -13.0800     43.3359    127.6817   1.1034432802e+02   4.4521897410e+01    0.7906368    0.4748309  75.58  0.003157806    2.159    0.537
        21 -10.4625     93.1990    249.8946   1.1366040427e+02   1.1268986215e+01    0.2578855    0.1713011  27.85  0.001299627    1.783    0.439
        22 -10.7117    112.9474    129.7882   9.0697517037e+01   3.3626580489e+01    0.3607596    0.2965824  13.67  0.001283843    1.443    0.307
        23 -18.2519      6.7433    240.3961   1.2834223090e+02   2.3411507212e+01     5.560476     2.052452 -76.57   0.03216904    2.418    0.586
        24 -10.5445    160.7487    128.1600   7.8028994909e+01   2.3999119168e+01    0.4064148    0.2565269 -53.03  0.001687576    1.747    0.427
        25 -11.8720    118.9197    124.1984   8.7721165389e+01   3.3772748820e+01    0.7358601    0.4345793 -29.20  0.002769539    2.296    0.564
        26 -10.9765    150.7606    179.4274   9.1658101496e+01   1.5209555277e+01    0.4273537    0.2880043 -74.64  0.001849898    2.302    0.566
        27 -11.1096    100.2188    125.7553   9.3331485714e+01   3.6928052951e+01    0.3269038    0.2614341  -9.71 0.0006454394    1.593    0.372
        28 -11.6900    135.9076    129.3367   8.4460339152e+01   2.9123339751e+01     1.008054    0.2078544 -48.58   0.00238188    5.177    0.807
        29 -10.8824    105.9463    130.8223   9.2873082548e+01   3.4686763201e+01    0.3602502    0.3248354 -76.00  0.001143944    1.143    0.125
        30 -11.7657     23.4531    120.4267   1.1505722433e+02   4.8131214377e+01    0.3757229    0.2075139  26.39  0.001993827    2.147    0.534
        31 -10.1426    108.7407    118.9663   8.9276281582e+01   3.6969239187e+01    0.2368955    0.2160984  37.13 0.0003757759    1.134    0.118
        32 -12.5183     18.7347    110.5649   1.1505034794e+02   5.0859765620e+01    0.5893909     0.358213  44.45  0.002824609    1.923    0.480
        33 -10.5368    134.6780    106.5034   7.8843971508e+01   3.4448241955e+01    0.4925091      0.14855 -46.80   0.00140896    3.421    0.708
        34 -12.0518    117.8899    109.3223   8.4193229568e+01   3.7388438798e+01    0.6759237    0.5299124  81.99  0.002891396    1.715    0.417
        35 -10.0298    167.9049    112.8943   7.2440385497e+01   2.5547148477e+01    0.4078618    0.2743849 -80.44    0.0014378    2.665    0.625
        36 -10.2789    205.4858    110.1713   6.4015184324e+01   1.7439777734e+01    0.3153494    0.2157257  41.09 0.0009013404    1.571    0.363
        37 -11.4821    145.2523    180.4611   9.3115028044e+01   1.6038610275e+01    0.3665627    0.3382246 -86.82  0.001222806    1.209    0.173
        38 -10.7411    187.8581    173.4667   8.2294457812e+01   9.2093417064e+00     0.390134    0.2322527 -55.93  0.001649087    2.312    0.567
        39  -9.9215    204.1377    175.6492   7.9404546312e+01   5.7178205539e+00    0.2459515    0.1879761 -41.46  0.000855335    1.397    0.284
        40 -10.5955     59.5265     97.0761   9.9166239907e+01   5.0058761075e+01    0.2856682    0.2185812  73.89   0.00122515    1.740    0.425
        41 -12.3326     72.3884    174.2565   1.0953510064e+02   2.9673800525e+01    0.4470151    0.2899145 -40.33  0.002202687    2.024    0.506
        42 -12.1846     76.6451    169.3177   1.0779286897e+02   3.0225135642e+01    0.3300013    0.2849561 -30.75  0.001898455    1.463    0.317
        43 -10.0494    196.2908    174.2172   8.0697158041e+01   7.4526997475e+00    0.3519742    0.2608729 -66.10  0.001673155    2.070    0.517
        44  -9.1041    160.2807     87.6346   6.7161932916e+01   3.2333904913e+01    0.1623817    0.1222509 -68.88 0.0007014102    1.682    0.406
        45 -10.3500    157.1478     81.6549   6.6116635198e+01   3.4212895088e+01    0.2671413    0.2106486 -47.00 0.0005705731    1.297    0.229
        46  -9.3757    184.6007     77.1891   5.9155250015e+01   2.8254970197e+01    0.2098329    0.1464185 -21.94 0.0005970669    1.630    0.386
        47 -10.2826     61.3552     68.6338   9.0624702543e+01   5.6173685899e+01    0.2472712    0.2268795  68.27 0.0007515858    1.428    0.300
        48 -11.8876    172.6616     63.3258   5.7430916642e+01   3.3524344449e+01       0.4974    0.2867475  69.09  0.002032693    2.002    0.501
        49 -16.7039     32.3063    249.6773   1.2453439175e+02   1.9074678393e+01     4.240256     1.213445  29.34   0.01331548    8.334    0.880
        50  -9.7370    169.1216    236.6144   9.7308186734e+01   1.6978336009e+00    0.1730481    0.1722586  17.76 0.0003772554    1.266    0.210
        51 -11.3877    139.5477    171.8876   9.2822629463e+01   1.8927411792e+01     0.433614    0.2972329  57.48  0.001444331    1.632    0.387
        52 -10.6421    230.1310    166.6213   7.2541685644e+01   2.4949533891e+00    0.3493567    0.1699796 -51.64  0.001305432    3.317    0.699
        53 -11.4980    149.3589     53.0972   5.8993690825e+01   4.0974840809e+01    0.4983548    0.3363205 -82.26  0.001526348    2.241    0.554
        54 -10.9174    151.0786     46.7211   5.6576258259e+01   4.1486631215e+01    0.3255615     0.264589 -73.29 0.0009215532    1.441    0.306
        55 -10.9899     51.9992    164.3868   1.1323333392e+02   3.4645945976e+01    0.4163646    0.2189118 -44.92  0.001901284    2.394    0.582
        56 -11.8242     22.0047     34.8535   9.5697479001e+01   6.7213641930e+01    0.2769861    0.1551994   2.93  0.001427341    2.034    0.508
        57 -10.6839    158.4462    161.1403   8.6202820281e+01   1.7495440597e+01    0.3140533    0.2798004 -61.48 0.0004410228    1.242    0.195
        58  -9.9595    189.5088     15.0021   4.1015307191e+01   3.5646186900e+01    0.2053717    0.1698418  80.05 0.0005737669    1.089    0.082
        59 -12.2770     91.2552    153.7009   1.0150971148e+02   3.1714976041e+01    0.6642907    0.4651832 -29.04   0.00161506    1.950    0.487
        60 -16.5519     50.6651    201.9594   1.1760357803e+02   2.6293617821e+01     5.711448     2.622337  70.99   0.02545117    2.677    0.626
        61  -8.9344    161.2220    199.6254   9.3016091231e+01   9.3217251139e+00    0.1283179    0.1079631 -88.28 0.0004840722    1.595    0.373
