#   1 NUMBER                 Running object number                                     
#   2 MAG_AUTO               Kron-like elliptical aperture magnitude                    [mag]
#   3 X_IMAGE                Object position along x                                    [pixel]
#   4 Y_IMAGE                Object position along y                                    [pixel]
#   5 X_WORLD                Barycenter position along world x axis                     [deg]
#   6 Y_WORLD                Barycenter position along world y axis                     [deg]
#   7 A_WORLD                Profile RMS along major axis (world units)                 [deg]
#   8 B_WORLD                Profile RMS along minor axis (world units)                 [deg]
#   9 THETA_WORLD            Position angle (CCW/world-x)                               [deg]
#  10 FWHM_WORLD             FWHM assuming a gaussian core                              [deg]
#  11 ELONGATION             A_IMAGE/B_IMAGE                                           
#  12 ELLIPTICITY            1 - B_IMAGE/A_IMAGE                                       
         1 -14.0424    175.2854     43.2501   6.7156407613e+01   3.5862352794e+01     1.359572     1.135006  17.26 0.0009763172    1.277    0.217
         2 -14.1334    186.1850     33.6415   6.2358151902e+01   3.4242498869e+01       1.2923     1.067518 -28.53  0.003660003    1.222    0.182
         3 -15.1705    193.0278     23.8823   5.8425338177e+01   3.3582479936e+01     3.153732     1.973307  19.62  0.001271301    2.116    0.527
         4 -10.7175     65.2082      2.3851   7.8934882643e+01   6.7125826081e+01    0.1770608    0.1231564  53.30 0.0009586216    1.708    0.415
         5  -9.4501     42.7002    221.0331   1.3436029737e+02   2.5177268133e+01    0.1413438    0.1117851   3.51  0.000518489    2.065    0.516
         6 -16.2756     73.0514    148.8854   1.2095789215e+02   3.5913205156e+01     5.416404     2.932366  73.59   0.01891199    2.800    0.643
         7 -12.2592    183.3482    215.5471   1.0632243200e+02   6.5278691520e+00    0.3467106    0.2794739  15.64  0.002346096    1.111    0.100
         8 -12.6622    116.4318    211.5521   1.1906127128e+02   1.7492868441e+01    0.3670847    0.3120057  86.99  0.001900799    1.381    0.276
         9 -12.5154    107.2051    209.3768   1.2069793696e+02   1.9197153291e+01    0.5561626    0.3866951  59.53  0.003465679    1.428    0.300
        10 -13.2412    105.5877    199.8240   1.1993047304e+02   2.1101643480e+01    0.6806001    0.4609566 -76.92  0.003455271    1.841    0.457
        11 -12.4941    120.7948    200.0469   1.1673558407e+02   1.8794152633e+01     0.421664    0.2974566 -11.61  0.001378982    2.288    0.563
        12 -13.6929    113.3358    197.5134   1.1799624852e+02   2.0369597762e+01    0.5829784    0.4809644  67.07  0.003792749    1.267    0.211
        13 -10.3221     50.3496    213.2376   1.3242922871e+02   2.5722498403e+01    0.1794925    0.1131033  44.08 0.0004394265    1.311    0.237
        14 -10.5873    177.5060    236.8927   1.1042274589e+02   4.6836892405e+00    0.2030006    0.1479538  45.70 0.0008999335    1.436    0.303
        15 -12.6004    194.0321    194.1674   1.0080966242e+02   7.7182107486e+00    0.8764964    0.6223721 -58.10  0.004692073    2.465    0.594
        16  -9.8548     88.4139    203.4846   1.2394991346e+02   2.2843923595e+01    0.2983772    0.1635816  64.81   0.00156163    2.145    0.534
        17  -9.4334     72.5009    203.0985   1.2721207295e+02   2.4971833440e+01    0.1525893    0.1089707 -72.05 0.0008249857    1.516    0.340
        18  -9.4095     56.4658    203.0576   1.3048614989e+02   2.6886636645e+01    0.1464737    0.1016188 -83.41  0.000278449    1.453    0.312
        19  -9.6366     66.0322    237.1202   1.3111080385e+02   1.9926104767e+01    0.1362984    0.0883733  56.12  0.000333074    1.212    0.175
        20 -13.3617     70.0265    193.6953   1.2686018267e+02   2.7039758010e+01    0.6940783    0.5462999  34.13  0.004686299    1.309    0.236
        21  -9.6663    180.0803    192.9949   1.0335834896e+02   1.0238952320e+01    0.1928673    0.1540533  60.18 0.0008733457    1.715    0.417
        22 -16.1886    114.4983    240.4938   1.2250569126e+02   1.3253310118e+01     6.373659     2.481562  34.76    0.0326491    2.146    0.534
        23 -10.3228     48.2219    217.6875   1.3312578952e+02   2.5170274691e+01     0.308466    0.1743797  20.88  0.001707593    2.513    0.602
        24 -15.4247     53.2750    232.3966   1.3310681337e+02   2.2133087960e+01     2.133923    0.8836462 -57.96   0.01216554    3.077    0.675
        25 -10.0662     58.7988    188.4014   1.2878316585e+02   2.9408744644e+01    0.2224508    0.1654912 -51.15  0.001251541    1.666    0.400
        26 -11.1108     75.4566    182.4498   1.2452839339e+02   2.8545167716e+01     0.321207    0.2194871 -89.60  0.001053151    1.583    0.368
        27 -11.5261    207.8343    183.8315   9.6308722789e+01   6.8244911786e+00    0.3053431    0.2799866 -13.94   0.00111921    1.324    0.245
        28 -11.4727    211.2127    179.8374   9.4922202909e+01   6.7980077517e+00    0.4960706    0.2945905 -17.94  0.002515809    1.829    0.453
        29 -19.3917     17.2853    132.9041   1.3376028901e+02   4.5191789954e+01     17.63593     1.723413 -75.93   0.03849203   10.919    0.908
        30 -11.8171     99.4969    180.1414   1.1880218037e+02   2.5675938583e+01    0.3210615    0.2518045 -52.18  0.001307797    1.444    0.307
        31 -10.8561    144.8700    178.8826   1.0838594154e+02   1.8596760476e+01    0.2119536    0.1729736  12.84  0.001031711    1.298    0.230
        32 -10.4015    193.9958    165.9844   9.5577342336e+01   1.1883599808e+01     0.300219    0.2670726  46.87  0.001454054    1.352    0.260
        33 -10.7394    198.0149    176.7005   9.6864484979e+01   9.5423815011e+00    0.3165779    0.2375048  28.84  0.001081364    1.144    0.126
        34 -11.3609    196.7044    171.9535   9.6211498704e+01   1.0481289731e+01    0.3698952      0.32934  -0.82  0.001213769    1.139    0.122
        35  -9.4338    171.1300    177.1696   1.0242337403e+02   1.4263370367e+01    0.1801812    0.1531679  51.63 0.0004724814    1.347    0.258
        36 -10.4892     81.6009    194.8814   1.2450072836e+02   2.5337395556e+01     0.309536    0.2261399  34.48  0.001965942    1.330    0.248
        37 -11.4029    145.6938    168.5659   1.0642207578e+02   2.0308597782e+01    0.3255796    0.2244332 -36.31  0.001283331    1.640    0.390
        38 -10.9113     37.2314    231.7991   1.3592808880e+02   2.3929043472e+01    0.2454768    0.1998852 -44.75 0.0009373912    1.933    0.483
        39  -9.9628     66.5220    233.0395   1.3074435390e+02   2.0523414447e+01    0.1477081    0.1164625  42.39 -0.0001280211    1.206    0.171
        40  -9.8037      2.3578    169.9720   1.3960875188e+02   3.8378207607e+01    0.1752805   0.09523395  75.31  0.001119722    1.530    0.347
        41  -9.6933    224.6558    165.3207   8.9589554024e+01   6.4627783796e+00    0.1161879    0.1098533 -87.44  0.000704984    1.727    0.421
        42 -10.9426    141.2497    157.9587   1.0549617055e+02   2.3093099583e+01    0.2379723    0.2002484  47.63 0.0002878629    1.170    0.146
        43 -10.8498    165.4187    153.9364   9.9177674766e+01   1.9292056889e+01    0.2727465     0.190813  53.75  0.000956961    1.627    0.386
        44 -10.2430    151.6670    151.3412   1.0177090773e+02   2.2404011634e+01    0.2159813    0.1736057  75.07 0.0009197195    1.710    0.415
        45 -11.9854    133.8263    144.8164   1.0471174465e+02   2.7038034426e+01      1.04225    0.3045965 -54.16  0.002914755    5.082    0.803
        46 -12.0245    144.7176    146.2127   1.0235764235e+02   2.4709585834e+01    0.4723505    0.3683531  71.73  0.002359622    1.722    0.419
        47 -12.2637    108.3979    140.9948   1.1041700971e+02   3.2349483093e+01    0.5451242    0.3578457 -29.99  0.002530994    2.017    0.504
        48 -12.4966     96.6296    141.5085   1.1360392639e+02   3.4149028178e+01    0.2806955    0.2664297 -30.66 0.0003534012    1.152    0.132
        49 -10.8330    174.5417    148.6360   9.6060320096e+01   1.8448920146e+01    0.3166202    0.2465771 -38.86  0.001092593    1.394    0.283
        50 -12.6986    117.5396    129.2896   1.0565105005e+02   3.3266689604e+01    0.9480712    0.5883131 -21.23  0.003813213    2.588    0.614
        51 -11.9848    104.4509    128.9405   1.0911316754e+02   3.5640418662e+01    0.6043627    0.4139971  87.55  0.001105969    2.226    0.551
        52 -11.7512    136.4568    124.4963   9.9635697841e+01   3.0660919841e+01    0.7290608     0.377315 -43.15  0.002879442    2.000    0.500
        53 -10.3434    160.7014    127.7030   9.4467976481e+01   2.5062518323e+01    0.2940276    0.2272642 -88.59   0.00132983    2.089    0.521
        54 -10.5356    124.9623    126.8279   1.0314851453e+02   3.2412588900e+01    0.2845646    0.2038237  59.42   0.00133836    1.647    0.393
        55 -10.6368    110.6795    119.8214   1.0544174198e+02   3.6558932496e+01    0.2489935    0.2293979  41.86 0.0004596788    1.075    0.070
        56 -10.2918    168.1108    112.8754   8.9097682516e+01   2.6229509241e+01    0.3459517    0.2633235 -71.40  0.001486085    1.984    0.496
        57  -9.9799    135.0000    112.0087   9.6978307806e+01   3.3515042734e+01    0.2518537   0.08660203 -44.00 0.0008065728    2.971    0.663
        58 -10.1899    205.4993    110.1679   8.0660210908e+01   1.8445081243e+01    0.3104828    0.1994599  37.88 0.0008762277    1.546    0.353
        59 -11.4989     85.4685    236.6263   1.2753209275e+02   1.7650681677e+01    0.2584789    0.1742391 -83.39 0.0005451307    1.765    0.434
        60  -9.7335    134.4953    102.9646   9.4756325031e+01   3.5467878302e+01    0.2354664    0.1509381 -41.36  0.001029645    1.580    0.367
        61  -9.4355    128.9537     95.2990   9.4150961361e+01   3.8201350848e+01    0.2473206    0.1223757  62.21  0.000703614    4.206    0.762
        62 -11.5341     93.4141    237.1946   1.2611165836e+02   1.6549919062e+01    0.3124237    0.1768374  43.36  0.001507614    1.334    0.250
        63 -12.1826    170.4181     69.9148   7.6461520060e+01   3.3180965425e+01    0.5411346    0.3743727 -82.11  0.001337933    2.396    0.583
        64  -9.2131     95.6690     63.3194   9.4354490127e+01   5.1452202147e+01    0.1443745    0.1212659 -87.81 0.0007048297    1.691    0.409
        65  -9.6567     78.6220    232.2702   1.2845634351e+02   1.9193231108e+01    0.1541279    0.1143062  23.21  0.001070654    1.635    0.388
        66  -9.4921     70.5319    228.4088   1.2967147471e+02   2.0804859113e+01    0.1110164    0.0814687  53.77 0.0003451904    1.050    0.047
        67 -10.2802     36.7793    223.4494   1.3557756419e+02   2.5372720763e+01    0.1409373   0.07813577  44.09 0.0007355325    1.422    0.297
        68  -9.7381    162.0194     30.6627   6.5363248866e+01   4.0922459131e+01     0.208639    0.1855864  61.48 0.0003802183    1.102    0.092
        69  -9.9900    158.2310     28.1942   6.5199301599e+01   4.2213342952e+01    0.2536543    0.1832815 -86.04 0.0006972114    1.745    0.427
        70  -9.6751    114.0417     49.3138   8.3480846394e+01   5.0202837722e+01    0.2099671      0.18654  38.85 0.0004655441    1.126    0.112
