#   1 NUMBER                 Running object number                                     
#   2 MAG_AUTO               Kron-like elliptical aperture magnitude                    [mag]
#   3 X_IMAGE                Object position along x                                    [pixel]
#   4 Y_IMAGE                Object position along y                                    [pixel]
#   5 X_WORLD                Barycenter position along world x axis                     [deg]
#   6 Y_WORLD                Barycenter position along world y axis                     [deg]
#   7 A_WORLD                Profile RMS along major axis (world units)                 [deg]
#   8 B_WORLD                Profile RMS along minor axis (world units)                 [deg]
#   9 THETA_WORLD            Position angle (CCW/world-x)                               [deg]
#  10 FWHM_WORLD             FWHM assuming a gaussian core                              [deg]
#  11 ELONGATION             A_IMAGE/B_IMAGE                                           
#  12 ELLIPTICITY            1 - B_IMAGE/A_IMAGE                                       
         1 -16.0013    210.5637    128.0910   9.2573094590e+01   1.3239674062e+01      6.79599     3.651256  38.88   0.01884102    2.043    0.511
         2 -15.4654    200.6583     48.1206   7.3246018063e+01   2.8977512763e+01     4.500287     2.083609  82.23   0.01498224    3.383    0.704
         3 -15.1514    211.9550     31.6392   6.7252669218e+01   2.8312364893e+01     2.871089     1.358331 -44.44  0.006308531    1.992    0.498
         4 -15.8300    249.4056     42.7925   6.5973201744e+01   1.7910057678e+01     6.904252      2.11224 -22.38   0.01584001    8.712    0.885
         5 -14.2573    190.4147     16.9379   6.5770282261e+01   3.5563535478e+01     1.135514    0.6587912 -43.04  0.003240765    1.708    0.415
         6 -15.4518    196.6300      3.5744   6.1341820039e+01   3.5337584693e+01     6.110485          nan  63.02   0.01186774   10.370    0.904
         7 -16.9214    169.2322     72.6551   8.5878461785e+01   3.3204121224e+01     11.59366     5.608364 -57.60   0.03176172    3.237    0.691
         8 -14.0147    248.8457     25.9118   6.2092623011e+01   2.0185911664e+01    0.4696189    0.4245476 -44.13  0.001483528    1.184    0.155
         9 -17.2650    241.1294      8.3350   5.8665919463e+01   2.3980050222e+01     2.997525     2.651722 -35.68    0.0168128    1.276    0.216
        10 -11.5606    134.1211      6.6522   7.0724560081e+01   5.1121598734e+01    0.5274072    0.1680751 -27.76  0.001983192    3.116    0.679
        11 -12.4893    117.3711      6.7860   7.4036689106e+01   5.5198654759e+01    0.5723483    0.3482044 -66.99   0.00254364    2.616    0.618
        12 -10.8564     77.9591    107.7023   1.1992548697e+02   4.5359236473e+01      0.40838    0.2277056 -59.70  0.001777912    1.698    0.411
        13 -12.0549    248.2618    248.0502   1.0908462278e+02  -1.0490954258e+01    0.3912753    0.2491352   2.84  0.002648615    1.490    0.329
        14 -16.3517     60.4449    239.8256   1.4150933132e+02   1.9159215978e+01     3.128609      1.01004  45.51   0.01256061    2.287    0.563
        15 -14.6632     32.2074    223.2871   1.4538401169e+02   2.5591667195e+01     1.034884    0.6807387  45.75  0.005085779    1.452    0.311
        16 -14.6515     24.6165    208.9970   1.4588026562e+02   2.9167701735e+01    0.8446262    0.5885916  79.69  0.004060849    1.088    0.081
        17 -11.8578    121.4740    233.8406   1.2979466462e+02   1.1331069624e+01     0.273719    0.2120173 -12.60  0.001609446    2.299    0.565
        18 -11.0163    140.1742    102.3000   1.0116036790e+02   3.4547067634e+01     0.250117    0.1987191  28.48  0.000698114    1.434    0.303
        19 -11.7508    145.5635     97.0416   9.8360829684e+01   3.4393277530e+01    0.3593993    0.3109781 -13.56  0.000696908    1.319    0.242
        20 -11.8076     90.9914     97.7238   1.1355117466e+02   4.5533668963e+01    0.4493578    0.3535825  39.50  0.002347266    1.354    0.262
        21 -11.2915     66.4892    144.5018   1.3009357130e+02   3.8294813615e+01    0.4490742    0.2817537 -84.78  0.001603991    1.677    0.404
        22 -11.9480    127.8529    228.3891   1.2794060427e+02   1.1217462355e+01    0.3485724    0.2180261  33.57  0.001827379    1.642    0.391
        23 -11.1375    132.3108     94.1172   1.0087426043e+02   3.8033348515e+01     0.282112    0.2261638  57.69 0.0006241768    1.299    0.230
        24 -12.6905    205.2501     90.3314   8.4038445570e+01   2.1125564698e+01     0.506943    0.3590229  77.61  0.002222163    1.725    0.420
        25 -11.8513     39.9380     89.6711   1.2801124690e+02   5.4366989858e+01    0.5362381    0.3943762 -63.99  0.002481366    1.170    0.145
        26 -11.6363    138.7444     86.1329   9.6891284131e+01   3.8183795624e+01    0.3625904    0.3293737 -77.80   0.00090057    1.189    0.159
        27 -11.5711    227.0273     85.0210   7.9137184243e+01   1.6841095711e+01     0.229028    0.2118884 -50.17 0.0007823699    1.019    0.018
        28 -12.5277    151.6289     77.6629   9.1222756965e+01   3.6717274497e+01    0.3780051    0.3158024 -27.61 0.0006539873    1.257    0.204
        29 -12.2376    108.4666     74.9566   1.0167674838e+02   4.7098992283e+01    0.5489716    0.2673185 -38.09  0.002159734    2.083    0.520
        30 -11.1384    135.8577    226.2232   1.2612956129e+02   1.0260440600e+01    0.4435007     0.205892  40.55  0.002172139    1.823    0.452
        31 -12.4365      3.2233    222.7910   1.5034136273e+02   2.8663320264e+01    0.5166309    0.1780105 -83.78  0.002869883    2.459    0.593
        32 -10.7122    191.6902    192.9300   1.0995036804e+02   5.8514432707e+00    0.4784233     0.256159 -65.30  0.001411259    6.513    0.846
        33 -12.3923    182.7874     62.4304   8.0250040245e+01   3.1428569247e+01    0.4100176     0.320994  43.20 0.0009826005    1.359    0.264
        34 -12.2589    186.8273     58.9958   7.8539205651e+01   3.0925612469e+01    0.4683633    0.3008607  38.84  0.002036115    1.839    0.456
        35 -13.4897     52.9632    184.0900   1.3824069272e+02   3.1071097380e+01    0.5476767    0.4004149 -87.41  0.001177094    1.184    0.155
        36 -14.1634     60.9521    175.3829   1.3554970676e+02   3.1955646928e+01     1.007243    0.7728217 -55.35  0.005072389    1.515    0.340
        37 -11.2869     69.4960    145.5064   1.2947436348e+02   3.7644884278e+01    0.3456072    0.2731987  83.95  0.001242751    1.199    0.166
        38 -12.4162    160.9047    128.2268   1.0288497921e+02   2.4411066644e+01    0.4447405     0.419587 -34.09  0.002360423    1.092    0.084
        39 -11.3989    180.7106     51.1552   7.7273366766e+01   3.3700621512e+01    0.3900867     0.289521 -55.57  0.001397008    1.408    0.290
        40 -13.3758    136.0019    244.1812   1.2827659687e+02   7.3565407699e+00     1.184109    0.4600886  35.84  0.005325224    2.553    0.608
        41 -11.9479     84.9871     39.5051   9.6403860232e+01   5.8141633881e+01    0.4218589    0.1734937  29.32  0.001324594    4.395    0.772
        42 -11.5237    134.8321    121.5978   1.0752499597e+02   3.1571305298e+01    0.7089496    0.1134781 -47.55  0.001530365    6.415    0.844
        43  -9.8968    189.9113     36.1162   7.1380382197e+01   3.3394120563e+01    0.2214023     0.182929 -69.40 0.0006128241    1.207    0.171
        44 -12.3941    167.8892    113.6760   9.7655248808e+01   2.5770310509e+01     0.423062     0.322203 -73.09  0.001381569    1.657    0.397
        45  -9.5230    176.3997     21.1546   6.8855218915e+01   3.8750919350e+01    0.1865896    0.1262133 -43.04 0.0002918385    1.511    0.338
        46 -12.5309    134.6171    107.6147   1.0400660913e+02   3.4661203598e+01     1.022199    0.2712484 -44.25   0.00286288    3.758    0.734
