#   1 NUMBER                 Running object number                                     
#   2 MAG_AUTO               Kron-like elliptical aperture magnitude                    [mag]
#   3 X_IMAGE                Object position along x                                    [pixel]
#   4 Y_IMAGE                Object position along y                                    [pixel]
#   5 X_WORLD                Barycenter position along world x axis                     [deg]
#   6 Y_WORLD                Barycenter position along world y axis                     [deg]
#   7 A_WORLD                Profile RMS along major axis (world units)                 [deg]
#   8 B_WORLD                Profile RMS along minor axis (world units)                 [deg]
#   9 THETA_WORLD            Position angle (CCW/world-x)                               [deg]
#  10 FWHM_WORLD             FWHM assuming a gaussian core                              [deg]
#  11 ELONGATION             A_IMAGE/B_IMAGE                                           
#  12 ELLIPTICITY            1 - B_IMAGE/A_IMAGE                                       
         1 -14.5051    153.7536     59.1422   8.1820802827e+01   3.9199736181e+01     1.366594     1.145248  46.16  0.001039227    1.141    0.123
         2 -14.9427    165.3791     44.6294   7.5283464595e+01   3.8427620676e+01     1.225447     1.104282  10.61  0.003900064    1.313    0.238
         3 -15.1553    183.8347     11.1716   6.3414114135e+01   3.7785563297e+01      2.48833     1.080656  65.19  0.007735009    1.881    0.468
         4 -10.7380    125.2829    239.0374   1.2821677389e+02   7.6381596418e+00    0.3226623    0.1296108 -54.08  0.001390653    2.877    0.652
         5 -20.0565     70.8671    170.1610   1.3079584793e+02   3.1517669139e+01      18.3568     7.528601 -65.35   0.07405519    2.345    0.574
         6 -10.8490    151.7906    196.8096   1.1594904548e+02   1.1132671236e+01    0.3265709    0.2215521  43.93 0.0007094612    1.353    0.261
         7 -11.9658    152.2574    191.5943   1.1488851909e+02   1.2135871854e+01    0.5603135    0.3802887 -67.44  0.001766501    1.854    0.461
         8 -12.1663    155.0730    187.3744   1.1344917027e+02   1.2466525561e+01    0.3625867    0.2873076  71.11 0.0009238119    1.459    0.315
         9 -12.1542    151.4655    183.4800   1.1353645761e+02   1.4032459983e+01    0.3570849    0.2775115  86.90 6.079909e-05    1.634    0.388
        10 -10.3398    112.8525    196.4625   1.2482182182e+02   1.8570023272e+01    0.3640436    0.2553615  -8.82  0.001512274    2.892    0.654
        11 -10.3793    134.7566    242.8884   1.2680149647e+02   5.2972696575e+00    0.3101721     0.154574 -45.46 0.0009698364    2.577    0.612
        12 -10.2084    138.7284    242.9114   1.2600129825e+02   4.6032280594e+00    0.1573137     0.114333 -73.91 0.0003544429    1.730    0.422
        13 -10.4081    135.6093    179.9285   1.1659964943e+02   1.7997672654e+01    0.2981952    0.2054281  49.74 0.0006447327    1.390    0.280
        14 -12.8651    204.2899    175.4826   1.0019453138e+02   4.8012813225e+00    0.4826974    0.4777545 -48.19  0.001292173    1.123    0.109
        15 -12.5946    189.6140    155.5562   9.8970654264e+01   1.1872060703e+01    0.5329852    0.4945463  28.15   0.00147499    1.076    0.071
        16 -12.6829    193.0150    165.2323   1.0037761892e+02   9.1615984501e+00    0.4874595    0.3491686 -44.17 0.0009227981    1.426    0.299
        17 -12.1665    189.9589    160.9882   1.0010646138e+02   1.0679652322e+01     0.373508    0.3372173 -88.34  0.001135555    1.288    0.223
        18 -11.6744     13.2056    240.0652   1.4935340491e+02   2.3292718340e+01    0.1995395    0.1205206 -78.96   0.00112754    1.466    0.318
        19  -9.4634     13.3185    236.2849   1.4911739654e+02   2.4011998644e+01    0.1688848    0.1292309  60.88  0.001245482    1.257    0.205
        20 -10.4099     11.7842    173.9235   1.4494647725e+02   3.7319619935e+01    0.1654105    0.1210203 -68.99 0.0002746995    1.247    0.198
        21 -11.0575    161.2320    239.3364   1.2091096755e+02   1.2609881995e+00     0.394566    0.2134379  35.80  0.001195524    1.659    0.397
        22 -12.1074    177.0157    169.4527   1.0480920737e+02   1.1698881224e+01    0.2966836    0.2186542 -61.58 0.0009007255    1.609    0.379
        23 -12.0027    230.5076    167.5994   9.3326975708e+01   1.0952481612e+00    0.4461337    0.1858742 -48.88  0.001623692    2.882    0.653
        24 -12.4020    196.8042    176.1649   1.0190812484e+02   6.1931379362e+00    0.5765519    0.4292111 -68.56  0.002222786    1.862    0.463
        25 -11.6694     25.5812    165.0549   1.4100504991e+02   3.8091898016e+01    0.3603027    0.2506871  16.79  0.002149222    2.028    0.507
        26  -9.9585     11.3057    166.3151   1.4436385696e+02   3.9072340151e+01     0.115719   0.07649399 -53.02  0.000702593    1.624    0.384
        27 -10.7759    126.8527    250.7237   1.2937813524e+02   5.2553774368e+00   0.09659633   0.08910619 -39.98   0.00031421    1.423    0.297
        28 -11.7380     21.6271    235.9716   1.4768676145e+02   2.3178381669e+01    0.1819229     0.123689  85.12  0.001277782    1.144    0.126
        29 -12.1872    166.8111    155.3731   1.0407017450e+02   1.6926308470e+01     0.431083    0.2977333  72.88  0.001615276    2.037    0.509
        30 -11.0278    162.9446    233.4855   1.1966795237e+02   1.9684774356e+00    0.1895297    0.1883082 -41.54 0.0005773288    1.184    0.155
        31 -10.6120    131.0000    233.9989   1.2637022635e+02   7.5888050283e+00    0.1810011   0.07767834 -55.29 0.0007254586    2.702    0.630
        32 -11.1571    174.3391    148.7551   1.0082632978e+02   1.6690004156e+01    0.3619061    0.2888876 -78.73  0.001182868    1.570    0.363
        33 -12.2358    152.5538    139.2355   1.0376893730e+02   2.3669646428e+01    0.3711418    0.2800632 -70.71  0.001641204    1.603    0.376
        34 -10.6399      1.6770    139.9676   1.4402216798e+02   4.5738712696e+01    0.1705265    0.1200702 -64.39  0.001138187    1.190    0.160
        35 -11.6131      6.6792    138.8211   1.4267078093e+02   4.5665826883e+01     0.296309    0.2604423  -4.43   0.00216482    1.533    0.348
        36 -10.4017    141.1636    229.2117   1.2356874484e+02   6.6832745385e+00    0.2035065    0.1733574 -72.67 0.0008948449    1.345    0.257
        37 -10.8382     17.4320    223.4462   1.4761111827e+02   2.6133274432e+01    0.1694295   0.08851212 -76.76 0.0005524284    1.629    0.386
        38 -12.4022    160.3773    127.6960   9.9063275105e+01   2.4445177955e+01    0.4698184    0.3915742 -64.67   0.00160915    1.304    0.233
        39 -11.8496    218.1501    219.9305   1.0612436801e+02  -5.6002272531e+00    0.3264215    0.1889792 -51.13  0.001265346    2.401    0.584
        40 -11.2189    107.7361    250.5645   1.3308935363e+02   8.4453897172e+00    0.1129954    0.1014756  71.41 0.0007526317    1.171    0.146
        41 -10.3674     16.5100    201.4921   1.4623222008e+02   3.0819255059e+01    0.1158028   0.09078198 -88.77 3.988853e-05    1.110    0.099
        42 -10.7045    167.7697    112.7726   9.3536195027e+01   2.5879646900e+01    0.3299818    0.2325942 -84.39  0.001318538    2.105    0.525
        43 -10.5047     15.7589    209.6702   1.4697430041e+02   2.9155094951e+01    0.1197855   0.08498006  80.94 0.0002492759    1.064    0.060
        44 -10.9863    204.9869    110.6786   8.5193719696e+01   1.7403022295e+01    0.3621914    0.2804639  23.22  0.001328627    1.661    0.398
        45 -13.5248     11.5055    206.0499   1.4751553778e+02   3.0336624557e+01    0.4194194    0.2855936  32.11  0.002359516    1.875    0.467
        46 -11.1579     10.3134    101.6406   1.3672053239e+02   5.3795230362e+01    0.2331837    0.2055606  83.11  0.001038937    1.294    0.227
        47 -12.1602    106.5154    206.4844   1.2776605468e+02   1.7472207275e+01    0.2665199    0.2511744  56.09 0.0006893413    1.159    0.137
        48 -10.6409    145.3113     81.4345   9.0297830935e+01   3.7451299251e+01     0.209107    0.1464533  60.75 0.0006914262    1.501    0.334
        49 -10.6088     98.6186     80.8415   1.0304741813e+02   4.7613762450e+01    0.2569145    0.2008202  44.57 0.0006034967    1.332    0.249
        50 -12.9962    104.9829    203.0083   1.2760669073e+02   1.8496234047e+01    0.3568068    0.2934943  40.10 0.0009595627    1.259    0.206
        51 -10.7606    160.4935    247.4985   1.2225556797e+02   1.8863667909e-02    0.3599365    0.1888103  26.74 0.0009740105    2.364    0.577
        52 -11.4375    125.0996    244.6241   1.2896814819e+02   6.6419568858e+00    0.1279542   0.07571249 -63.40 0.0001809818    2.026    0.506
        53 -13.1838    169.7165     36.7216   7.2289909753e+01   3.8385398624e+01    0.4207119    0.3797749  68.37 0.0009095074    1.033    0.032
        54 -11.3350     13.5369     59.8473   1.2717419520e+02   6.2303557944e+01     0.182666    0.1730737 -30.78  0.000424025    1.274    0.215
        55  -9.7399    135.2250    198.3274   1.1998645472e+02   1.4023489090e+01    0.1334025    0.1134336 -19.93 0.0002420215    1.511    0.338
