#   1 NUMBER                 Running object number                                     
#   2 MAG_AUTO               Kron-like elliptical aperture magnitude                    [mag]
#   3 X_IMAGE                Object position along x                                    [pixel]
#   4 Y_IMAGE                Object position along y                                    [pixel]
#   5 X_WORLD                Barycenter position along world x axis                     [deg]
#   6 Y_WORLD                Barycenter position along world y axis                     [deg]
#   7 A_WORLD                Profile RMS along major axis (world units)                 [deg]
#   8 B_WORLD                Profile RMS along minor axis (world units)                 [deg]
#   9 THETA_WORLD            Position angle (CCW/world-x)                               [deg]
#  10 FWHM_WORLD             FWHM assuming a gaussian core                              [deg]
#  11 ELONGATION             A_IMAGE/B_IMAGE                                           
#  12 ELLIPTICITY            1 - B_IMAGE/A_IMAGE                                       
         1 -13.1715    130.7065     16.4307   7.1088527979e+01   4.9959639731e+01     1.359813    0.7341474  22.95  0.006075687    2.782    0.641
         2 -15.7280    119.6407     40.6657   8.1250917730e+01   4.9695955555e+01     1.363185    0.9975591 -40.22  0.006863494    1.502    0.334
         3 -18.3310    149.4341     91.7608   8.9612200491e+01   3.4493797029e+01     4.334506     2.942194 -40.69   0.01830689    1.482    0.325
         4 -19.3413    180.1733     61.1608   7.5002406084e+01   3.2474745976e+01     6.622327     5.170846 -84.89   0.02721316    1.344    0.256
         5  99.0000    216.1545     38.7595   6.4331948887e+01   2.7147710088e+01       2.9261     1.562198 -80.50  0.007899009    2.297    0.565
         6 -14.6958    247.7631     34.4870   6.0126740295e+01   2.0726136148e+01     1.110117    0.6548472 -81.49   0.00533541    1.652    0.395
         7 -16.8608    243.4771      7.5001   5.5202430816e+01   2.4982418754e+01     1.951179     1.639255 -54.17  0.009605478    1.315    0.239
         8 -14.6830    219.8594      2.0351   5.5991480336e+01   3.0690073508e+01     2.185583          nan  64.87  0.005475317    8.390    0.881
         9 -16.0793    248.0190     77.3236   6.8969289996e+01   1.4269650621e+01      4.88403     1.464536 -40.89   0.01816659    2.854    0.650
        10 -16.0652     27.6937     65.5536   1.1926647330e+02   6.0352062138e+01     2.115526    0.9828793 -49.13  0.007495044    1.750    0.428
        11 -15.3104     75.0644     20.9813   8.6346373957e+01   6.0909854487e+01     2.372227     2.114931 -72.38   0.01577064    1.749    0.428
        12 -11.8830    103.9009      2.3678   7.1830496189e+01   5.7020283406e+01    0.4254273    0.2081745  56.08  0.001494305    1.675    0.403
        13 -12.6845     99.9923      8.7072   7.4955357911e+01   5.7317165906e+01    0.5403268    0.3832694  51.81  0.001584155    1.219    0.180
        14 -14.4031     88.8800      3.0547   7.5555944657e+01   6.0007417111e+01     1.646221    0.3935706  55.31  0.006455868    3.289    0.696
        15 -14.9575    239.7614    107.0159   7.6541010277e+01   1.0877319470e+01     1.377385     1.006461 -44.21  0.004357006    1.217    0.178
        16 -14.3293    228.5079    226.6613   1.0323698178e+02  -8.3448010052e+00     1.684704    0.7717667  36.25  0.004749412    2.084    0.520
        17 -15.6150    201.8807    240.7060   1.1072422293e+02  -6.2818898367e+00     3.220881     1.262569  45.23    0.0136491    2.604    0.616
        18 -16.7067    184.3235    205.5035   1.0803707844e+02   2.8876189353e+00     2.165982     1.679146 -44.72  0.008810423    1.353    0.261
        19 -17.2705    212.2678    194.3310   1.0022746296e+02  -1.6667397282e-01     2.521711     2.189385 -27.75  0.009006009    1.110    0.099
        20 -16.9484    242.6343    176.5455   9.0988005954e+01  -2.3423341552e+00      2.85552      1.49681 -30.89   0.01306488    1.899    0.473
        21 -15.2333    133.1847    238.3308   1.2406721726e+02   5.8234759914e+00     2.588593      1.92756  41.51   0.01494601    1.216    0.177
        22 -16.2736     48.7770    125.4011   1.2612658755e+02   4.5129829641e+01      1.80611     1.462582   8.45  0.008691967    1.548    0.354
        23 -10.0740    243.0914    241.2917   1.0316286312e+02  -1.2626464899e+01    0.5662168    0.3826714   5.63  0.002116387    1.431    0.301
        24 -17.6384     19.7357    236.9572   1.4572258139e+02   2.2608209323e+01     2.623312      1.36838  59.81   0.01603328    1.567    0.362
        25 -14.2003    126.8543    205.8853   1.2053943755e+02   1.3560491421e+01     0.843991    0.7097297 -35.91  0.004562094    1.435    0.303
        26 -13.1422    118.1307    198.9323   1.2136466683e+02   1.6678310524e+01     1.037457    0.7091728 -46.60  0.003990717    1.629    0.386
        27 -11.1582    210.3782    133.8438   8.7559898889e+01   1.1995455548e+01    0.4002843    0.2468645  39.47  0.001756678    1.867    0.464
        28 -12.0395    160.5260    128.3333   9.6625849191e+01   2.4285686444e+01    0.4553226    0.3304985 -54.70   0.00196397    1.396    0.283
        29 -11.5817    213.4438    128.6198   8.5789349888e+01   1.2371273174e+01    0.2577711    0.2353231  76.26 0.0006260477    1.173    0.147
        30 -13.0217     81.5515    190.3881   1.2843033337e+02   2.4818391119e+01    0.9519663    0.7397722 -29.40  0.003555911    1.886    0.470
        31 -14.9803     97.1646    179.7103   1.2307895059e+02   2.4839995303e+01     1.310778      1.02619 -58.73  0.003709523    1.258    0.205
        32 -14.4275    111.2788    174.3713   1.1872129732e+02   2.3644261634e+01      1.29544    0.8093458  55.35  0.003391892    1.687    0.407
        33 -14.6529    125.7020    185.2310   1.1725988450e+02   1.8415201320e+01     1.570511    0.8366333  36.69    0.0050153    1.991    0.498
        34 -12.1290    216.4873    117.5932   8.2690516183e+01   1.3858531243e+01    0.2932557    0.2693833 -84.39  0.001107426    1.114    0.103
        35 -16.9781     11.3839    188.4506   1.4364691836e+02   3.3939824367e+01     2.756451     1.465156  84.61    0.0101419    1.692    0.409
        36 -13.2914     14.6641     69.7251   1.2520976014e+02   6.0565367050e+01    0.9078043    0.4031015 -45.38  0.004151465    1.730    0.422
        37 -14.7317     51.3593    180.9885   1.3412680325e+02   3.1320086076e+01       1.3652    0.9954661   0.71  0.004233367    2.395    0.582
        38 -14.9864     38.4450     58.2101   1.1302639036e+02   6.0674930467e+01     1.142334    0.8924316 -12.25  0.005107419    1.181    0.154
        39 -10.8505    114.2070     54.3777   8.7083379901e+01   4.8932924599e+01    0.3226098    0.2550313 -79.20  0.001504366    1.788    0.441
        40 -14.1271    227.2588    119.8940   8.1387978759e+01   1.1110764871e+01     0.982362    0.7310425  33.54  0.003374583    1.693    0.409
        41 -12.5339     67.7776     48.9463   9.9222837888e+01   5.8389827263e+01    0.3190704    0.1845173  32.99  0.001675732    1.718    0.418
        42 -13.5242     59.6592    171.3538   1.3085706615e+02   3.2569597351e+01     0.606083    0.5505799  57.03  0.001662325    1.207    0.171
        43 -14.9302    141.6702    188.2031   1.1410963403e+02   1.4684865028e+01     1.611873     1.078113  35.09  0.006783617    1.575    0.365
        44 -10.1076    232.9508    139.4942   8.4804031844e+01   6.2416231706e+00     0.201061    0.1443665  50.88 0.0009481171    1.552    0.356
        45 -12.3406     67.8553    144.3415   1.2433527261e+02   3.8086768385e+01    0.6766949    0.4032507  66.79  0.002909017    2.299    0.565
        46 -11.0373    202.5132     35.9772   6.5345446730e+01   3.0705991393e+01     0.315316    0.2235003 -49.47  0.000929983    1.378    0.274
        47 -10.6932    201.4082     32.1218   6.4567935373e+01   3.1464682129e+01    0.1911779    0.1221458 -43.78   0.00101682    1.564    0.361
        48 -10.4833    219.1317     20.2682   5.9913022511e+01   2.8819943589e+01    0.2103909    0.1461764 -66.66 0.0007235529    1.282    0.220
