#   1 NUMBER                 Running object number                                     
#   2 MAG_AUTO               Kron-like elliptical aperture magnitude                    [mag]
#   3 X_IMAGE                Object position along x                                    [pixel]
#   4 Y_IMAGE                Object position along y                                    [pixel]
#   5 X_WORLD                Barycenter position along world x axis                     [deg]
#   6 Y_WORLD                Barycenter position along world y axis                     [deg]
#   7 A_WORLD                Profile RMS along major axis (world units)                 [deg]
#   8 B_WORLD                Profile RMS along minor axis (world units)                 [deg]
#   9 THETA_WORLD            Position angle (CCW/world-x)                               [deg]
#  10 FWHM_WORLD             FWHM assuming a gaussian core                              [deg]
#  11 ELONGATION             A_IMAGE/B_IMAGE                                           
#  12 ELLIPTICITY            1 - B_IMAGE/A_IMAGE                                       
         1  -9.9355     46.5081     25.7510   5.7725142471e+01   6.9243126957e+01    0.4040779    0.3285203 -74.27  0.002129124    1.732    0.423
         2 -12.5335    238.0194     17.2391   1.7849988217e+01   2.4979962168e+01    0.3215814    0.2626642  18.67  0.001582024    1.684    0.406
         3 -10.8206    184.0808     13.2475   2.0325849346e+01   3.6834345207e+01    0.3305304    0.1941332   0.27  0.001535052    2.488    0.598
         4 -10.8520    217.5587     17.3079   1.9047469966e+01   2.9023369305e+01    0.2277026    0.1979907 -14.05  0.001087864    1.317    0.240
         5 -11.7188      8.5792     16.2609   8.0386923179e+01   7.6410144660e+01     0.707898    0.3213616 -26.34  0.002951707    2.763    0.638
         6 -12.3283    226.9044     13.2910   1.7533268679e+01   2.7515017186e+01    0.3042599    0.2040295 -74.27  0.001920407    1.470    0.320
         7 -11.1481    175.3183     12.5006   2.0826223806e+01   3.8998292865e+01    0.4835375    0.3077101  13.84  0.002326604    2.331    0.571
         8 -12.9242    246.4672     11.7601   1.6217849610e+01   2.3931331669e+01    0.5591694    0.3713171 -72.49  0.003790781    1.493    0.330
         9 -11.5222    239.6959      2.5828   1.4485082684e+01   2.6018077013e+01    0.3448478    0.1813175  54.50  0.001961014    2.549    0.608
        10 -12.9019    231.7289      4.3542   1.5215726314e+01   2.7388264895e+01    0.8293553    0.2820509 -27.39  0.003953562    2.392    0.582
        11 -11.3597    132.9487     12.6000   2.5443362743e+01   4.9781201970e+01    0.2670072     0.217046 -58.10 0.0003357374    1.209    0.173
        12 -11.0492    125.2501     12.2749   2.6423025949e+01   5.1852079420e+01    0.3168156    0.2180318 -60.54 0.0009133231    1.519    0.342
        13  -9.8398     97.1875     12.4220   3.1644661962e+01   5.9271850589e+01    0.2956605    0.1817679  -5.91 0.0009541527    2.029    0.507
        14 -10.4686     31.5590     12.4409   5.8740194647e+01   7.4208063938e+01    0.3231106    0.2202497  -3.39 0.0004265284    1.811    0.448
        15 -10.2652    200.4995     11.9963   1.8791527737e+01   3.3198135845e+01    0.1933416    0.1124276 -27.64  0.001034503    1.595    0.373
        16 -11.2507    196.0088      3.6534   1.6846401377e+01   3.4968285599e+01    0.3537535    0.2172108  78.23  0.001643414    1.644    0.392
        17 -11.4370    191.0844      6.6925   1.7978172794e+01   3.5818089698e+01    0.3973224    0.2260458 -34.83   0.00160854    1.537    0.349
        18 -11.0176     69.9576     11.4847   3.8736606068e+01   6.6267082270e+01    0.2404623     0.215007  -8.13 -3.592085e-05    1.167    0.143
        19 -10.0586     90.8159      9.2133   3.1524653793e+01   6.1259346687e+01    0.2783794    0.1692477  24.54  0.001192702    2.062    0.515
        20  -9.7107     56.1477     10.3389   4.3418546655e+01   6.9627645004e+01    0.2835374    0.1794981  86.67  0.001156678    2.935    0.659
        21 -10.7580      7.6907      9.1673   7.7238703439e+01   7.7980806185e+01    0.2549957    0.1588031  20.04 0.0009304992    1.620    0.383
        22 -12.5865    217.6703      4.0896   1.5801596049e+01   3.0240271622e+01    0.5583105    0.4058941  59.26  0.002501037    1.657    0.396
        23 -11.9700    207.4674      3.0105   1.6046359992e+01   3.2495001143e+01    0.4955874    0.2323825 -60.99  0.002497782    1.977    0.494
        24 -10.6035    107.4532      7.5994   2.7349108758e+01   5.7029906264e+01    0.2708326    0.2201071  54.01 0.0007701923    1.182    0.154
        25  -9.6600    103.4741      7.9012   2.8215811215e+01   5.8058725063e+01    0.1999191    0.1417946 -20.29 0.0005048104    1.530    0.346
        26 -10.0337     24.4741      7.0876   6.0164038300e+01   7.6258097062e+01    0.2562499    0.1666343 -45.23 0.0007276339    1.652    0.395
        27  -9.8652     20.9922      5.5289   6.1857989876e+01   7.7053048947e+01    0.2361055    0.1805415  24.88 0.0008675341    1.255    0.203
        28 -10.0680    138.5463      6.8409   2.2588257997e+01   4.8840068085e+01    0.2522023    0.1753628  77.47 0.0006405996    1.345    0.257
        29 -10.3041    184.6974      5.0393   1.7938103480e+01   3.7449598737e+01    0.2588796    0.0860507 -31.17  0.001080608    2.457    0.593
        30 -10.0307     98.1115      6.2345   2.8468251212e+01   5.9629845192e+01    0.2167628    0.1737264  49.03 0.0005464414    1.204    0.169
        31  -9.5619     88.2545      6.5459   3.0757194123e+01   6.2182304261e+01    0.1998371    0.1161797  53.90 0.0008184267    1.554    0.357
        32 -11.4770     79.1893      4.3792   3.1842680179e+01   6.4715721678e+01    0.2728595    0.2434332 -44.32 0.0005353626    1.221    0.181
        33 -11.1954     74.5047      2.0000   3.1737553181e+01   6.6119341169e+01    0.6367121    0.1910345  66.74  0.002164729    3.153    0.683
        34 -11.5752    248.8958      2.6069   1.4139946893e+01   2.4318872132e+01    0.3050749     0.286981  77.27  0.002477524    1.377    0.274
        35 -12.1889    160.3264      2.0976   1.8843648955e+01   4.3637194761e+01    0.3457454    0.2757947 -77.62  0.002033661    1.142    0.124
        36 -10.0576    151.5896      4.5985   2.0435375664e+01   4.5646464747e+01     0.346355    0.1492553 -57.76  0.001393788    2.477    0.596
        37  -9.4750     46.2630      4.7109   4.4206555270e+01   7.2496037531e+01    0.2320339    0.1370482  21.84  0.001051664    2.117    0.528
        38 -10.4189     11.5351      4.5906   7.0084866829e+01   7.8479398656e+01     0.212594    0.1676303 -28.71 0.0004813765    1.142    0.124
        39 -10.5833     14.7863      3.6395   6.6069046428e+01   7.8250308752e+01    0.2584701    0.2068293  42.05  0.001046472    1.486    0.327
        40 -10.5550     30.7817      2.8724   5.2028868404e+01   7.5829993449e+01    0.2939987    0.2077496 -49.07 0.0008678447    1.797    0.444
        41 -10.4040    142.0687      2.2081   2.0527276186e+01   4.8311449532e+01    0.2135625    0.1910248 -44.30 0.0004183084    1.133    0.117
        42 -10.3141    135.8694      2.4691   2.1270574734e+01   4.9915044007e+01    0.3042936    0.1399078 -39.67  0.001322677    2.066    0.516
        43 -10.1593      4.8518      2.2505   7.5670524061e+01   7.9625386153e+01    0.3321415     0.162357 -19.19  0.001443007    2.767    0.639
        44 -10.4663    180.0692      1.7947   1.7313359460e+01   3.8825634547e+01    0.2977992      0.15265  71.18  0.001473621    1.913    0.477
        45 -10.2506    115.8487      1.9669   2.3548339609e+01   5.5272710644e+01     0.204152    0.1869536 -88.18  0.000444929    1.030    0.029
        46 -10.2358     41.7725      1.7204   4.4300886408e+01   7.3809633615e+01    0.2625368    0.1490802  32.24 0.0006618287    1.854    0.461
        47  -9.9009     90.7279      1.3460   2.7519355447e+01   6.1993502476e+01    0.2426445    0.1252173  74.68 0.0005611729    1.884    0.469
        48  -9.6591     23.6908      1.4217   5.6182788124e+01   7.7283792002e+01     0.164609    0.1128404  27.02 0.0003369208    1.412    0.292
        49 -10.6180    241.1784    124.9494   4.1261897077e+01   1.1739936422e+01    0.1921705    0.1690869  20.51  0.001397953    1.287    0.223
        50 -10.1919     49.3060    249.8313   9.8067234634e+01   1.8344529851e+01    0.2086961    0.1062527  37.21  0.001309442    1.388    0.280
        51  -9.5753    235.3331    123.6793   4.1768435838e+01   1.2782986699e+01     0.114928   0.08655968 -51.59 0.0007049464    1.700    0.412
        52 -11.1064     20.2881    118.1656   9.6558305106e+01   4.9721407991e+01    0.4946119    0.3249013  38.81  0.002564055    1.481    0.325
        53 -10.2993      6.4897    119.5062   1.0177494269e+02   5.0328203207e+01     0.132489    0.1188593  86.12 0.0008103733    1.031    0.030
        54 -10.5805      3.9834    124.4552   1.0299145827e+02   4.9199619263e+01    0.2710115    0.1556021  72.47  0.001357304    1.635    0.389
        55 -10.1123     80.3598    115.8511   7.4384216895e+01   4.2836284947e+01    0.2411184    0.1977584  47.58 0.0005717341    1.206    0.171
        56 -11.5561     37.0103    110.3020   8.9148649555e+01   5.0248765831e+01     0.244166    0.2130587 -80.86 0.0003038208    1.095    0.087
        57  -9.8262     21.1200    109.1312   9.5242233535e+01   5.2035517280e+01    0.2084014    0.1750067 -52.36 0.0005060301    1.225    0.184
        58  -9.7090    239.2843    103.3254   3.7002039449e+01   1.4799656787e+01    0.1191272   0.08299535  -2.78 0.0003411294    1.602    0.376
        59  -9.9280    101.5454    103.4907   6.4532083360e+01   4.1890606363e+01    0.2942124    0.1472881  29.59  0.001041719    2.546    0.607
        60 -10.0864     70.6909    102.6366   7.4755318759e+01   4.7694404763e+01    0.2406711    0.1804764 -19.79   0.00110506    1.714    0.416
        61 -11.7062    244.9262     98.0974   3.5239402005e+01   1.4559899499e+01    0.3091956    0.2487229 -44.30  0.002138332    1.282    0.220
        62  -9.6309    161.7201    103.7730   4.9310260620e+01   2.9256392270e+01    0.1827684    0.1653814 -73.73 0.0003980957    1.288    0.224
        63  -9.8564     57.2856    100.3483   7.9312707716e+01   5.0325759563e+01    0.1546031    0.1107442 -31.81 0.0005964468    1.654    0.395
        64 -10.0744     52.7257     98.9550   8.0813885638e+01   5.1321443099e+01    0.2956341     0.183197 -11.00  0.001156978    2.597    0.615
        65  -9.9230    126.0716     96.8412   5.5705382366e+01   3.8218543293e+01    0.2406135    0.2142539  87.90  0.001238218    1.290    0.225
        66  -9.7311     46.6335     97.7001   8.3022097765e+01   5.2446254150e+01    0.1542612    0.1088282 -27.53 0.0007033186    1.731    0.422
        67 -10.2819      6.0850     96.4512   1.0008521114e+02   5.6398575270e+01    0.4404133    0.1649944  50.38  0.001339274    2.835    0.647
        68 -10.1004     42.0301     95.0836   8.4407448610e+01   5.3694008197e+01    0.2160269     0.204842 -61.26 0.0004529246    1.041    0.039
        69  -9.3565     13.0048     95.0404   9.6950508048e+01   5.6365114151e+01    0.1651178    0.1473417 -82.62 0.0003548707    1.021    0.020
        70  -9.6568     46.7433     92.2626   8.1815353550e+01   5.3847886849e+01    0.2488342   0.09680284 -52.04 0.0003989195    2.425    0.588
        71  -9.5321     18.1341     90.8589   9.4139475234e+01   5.7121296739e+01    0.1850655    0.1495029 -46.88 0.0002687429    1.250    0.200
        72  -9.5902     64.9555     90.7524   7.3975063371e+01   5.1586281756e+01    0.1937458    0.1288099  32.47 0.0004120313    1.535    0.349
        73 -10.9460     26.0819     87.4920   8.9993907383e+01   5.7364945539e+01    0.2219674    0.1814388 -73.19 0.0006185142    1.148    0.129
        74 -10.4335    143.9637     85.8935   4.8232732764e+01   3.6346590047e+01    0.4017975    0.1850328 -49.24  0.001472294    2.452    0.592
        75 -10.9391    155.1144     85.0486   4.5611015056e+01   3.3974147606e+01    0.2224693    0.2077422  41.69  0.001238123    1.107    0.097
        76 -11.1807     65.9452     84.8028   7.1965082053e+01   5.2892804335e+01    0.3545224    0.2579058  14.15  0.001629502    1.676    0.403
        77 -10.2959     44.1494     79.1576   7.9841488117e+01   5.7562231610e+01    0.3688484     0.221002 -40.32  0.001621819    1.805    0.446
        78 -10.5922     37.9741     84.4538   8.3941083407e+01   5.6948912017e+01    0.2355488    0.1822649 -66.80 0.0006161736    1.237    0.192
        79 -10.6244    118.3835     83.5964   5.3890930029e+01   4.2591828358e+01     0.453078    0.2204921  61.31  0.001523059    2.949    0.661
        80 -10.2970     77.3392     83.4076   6.7126214590e+01   5.1211689520e+01    0.3125097    0.1950539 -54.69  0.001351371    1.630    0.387
        81 -10.2578     81.8762     82.0499   6.5033696117e+01   5.0665820468e+01     0.301112    0.2095489 -48.41 0.0008680908    1.435    0.303
        82 -10.8660     73.3330     80.5457   6.7792454093e+01   5.2624660616e+01    0.5455367    0.2942948 -34.51  0.002046713    2.409    0.585
        83 -10.2137      2.6322     85.0598   1.0053741331e+02   5.9578755854e+01    0.3270076    0.1821096 -61.43  0.001608147    1.602    0.376
        84  -9.7255     91.6715     80.8552   6.1209336637e+01   4.8972778723e+01    0.2118478    0.1893182 -52.87 0.0003961106    1.132    0.116
        85  -9.9177    150.2332     79.9185   4.5140224364e+01   3.5973006818e+01    0.2842268    0.1889855  26.79  0.001233802    2.003    0.501
        86  -9.3690     19.4916     80.4673   9.1881962887e+01   5.9776735002e+01    0.1386839    0.1284545 -72.23 2.691271e-05    1.004    0.004
        87 -10.5217    166.9699     78.0156   4.1359241862e+01   3.2473054156e+01    0.2127284    0.1995921 -38.03  0.001219919    1.009    0.009
        88 -10.2919     51.7391     77.5094   7.5944183294e+01   5.6930596791e+01    0.2570268    0.2260113 -41.21 0.0005222589    1.136    0.120
        89 -10.2067    119.1448     76.6227   5.1499629924e+01   4.3794162015e+01    0.2643432    0.2047921 -52.74 0.0004825155    1.348    0.258
        90  -9.9224    111.0355     77.5985   5.4077854734e+01   4.5455097568e+01    0.3636787    0.1479006  47.88   0.00126269    2.445    0.591
        91 -10.9587     89.4302     73.6292   5.9628552973e+01   5.1019393568e+01    0.5106106    0.3007305 -35.94  0.002096473    1.883    0.469
        92  -9.9942     63.3269     74.8783   7.0103346336e+01   5.5738939989e+01    0.3442397    0.2257715  56.80  0.001499162    1.842    0.457
        93 -10.1455     59.4198     72.1415   7.0927309742e+01   5.7050012074e+01    0.3311069    0.1881203 -56.75 0.0009506851    1.772    0.436
        94 -10.1720     28.8314     74.6899   8.6128697665e+01   6.0472161017e+01    0.2494252    0.1756433 -54.54 0.0008386541    1.320    0.243
        95  -9.6046     78.4509     74.6109   6.3944800944e+01   5.3031451278e+01    0.1499251      0.14573  59.61 0.0001585066    1.045    0.043
        96 -11.0133    166.2135     72.6580   3.9975201273e+01   3.3495071785e+01    0.3295173    0.2746852 -61.59   0.00021426    1.267    0.211
        97 -10.5271    166.7503     68.4064   3.8658934458e+01   3.4031674528e+01    0.2609022    0.2036375  63.68 0.0007520227    1.358    0.263
        98  -9.2299     69.2683     73.6095   6.7230572298e+01   5.4993149651e+01    0.1549554    0.1194863  88.68 0.0006985298    1.714    0.416
        99  -9.7061    136.4818     71.9319   4.5706602085e+01   4.0588011467e+01    0.2186141    0.1460691 -38.03 0.0003660557    1.473    0.321
       100 -10.7667     95.6157     71.7700   5.6906898262e+01   5.0086256688e+01    0.3860651    0.2528218  42.74  0.001105071    1.530    0.346
       101 -10.1018    144.2495     70.4311   4.3536857807e+01   3.8998527385e+01    0.2932495    0.1372854  50.43  0.001031783    2.149    0.535
       102 -10.1685     64.3693     69.8186   6.8029517543e+01   5.6754863413e+01    0.2896512    0.1980297  58.70  0.001285578    1.785    0.440
       103 -11.1743     51.9359     69.1387   7.3365871441e+01   5.8964956306e+01    0.3912774     0.349604  73.65  0.002113753    1.244    0.196
       104  -9.3974     19.2980     71.6446   9.0356785324e+01   6.2113172887e+01    0.1463805   0.09889276  64.24 0.0007035378    1.699    0.411
       105 -10.6722     29.7305     68.1127   8.4103078189e+01   6.2079604633e+01    0.2614355    0.2362268  56.49  0.000663666    1.187    0.158
       106 -10.8977      2.8136     67.5729   9.8459487320e+01   6.4169746833e+01    0.4268991    0.2772659  69.45  0.001433903    1.650    0.394
       107 -10.1726     21.8548     68.6358   8.8384899953e+01   6.2688242466e+01     0.200059    0.1174604  35.16  0.000845446    1.775    0.437
       108  -9.9965    203.6381     65.7726   3.2589604019e+01   2.6301079469e+01    0.1832036     0.141389 -38.51 0.0004694442    1.133    0.118
       109 -11.1726    137.5321     65.4762   4.3411904718e+01   4.1449022676e+01    0.2521318    0.2420926  68.04  7.38353e-05    1.048    0.046
       110 -10.8183    134.7008     63.3789   4.3353070626e+01   4.2490226958e+01    0.2599732     0.215544 -36.79 0.0005685856    1.199    0.166
       111  -9.9717     76.3256     65.3120   6.1566624952e+01   5.5518641752e+01    0.2980312    0.2162456 -25.29  0.000972979    1.648    0.393
       112  -9.9787     77.6693     61.7102   5.9723539490e+01   5.6019914794e+01    0.2305446    0.1967784 -42.67 0.0005490046    1.176    0.149
       113 -10.6882     16.4264     64.2746   9.0403969074e+01   6.4249192416e+01    0.3270693    0.2023492 -28.63 0.0005868587    1.791    0.442
       114 -10.4999     96.2577     62.0528   5.3256598268e+01   5.1908889577e+01    0.2950772    0.2504393  77.32   0.00124499    1.340    0.254
       115 -12.3057      6.5410     61.8818   9.5536662132e+01   6.5480511356e+01    0.4303755    0.2919632  60.41 0.0006299866    1.649    0.393
       116 -10.9884      5.8423     55.1977   9.4768412920e+01   6.7238286810e+01    0.2436035    0.2109483 -46.65 0.0002761586    1.082    0.076
       117 -10.7953    123.7092     61.9668   4.5452379027e+01   4.5411665480e+01    0.2802852    0.2112736 -58.98 0.0003740165    1.470    0.320
       118  -9.3194     43.5394     61.5670   7.5029345010e+01   6.2031249409e+01    0.1440585    0.1361597 -31.36 0.0008053111    1.031    0.030
       119  -9.5216    166.4886     60.4463   3.6373045054e+01   3.5288835336e+01    0.1422206    0.1330541 -53.91 0.0001734979    1.019    0.019
       120 -10.0161     66.0978     61.9325   6.4532285280e+01   5.8242155659e+01    0.2808347    0.2026971  33.28  0.001013764    1.426    0.299
       121 -10.6985     61.7302     58.2095   6.5066011717e+01   5.9873833331e+01    0.2646935    0.2092781  33.29 0.0004745307    1.283    0.221
       122 -10.0775     64.4836     54.5191   6.2404237096e+01   6.0165764350e+01    0.2464077    0.2250123  71.31 0.0005469843    1.228    0.186
       123 -10.0809     61.5309     52.4774   6.2909600714e+01   6.1159384550e+01    0.2627682    0.2172016 -47.88 0.0006968594    1.216    0.177
       124 -11.9167     55.8876     56.8331   6.7248060237e+01   6.1213585169e+01     0.336414    0.2662414  44.32 0.0003644963    1.309    0.236
       125 -11.3187     25.2017     56.4797   8.3470069526e+01   6.5482816741e+01    0.4654674     0.245822 -74.27  0.001988773    2.132    0.531
       126 -11.0110     19.9804     53.2606   8.5665342851e+01   6.6772033990e+01    0.3487572    0.2341701  30.05   0.00110976    1.570    0.363
       127  -9.6633    226.4843     56.9941   2.7950868957e+01   2.2869236053e+01    0.1922048    0.1032287 -31.66 0.0007026566    1.541    0.351
       128 -10.8182    136.5443     56.3066   4.0599054611e+01   4.3194451074e+01    0.2752375    0.1373899 -38.54 0.0007450042    1.937    0.484
       129  -9.4869    163.5670     55.5450   3.5377865693e+01   3.6695539713e+01    0.1414239    0.1335949 -50.77 6.953885e-05    1.010    0.010
       130  -9.9873     43.1999     53.8491   7.2524770807e+01   6.3914959645e+01    0.2118157    0.1988354  80.08 0.0005822721    1.195    0.163
       131  -9.9957    122.6307     52.3820   4.2337994942e+01   4.7291891852e+01    0.2914295    0.1338791 -39.27 0.0006103858    2.136    0.532
       132 -10.4088     70.8353     51.0589   5.8272374339e+01   5.9629710925e+01    0.3600879    0.2522383 -45.89   0.00170745    1.447    0.309
       133 -10.3603     29.4119     52.0239   7.9630455536e+01   6.6136326575e+01    0.4031822    0.1618181  24.59  0.001134318    2.632    0.620
       134 -10.7363      8.4816     50.5732   9.2175088715e+01   6.8276083799e+01    0.3819585    0.2095498 -11.08   0.00129707    2.135    0.532
       135 -10.7289    136.7859     49.1180   3.8099680140e+01   4.4243831214e+01    0.2271217    0.1926145 -60.03 0.0004731946    1.200    0.167
       136 -10.5603     87.1106     48.4626   5.1006893793e+01   5.6579323120e+01    0.3832042    0.2534115  38.04  0.001722808    1.594    0.373
       137  -9.3415     23.3045     48.6831   8.2246981335e+01   6.7595018292e+01    0.1372022    0.1044534  64.88 0.0004695596    1.625    0.385
       138 -10.4499     46.1742     47.0953   6.8294502694e+01   6.4996573629e+01    0.3731417     0.212866  31.14  0.001250754    1.822    0.451
       139  -9.7181     38.0812     47.5015   7.2946826655e+01   6.6114577455e+01    0.2132789    0.1392209  28.67  0.001028443    1.577    0.366
       140  -9.5790     26.5673     46.9401   7.9628960316e+01   6.7677495336e+01    0.2027445    0.1278441 -58.10 0.0004788204    1.491    0.329
       141  -9.7688     16.6113     46.7532   8.5925925663e+01   6.8670492846e+01    0.1812519    0.1256477 -76.28  0.000421483    1.515    0.340
       142 -10.8367    149.9037     44.2422   3.4049360460e+01   4.1641640098e+01    0.4766699    0.1930546 -52.82  0.001588957    3.246    0.692
       143 -12.4392     61.8835     44.3743   5.9298511105e+01   6.2768291186e+01     0.286889    0.2675829  21.24 0.0003901387    1.055    0.053
       144 -10.8577    245.0721     44.4855   2.3521386309e+01   2.0871439341e+01    0.1490828    0.1150599  75.20 0.0006575932    1.559    0.358
       145  -9.2577    141.2857     44.2870   3.5575195125e+01   4.3809067967e+01    0.1428847    0.1121249  27.74 0.0003102731    1.530    0.346
       146 -10.3812    106.4016     44.1240   4.3308797118e+01   5.2680893359e+01    0.3274363    0.2162483  57.38 0.0009323997    1.479    0.324
       147 -11.0891     22.2181     41.9741   8.0665606800e+01   6.9317629988e+01    0.3907853    0.2009691 -43.98 0.0009595369    1.833    0.454
       148  -9.7796    200.4560     42.9576   2.7018710660e+01   2.9872470269e+01    0.1915456    0.1709983 -82.43  0.000695196    1.162    0.140
       149 -10.0730     11.3990     42.6865   8.8243442252e+01   7.0061555203e+01    0.2546452    0.1442451 -40.45  0.000797171    1.670    0.401
       150 -10.4222     13.8083     39.0328   8.5437345972e+01   7.0773897465e+01    0.2797965    0.2271248 -63.28  0.001007226    1.185    0.156
       151  -9.9245     73.5053     41.5657   5.3053483835e+01   6.0892976130e+01    0.2541019    0.1430958 -27.27 0.0006976126    2.169    0.539
       152 -12.6680    238.6444     37.7912   2.2480407470e+01   2.2763980766e+01    0.5402269     0.272737  57.17 0.0003218213    2.383    0.580
       153 -11.7664    242.6826     34.0260   2.1354638879e+01   2.2420838537e+01    0.2733493    0.1608841 -26.61  0.001424043    1.483    0.326
       154  -9.9552    124.7674     39.9792   3.7285804609e+01   4.8643934318e+01     0.258187    0.2070586  63.93 0.0006072975    1.217    0.179
       155 -12.0241      6.8527     36.8535   8.9828089028e+01   7.1774823579e+01    0.6091695    0.3930091  70.95  0.002124166    2.032    0.508
       156 -10.4187      9.0663     31.4867   8.6432438604e+01   7.2921214527e+01    0.3697081    0.1658351  26.96   0.00132752    2.289    0.563
       157  -9.8498    176.3710     47.7838   3.1187483484e+01   3.4722415675e+01    0.1964748    0.1292324 -18.44 0.0009499959    1.689    0.408
       158 -10.5055     85.9927     38.7716   4.7203062956e+01   5.8530466752e+01    0.2396547    0.2087358 -34.23 0.0002606559    1.179    0.152
       159  -9.8054     40.6316     39.1332   6.7934247807e+01   6.7599552049e+01     0.227436    0.1464425 -25.32  0.001038868    1.862    0.463
       160  -8.9499     34.3463     41.3311   7.2656815797e+01   6.8029845609e+01    0.1510345      0.10181 -20.96 0.0007049802    1.761    0.432
       161  -9.4147     23.1805     36.2221   7.7800687579e+01   7.0558154116e+01    0.1676018    0.1551987 -87.80 0.0003175029    1.258    0.205
       162 -10.5731    177.0184     34.3590   2.7165398095e+01   3.6245046851e+01    0.2336472    0.1857497  -8.13 0.0001177467    1.467    0.318
       163  -9.5149    130.3140     35.6473   3.4551616814e+01   4.7811263257e+01    0.1591402    0.1056967 -63.04 0.0007045835    1.732    0.423
       164 -10.6724     97.9927     35.0145   4.1827710005e+01   5.6194009067e+01    0.2206681    0.2109925  59.83 0.0003542693    1.012    0.012
       165  -9.9139    114.2491     34.5189   3.7479730552e+01   5.2124690606e+01    0.2847205    0.1468737  68.37   0.00112938    2.065    0.516
       166  -9.7687     60.7422     34.1167   5.4965836151e+01   6.4951131324e+01    0.1980898    0.1753982 -28.33 0.0006152637    1.134    0.118
       167 -10.4127     44.6816     32.6764   6.2478754761e+01   6.8265547066e+01    0.4505126    0.2863441  70.35  0.001728279    3.331    0.700
       168 -11.4391    106.8307     31.0571   3.7800387923e+01   5.4514735677e+01    0.4816306     0.366416  14.31  0.002340016    1.633    0.388
       169  -9.6532     31.2228     33.6309   7.1213119793e+01   7.0149673336e+01    0.2530438    0.1249759  34.04 0.0009786652    2.048    0.512
       170 -10.6715     91.4255     31.4729   4.2155041927e+01   5.8354615445e+01    0.2964467    0.2318879  34.87 0.0006589845    1.343    0.255
       171 -12.4974     89.5667     27.5041   4.0860859958e+01   5.9386107855e+01    0.3066529    0.2716253 -21.66 0.0003806514    1.188    0.158
       172 -10.5640    233.2859     30.5914   2.1197234738e+01   2.4536955912e+01    0.2304315    0.1608409 -52.10 0.0007015446    1.232    0.188
       173 -10.1507    133.9391     31.0949   3.2208308534e+01   4.7460231925e+01    0.2129307     0.199943  89.69 0.0003190459    1.017    0.017
       174 -12.0975     78.1204     29.8723   4.5748323747e+01   6.1815547790e+01    0.4245878    0.3004392  70.99  0.001212166    1.671    0.402
       175  -9.7489    142.6122     30.6946   3.0623497711e+01   4.5262048504e+01    0.1539266    0.1030607  36.46  0.000701607    1.804    0.446
       176  -9.4100     23.7313     31.5434   7.5389673081e+01   7.1549823403e+01    0.1842385    0.1223009  37.94 0.0009422049    1.635    0.388
       177 -10.3900    146.5077     28.8784   2.9395941662e+01   4.4477603117e+01    0.2676898     0.198211  85.59 0.0004303572    1.373    0.272
       178 -10.3264     18.7669     28.1936   7.7536919467e+01   7.2838984543e+01    0.2981967    0.2238992 -81.88 0.0009930111    1.744    0.427
       179 -11.0812     36.9272     27.1274   6.4203526272e+01   7.0645540945e+01    0.3591327    0.2699823   5.45  0.001078548    1.491    0.329
       180 -12.4625    244.7091     26.1064   1.9464618007e+01   2.2864006442e+01    0.4223752    0.2254487 -64.79  0.002431029    1.951    0.487
       181 -12.0285    244.2358     21.2732   1.8420112985e+01   2.3430368761e+01    0.3203307    0.1953938  42.47  0.001593723    2.410    0.585
       182 -10.6653    201.2820    249.2897   6.8509351084e+01   1.6033532773e+00    0.1929609    0.1050221  34.29  0.001287611    1.834    0.455
       183  -9.5159     99.9984     25.9911   3.7286472890e+01   5.6949451081e+01    0.2764366    0.1322175 -50.98  0.001021354    2.640    0.621
       184 -10.5495      1.7803     25.3944   9.0381825728e+01   7.4785693405e+01    0.2597671    0.1769231 -80.52  0.001436896    1.581    0.367
       185  -9.5056     78.4936     24.4120   4.2871941969e+01   6.2534202862e+01    0.1431716    0.1359125  53.86  0.000121413    1.042    0.041
       186 -10.6813     62.4239     22.9034   4.8250914414e+01   6.6469252232e+01     0.295527    0.2458901   0.82  0.001364529    1.293    0.226
       187  -9.6378    150.0019     23.3144   2.6997018122e+01   4.4218024486e+01     0.189697    0.1708479 -89.50 0.0004054113    1.057    0.054
       188 -10.6875    132.8121     22.0258   2.9024529388e+01   4.8831978073e+01    0.4186066    0.2827021  68.74  0.002066588    1.412    0.292
       189 -10.1984     86.1480     22.2910   3.9354078185e+01   6.0945550155e+01    0.2231649    0.1973183   9.89 0.0004447572    1.214    0.177
       190 -10.7519     26.3709     22.1410   6.8665198079e+01   7.3204030539e+01     0.304367     0.209717 -36.93  0.001633199    1.384    0.277
       191  -9.4200     65.0006     28.2339   5.0039346231e+01   6.5060527945e+01    0.1901908    0.1164577  49.22  0.000560168    1.586    0.369
       192 -11.1511    221.6481     21.2479   1.9749984148e+01   2.7792845042e+01    0.2325033    0.1918254 -49.39 0.0005087178    1.017    0.017
       193  -9.5824    116.8294     22.3996   3.1981701728e+01   5.3001525238e+01    0.1997078    0.1229053  54.11 0.0002640393    1.554    0.356
       194  -9.4494     70.5441     22.5353   4.4749795985e+01   6.4683833037e+01    0.1415755    0.1354219  37.04  4.53849e-05    1.026    0.025
       195 -10.1659    188.2058     21.1881   2.2238546180e+01   3.5074244275e+01    0.1940706    0.1327903 -57.20 0.0008959017    1.343    0.256
       196 -10.4172    174.3212     21.0286   2.3478331220e+01   3.8383146970e+01    0.4302441    0.1902376  70.62  0.001876592    2.230    0.552
       197 -10.0212    169.1302     21.1151   2.4032517059e+01   3.9641483037e+01    0.1829972    0.1737502 -59.98  0.001130796    1.075    0.070
       198 -10.5569    166.6743     18.0083   2.3319957759e+01   4.0570795503e+01    0.3261141    0.2587543  46.19 0.0004163082    1.438    0.305
       199 -11.5156    104.9719     20.7791   3.3763067581e+01   5.6307096033e+01    0.2423034    0.2288452  83.91 0.0002286685    1.039    0.038
       200 -10.0292     90.1576     20.8028   3.7467137691e+01   6.0127030025e+01    0.2120266    0.1887421 -78.19  0.000348189    1.219    0.180
       201  -9.5799    193.4427     19.9997   2.1469187179e+01   3.3994336974e+01      0.18718     0.115205 -29.90 0.0003265869    1.496    0.332
       202 -11.3258    196.9706    246.4972   6.8876281563e+01   2.3621384648e+00    0.2301243    0.1051967  37.43  0.001351384    2.313    0.568
       203  -9.4974    199.6059     19.1796   2.0764658137e+01   3.2691302127e+01    0.1665127    0.1168729 -14.13 0.0004060273    1.605    0.377
       204 -10.5789    182.3015     18.4296   2.1966664914e+01   3.6740455085e+01    0.2173292     0.214011 -59.34 0.0003856188    1.153    0.133
       205  -9.8605    144.3377    249.3328   7.8777479147e+01   7.9201054937e+00    0.1142249   0.07088008   2.67 0.0007051955    1.742    0.426
       206  -9.6603    109.7796     19.4024   3.2125587876e+01   5.5204347178e+01    0.2144229    0.1215061  55.50 0.0009482321    1.642    0.391
       207 -10.7791     50.0373     22.4917   5.3934849654e+01   6.9130486885e+01    0.2548513    0.2271261  -5.83 0.0005048665    1.101    0.092
       208 -11.4077    115.8358    248.4735   8.4297143292e+01   1.1331761332e+01    0.2071924    0.1812102  11.89  0.001623535    1.202    0.168
       209 -10.5655    152.0074     18.0568   2.4957400527e+01   4.4266222485e+01    0.2084692    0.1859452 -69.51  0.001217242    1.038    0.036
       210 -10.1338    141.1290     17.8115   2.6255084484e+01   4.7107579003e+01    0.1932032    0.1618042  36.04 0.0003818052    1.355    0.262
       211 -10.0260     57.4591     18.5009   4.7915386928e+01   6.8216717800e+01    0.3477905    0.1241842  48.32  0.001281425    2.605    0.616
       212 -10.9097     62.2275     16.6598   4.4734563730e+01   6.7421259508e+01    0.4027988     0.219299  38.62 0.0002019417    1.902    0.474
       213 -10.0466     15.0567     17.9865   7.5431872618e+01   7.5430488930e+01    0.2166628    0.1353634 -23.87 0.0004496489    1.712    0.416
       214 -10.0854     65.7136    248.7116   9.4610393807e+01   1.6856750421e+01    0.2535875   0.07045071  42.28  0.001185411    2.568    0.611
       215 -10.2611     20.4741    249.4950   1.0393127434e+02   2.1074365256e+01    0.1084243   0.07707297  43.45  3.50116e-05    1.003    0.003
       216 -10.6856    194.9551     15.0675   2.0003875400e+01   3.4145026210e+01    0.2024243    0.1694334 -75.28 0.0003950662    1.129    0.114
       217 -10.2697     76.8521    248.3114   9.2272242989e+01   1.5735056057e+01    0.3561068    0.1121201  42.17  0.001725645    2.416    0.586
       218 -10.2091     46.2579     14.9883   5.1322302303e+01   7.1081714957e+01     0.241977    0.1898969  40.38 0.0006141316    1.220    0.181
       219 -10.8281    157.0075    247.2510   7.6133781022e+01   6.7292307002e+00    0.1526294   0.07245969  28.23 0.0008930808    1.599    0.374
       220  -9.7463     45.6291    243.8322   9.8522992410e+01   1.9693408549e+01    0.2237555   0.06895845  25.24  0.001005644    2.787    0.641
       221 -10.7668    201.7797    240.6710   6.7292855419e+01   2.4851704580e+00    0.2557126    0.1283879  20.77  0.001180675    1.598    0.374
       222  -9.5395    112.4441     13.7656   2.9167898442e+01   5.5107052090e+01    0.1926054    0.1386044   3.09 0.0009383754    1.707    0.414
       223 -10.3475    144.5331     12.7509   2.4015200931e+01   4.6728389502e+01    0.2821915    0.1745572  78.38 0.0009391232    1.557    0.358
       224 -11.2324    188.2491    240.6839   6.9626161443e+01   3.9731890265e+00    0.2268968    0.1014132  14.52  0.001174533    2.467    0.595
       225 -10.2901    122.5840    238.7934   8.1946367010e+01   1.1942550183e+01    0.1236777     0.113629  86.01 0.0003148536    1.547    0.353
       226  -9.1539    105.7068     13.2957   3.0249375048e+01   5.6940101375e+01     0.145221    0.1037466 -64.08 0.0001863237    1.560    0.359
       227  -9.4980     83.0000    238.9740   9.0265275875e+01   1.6545570162e+01    0.1521962   0.06728905 -65.25 0.0008017172    2.937    0.660
       228  -9.7172     53.8421    239.0265   9.6516091361e+01   1.9680595028e+01    0.1913152   0.09465905  58.06  0.001078461    2.048    0.512
       229 -11.2012    221.7319    237.4748   6.3584162206e+01   7.1579933763e-01    0.2849294    0.1081913  20.88  0.001528573    2.534    0.605
       230 -10.8926    178.0321    237.6844   7.1058993170e+01   5.4929199150e+00    0.1627528    0.1102941  18.19  0.001144822    1.112    0.100
       231 -10.8185    249.1497    239.8389   5.9752938485e+01  -2.2083332404e+00    0.1434951    0.1034048   1.83 0.0007972434    1.213    0.176
       232 -10.0396     66.5482    234.8138   9.3496492217e+01   1.9058901214e+01    0.2470008    0.1037783  41.36 0.0008974375    1.809    0.447
       233  -9.5181    178.2494    231.9953   7.0266100173e+01   6.1719927769e+00    0.1265772   0.08816058 -28.55 0.0005247673    1.549    0.355
       234 -10.6770     11.3392    231.2794   1.0528643918e+02   2.4993939642e+01    0.1871413    0.1177419  17.41 0.0008744788    1.678    0.404
       235 -10.1191     61.7458    228.6163   9.4115429171e+01   2.0654851731e+01    0.2799023    0.1146747  45.87  0.001426776    2.019    0.505
       236 -10.1786    223.6470    225.7724   6.1612478215e+01   1.7537997679e+00    0.1320104   0.08613991 -31.02 0.0009451927    1.701    0.412
       237  -9.8982    235.6421    225.1248   5.9651846111e+01   5.5943228990e-01    0.1593288      0.11295  16.18  0.000489985    1.274    0.215
       238  -9.5268    125.6146    225.7911   7.9864706578e+01   1.3534670735e+01    0.1363343    0.1177772 -74.51 0.0009453819    1.655    0.396
       239  -9.1940    109.2929    221.6820   8.2907925811e+01   1.6251985464e+01    0.1188884   0.08092418  51.24 0.0006170493    1.603    0.376
       240  -9.5861    228.8069    220.5722   6.0031151511e+01   1.7610630723e+00    0.1290739   0.08523198  30.51 0.0004826488    1.638    0.390
       241 -10.9786    247.7552    217.8646   5.6768340958e+01   6.4567872825e-02    0.2095576    0.1996057  87.46  0.001575986    3.041    0.671
       242 -10.0208    212.4261    215.5361   6.1913343480e+01   4.1584037328e+00    0.1866212    0.1163573  15.14  0.001257423    1.314    0.239
       243 -10.2002    179.9451    216.8198   6.7828845557e+01   7.9246951720e+00     0.187357    0.1460535 -14.12 0.0006928138    1.238    0.192
       244 -10.4622    232.7376    212.3179   5.8167787938e+01   2.2328182297e+00    0.1775238    0.1410709   2.07  0.001041958    1.253    0.202
       245  -9.6750     80.8821    199.1276   8.7050947489e+01   2.3938464492e+01    0.1688755    0.1410088   5.76  0.000481861    1.325    0.245
       246  -9.6298      5.3235    199.6741   1.0574186079e+02   3.1564133536e+01    0.1311506   0.06087921  52.39 0.0007048472    1.689    0.408
       247  -9.7308    157.9305    197.6767   6.9256720310e+01   1.3613201540e+01     0.173904    0.1345968  27.00 0.0006224456    1.151    0.131
       248 -10.0440    249.5767    183.7494   5.1048138465e+01   3.5205028930e+00    0.1404865   0.08432037 -31.61 0.0007157156    1.583    0.368
       249 -10.1237    240.7012    181.6105   5.1957314792e+01   4.8055928974e+00    0.1757704    0.1271643 -17.35  0.001272534    1.150    0.130
       250 -11.0760     39.4247    160.1547   9.4315728135e+01   3.7354397713e+01    0.4831425    0.2050536  56.02  0.001970277    2.506    0.601
       251 -11.9016     32.9950    156.4802   9.5913542235e+01   3.8884550816e+01     1.211161    0.2439158  48.49  0.003472841    4.985    0.799
       252  -9.3547     67.5979    162.4162   8.6296292309e+01   3.3507831500e+01    0.1364029    0.1227395  50.15 0.0001017354    1.016    0.016
       253  -9.6025    249.2947    153.3629   4.5700353478e+01   7.0909917285e+00    0.1187053   0.07105765  -4.63 0.0004414517    1.709    0.415
       254  -9.1819     58.3593    150.7879   8.7537950447e+01   3.7442228218e+01    0.1453007   0.09016795  49.87 0.0002327449    1.556    0.357
       255 -10.5447    236.8444    146.1458   4.6043346313e+01   9.6553007229e+00    0.1702032     0.138804 -26.48 0.0005401267    1.228    0.186
       256 -11.1378     35.0334    137.0418   9.3363918383e+01   4.3508705696e+01    0.1995388     0.182765  67.15            0    1.007    0.007
       257 -10.4872    248.4736    131.9982   4.1733670284e+01   9.8055965577e+00    0.2943593    0.1518569 -39.67  0.001661373    1.856    0.461
       258  -9.4325    225.4613    133.5013   4.5159732380e+01   1.2988958788e+01    0.1222686    0.1011219 -20.49  4.99485e-05    1.073    0.068
       259  -9.4897      8.1809    133.2278   1.0208097299e+02   4.6704749937e+01    0.2320751    0.1049134 -42.27 0.0009581678    2.846    0.649
       260  -9.3613    233.6727    129.3403   4.3151270093e+01   1.2293435613e+01    0.1153857    0.0869324 -51.16 0.0007051512    1.734    0.423
       261  -9.2186     41.4687    129.4636   9.0249888837e+01   4.4771564180e+01    0.1402338    0.1308038  71.64 5.218618e-05    1.005    0.005
