#   1 NUMBER                 Running object number                                     
#   2 MAG_AUTO               Kron-like elliptical aperture magnitude                    [mag]
#   3 X_IMAGE                Object position along x                                    [pixel]
#   4 Y_IMAGE                Object position along y                                    [pixel]
#   5 X_WORLD                Barycenter position along world x axis                     [deg]
#   6 Y_WORLD                Barycenter position along world y axis                     [deg]
#   7 A_WORLD                Profile RMS along major axis (world units)                 [deg]
#   8 B_WORLD                Profile RMS along minor axis (world units)                 [deg]
#   9 THETA_WORLD            Position angle (CCW/world-x)                               [deg]
#  10 FWHM_WORLD             FWHM assuming a gaussian core                              [deg]
#  11 ELONGATION             A_IMAGE/B_IMAGE                                           
#  12 ELLIPTICITY            1 - B_IMAGE/A_IMAGE                                       
         1 -15.3385    176.8275     75.0448   6.7462985429e+01   3.0552683366e+01     9.311437     4.464955 -63.37  0.005435335    6.460    0.845
         2 -15.1531    242.1927     33.9571   4.6448022574e+01   2.0419617395e+01     7.880569          nan  58.89   0.01192465    8.323    0.880
         3 -13.2103    241.3835     45.4540   4.9497601343e+01   1.9161492134e+01     1.672746    0.8926523 -66.68  0.007033737    2.509    0.601
         4 -14.6577    211.6402     65.1893   5.8616757702e+01   2.3464834302e+01     4.785647     1.411334 -35.67   0.01561545    2.874    0.652
         5 -15.0451    247.6132     73.2870   5.5903795136e+01   1.4015094033e+01     9.543671     1.633571 -27.54   0.01667941    7.692    0.870
         6 -12.3211    231.6512     16.5002   4.2857353886e+01   2.4913198960e+01     1.250474    0.5380407 -29.23  0.003765842    2.081    0.520
         7 -13.4154    249.3824     21.3460   4.2638933808e+01   2.0270481343e+01     1.900537    0.6842886 -25.99  0.007643642    2.593    0.614
         8 -11.5467    249.0186      4.9748   3.8656863844e+01   2.2113693434e+01    0.6383584    0.4712079  15.09  0.003542718    1.920    0.479
         9 -12.5163    233.2840      7.8867   4.0482983862e+01   2.5440548003e+01     1.153934    0.5472133 -45.44  0.002361727    1.831    0.454
        10 -14.8566    227.9735     60.8304   5.5145635023e+01   2.0187120310e+01     5.491203     1.271115 -31.38  0.006374272    3.577    0.720
        11 -10.5403    214.5442     13.4065   4.3537657516e+01   2.9430394599e+01    0.3327827    0.2245427  40.47 0.0008772984    1.797    0.443
        12  -9.8534    188.9718     12.9678   4.6035781472e+01   3.6051183402e+01    0.2457999    0.1973098 -25.72 0.0004293708    1.276    0.216
        13 -10.3452    143.4375     11.3466   5.1771367809e+01   4.8289032987e+01    0.3988804    0.1521927 -11.86   0.00130491    3.536    0.717
        14  -9.8512    223.9701      7.8502   4.1199083810e+01   2.7680667181e+01     0.308453    0.1731034 -31.19  0.001155774    1.640    0.390
        15  -9.0855    177.8291      8.9916   4.6062629726e+01   3.9394705349e+01    0.2389976    0.1533174  23.13   0.00107852    2.001    0.500
        16 -10.6206    136.7095      6.0955   5.0855899017e+01   5.0545745796e+01    0.2587105    0.2301275 -83.28 0.0003624075    1.211    0.174
        17  -9.4531    120.0014      4.4640   5.3235837053e+01   5.4952326572e+01    0.2241319     0.176406 -12.51 0.0006425481    1.301    0.231
        18  -9.6650    126.0743    239.0768   1.1084528786e+02   1.0586839547e+01    0.1646219    0.1290457  48.75 0.0003364592    1.019    0.019
        19 -11.3062     12.3962    221.0889   1.2948854811e+02   2.7815809705e+01    0.4040573    0.1958524 -61.41  0.002536279    2.664    0.625
        20  -9.6748    235.3271    195.3604   8.5005503942e+01  -7.7477041831e-01    0.2009428    0.1812465 -87.03 0.0009009838    2.033    0.508
        21  -9.8247    184.4916    124.4863   7.9479111940e+01   1.9769827661e+01    0.1500352    0.1423573  -0.42 8.719601e-05    1.016    0.016
        22 -10.6333    160.5417    117.5403   8.2860872718e+01   2.6411392816e+01    0.3240101    0.2638549 -71.89  7.01498e-05    1.488    0.328
        23  -9.5468    167.8709    113.3802   8.0169998081e+01   2.5585392809e+01    0.2696242    0.2107735 -50.62 0.0007878903    1.335    0.251
        24  -8.5046    223.1706    190.3195   8.6156084653e+01   1.8312718571e+00    0.1604214    0.1043724  44.33            0    1.586    0.369
        25  -9.3774    156.9836    110.5097   8.1849193355e+01   2.8618488881e+01    0.2321362    0.2032436 -37.95  0.001174915    1.127    0.113
        26 -10.8253    134.6556    106.8145   8.6233573656e+01   3.4328911696e+01     0.651989    0.1367291 -47.26  0.001581456    4.987    0.799
        27 -10.6286    213.4431    106.0509   6.9376587686e+01   1.6544939134e+01    0.2595994    0.2352375  35.57 0.0001452469    1.152    0.132
        28 -11.5780    219.4578    102.9518   6.7566907822e+01   1.5715207985e+01     0.358591    0.2943224 -60.73   0.00186808    1.449    0.310
        29 -12.7952      6.9660    181.5849   1.2868405707e+02   3.5837782947e+01    0.7531361    0.5219243  80.50  0.003820769    1.062    0.059
        30  -9.6140    148.5512    101.1560   8.1287089828e+01   3.2430336560e+01    0.3023158    0.2259061  38.92 0.0006900784    1.409    0.290
        31  -9.7547    134.6109     97.1574   8.3596510404e+01   3.6394053106e+01    0.2652535     0.213044  62.86 0.0008062932    1.373    0.271
        32 -10.9342    158.7326     95.5790   7.7352960298e+01   3.1183033795e+01    0.4726054    0.2926565  37.38  0.001952164    1.811    0.448
        33 -11.8719    201.5304    101.2783   7.0238856718e+01   2.0044415091e+01    0.5015907    0.4175163 -89.29  0.001398965    1.534    0.348
        34 -10.7550    168.8161     91.3781   7.3933854778e+01   2.9581749799e+01     0.371498    0.2874364 -34.34 0.0008850389    1.261    0.207
        35 -11.7979    175.0186     86.4450   7.1210899893e+01   2.8984480904e+01    0.6913761    0.4737779  33.08   0.00153627    1.695    0.410
        36 -10.2585    142.3741     91.1780   7.9930587964e+01   3.5880436772e+01    0.3469622    0.2715138 -54.77 0.0006513104    1.336    0.252
        37 -10.0173    249.1300    185.8487   8.0988817401e+01  -1.7917031330e+00    0.1760092    0.1578257   3.90    0.0012084    1.281    0.219
        38  -8.6511    101.5539     88.0597   9.0077266835e+01   4.5227971796e+01    0.2218185    0.1405828 -48.00 4.423955e-05    1.478    0.324
        39 -11.1099    157.1557     85.8002   7.4850691791e+01   3.3451163828e+01    0.3707186    0.2995139 -20.68 0.0008309171    1.323    0.244
        40 -11.0715    197.2744     74.0100   6.3426385740e+01   2.5623709404e+01     0.407139    0.2881692  44.63  0.001896348    1.505    0.336
        41 -11.2284    191.7936     76.6280   6.5140869047e+01   2.6551005853e+01    0.4280633    0.3222916  39.35 0.0008085769    1.437    0.304
        42  -9.1689    224.0977    185.1543   8.5038987258e+01   2.3595629248e+00    0.1929515    0.1456169  10.38 0.0002941008    1.203    0.169
        43  -8.6711    212.5942    160.2719   8.2165636529e+01   7.9758020387e+00    0.1751803    0.1225156 -18.98 0.0002982891    1.456    0.313
        44 -10.7774    133.5042     71.2636   7.5941906043e+01   4.1895094515e+01    0.3467551    0.1839711  38.12  0.001211191    2.207    0.547
        45  -9.7529    224.4993    180.0529   8.4002334726e+01   2.9785733661e+00    0.1839377    0.1183126 -27.32 0.0005039272    1.550    0.355
        46 -11.0226    116.4251     67.0973   7.9108097726e+01   4.6596985355e+01    0.2965743    0.2677561 -33.90 0.0002672412    1.057    0.054
        47 -10.2458    196.9770     63.2754   6.0338626683e+01   2.7394311223e+01    0.3003548    0.2097882 -41.79 0.0008705699    1.366    0.268
        48  -8.4916    183.6405     64.2907   6.2913551555e+01   3.0618232531e+01     0.161915    0.1176646 -68.74 0.0007027565    1.692    0.409
        49  -8.1694    145.2343    178.3391   9.9002720423e+01   1.7568808373e+01    0.1248351    0.1032522  -9.18 0.0002684665    1.544    0.352
        50 -11.4491     67.7122    144.2366   1.1152028270e+02   3.7487465819e+01    0.6631914    0.3935078  66.49  0.003260963    1.865    0.464
        51 -11.0747    123.0249     49.0419   7.0805386812e+01   4.8392264203e+01    0.3568239    0.2740221 -44.26 0.0005104729    1.328    0.247
        52 -11.0517    122.1579     45.1748   6.9560645501e+01   4.9238415854e+01    0.2832063    0.2622615 -21.31 0.0004435033    1.046    0.044
        53  -8.5827    222.6614    145.2686   7.7139057050e+01   8.3539063745e+00    0.1251862    0.1119555 -79.71 0.0003791547    1.599    0.375
        54  -9.9192    178.7929    141.8403   8.4728325903e+01   1.7804342525e+01     0.199357    0.1788156  88.65 0.0007212119    1.368    0.269
        55  -9.8676    192.3114    177.0389   8.9296697507e+01   9.1462200794e+00    0.2223096    0.1777377  41.87 0.0003577242    1.211    0.174
        56 -10.5609    154.6734     26.4254   5.5457329698e+01   4.3650034435e+01    0.2821051    0.2192966 -76.05  0.001380406    1.480    0.324
        57 -10.1473    179.2648     24.6287   5.0986811301e+01   3.7329967604e+01    0.4591697    0.2801749  82.17  0.002015974    1.825    0.452
        58  -8.4781    159.7585     18.9705   5.1941334580e+01   4.3170134214e+01    0.1815313    0.1243703 -22.06 0.0003745827    1.508    0.337
        59  -8.6659     78.0111    176.3435   1.1332119139e+02   2.8936981711e+01    0.1667908    0.1394418  60.79 0.0003020783    1.091    0.084
        60 -10.5323    223.9549    173.3557   8.2794316491e+01   3.9962172684e+00    0.2312492    0.2138959  29.16 0.0007112031    1.259    0.206
        61 -11.9075     39.4947    163.5205   1.2055820720e+02   3.6527358809e+01    0.4979719    0.3786505 -79.41  0.001241743    1.187    0.157
        62 -12.0876     46.3930    159.7250   1.1860780352e+02   3.6601966014e+01    0.7106357    0.5118174 -87.29  0.002960409    1.181    0.153
        63 -11.8898     52.4249    155.8382   1.1676967943e+02   3.6770269200e+01    0.6288153    0.4005138  85.65  0.001784655    1.486    0.327
        64  -8.4750     78.0104    160.9869   1.1136429936e+02   3.2254455702e+01    0.1531601    0.1317412  80.99 0.0009447892    1.008    0.008
