#   1 NUMBER                 Running object number                                     
#   2 MAG_AUTO               Kron-like elliptical aperture magnitude                    [mag]
#   3 X_IMAGE                Object position along x                                    [pixel]
#   4 Y_IMAGE                Object position along y                                    [pixel]
#   5 X_WORLD                Barycenter position along world x axis                     [deg]
#   6 Y_WORLD                Barycenter position along world y axis                     [deg]
#   7 A_WORLD                Profile RMS along major axis (world units)                 [deg]
#   8 B_WORLD                Profile RMS along minor axis (world units)                 [deg]
#   9 THETA_WORLD            Position angle (CCW/world-x)                               [deg]
#  10 FWHM_WORLD             FWHM assuming a gaussian core                              [deg]
#  11 ELONGATION             A_IMAGE/B_IMAGE                                           
#  12 ELLIPTICITY            1 - B_IMAGE/A_IMAGE                                       
         1 -13.2886    248.4913    114.3245   8.1530366440e+01   7.0739384434e+00     1.502079     0.933787 -27.08  0.007040812    1.774    0.436
         2 -12.5949    248.3660    134.4567   8.6026451828e+01   3.5698746675e+00     1.157506    0.6413413 -38.71  0.005360288    1.637    0.389
         3 -14.3618    200.6834     17.5757   6.5272948154e+01   3.3056408301e+01     2.567564     1.504011  31.75   0.01148501    2.802    0.643
         4 -12.0288      2.0000     12.5622   1.1802775358e+02   7.0539645710e+01    0.5490037     0.154011 -49.88   0.00256894    3.471    0.712
         5 -12.6855      2.2055      4.8782   1.1483950663e+02   7.1608755213e+01    0.6559034    0.3870105   6.37  0.004807806    1.605    0.377
         6 -10.2294    152.4698    243.7046   1.2545532224e+02   2.5599353171e+00    0.2110989    0.1280176 -58.79  0.001131685    2.057    0.514
         7  -9.0734    205.3027    250.3414   1.1647932175e+02  -7.4501252159e+00    0.1246491   0.08470672  11.31 0.0007039069    1.677    0.404
         8  -9.6537    184.1618    250.3769   1.2041051467e+02  -3.9355629665e+00    0.1683241    0.1413472  21.47 0.0005107631    1.171    0.146
         9 -11.6199    132.6160    224.5804   1.2668175892e+02   9.4450491129e+00    0.5881385     0.338733  72.66  0.002537908    2.593    0.614
        10 -11.4928    149.9849    248.5931   1.2658630209e+02   2.1854530058e+00    0.4865551    0.2554128  51.17   0.00250322    1.681    0.405
        11 -11.1466    143.2853    249.1909   1.2792441317e+02   3.2316548306e+00    0.2783717    0.2112901  69.90 0.0009081796    1.393    0.282
        12 -12.0356    136.0230    227.6803   1.2643689531e+02   8.2619173885e+00    0.5762941    0.3838594 -32.06  0.002904176    2.323    0.569
        13 -11.5168    135.6960    241.0420   1.2830848229e+02   5.9136067346e+00    0.3519035    0.2828765  11.42 0.0003857654    1.792    0.442
        14 -11.9633    134.9631    237.0645   1.2792662826e+02   6.7414664582e+00    0.4082883    0.3890155  -2.07   0.00125683    1.363    0.266
        15 -10.2184    135.7140    250.6762   1.2952740252e+02   4.2666225557e+00    0.2266303     0.183832 -63.46 0.0008466665    1.463    0.316
        16 -11.2844    132.2016    248.8180   1.2995357523e+02   5.1695360971e+00    0.3417624     0.206037  62.86  0.001425787    1.724    0.420
        17 -10.9330    122.8513    250.0896   1.3184394097e+02   6.5101755841e+00    0.6195841    0.1994525  42.92  0.002600798    2.565    0.610
        18 -10.8074    108.6530    242.4846   1.3360702697e+02   1.0178083472e+01    0.3653426    0.2418391 -38.78  0.001969375    2.479    0.597
        19 -12.2488    122.8146    245.1847   1.3127004118e+02   7.3678397773e+00     0.782804    0.2545563  40.36  0.003153051    2.799    0.643
        20 -11.9183    126.4070    240.4955   1.3001481408e+02   7.5945686990e+00    0.3917406    0.3071696  59.12  0.001522395    1.077    0.071
        21 -10.9684    113.9534    250.0392   1.3347654891e+02   7.9738274558e+00    0.4410567    0.2463103  35.55  0.002325412    1.946    0.486
        22 -11.0972    109.9376    247.7180   1.3395578659e+02   9.0305577661e+00    0.3592042    0.3098855  51.41  0.002215187    1.210    0.173
        23  -9.6928     93.9685    217.3993   1.3349663146e+02   1.7396963548e+01    0.3015804     0.176988  85.43  0.001320011    2.075    0.518
        24 -10.8691     96.6677    239.2574   1.3548508130e+02   1.2684610788e+01    0.4081127     0.276874 -88.92  0.001895132    1.528    0.345
        25 -10.9306    103.1234    238.6891   1.3421429066e+02   1.1767565006e+01    0.4661182    0.2957628  33.23   0.00254851    1.892    0.472
        26 -11.4105    111.7174    230.4162   1.3159176235e+02   1.1925414215e+01    0.5231239    0.3612982  49.70  0.001680525    1.244    0.196
        27 -12.0395     99.5275    231.0062   1.3402121299e+02   1.3801604080e+01    0.7472426    0.4264186  33.48  0.003448502    2.122    0.529
        28 -11.5710     98.6269    247.1878   1.3596762574e+02   1.0919808614e+01    0.7880154    0.2893523  53.07  0.003527655    2.417    0.586
        29 -10.8580    103.4772    244.5793   1.3480094444e+02   1.0627694313e+01    0.4236832    0.1998304  69.51  0.001771532    3.166    0.684
        30 -10.6329     92.7494    226.0722   1.3476116131e+02   1.5841791847e+01    0.3395447    0.1888079  59.42 0.0004480585    1.656    0.396
        31 -11.6165     98.7475    223.5580   1.3329426865e+02   1.5388476961e+01    0.5232671    0.2871436  41.15  0.001321097    1.746    0.427
        32 -10.2153     87.8894    250.4819   1.3822516735e+02   1.1971256955e+01    0.4781145    0.1544613  38.61  0.001685106    3.260    0.693
        33 -10.1966     88.1545    247.1935   1.3785872770e+02   1.2527132539e+01    0.3848588    0.1739368  44.33  0.001995692    1.887    0.470
        34 -10.8630     80.8003    245.9026   1.3904766803e+02   1.3860362836e+01     0.542688    0.2627042  89.14  0.002547973    2.848    0.649
        35  -8.9390     74.7375    250.5711   1.4053841221e+02   1.3885999023e+01    0.2163445   0.09968273  41.21  0.001140831    2.053    0.513
        36 -12.2695     61.9050    245.9250   1.4235716733e+02   1.6535142916e+01     1.046887    0.5800865  35.41  0.005916253    2.225    0.550
        37 -14.1867     22.2350    153.5093   1.4125537556e+02   4.0804864576e+01     3.203735     1.483415  66.66   0.01480383    2.818    0.645
        38 -13.4339      2.2830    225.8768   1.5091451466e+02   2.7333826702e+01     1.230782    0.3682443 -70.90  0.006422494    2.698    0.629
        39 -12.9462     42.9348    228.3825   1.4423141553e+02   2.2379902002e+01    0.3580581    0.3468959  74.17  0.001134163    1.565    0.361
        40 -14.6780     48.9293    218.8692   1.4234627208e+02   2.3544763794e+01     1.817226     1.452903  51.82    0.0126162    1.345    0.257
        41 -12.1550    245.7745    240.4205   1.0753038017e+02  -1.2497739491e+01    0.3149892    0.2361936   6.73  0.002096521    1.157    0.136
        42 -11.0967     89.8079    236.9617   1.3651649671e+02   1.4182371163e+01    0.3934369    0.2857095  78.19  0.002483703    1.243    0.196
        43 -10.0998     83.5211    238.4160   1.3782712993e+02   1.4858671725e+01    0.3431315     0.167221  40.79    0.0017745    1.971    0.493
        44 -11.2297    128.4968    232.0302   1.2851827823e+02   8.7731132101e+00    0.4173447    0.2579367 -71.35  0.002177061    1.991    0.498
        45 -10.4887    165.7264    235.2140   1.2167550775e+02   1.6404100479e+00    0.2415653    0.2285745 -44.23  0.001600738    1.246    0.198
        46 -10.2455    162.0691    232.8548   1.2203657005e+02   2.6907839420e+00    0.2850938    0.1885885  68.73  0.000948046    2.012    0.503
        47  -9.1804     71.5349    233.5965   1.3954962631e+02   1.7540055849e+01    0.3303539   0.07213951 -56.86  0.001164069    5.001    0.800
        48 -11.4166    122.4839    232.5479   1.2976185941e+02   9.7093502824e+00    0.3817361     0.341781  63.29  0.001936814    1.102    0.093
        49  -9.5735     77.8857    233.0746   1.3832975264e+02   1.6722044353e+01    0.2795123     0.165962 -88.31  0.001052397    1.741    0.426
        50 -10.9709    156.6766    231.7072   1.2292569191e+02   3.8540486625e+00    0.2319731    0.2271615  12.38 0.0005444244    1.187    0.158
        51  -9.9880    164.9777    242.0846   1.2283253054e+02   6.4460702168e-01    0.1960792    0.1624604  39.67  0.000421484    1.053    0.050
        52 -10.5813    141.6377    230.8389   1.2576820951e+02   6.6899124918e+00    0.2626953     0.226838  -4.78 0.0009572611    1.594    0.373
        53 -11.3089    244.2587    230.1673   1.0601818017e+02  -1.0938872385e+01    0.3512442    0.1888725   8.87  0.001598643    2.745    0.636
        54 -10.5926     84.8208    229.5302   1.3666366497e+02   1.6381295843e+01    0.3433018    0.2329562  26.91  0.000956852    2.187    0.543
        55 -10.6319     77.7685    221.0804   1.3710534723e+02   1.9128904883e+01    0.2688581    0.1752321  66.66 0.0007038269    1.361    0.265
        56 -10.6830     80.3550    227.6129   1.3730643423e+02   1.7431186757e+01    0.3112976    0.2757092 -34.95 0.0007978773    1.770    0.435
        57 -10.1754     78.9522    224.5546   1.3724990208e+02   1.8250767897e+01     0.247466      0.21449  -1.32   0.00153651    2.008    0.502
        58 -10.5035    165.5100    227.0408   1.2046627124e+02   3.0692355028e+00    0.3453529    0.2493802 -66.70  0.001466532    1.796    0.443
        59 -11.1163    160.7104    223.2796   1.2083610037e+02   4.6072841910e+00    0.5952162    0.3165091  31.01  0.001793127    2.174    0.540
        60  -8.9543    190.9608    228.0132   1.1561440466e+02  -1.6884729015e+00    0.1573402    0.1352565  32.55 0.0003264035    1.003    0.003
        61  -9.2328    179.6899    228.1165   1.1783471298e+02   3.1701717759e-01    0.2075572    0.1390651  77.36 0.0009391609    2.709    0.631
        62  -9.6211    197.6771    227.0682   1.1415407965e+02  -2.7315343836e+00    0.2611908     0.198336  76.92  0.001386484    2.104    0.525
        63 -11.6924    142.0569    221.7144   1.2436252670e+02   8.2964289409e+00    0.3719101    0.3609767  59.79 0.0003037943    1.148    0.129
        64 -11.3044    137.9827    214.3090   1.2408156720e+02   1.0455408599e+01    0.5683206    0.3539211  37.56   0.00170567    1.585    0.369
        65 -10.8674    117.2625    224.3418   1.2972252443e+02   1.2161131623e+01    0.2590198    0.2075191  47.62 0.0003542579    1.173    0.147
        66  -8.9029    219.9833    223.4917   1.0927980151e+02  -6.0602034585e+00    0.1819533    0.1137188  38.20 -0.0001310787    1.439    0.305
        67  -9.8756    110.7083    221.5459   1.3066688764e+02   1.3820296469e+01    0.3324299    0.1855046 -58.69  0.001137863    1.934    0.483
        68 -10.4047    105.5751    219.5999   1.3144551660e+02   1.5065504800e+01    0.4583968    0.2398709  72.43 0.0007062183    2.779    0.640
        69 -11.2369     70.5811    219.1832   1.3828990201e+02   2.0560496664e+01    0.5132318    0.3071388 -79.68  0.002806087    1.609    0.379
        70  -9.1628     83.9231    242.2838   1.3813845459e+02   1.4069547853e+01    0.1717381    0.1287063  60.02 0.0006998348    1.088    0.081
        71  -9.5759    173.5165    241.0957   1.2105005463e+02  -6.9050385664e-01    0.1651503    0.1296806 -46.73 0.0003785289    1.524    0.344
        72  -9.2456    177.5221    220.4926   1.1701333243e+02   2.0021684082e+00    0.2535394    0.1129982  51.10  0.001031854    2.360    0.576
        73 -10.3125    245.9881    219.0002   1.0370049043e+02  -9.6821571510e+00    0.2092818    0.1356838   3.27  0.001142381    1.708    0.415
        74 -10.6067    149.0831    223.3109   1.2318175698e+02   6.7255381471e+00    0.4267911    0.2968817   5.08  0.001626672    2.620    0.618
        75  -8.6605     89.5190    218.5086   1.3451524953e+02   1.7870441737e+01    0.1300811    0.1075179  71.83 0.0002589297    1.013    0.013
        76 -10.4820     22.6957    216.1603   1.4686271068e+02   2.7174511044e+01    0.3668718    0.1708754  68.93  0.002032402    1.974    0.494
        77 -14.3032      6.4496    246.3461   1.5135704716e+02   2.3081786686e+01     1.104814    0.6508164  81.74  0.008150834    1.222    0.181
        78 -10.1195     88.2288    213.1155   1.3412912102e+02   1.9185110632e+01    0.2457218    0.1798283 -84.69 0.0006244287    1.305    0.233
        79 -10.9181    145.1654    240.6794   1.2644247237e+02   4.3391555495e+00    0.3101686    0.1301634  51.02 0.0009896071    2.212    0.548
        80  -9.9552    102.3398    212.0429   1.3112126254e+02   1.7143432383e+01    0.3584425    0.1973655  66.89  0.001501551    2.116    0.528
        81  -8.7504    152.2505    211.9946   1.2076172390e+02   8.2624373571e+00    0.1604378    0.1201285 -53.34 0.0003046554    1.485    0.327
        82 -10.9379     72.7363    210.0367   1.3687941095e+02   2.2157862131e+01    0.3807089    0.2727612  50.92  0.002284051    1.312    0.238
        83  -9.2857     68.4658    211.5106   1.3788873932e+02   2.2456534935e+01    0.2041649    0.1594373 -81.61 0.0007500854    1.181    0.153
        84  -9.7531     33.3901    211.4592   1.4457606842e+02   2.6949849579e+01    0.1633246    0.1466276  58.32 0.0006101541    1.410    0.291
        85 -10.4723    109.0883    207.8910   1.2915880491e+02   1.6874892807e+01    0.3693552    0.1896536 -66.78  0.001092512    2.170    0.539
        86 -10.0160    135.3365    208.0719   1.2367049733e+02   1.2175816886e+01    0.3176185    0.2380041  24.19  0.001149317    1.678    0.404
        87  -9.3880    119.9077    208.7237   1.2701173905e+02   1.4825354384e+01    0.1935928    0.1588539  57.60 0.0002721414    1.079    0.073
        88 -11.2958     92.2904    204.7003   1.3223755550e+02   2.0323213540e+01    0.5445769    0.2953575  54.91  0.001588919    1.736    0.424
        89 -11.2217     93.9586    201.7073   1.3149075111e+02   2.0698949073e+01    0.5813909    0.3909079  85.23 0.0005088402    1.587    0.370
        90 -11.5689    247.7375    205.5194   1.0086750972e+02  -8.0234134828e+00    0.4419384    0.2848085   9.94  0.002343514    1.761    0.432
        91 -10.5802    175.0295    205.6292   1.1496094180e+02   5.1299024040e+00    0.3359264    0.2608974 -11.97  0.001481954    1.659    0.397
        92  -9.0787    178.2952    204.7018   1.1412268302e+02   4.6733062894e+00    0.1976879    0.1720439 -72.47 0.0002495963    1.376    0.273
        93 -10.7420    115.7702    239.8114   1.3195546444e+02   9.4996051783e+00    0.2289206    0.1888217  57.93  0.000635343    1.048    0.046
        94  -9.6044    125.8530    205.8299   1.2532632271e+02   1.4359869825e+01     0.199454    0.1827405  45.17  0.000452727    1.168    0.144
        95  -9.1935    149.2853    204.7416   1.2018867167e+02   1.0232203282e+01     0.277335     0.174794 -26.55  0.001186035    2.608    0.617
        96 -10.4779    102.4365    202.4500   1.2979856700e+02   1.9148188824e+01    0.4509688    0.2537279  56.27  0.001634843    1.718    0.418
        97 -10.7643     98.7118    196.7614   1.2979236913e+02   2.0996982349e+01    0.5475149    0.2990626  51.33   0.00175304    1.717    0.417
        98  -9.6520    167.0872    203.1524   1.1617087310e+02   7.1260088414e+00    0.1999543    0.1786015  25.84            0    1.151    0.131
        99  -9.9736    169.5895    200.1300   1.1510743497e+02   7.2179648623e+00    0.2459545    0.1868105  37.94 0.0003498979    1.240    0.194
       100  -9.3583    133.0728    202.6025   1.2328574044e+02   1.3705357720e+01    0.2436044    0.2292934 -13.06 0.0008983467    1.329    0.247
       101 -10.2923    134.1448    197.8838   1.2228893970e+02   1.4483511236e+01    0.2697004    0.2009107 -75.98 0.0003217262    1.516    0.341
       102  -9.1148     76.7733    202.9278   1.3523403924e+02   2.3088847515e+01    0.2106184    0.1255761  79.66 0.0008959791    1.836    0.455
       103 -10.3691    138.0600    201.5756   1.2205279882e+02   1.2987744419e+01    0.2369007     0.203633 -65.61 0.0002938966    1.235    0.191
       104  -9.9628     63.9322    202.0936   1.3776345347e+02   2.5099316118e+01    0.2458421    0.1751237  40.38  0.001151559    1.550    0.355
       105  -9.1530     32.8214    201.8647   1.4386811372e+02   2.9028183193e+01     0.155693     0.105379  75.96 0.0003463821    1.217    0.178
       106 -10.2922    197.1788    200.3178   1.0947159712e+02   1.8393113590e+00    0.3142587    0.2134794  53.87  0.001464934    1.612    0.379
       107 -10.4828    112.7737    193.4386   1.2623733761e+02   1.9321362146e+01    0.4862663    0.2904162 -65.50  0.001270249    1.767    0.434
       108 -11.1082    115.2738    200.2080   1.2673065549e+02   1.7423729344e+01     0.246142    0.2216071  80.33 0.0002401413    1.050    0.048
       109 -10.5371    119.9969    199.1124   1.2554561793e+02   1.6817638396e+01    0.3530262    0.2251225  59.60 0.0003745748    1.570    0.363
       110  -9.9985     44.0946    199.3781   1.4145089062e+02   2.8247306780e+01    0.2667378    0.2123118  50.95  0.001010953    1.348    0.258
       111  -8.8573    158.7876    199.4165   1.1726020565e+02   9.4594781371e+00    0.1952548    0.1290881  35.01 0.0003802462    1.531    0.347
       112  -9.1151     86.2177    199.0389   1.3277266575e+02   2.2502881059e+01    0.2300197    0.1504195 -55.88 0.0003356078    1.639    0.390
       113  -9.3281     85.7226    195.7027   1.3243708992e+02   2.3311209270e+01    0.1939253    0.1563795  64.45 0.0001942352    1.114    0.103
       114 -11.4903     53.1261    198.0257   1.3950936852e+02   2.7417033980e+01    0.5460691    0.2151024  46.42  0.002574875    2.339    0.572
       115 -10.2808     56.6402    194.0733   1.3836186501e+02   2.7828853377e+01    0.3379982    0.1962895 -81.08  0.001029891    1.600    0.375
       116 -11.7392     67.6256    195.1289   1.3619835200e+02   2.6109748169e+01    0.4085525    0.3039524 -45.52  0.001223312    1.787    0.440
       117  -9.9028     72.9591    193.0301   1.3481483215e+02   2.5815774550e+01    0.1960406    0.1632285  80.21  0.001214052    1.015    0.014
       118 -11.8981     72.9769    187.4844   1.3410083247e+02   2.7053177768e+01    0.3524489    0.2417945 -54.34 0.0007370718    1.583    0.368
       119  -9.4623     77.3049    188.7338   1.3332456399e+02   2.6139130432e+01    0.2037874    0.1615692  74.81 0.0002027895    1.127    0.113
       120  -9.0966    107.4877    196.0474   1.2778882847e+02   1.9673187048e+01    0.1985428    0.1317373 -63.50 0.0006730663    1.528    0.345
       121 -10.0307    159.4377    194.0142   1.1615467682e+02   1.0407112150e+01    0.3520224    0.2322701  57.45 0.0009292761    1.600    0.375
       122 -10.5423     38.7542    192.4110   1.4183089762e+02   3.0390929096e+01    0.2809076    0.1645839 -57.74 3.393403e-05    1.798    0.444
       123  -9.3448     41.8325    188.6982   1.4083217415e+02   3.0849146286e+01    0.2101688    0.1390093  82.21 0.0006064291    1.337    0.252
       124  -9.5381     31.0020    195.1749   1.4362461304e+02   3.0661571071e+01    0.2177395    0.1271385  61.10 0.0007498168    1.563    0.360
       125  -9.8120     82.8590    193.6780   1.3278137208e+02   2.4199692807e+01    0.3176319    0.2391679  -1.89  0.001057583    2.592    0.614
       126  -9.9182     26.0625    193.1110   1.4440238487e+02   3.1635854581e+01    0.2221084    0.1349727 -85.96 0.0008602912    1.337    0.252
       127  -9.3447     47.7609    192.8437   1.4005193156e+02   2.9224449816e+01    0.1788164    0.1401407 -71.90  0.001154138    1.241    0.194
       128  -9.6641     20.7253    191.9437   1.4533455353e+02   3.2435304501e+01    0.2596632    0.1345468  75.33  0.001443284    1.835    0.455
       129 -10.2874    191.4313    191.3962   1.0892881715e+02   4.5739309253e+00     0.277678    0.2471965  14.27 0.0006288645    1.137    0.120
       130  -9.4765    172.8349    192.2198   1.1296510771e+02   8.1084849441e+00    0.2296741    0.1664268   0.66  0.001045612    2.051    0.512
       131  -9.3322    135.2952    190.1053   1.2072367651e+02   1.5906934648e+01    0.1944311    0.1776181 -88.30 0.0004349369    1.092    0.084
       132 -10.5425     32.4424    189.3044   1.4279594513e+02   3.1778220875e+01    0.3714113    0.2821586  47.61  0.002499743    1.436    0.304
       133 -10.7793     25.7760    184.3365   1.4366715736e+02   3.3571574131e+01    0.3620963      0.21312  61.52  0.002050801    1.603    0.376
       134  -9.9306     29.6655    183.0636   1.4275741224e+02   3.3446914850e+01    0.3638383    0.1815659  66.60  0.001882992    2.092    0.522
       135 -12.1832    249.6552    187.5141   9.7009114429e+01  -5.5963141624e+00    0.9003206    0.2792118 -35.97  0.003340987    3.126    0.680
       136 -10.7281    236.4061    145.9840   9.0606300543e+01   3.9052227967e+00    0.3662309    0.2074797  44.21 0.0009322368    1.872    0.466
       137 -12.8325    248.1432    101.7570   7.8760938951e+01   9.3253242825e+00    0.9325184    0.5251241 -37.21  0.004330355    1.651    0.394
       138 -12.4671    248.3704    171.8042   9.4034601597e+01  -2.8361261857e+00    0.7987638    0.4907312 -29.63  0.004032159    1.557    0.358
       139 -13.9461    244.7697    157.9545   9.1744330011e+01   1.6741121853e-01     2.604183    0.9551704 -44.14  0.009708446    2.738    0.635
       140 -10.4747    120.7194    191.6874   1.2420987182e+02   1.8280542030e+01    0.5351394    0.3265068 -47.94  0.001724821    1.824    0.452
       141 -10.1275    143.2516    184.9739   1.1804745367e+02   1.5463669997e+01    0.2548875     0.181746 -51.12 0.0007790794    1.477    0.323
       142 -10.3641    140.1576    183.1536   1.1840617088e+02   1.6458946535e+01    0.2858132    0.2104212  43.69 0.0003189027    1.305    0.234
       143  -9.7009     85.8398    183.3755   1.3069737211e+02   2.6051646155e+01    0.2761046    0.2180963   6.52 0.0005867001    2.046    0.511
       144  -9.2007     37.2367    184.1955   1.4131420907e+02   3.2372797422e+01    0.2456463    0.1482603  40.90   0.00143475    1.782    0.439
       145 -10.2387     54.1880    182.0136   1.3748817460e+02   3.0837584802e+01    0.2220041    0.2029255   9.90 0.0009705591    1.587    0.370
       146  -9.6253     65.9569    181.9907   1.3492102360e+02   2.9286445968e+01    0.1921268    0.1673427 -89.08 0.0003295866    1.078    0.072
       147  -9.6273    174.6835    179.9738   1.1019379931e+02   1.0162864058e+01    0.3323731    0.2009013  46.64  0.001483259    1.588    0.370
       148  -9.4481    170.0341    180.0248   1.1120744259e+02   1.1106547588e+01     0.214901    0.2046197  39.17  0.001197653    1.027    0.026
       149  -8.8011    104.3948    180.5830   1.2607168952e+02   2.3640060696e+01    0.1404566     0.125022  82.53 0.0001663744    1.013    0.013
       150 -10.1635    193.0394    249.0741   1.1855845676e+02  -5.2420295929e+00    0.1924408    0.1624298  31.08 0.0008644608    1.036    0.035
       151  -9.9993    118.0005    190.0329   1.2454304905e+02   1.9132961111e+01    0.2113203    0.1880544  75.40 0.0003039054    1.025    0.024
       152  -9.2565     48.0257    179.6061   1.3853396278e+02   3.2144760864e+01    0.1668924    0.1154561  44.87 0.0004691454    1.525    0.344
       153  -9.1895    109.3226    177.8677   1.2449303996e+02   2.3396025853e+01    0.2839708    0.1296834 -64.46  0.001090326    2.487    0.598
       154 -11.4751     82.1907    175.6987   1.3039434573e+02   2.8372178334e+01    0.3968958    0.3481737  37.29  0.001194705    1.342    0.255
       155  -9.9268     77.2346    175.7282   1.3153296916e+02   2.9110626139e+01    0.2118747    0.1621301 -82.84 0.0006964651    1.198    0.165
       156  -9.4923    114.9960    176.4604   1.2294285596e+02   2.2698706509e+01    0.2801822    0.1921063 -77.98 0.0007641597    1.658    0.397
       157 -11.7931     68.8331    173.7126   1.3316258219e+02   3.0784887703e+01    0.6331801    0.2802667 -53.65   0.00158362    2.253    0.556
       158 -10.8613     68.9608    166.8750   1.3215271906e+02   3.2354554030e+01    0.2806175    0.2004071 -58.15 0.0003468258    1.358    0.263
       159 -10.1602     80.9305    163.8995   1.2885905201e+02   3.1310280411e+01    0.2251248    0.1945368  58.25  0.001316026    1.172    0.146
       160 -11.3283     95.9071    157.0681   1.2404801449e+02   3.0530563162e+01    0.3987319    0.3485565 -68.93  0.001498132    1.079    0.073
       161  -9.7822     95.2906    172.8065   1.2690808359e+02   2.6957473805e+01    0.2487418    0.1777027  63.15 0.0006646755    1.414    0.293
       162  -9.7532     91.1182    172.8172   1.2788346396e+02   2.7636238710e+01    0.2843674    0.2057479 -34.03  0.001187212    1.942    0.485
       163 -12.4965     87.9587    167.0091   1.2768763675e+02   2.9492305750e+01    0.7881106    0.6568766 -66.66  0.004502378    1.142    0.124
       164 -10.8352     89.9183    160.6427   1.2614686922e+02   3.0671830658e+01    0.3596647    0.2690468 -73.33 0.0006924619    1.282    0.220
       165 -11.3362     28.4954    171.4847   1.4183365917e+02   3.6145229545e+01    0.3917204    0.2466276 -65.86  0.001118801    1.384    0.277
       166  -8.4843    154.7097    172.3162   1.1305723841e+02   1.5871089906e+01    0.1509808    0.1171274  84.22 0.0002373828    1.595    0.373
       167  -8.7228    167.2099    170.0730   1.0981089196e+02   1.3748635875e+01    0.2011213    0.1220189 -45.15 0.0008642711    1.710    0.415
       168  -8.8331    100.5591    170.5082   1.2528900006e+02   2.6604990710e+01    0.1439907    0.1285455  86.97 2.630852e-05    1.019    0.019
       169  -8.3988     76.6616    170.2534   1.3085614252e+02   3.0463357552e+01    0.1387659   0.09363543  70.25 0.0004627925    1.572    0.364
       170 -10.6147     43.6925    168.8477   1.3820963782e+02   3.5103430465e+01    0.3594413    0.2825362 -69.70  0.001628405    1.167    0.143
       171 -10.2423     48.1969    168.8682   1.3720096979e+02   3.4572595448e+01     0.271324    0.2115867  49.31  0.001693997    1.368    0.269
       172  -9.3514    126.4970    167.9940   1.1871453665e+02   2.2467983557e+01    0.2112023    0.1286549 -80.25 0.0008100066    2.491    0.599
       173  -9.5264    107.3338    168.1786   1.2328155195e+02   2.5967871055e+01    0.2230494    0.1927685  39.71  0.000384368    1.257    0.204
       174  -9.1450     58.5022    167.5034   1.3467243864e+02   3.3610994775e+01    0.1331846    0.1111094 -87.40 -0.000104195    1.015    0.014
       175  -9.2012    136.2155    165.2612   1.1589887305e+02   2.1178838780e+01    0.2024175    0.1678468  80.97 0.0002808185    1.303    0.233
       176  -9.1559     53.9455    164.7663   1.3535342542e+02   3.4822016539e+01    0.1763836    0.1474476 -87.01 0.0002586282    1.015    0.015
       177 -10.0911     47.0147    163.2415   1.3675227404e+02   3.6009035236e+01    0.2351029    0.1573701 -80.86 0.0003475954    1.316    0.240
       178  -9.5225    175.5762    186.7432   1.1133606809e+02   8.6331160856e+00    0.1969402    0.1405439 -59.72 0.0005217337    1.650    0.394
       179 -14.9524     13.9543    171.0209   1.4484807609e+02   3.7630562083e+01     3.518105    0.8629504 -62.80   0.01498252    3.014    0.668
       180 -11.0601     73.7346    157.6434   1.2958835621e+02   3.3844855646e+01    0.4598219    0.3727128 -86.24  0.001665658    1.146    0.127
       181  -9.7344     78.9785    158.9430   1.2852270728e+02   3.2769691076e+01    0.2107605    0.1852213 -85.57 0.0004646372    1.013    0.013
       182 -12.3229     51.7914    237.6868   1.4343040298e+02   1.9440800275e+01    0.9415391    0.6127318 -87.51   0.00463594    1.339    0.253
       183  -8.9428     52.4661    158.4675   1.3483423490e+02   3.6468908444e+01    0.1311088    0.1103369 -78.65 0.0007447255    1.033    0.032
       184  -9.7564     47.5748    157.5912   1.3587105804e+02   3.7253768753e+01     0.202405     0.159648  64.47 0.0008860303    1.275    0.216
       185  -9.2871    228.5031    155.3154   9.4086191687e+01   3.8064567596e+00    0.2578732    0.1338335 -42.67 0.0006658914    1.872    0.466
       186  -9.7543    134.1859    155.8405   1.1446117227e+02   2.3715627911e+01    0.2908288    0.2279965 -65.23 0.0006298666    1.323    0.244
       187  -9.3446    132.2562    152.4129   1.1420679454e+02   2.4885685851e+01    0.2219925    0.1495256  44.53 0.0002717369    1.480    0.325
       188  -8.4690    175.7213    155.2677   1.0475900163e+02   1.5035398371e+01    0.1469372    0.1207707  87.29 0.0002208918    1.485    0.327
       189 -10.8920    113.7642    151.0143   1.1845907444e+02   2.8796108969e+01    0.3946919     0.332092 -47.35 0.0009241124    1.232    0.188
       190 -11.3759     53.1104    146.1471   1.3286508336e+02   3.9275700203e+01    0.4317834    0.2752752  22.05  0.002063157    2.136    0.532
       191 -10.5896     60.1936    151.0778   1.3186974028e+02   3.7236541733e+01    0.3819529     0.247421  83.83 0.0009644893    1.768    0.434
       192 -11.0913     56.0440    150.1510   1.3275143433e+02   3.7977848217e+01    0.4886493    0.3036307 -47.35  0.002194629    1.721    0.419
       193 -10.8462    101.1045    150.7425   1.2156870042e+02   3.1135655845e+01    0.3979916    0.3506369  88.33  0.001541098    1.107    0.096
       194 -10.3069     47.8238    150.7072   1.3484921207e+02   3.8829065974e+01    0.3335279    0.1671211  26.60  0.001569428    2.642    0.621
       195  -9.6658     90.1258    149.9019   1.2417248945e+02   3.3173792444e+01    0.2137601    0.1941608 -75.49 0.0004956349    1.023    0.022
       196 -11.3774     60.7377    137.8346   1.2955436538e+02   4.0288137963e+01    0.3668486    0.2654292  64.95  0.001163252    1.546    0.353
       197 -13.0872     67.5915    144.3437   1.2890638475e+02   3.7848179557e+01    0.9316815    0.6061679  85.06  0.004167805    1.883    0.469
       198 -12.0702     73.9715    139.3138   1.2635987502e+02   3.8147583440e+01    0.7422352    0.5230165  76.93  0.003487368    1.697    0.411
       199 -11.1669    133.6723    142.6142   1.1173067095e+02   2.6835982467e+01    0.9488908    0.3234778 -52.04   0.00299283    3.060    0.673
       200 -10.8427     32.2453    145.8834   1.3796553805e+02   4.1606065641e+01    0.2729926    0.1502362 -54.94  0.001418366    1.654    0.395
       201 -11.3780     33.9741    136.0000   1.3616852098e+02   4.3716384809e+01    0.2300601    0.1853162  -2.82  0.001446308    1.739    0.425
       202 -10.8981     32.6723    141.6433   1.3729064834e+02   4.2541371542e+01    0.2510248     0.145283 -49.86 0.0007360069    1.719    0.418
       203 -11.1615     31.6938    138.6970   1.3712633077e+02   4.3314418106e+01    0.1751053    0.1579772 -66.97 0.0003025527    1.163    0.140
       204  -9.0811    122.0340    148.0183   1.1578479147e+02   2.7920498029e+01    0.1768063    0.1682008 -89.46            0    1.005    0.005
       205 -11.2940     37.1529    143.8883   1.3649648952e+02   4.1575477769e+01    0.2744065    0.1925522  76.08 0.0007493516    1.495    0.331
       206  -9.1883    159.0038    145.2503   1.0627240988e+02   2.0845263499e+01    0.2109653    0.1933034  57.69            0    1.081    0.075
       207  -9.9808    103.9695    146.0106   1.1990980997e+02   3.1748117468e+01    0.6113772    0.1917847 -50.52  0.002008498    3.033    0.670
       208 -11.5162     42.3168    141.0106   1.3479514900e+02   4.1702602587e+01    0.3312278     0.209079  71.97  0.001453644    1.864    0.464
       209 -11.6446     42.6170    237.2109   1.4497147410e+02   2.0697715168e+01    0.3482627    0.2111385  66.95  0.001209674    1.305    0.234
       210 -12.3550     45.0169    131.5346   1.3261929812e+02   4.3617149877e+01     0.588594    0.3844442 -84.40  0.002708989    1.610    0.379
       211 -10.5579    111.7267    136.1663   1.1584299396e+02   3.2643446319e+01    0.3848489    0.3066524  13.22  0.001316754    1.653    0.395
       212 -12.0962     20.2292    133.7663   1.3932078335e+02   4.5461886374e+01    0.2819242    0.2086729  29.99  0.001848805    1.691    0.409
       213 -14.4826     30.4109    246.2343   1.4761942335e+02   2.0467846476e+01     2.014716     1.090859  65.22   0.01324877    1.427    0.299
       214 -10.4448     33.0043    132.4317   1.3589309782e+02   4.4631941984e+01    0.1657064     0.125172  31.03 0.0005676637    1.615    0.381
       215 -11.8722     67.7807    128.3920   1.2594460779e+02   4.1583626549e+01    0.4602992    0.3923099  76.92            0    1.255    0.203
       216  -9.5366    106.1574    127.9935   1.1547634210e+02   3.5571706944e+01    0.4029011    0.2244046 -63.35 0.0007740114    2.059    0.514
       217 -10.5566     59.5532    125.0765   1.2755903181e+02   4.3428832563e+01    0.3826586    0.1851371  24.92  0.001652727    2.782    0.641
       218 -12.7239     31.5417    127.0361   1.3546071927e+02   4.6008328190e+01    0.8080669    0.1886745  32.49  0.003086913    4.340    0.770
       219 -13.4094     20.3453    121.4216   1.3758031588e+02   4.8245445418e+01    0.7360938     0.416994 -41.13  0.004106271    1.928    0.481
       220 -11.4775     25.2884    121.0253   1.3620265484e+02   4.7930532297e+01    0.2742212    0.2132353   5.68 0.0009309093    1.727    0.421
       221 -11.4893      9.0454    127.2990   1.4128871397e+02   4.7769699230e+01    0.2090205    0.1728413  89.56  0.001354329    1.171    0.146
       222 -10.5566    209.7770    125.7997   9.0861959127e+01   1.3382377353e+01    0.3140813    0.2572702 -36.06 0.0005114073    1.203    0.169
       223 -10.9401     34.7348    149.0181   1.3777925406e+02   4.0635749500e+01    0.2980049    0.1916182  29.92  0.001445893    1.918    0.479
       224  -8.6341     85.3292    126.7091   1.2081314222e+02   3.9411369317e+01    0.1437012    0.1083473  79.05  0.000701837    1.623    0.384
       225  -9.5252     36.6922    124.6960   1.3371902676e+02   4.6055707516e+01    0.1829392   0.09212309 -64.98 0.0003960734    1.645    0.392
       226 -11.0931     38.4719    121.5446   1.3271246179e+02   4.6604011639e+01    0.3519331    0.2040464  68.48  0.001688709    2.483    0.597
       227 -10.6679     55.0595    120.8929   1.2800717127e+02   4.4948023753e+01    0.2626729    0.2011772  18.51  0.001266494    1.630    0.387
       228 -11.7517      9.3527    118.6807   1.4009221085e+02   4.9665350435e+01    0.4006402    0.1932656 -37.92  0.002071264    2.539    0.606
       229 -10.8902     12.5138    120.4700   1.3950813126e+02   4.9047905032e+01    0.2187878    0.1471592 -62.75  0.001009916    1.166    0.142
       230 -11.8946     31.1008    117.2298   1.3401423068e+02   4.8284586538e+01    0.3791865     0.267466 -41.60   0.00160942    1.454    0.312
       231 -10.7298     31.9955    110.9954   1.3269481157e+02   4.9612363425e+01    0.2318064    0.1666012 -76.08 0.0007167188    1.325    0.245
       232 -11.5739     15.4234    114.6284   1.3789972980e+02   5.0140456391e+01     0.315942    0.1934019 -66.80 0.0008957388    1.275    0.216
       233  -9.7106    231.8271    116.6011   8.4734806100e+01   1.0203608238e+01    0.1937888     0.141357  68.89 0.0006360454    1.605    0.377
       234 -11.2331    168.1296    113.2767   9.6386370786e+01   2.5608205785e+01    0.3912659     0.320467 -84.62  0.000682693    1.443    0.307
       235 -11.0707     64.9890    111.9767   1.2336563435e+02   4.5756539274e+01    0.2053261    0.1826483 -55.17 0.0003079309    1.009    0.009
       236 -13.7339      8.7552    207.1736   1.4868346231e+02   3.0422497793e+01     1.162542     0.891628  53.06  0.008835293    1.417    0.294
       237  -9.8680     50.2691    112.9867   1.2782908436e+02   4.7317680143e+01     0.189084    0.1480076 -58.04 0.0003882635    1.087    0.080
       238  -8.6702    150.7047    187.2989   1.1682493697e+02   1.3505593211e+01    0.1458869    0.1113443  77.85 0.0002473454    1.570    0.363
       239  -9.5236    204.3824    111.0989   8.8327399589e+01   1.7457097629e+01    0.4164981    0.1815961  36.98  0.001288978    3.572    0.720
       240  -8.7630     83.6973    111.2711   1.1780472724e+02   4.3226371000e+01    0.1357991    0.1092539  81.80 0.0002687078    1.533    0.348
       241 -10.4281     69.8974    111.0469   1.2173754546e+02   4.5307678321e+01    0.1994326     0.198278 -65.26            0    1.112    0.101
       242 -11.2790     56.5918    110.3726   1.2546510469e+02   4.7177644032e+01    0.3649824    0.2258533  15.52  0.001364924    2.220    0.550
       243  -9.7436    114.3355    106.8637   1.0809902536e+02   3.8796778472e+01    0.2833599    0.1799093 -62.42 0.0008806984    1.890    0.471
       244 -10.6987     13.7889    108.1916   1.3737375048e+02   5.1681693842e+01    0.1676103    0.1110221 -49.06 0.0004735672    1.340    0.254
       245 -11.1594     27.8283    106.2750   1.3305465932e+02   5.1030624076e+01    0.2404723    0.2195681 -39.29  0.001360645    1.195    0.163
       246 -11.6847    248.2503    142.4207   8.7792164759e+01   2.1992529017e+00    0.6587659    0.4778107 -25.13   0.00303156    1.379    0.275
       247  -9.6845     33.1430    100.1309   1.3033483877e+02   5.1928679277e+01    0.1653889    0.1310018 -78.26 0.0003584888    1.308    0.235
       248  -8.6455     21.7271     98.2912   1.3341086981e+02   5.3277069488e+01    0.1110283   0.08497824  86.95            0    1.515    0.340
       249  -8.5362     72.2497     90.3082   1.1599875898e+02   4.9548312611e+01    0.1351319   0.09605924 -27.45 0.0001531548    1.509    0.337
       250  -8.7533     44.6881     90.2728   1.2465976562e+02   5.2956948085e+01    0.1163469   0.09634491  81.27 0.0002389592    1.553    0.356
       251  -9.9304    169.6053    248.7297   1.2290513039e+02  -1.2062798975e+00    0.3064323      0.19164  16.57 0.0008770871    2.430    0.589
       252 -13.5803     13.0296    237.8530   1.4987923734e+02   2.3967452790e+01     1.016837    0.3861347  75.29  0.005220789    2.625    0.619
       253  -8.4779     50.5314     67.4679   1.1680993707e+02   5.6982194908e+01    0.1276262    0.1063408 -30.61 7.486195e-05    1.015    0.014
       254  -9.0922    124.1202     51.1433   8.8927753303e+01   4.7225575740e+01     0.180248    0.1672557 -78.51 0.0002642695    1.273    0.215
       255  -9.3055    199.7619    245.7427   1.1679140291e+02  -5.8921907602e+00    0.1582664    0.1327184  50.20 0.0004003558    1.305    0.234
       256 -10.2176    222.9695    244.4819   1.1230438214e+02  -9.5100744361e+00    0.1915548    0.1024783  37.77 0.0005615614    1.592    0.372
