#   1 NUMBER                 Running object number                                     
#   2 MAG_AUTO               Kron-like elliptical aperture magnitude                    [mag]
#   3 X_IMAGE                Object position along x                                    [pixel]
#   4 Y_IMAGE                Object position along y                                    [pixel]
#   5 X_WORLD                Barycenter position along world x axis                     [deg]
#   6 Y_WORLD                Barycenter position along world y axis                     [deg]
#   7 A_WORLD                Profile RMS along major axis (world units)                 [deg]
#   8 B_WORLD                Profile RMS along minor axis (world units)                 [deg]
#   9 THETA_WORLD            Position angle (CCW/world-x)                               [deg]
#  10 FWHM_WORLD             FWHM assuming a gaussian core                              [deg]
#  11 ELONGATION             A_IMAGE/B_IMAGE                                           
#  12 ELLIPTICITY            1 - B_IMAGE/A_IMAGE                                       
         1 -13.4213    197.4107     28.3309   5.7453006935e+01   3.2191798700e+01      1.05558    0.8845618  16.24   0.00563588    1.411    0.291
         2 -11.8510    204.6959     19.1606   5.3958234657e+01   3.1398369657e+01    0.5066428    0.3606813  43.15   0.00104432    1.569    0.363
         3 -13.0759    210.3432     11.8624   5.1347689129e+01   3.0767284989e+01    0.8307744    0.6931157 -40.79  0.003130257    1.192    0.161
         4 -12.0503     72.6361     29.1508   8.6258292517e+01   6.1309403102e+01    0.5826662    0.2890646 -33.44  0.002736634    1.888    0.470
         5 -11.2303     84.6801     20.7092   7.8447216689e+01   6.0325548029e+01    0.4222194    0.3238558 -38.68  0.002405672    1.452    0.311
         6 -11.4467     21.5773      3.9365   9.6831463255e+01   7.2084453205e+01    0.4023917    0.1238025 -38.55  0.001839589    2.664    0.625
         7 -11.7476    222.5646    235.7185   1.0063432425e+02  -4.0421734002e+00    0.6967234    0.3521001 -22.95  0.003886161    2.400    0.583
         8 -10.5572    233.3283    229.6559   9.7874735056e+01  -4.9717011549e+00    0.5521458     0.231347 -29.64  0.002880956    2.667    0.625
         9 -10.7839    237.3988    248.4832   1.0008351093e+02  -7.5307652734e+00    0.4432522    0.2390438 -22.28  0.002817317    2.070    0.517
        10 -12.0292    236.9985    217.0178   9.5189078651e+01  -4.0896298187e+00    0.9066379    0.4833676  -7.45  0.004603833    2.484    0.597
        11 -14.0130    247.1097    228.2385   9.5363644995e+01  -6.8295395440e+00     2.015458    0.7391839 -28.35   0.01002068    2.960    0.662
        12 -11.6378    249.9599    206.8004   9.1259817914e+01  -4.8734071255e+00    0.7327988    0.2086653 -32.15   0.00305387    3.585    0.721
        13 -10.6621    231.0000    248.0346   1.0106274503e+02  -6.5872595840e+00    0.3218429    0.2156354 -29.34  0.002265405    1.788    0.441
        14 -10.3391    230.9890    243.4874   1.0039363148e+02  -6.1173648257e+00    0.3363201    0.2116217  23.31  0.001385206    1.260    0.207
        15  -9.9670    169.8150    249.2516   1.1163094978e+02   2.3923097789e+00    0.2310321    0.1960976 -43.49  0.001742175    1.548    0.354
        16 -11.6540    160.7496    248.3371   1.1310233607e+02   3.8989627624e+00    0.3742081    0.2833271  47.46  0.001643042    1.157    0.136
        17 -12.3439    155.8756    248.7751   1.1400775914e+02   4.5863249991e+00    0.9818854      0.23173  40.12  0.003864336    3.344    0.701
        18 -12.6780    163.6743    230.6376   1.1033149188e+02   5.8700262121e+00     2.291246    0.7346689  48.92   0.00907391    3.227    0.690
        19 -14.3241    108.0701    244.6700   1.2197477196e+02   1.2311411853e+01     1.815076    0.7695755  44.27  0.009986063    1.801    0.445
        20 -14.2031    112.8770    220.2878   1.1856715831e+02   1.5556199891e+01     3.179746     1.180435  41.87   0.01483229    2.219    0.549
        21 -16.5983     66.6929    206.0976   1.2600433742e+02   2.4688635842e+01     13.95041     6.765012  87.45   0.04916231    2.636    0.621
        22 -12.2670    215.2559    230.4716   1.0108340336e+02  -2.3258615417e+00      1.21788    0.6210546 -36.42  0.006895436    2.322    0.569
        23 -14.0513     65.6287    178.3687   1.2342551660e+02   3.0379527704e+01     2.020791    0.9839476 -67.36   0.01039813    1.967    0.491
        24 -12.9604     71.6305    164.6825   1.2043935297e+02   3.2510456041e+01    0.8502179    0.3975595 -47.48   0.00113613    2.712    0.631
        25 -10.5161    134.1106    146.1672   1.0253059340e+02   2.6223021743e+01    0.5475371   0.09338145 -50.59   0.00126073    6.683    0.850
        26 -13.2613     34.9733    242.8374   1.3420382240e+02   2.1905754260e+01    0.4977467    0.2377899  55.02 0.0007031758    1.527    0.345
        27 -12.6798    103.0348    141.8226   1.0924221849e+02   3.2809712412e+01     0.730817    0.5407201 -44.65  0.003828164    1.456    0.313
        28 -12.3678     96.9676    136.9390   1.0985730205e+02   3.4913766369e+01    0.6609915    0.4422569 -76.70  0.003195736    1.730    0.422
        29 -11.3536     91.2434    144.3931   1.1265759163e+02   3.4153755184e+01    0.2524814    0.2438439 -57.24 0.0004748908    1.154    0.134
        30 -11.5347    112.8645    132.6324   1.0493793448e+02   3.3130660106e+01    0.3952556    0.2699154  28.93  0.001708516    1.722    0.419
        31 -10.8828    105.9445    131.0386   1.0638048967e+02   3.4718517641e+01    0.3364331    0.2562591  62.38  0.001491283    1.416    0.294
        32 -10.2283    198.6026    129.8173   8.4761421336e+01   1.5896793279e+01    0.2108907     0.134808 -45.65 0.0009498571    1.675    0.403
        33 -10.9053     99.8964    129.3624   1.0761048803e+02   3.6136363228e+01    0.3133828    0.2670928 -15.32  0.001276208    1.485    0.326
        34 -14.1888     10.6303    206.5143   1.3641336915e+02   3.0783525197e+01    0.8038333    0.6615106  62.94  0.004274017    1.268    0.211
        35 -13.8147     34.7519    229.3413   1.3349873746e+02   2.4223236033e+01     1.586178    0.7910743  36.77   0.01005275    2.034    0.508
        36  -9.8158    118.2991    126.3510   1.0219521535e+02   3.3511429898e+01    0.1483052    0.1166987 -14.65  0.000506171    1.691    0.409
        37  -9.3763    108.7638    120.9008   1.0345958912e+02   3.6485687864e+01    0.2118731    0.1956501 -20.88 0.0005738114    1.208    0.172
        38 -10.2135    167.5561    112.3426   8.6908659844e+01   2.6045747066e+01     0.313837    0.2588895 -87.05 0.0008308218    1.550    0.355
        39 -10.8227     98.3861    192.0891   1.1808449758e+02   2.2948536676e+01    0.3930705    0.2729972  72.84   0.00137786    1.497    0.332
        40 -10.5763     67.0015     87.6182   1.0775593387e+02   5.0706499831e+01    0.3936617    0.1620215 -52.09  0.001628255    2.117    0.528
        41 -11.8989     59.4328     84.8555   1.0953347315e+02   5.2318377882e+01    0.7741629    0.2286146 -59.34  0.002604336    3.443    0.710
        42  -9.5604     52.5234     89.5052   1.1287603848e+02   5.2098503982e+01     0.132715    0.1149165 -57.58 6.329622e-05    1.004    0.004
        43 -10.6633     63.8079     83.1507   1.0766792992e+02   5.2134680056e+01    0.2072572    0.1812715 -79.10 0.0008500373    1.250    0.200
        44 -11.4444     97.2820     67.5309   9.2277232027e+01   5.0078116168e+01    0.5576121    0.3865909  56.44  0.002675919    1.762    0.433
        45 -12.6618     75.9916     49.1294   9.2949960357e+01   5.7347555300e+01      1.02743    0.8100232 -13.61  0.005200863    1.275    0.216
        46 -15.4144      3.9306    241.0809   1.3897719644e+02   2.5327516994e+01     2.114971    0.6113927 -76.81   0.01049796    3.076    0.675
        47 -12.2171    188.2926     34.9558   6.0677051464e+01   3.3713027907e+01    0.5184788    0.3589472  56.86  0.001560212    1.400    0.286
        48 -10.1255     82.0518    244.0762   1.2644225778e+02   1.6001237993e+01    0.5078705    0.2393858  71.18  0.002654794    2.712    0.631
        49 -15.0105     19.9056    244.8441   1.3667800925e+02   2.3159180766e+01     1.368542    0.3969455  49.41  0.007986399    2.277    0.561
        50 -11.6234    232.7759    200.2381   9.2992662426e+01  -1.3814439589e+00     1.190707    0.6379178   9.59  0.005426506    2.696    0.629
        51  -9.3157     69.8347    249.8856   1.2893778256e+02   1.6656393671e+01    0.1424531    0.1115715  65.95 0.0003938264    1.108    0.097
        52 -11.0305    207.8142    234.6921   1.0301185395e+02  -1.6782555321e+00    0.6107233    0.5224887 -19.85  0.004501776    1.379    0.275
        53 -12.4643    224.6034    217.8197   9.7443906302e+01  -2.2641863112e+00        1.005    0.5021974 -22.58  0.005207519    2.387    0.581
