#   1 NUMBER                 Running object number                                     
#   2 MAG_AUTO               Kron-like elliptical aperture magnitude                    [mag]
#   3 X_IMAGE                Object position along x                                    [pixel]
#   4 Y_IMAGE                Object position along y                                    [pixel]
#   5 X_WORLD                Barycenter position along world x axis                     [deg]
#   6 Y_WORLD                Barycenter position along world y axis                     [deg]
#   7 A_WORLD                Profile RMS along major axis (world units)                 [deg]
#   8 B_WORLD                Profile RMS along minor axis (world units)                 [deg]
#   9 THETA_WORLD            Position angle (CCW/world-x)                               [deg]
#  10 FWHM_WORLD             FWHM assuming a gaussian core                              [deg]
#  11 ELONGATION             A_IMAGE/B_IMAGE                                           
#  12 ELLIPTICITY            1 - B_IMAGE/A_IMAGE                                       
         1 -13.0216      6.4794     88.5187   2.5915453335e+02  -5.2298835046e+01    0.2312762   0.03624414  21.68  0.004800268    4.978    0.799
         2 -12.1078    180.7646     24.0534   2.5875049242e+02  -5.8938164742e+01    0.1174506   0.06512001 -80.26  0.003976418    1.949    0.487
         3 -11.2353    171.1312      2.5832   2.5712834446e+02  -5.8834207689e+01   0.08382075   0.04499387 -83.63  0.002288583    2.052    0.513
         4 -14.1494    194.2790     10.6747   2.5814918233e+02  -5.9543323606e+01    0.6773828    0.2005409 -44.33   0.01623437    3.830    0.739
         5 -14.3649    239.6630      5.3632   2.5879551931e+02  -6.1146703228e+01    0.4723862    0.3005477 -81.89   0.01731292    1.682    0.406
         6 -12.4726    214.1284      1.8443   2.5797615133e+02  -6.0314356124e+01    0.2023058   0.04512012 -74.08  0.001243226    4.905    0.796
         7 -10.0959    124.6198      7.8935   2.5657532358e+02  -5.7182344283e+01   0.03422273   0.02571209  57.37 0.0006519297    1.408    0.290
         8 -10.1156    244.6578    224.0237   2.7311290056e+02  -5.8121476790e+01   0.04192276   0.02538987 -58.77  0.001161692    1.636    0.389
         9 -19.1235    233.0872    134.0607   2.6725865413e+02  -5.9243571949e+01    0.8904687    0.8424282 -43.18   0.02881836    1.056    0.053
        10 -10.8905     41.5050    191.3095   2.6550075461e+02  -5.2160367294e+01   0.03771245   0.02810349 -36.71 0.0007383873    1.408    0.290
        11 -11.0392    162.9487    188.3293   2.6848791116e+02  -5.6142506705e+01   0.06287588   0.03334475 -55.89  0.001771075    1.807    0.447
        12 -11.6575    153.1859    186.6351   2.6811411265e+02  -5.5854696687e+01   0.09454572   0.04786381 -64.82  0.002483101    1.993    0.498
        13 -11.2017    145.4874    183.4742   2.6771869899e+02  -5.5654887979e+01   0.05083823   0.04952579  17.09  0.001590278    1.029    0.028
        14 -10.8441    171.5350    223.4810   2.7074101804e+02  -5.5847494720e+01   0.03503873   0.03155304 -28.60 0.0006922089    1.149    0.130
        15 -11.8895    108.1444    240.9905   2.6986566842e+02  -5.3554485476e+01    0.2486705    0.1100124 -23.61  0.003980336   10.046    0.900
        16 -10.5483    123.0168    155.0015   2.6548295455e+02  -5.5343481459e+01   0.02741034   0.02687048  11.58  0.000348073    1.021    0.020
        17 -11.5970     67.9545    144.0784   2.6353005429e+02  -5.3677287100e+01   0.09960417    0.0486997 -37.65  0.003056691    2.423    0.587
        18 -15.1355    166.8076    160.6456   2.6697781910e+02  -5.6691658503e+01    0.4328009    0.1604746 -76.85  0.009707003    4.674    0.786
        19  -8.4634      2.0107    141.7843   2.6197625554e+02  -5.1518289032e+01   0.02306391   0.01464744 -68.22 0.0003247141    1.575    0.365
        20 -11.1097    113.8118    134.7499   2.6407784193e+02  -5.5321811995e+01   0.04168644    0.0282514  36.86  0.001587723    1.460    0.315
        21 -11.5081    114.9155     95.4260   2.6177860151e+02  -5.5871403343e+01    0.1677773   0.06496117  36.63   0.00495203    2.443    0.591
        22 -11.3380    120.9752    132.3958   2.6411500814e+02  -5.5591027383e+01   0.05258784   0.03878382 -58.02  0.001427368    1.327    0.246
        23 -12.2811    125.6972    124.7351   2.6377880718e+02  -5.5851220804e+01    0.1445055   0.03804488  22.56  0.003472164    3.725    0.732
        24 -12.1332    114.1607    125.8957   2.6356833422e+02  -5.5452591638e+01   0.08408634   0.07163513  59.64  0.002451459    1.240    0.194
        25 -12.3537    118.3439    117.6844   2.6318419676e+02  -5.5700567799e+01     0.117222   0.08292749 -89.18  0.003462986    1.602    0.376
        26 -12.3275    114.2562    109.5270   2.6260449586e+02  -5.5670447111e+01     0.115359   0.08103357 -70.70  0.003383703    1.440    0.305
        27 -12.7775    124.9529    104.1226   2.6253174683e+02  -5.6097553050e+01    0.1283594   0.09664121 -41.55  0.001052054    1.358    0.264
        28 -10.1257     25.3383    131.3727   2.6189304937e+02  -5.2424364133e+01   0.03001612   0.02881521 -48.78  0.000437328    1.036    0.035
        29 -10.5398     80.9315    127.9663   2.6291287485e+02  -5.4320096142e+01   0.06611649   0.02573544  21.27  0.001600588    2.569    0.611
        30 -11.1256     86.4676    113.5938   2.6220956942e+02  -5.4689446214e+01    0.2900259   0.04565436  22.77  0.005814187    5.329    0.812
        31 -13.2586     56.3723     99.4257   2.6074653589e+02  -5.3854323376e+01   0.09697892   0.09087083  37.73 0.0007624931    1.070    0.066
        32 -13.8019     70.8926    105.1556   2.6138094722e+02  -5.4272855318e+01    0.1885727    0.1653893  61.08  0.003948246    1.191    0.161
        33  -9.9881     99.2884    106.9155   2.6210738738e+02  -5.5203066063e+01   0.04871759   0.02935951 -66.51  0.001125342    1.635    0.388
        34 -13.4598     34.4746     98.6509   2.6025891401e+02  -5.3126496123e+01    0.1298748   0.08348776 -82.01   0.00343825    1.690    0.408
        35 -13.6021     33.1285     93.5139   2.5994270572e+02  -5.3140989048e+01    0.1751861   0.08118159 -79.20  0.004662414    2.462    0.594
        36 -10.0348    207.9028    211.9513   2.7120596470e+02  -5.7186615370e+01   0.04234755   0.02653152 -58.31  0.001146385    1.566    0.361
        37  -9.4067     97.3590    211.2729   2.6797195080e+02  -5.3677094175e+01   0.02888009    0.0252885  55.14 0.0003886835    1.197    0.165
        38 -12.2706     64.6174    100.8756   2.6100142367e+02  -5.4114193492e+01   0.07404086   0.06067464  34.66  0.002087724    1.212    0.175
        39 -11.5546    198.1350    246.8312   2.7287421909e+02  -5.6278730969e+01    0.0495449   0.03948672  31.12  0.002033141    1.257    0.204
        40 -10.4861    103.1407    110.7457   2.6242012698e+02  -5.5283271884e+01   0.05887531   0.02773816  13.77  0.001133433    2.362    0.577
        41 -10.8723    216.4050    210.3966   2.7138606582e+02  -5.7479971337e+01   0.03460583     0.031959 -16.56 0.0005080817    1.129    0.115
        42  -9.5231    243.8494    207.3345   2.7210356894e+02  -5.8390477924e+01   0.05850797   0.03405124 -25.18  0.001835413    2.541    0.606
        43  -9.3487    104.5263    133.1694   2.6376225867e+02  -5.5035434408e+01   0.03580927   0.02053393  60.30 0.0009019737    2.206    0.547
        44  -9.8183    234.7835     68.8787   2.6304812911e+02  -6.0221186172e+01   0.05188181   0.02642226 -83.99  0.001180536    2.523    0.604
        45 -10.6334    222.3232     67.8991   2.6265279190e+02  -5.9818799612e+01   0.03131958   0.02662535  84.11 0.0002923503    1.258    0.205
        46 -12.2472     92.2158    222.4751   2.6844136295e+02  -5.3339430614e+01    0.6029426    0.2652537 -19.42  0.005635931   29.646    0.966
        47 -10.5664    214.6036     64.1661   2.6220554853e+02  -5.9608560500e+01   0.07353166   0.04371385 -44.89  0.002189129    1.722    0.419
        48  -9.2802     40.2274     65.5920   2.5848709790e+02  -5.3694853142e+01   0.03203109   0.02373073  23.49 0.0005773951    1.329    0.248
        49  -9.6835    228.4830     64.0606   2.6255767340e+02  -6.0073707774e+01     0.031891   0.02477942  81.55 0.0004494551    1.434    0.302
        50 -10.1060    243.6378     61.6031   2.6279409632e+02  -6.0610491996e+01   0.04700381   0.02813643 -67.73  0.001683423    1.666    0.400
        51 -10.1528    220.0095    201.9808   2.7100813269e+02  -5.7735946764e+01   0.04031699   0.02451994 -48.95 0.0008196674    1.636    0.389
        52 -11.3860    215.2578    201.1718   2.7080949200e+02  -5.7599911697e+01   0.07102293   0.04681493 -50.42  0.001762846    1.498    0.333
        53  -9.7302    184.0655    207.5549   2.7021535312e+02  -5.6507675989e+01   0.03409683   0.02548063  -4.18 0.0007237038    1.592    0.372
        54 -11.1838    173.9681    220.5317   2.7064847209e+02  -5.5973409856e+01   0.04172674   0.03240761 -38.82 0.0008245035    1.341    0.254
        55 -10.4523    152.2264     94.6966   2.6260764037e+02  -5.7130971117e+01   0.03859466    0.0324608   5.70  0.001627021    1.231    0.188
        56  -9.5820    237.2744     49.2446   2.6178378602e+02  -6.0554795584e+01   0.04018611   0.02303974  42.90  0.001396002    1.787    0.440
        57 -10.9172    160.1887    196.7973   2.6889518061e+02  -5.5920526057e+01   0.05294211     0.035063 -18.46  0.001244783    1.945    0.486
        58 -11.2928    222.1229     45.4923   2.6114499651e+02  -6.0092285334e+01    0.1330004   0.09569792 -57.15  0.005068327    1.356    0.262
        59  -8.9543      3.5477    249.4655   2.6760429830e+02  -5.0091701661e+01   0.01795468   0.01732334  56.09 6.718859e-05    1.069    0.065
        60  -9.2428    158.7725    248.5716   2.7174238394e+02  -5.5023493319e+01   0.02592757   0.01615162 -48.61 0.0006569196    1.593    0.372
        61 -15.8847    194.2202    166.2080   2.6809043606e+02  -5.7494199659e+01    0.3559821    0.1410625 -71.25  0.009587009    3.132    0.681
        62 -10.0949    180.4200    193.7803   2.6931131348e+02  -5.6615754872e+01   0.04130181   0.03346201  12.41 0.0008841536    1.305    0.233
        63  -9.8737    239.4420     40.8429   2.6126316137e+02  -6.0730766193e+01    0.0322149    0.0252959 -76.52 0.0004218686    1.307    0.235
        64 -10.0492    190.2861     36.6954   2.5979827468e+02  -5.9120466810e+01   0.04140301   0.02547781 -24.29  0.000698859    1.910    0.476
        65  -9.6216     43.0538     20.2038   2.5589385728e+02  -5.4256616244e+01   0.04058001     0.015639  41.12  0.001161942    2.588    0.614
        66  -8.2796     93.3066     11.6900   2.5624394489e+02  -5.6067403174e+01   0.01955936   0.01280986 -36.21 0.0003684628    1.615    0.381
        67 -11.4643    181.3246    212.2121   2.7039893857e+02  -5.6343993603e+01   0.05019335   0.04039096  35.21  0.001148381    1.238    0.192
