#   1 NUMBER                 Running object number                                     
#   2 MAG_AUTO               Kron-like elliptical aperture magnitude                    [mag]
#   3 X_IMAGE                Object position along x                                    [pixel]
#   4 Y_IMAGE                Object position along y                                    [pixel]
#   5 X_WORLD                Barycenter position along world x axis                     [deg]
#   6 Y_WORLD                Barycenter position along world y axis                     [deg]
#   7 A_WORLD                Profile RMS along major axis (world units)                 [deg]
#   8 B_WORLD                Profile RMS along minor axis (world units)                 [deg]
#   9 THETA_WORLD            Position angle (CCW/world-x)                               [deg]
#  10 FWHM_WORLD             FWHM assuming a gaussian core                              [deg]
#  11 ELONGATION             A_IMAGE/B_IMAGE                                           
#  12 ELLIPTICITY            1 - B_IMAGE/A_IMAGE                                       
         1  -9.5317    188.5015     20.6956   4.8737763143e+01   3.5286502902e+01    0.2589056    0.2470135 -82.67 0.0006863131    1.026    0.026
         2  -9.2693     97.7456     12.2984   6.3197844566e+01   5.8585611598e+01    0.2691593    0.1728136  -4.69 0.0009196818    1.633    0.388
         3  -8.3980     80.2834     12.4456   6.8470366501e+01   6.2103327367e+01    0.2129705     0.147552 -41.25  0.001133201    1.772    0.436
         4  -7.8052    170.5039      7.5962   4.7149496370e+01   4.1323579825e+01    0.1395122      0.12537  66.91 0.0001125193    1.025    0.024
         5  -8.0434    137.4304      6.5034   5.1961317344e+01   4.9877745123e+01    0.1368727    0.1261319  47.35 7.880183e-05    1.026    0.025
         6  -8.7706    237.6908      3.6995   3.9122797678e+01   2.4890348644e+01    0.1212139   0.09555762  41.76 0.0002901168    1.601    0.375
         7  -9.2365    229.6031      2.7438   3.9538321333e+01   2.6894909455e+01    0.1884897    0.1047789 -40.93 0.0009565323    1.644    0.392
         8  -8.8565      5.4922    243.5000   1.3231431348e+02   2.4086508688e+01   0.09920645   0.06560603  71.08 -9.863365e-05    1.016    0.016
         9 -10.5896    245.6968    248.0832   9.2169043130e+01  -1.0335216586e+01    0.4994483    0.2278985  39.95  0.002727198    1.906    0.475
        10 -10.5529    250.2346    241.4973   9.0386772719e+01  -1.0310290910e+01    0.4906812    0.2458873 -31.31  0.002905767    2.235    0.553
        11  -8.5641    214.4008    250.1598   9.7717709658e+01  -6.0004828611e+00     0.131134    0.1082088 -38.29 0.0009430698    1.684    0.406
        12 -10.1769    195.4902    248.6308   1.0075376281e+02  -2.9269720497e+00    0.3152256    0.2299528  39.90  0.002163923    1.171    0.146
        13  -9.3259    157.7064    221.8777   1.0384551362e+02   6.9659534721e+00     0.221119    0.2082713 -19.67 0.0006985037    1.266    0.210
        14 -11.4698    174.2427    244.9449   1.0398351044e+02   8.9467463958e-01    0.6389574    0.4473364  56.41   0.00407299    1.566    0.362
        15 -11.0934    162.5196    234.2203   1.0466060163e+02   4.2893269253e+00    0.6310128    0.3395863  34.34  0.002494495    1.694    0.410
        16 -11.4341    165.2251    248.8617   1.0608315804e+02   1.8059875544e+00    0.8689832     0.363814  48.54  0.004355815    2.113    0.527
        17 -11.6973    164.2971    226.5385   1.0326701089e+02   5.1328503647e+00     0.850494    0.3628768  35.61  0.003895515    2.209    0.547
        18  -8.7620    103.3847    242.1369   1.1625716415e+02   1.2357924216e+01    0.1412417   0.09759338  89.20  0.000398267    1.606    0.377
        19 -10.4774    107.7123    237.3629   1.1501667114e+02   1.2496024257e+01    0.4219171    0.2420171  85.04  0.002261623    2.475    0.596
        20  -8.5485    148.0123    237.6617   1.0775831925e+02   6.1469028032e+00    0.2421235     0.129684 -50.86  0.001349075    2.329    0.571
        21  -7.7597    124.3357    239.6929   1.1228168017e+02   9.5868762216e+00    0.1220928   0.07568696  63.77 0.0007041391    1.673    0.402
        22 -11.5573    168.4193    242.2184   1.0466024856e+02   2.1967333378e+00    0.8471302    0.3796098  31.02  0.003374323    2.451    0.592
        23  -9.4261    114.9946    228.4407   1.1273287453e+02   1.2875284971e+01    0.3681976    0.1629793 -55.31  0.001870216    2.641    0.621
        24 -11.0851     89.6944    222.3614   1.1678385552e+02   1.7743423825e+01    0.5893146    0.3251269 -50.51  0.003255104    2.408    0.585
        25 -10.4300    236.4419    230.3939   9.0888043330e+01  -7.1104699927e+00    0.3149459    0.2491978 -46.64  0.001793027    2.014    0.504
        26  -9.7826    114.7384    221.5473   1.1198824767e+02   1.4102598807e+01    0.2699065    0.2240635  19.89  0.001266589    1.603    0.376
        27  -8.2998     78.5075    231.4962   1.1966902746e+02   1.7688439802e+01    0.1143297   0.08961198  64.16 2.314223e-05    1.041    0.040
        28 -10.7386    245.6216    228.9571   8.9096404327e+01  -8.3206657007e+00    0.4149225    0.2383717  40.22    0.0017698    1.660    0.398
        29 -10.1158    185.0306    226.8549   9.9464587592e+01   1.5987909475e+00    0.2776276      0.27547   9.42  0.001150954    1.276    0.216
        30  -9.3158    181.4767    227.0159   1.0014389847e+02   2.1721325672e+00    0.3203246    0.2031754 -29.85  0.001831816    1.968    0.492
        31  -8.4615    144.8218    228.8828   1.0722741184e+02   8.0167503127e+00    0.1851692    0.1493714  31.15  0.000701077    1.255    0.203
        32  -8.7635     72.8922    228.4053   1.2039927195e+02   1.8996033504e+01    0.2300301    0.1230203  76.48  0.001287985    2.017    0.504
        33 -10.8702    132.0709    217.9153   1.0821574910e+02   1.1931907302e+01    0.6608183    0.3672003 -68.30  0.003311393    2.481    0.597
        34 -10.2529    128.5812    225.7658   1.0987847362e+02   1.1172873637e+01    0.2812047    0.2377924 -42.56  0.001305823    1.521    0.342
        35 -11.3889    125.6917    221.0959   1.0984785931e+02   1.2430692076e+01    0.4442783    0.4156199 -46.52 0.0008001946    1.345    0.257
        36 -11.1715    100.1420    219.0067   1.1447040351e+02   1.6807438692e+01    0.6377993    0.3384447  59.12  0.003014238    1.811    0.448
        37  -8.6914    176.5201    227.3507   1.0110992917e+02   2.9565982116e+00    0.2124285   0.09781457  40.77 0.0005484987    1.783    0.439
        38  -7.8107      1.4549    226.5079   1.3224418797e+02   2.7399424543e+01    0.1020717    0.0679366  73.83   0.00013398    1.004    0.004
        39  -9.8730     19.9588    222.7753   1.2910507104e+02   2.6278166858e+01    0.2114549    0.1888927  51.62  0.001367405    1.550    0.355
        40 -10.5084    191.1906    220.6502   9.7364106342e+01   1.4341903945e+00    0.5617229    0.4157889  -7.92  0.003394927    1.601    0.375
        41  -9.3158    148.8411    220.7771   1.0537973609e+02   8.6446452078e+00    0.2805079    0.1766967 -45.58  0.001499738    1.916    0.478
        42  -8.3465     50.8394    222.3860   1.2381993847e+02   2.2906387610e+01     0.142704   0.09882494  34.22 0.0009448425    1.795    0.443
        43  -9.2482     13.7561    221.3970   1.3005074390e+02   2.7150972324e+01    0.1224309   0.09166581  40.33 0.0009501611    1.649    0.394
        44  -8.1966    183.2220    219.8692   9.8726063240e+01   2.9064894442e+00    0.1696547    0.1315108  17.79 0.0004618961    1.302    0.232
        45  -9.7747    175.7205    217.2671   9.9735361441e+01   4.5867551509e+00    0.3741056    0.2386269 -26.25  0.002015115    2.060    0.515
        46  -9.3655     74.9351    219.3683   1.1922783648e+02   2.0365014046e+01    0.3051401    0.1596142  71.86  0.001281074    2.077    0.519
        47  -9.5652     84.3438    216.8754   1.1723389814e+02   1.9517502601e+01     0.293507    0.2465198 -45.03  0.001987718    1.702    0.412
        48  -9.5096    112.2278    214.4199   1.1161918426e+02   1.5770106867e+01    0.2969875    0.2304729 -30.22  0.001313074    1.975    0.494
        49  -9.8263    118.8131    215.1189   1.1042571665e+02   1.4591142976e+01    0.5155409    0.3142416  55.75  0.002873421    1.494    0.331
        50  -9.0224    115.8038    210.4654   1.1042795908e+02   1.5920438393e+01    0.3132267    0.2027981 -80.83  0.001004039    1.916    0.478
        51  -8.7042    117.1892    206.3131   1.0961595390e+02   1.6463929858e+01    0.2318874    0.1622775  34.85 0.0008902387    1.495    0.331
        52  -9.4685     18.5790    249.7899   1.3063555751e+02   2.1733313252e+01    0.2256428   0.09531085  46.06  0.001101639    1.850    0.460
        53  -9.3147    143.8148    216.1976   1.0570983670e+02   1.0253539483e+01    0.2793212    0.2092275 -47.14  0.001292312    1.588    0.370
        54  -8.0849    137.2822    215.3532   1.0686232785e+02   1.1501936774e+01    0.1182649   0.09779702   3.50 0.0006518593    1.658    0.397
        55 -10.0813    127.6520    232.0640   1.1080888246e+02   1.0285433210e+01    0.2476572    0.1467693  29.29  0.001325788    2.034    0.508
        56 -10.6053     77.8730    211.0044   1.1787394913e+02   2.1537351702e+01    0.4038409    0.3215804 -71.39  0.002132176    1.350    0.259
        57  -8.5877    208.3176    213.3150   9.2993243850e+01  -4.5323832236e-01    0.2512082    0.1371091   8.75  0.001031333    3.242    0.692
        58  -9.0113    211.4809    212.5211   9.2278156375e+01  -8.8061375537e-01    0.1930242    0.1018514  31.96  0.000166506    1.708    0.414
        59 -11.7298     98.8681    227.6831   1.1562985628e+02   1.5454709713e+01    0.6142112    0.4788756  71.33  0.002700045    1.141    0.124
        60  -8.7903     94.0524    209.4374   1.1457880879e+02   1.9500429026e+01    0.1784901    0.1093386  34.21 0.0006355071    1.818    0.450
        61  -8.5942    186.0325    211.8988   9.6918564580e+01   3.6027118573e+00    0.2078504    0.1437774  11.40 0.0009822247    1.747    0.428
        62  -7.8850    223.3372    211.6900   8.9990266357e+01  -2.7540575639e+00    0.1121271   0.09930966  63.03 0.0007044158    1.684    0.406
        63  -9.1075    119.5519    227.5299   1.1178112615e+02   1.2316538288e+01    0.1937428    0.1125811 -75.92 0.0007020639    2.347    0.574
        64 -10.5699    107.5896    223.3889   1.1354917860e+02   1.4891093210e+01    0.4737168    0.3490482  15.23  0.002252877    2.214    0.548
        65  -8.6431    233.5105    210.5586   8.7988109661e+01  -4.2717608418e+00    0.1257383    0.1002316  15.55 0.0001293255    1.007    0.007
        66  -9.7918    202.7744    209.0361   9.3283477015e+01   1.1005558361e+00    0.3059615    0.2491673   9.50  0.000984368    1.174    0.148
        67  -9.5713    246.4427    209.1452   8.5498147992e+01  -6.1496331186e+00     0.228701    0.1546756  48.74  0.001328351    1.908    0.476
        68  -7.5918    147.3668    209.6542   1.0407538097e+02   1.0756192591e+01    0.1365937   0.09320591  69.58 0.0007022269    1.865    0.464
        69  -8.8913    134.4839    208.6835   1.0648815731e+02   1.3142644378e+01    0.3310921    0.1299658  43.53  0.001329365    2.183    0.542
        70  -8.8109    207.6408    204.0511   9.1502152815e+01   9.6989112310e-01    0.3380843    0.1468158  26.10  0.001258604    3.320    0.699
        71  -9.5443    211.9181    203.1563   9.0547998443e+01   3.5171738262e-01    0.2622634    0.1911258 -36.42  0.001001806    1.551    0.355
        72  -9.2748    212.7369    207.3303   9.1142015387e+01  -3.7818671612e-01    0.2794168    0.2124006  34.19  0.001548632    1.166    0.142
        73  -8.2659    215.9958    204.0108   8.9951393411e+01  -4.7492917932e-01    0.1863012    0.1324997  14.52 0.0003657254    1.368    0.269
        74  -8.2210    162.5621    208.2403   1.0086678401e+02   8.3265271082e+00    0.1571893    0.1244647 -24.91 0.0005017041    1.544    0.353
        75  -9.3223     11.4206    207.8184   1.2973615263e+02   2.9912138939e+01    0.1622054    0.1451129  16.70  0.001140821    1.886    0.470
        76  -8.2203    235.5469    205.9150   8.6792521282e+01  -4.0092589580e+00    0.1810743   0.09610499  -7.39 0.0008074323    2.676    0.626
        77  -7.7507    177.3714    206.2794   9.7656050878e+01   6.0066965363e+00    0.1351311   0.09366939  17.14  0.000701094    1.694    0.410
        78 -10.1844    123.9957    205.9958   1.0820984565e+02   1.5398370059e+01    0.1837323    0.1563938  57.14  0.001162889    1.009    0.009
        79  -8.2696     99.0133    206.0347   1.1320712985e+02   1.9399024081e+01    0.2086674    0.1293535  71.57  0.001117467    1.761    0.432
        80  -9.3655    248.7316    205.0052   8.4350987059e+01  -6.0014502636e+00    0.2080658    0.1493591  25.93  0.000475709    1.203    0.169
        81  -8.1693     56.3597    205.6693   1.2146891376e+02   2.5416076776e+01    0.1299518    0.0685247  67.30 0.0007041518    1.797    0.444
        82  -8.9837    130.5108    201.6908   1.0628961947e+02   1.5092347260e+01     0.257073    0.2407981 -40.71  0.001669989    1.281    0.219
        83  -8.1109     49.4566    202.5001   1.2250467974e+02   2.6887389623e+01    0.1191985    0.0887191  74.34 0.0002764071    1.053    0.050
        84  -7.8135    186.3086    201.2934   9.5073808731e+01   5.1894794479e+00    0.1326192    0.0954172  13.20  0.000281776    1.585    0.369
        85  -7.6337     57.3345    201.3172   1.2089475540e+02   2.6157788825e+01    0.1039428    0.0911036 -43.60 0.0005058944    1.694    0.410
        86 -10.0825    250.0106    198.6281   8.2942456084e+01  -5.4101829325e+00    0.3504734    0.2014924 -23.40  0.001406083    1.679    0.405
        87  -8.9837     88.9849    199.4606   1.1444037433e+02   2.2197087819e+01    0.2338222     0.155339  86.93  0.001180402    1.587    0.370
        88  -9.0709    165.2414    198.2579   9.8715782055e+01   9.5274473914e+00    0.2835886    0.1940369  18.57   0.00101671    1.827    0.453
        89  -8.4681    149.2166    199.0037   1.0207646864e+02   1.2299007439e+01     0.210236    0.1490073  87.66  0.001052156    2.093    0.522
        90 -11.1130    173.3989    194.9884   9.6520720520e+01   8.5854006566e+00    0.6486034    0.5454183 -25.06  0.001923683    1.330    0.248
        91  -8.9580    180.8347    193.8760   9.4841693910e+01   7.3943503984e+00    0.2376961    0.2129106  24.60 0.0008168771    1.035    0.034
        92  -9.8353    126.5162    197.1929   1.0645392275e+02   1.6621917733e+01    0.3019626    0.2614291  27.70  0.001135367    1.310    0.237
        93  -9.3288    124.5959    192.3900   1.0614315248e+02   1.7876575826e+01    0.2637868    0.2220611  71.83 0.0006665017    1.162    0.139
        94  -8.4086    112.5827    197.4860   1.0936960203e+02   1.8901593689e+01    0.2400175    0.1460888  84.58  0.001126279    2.341    0.573
        95  -8.5466    131.9120    195.5319   1.0509108026e+02   1.6004299559e+01    0.2106253     0.171301  67.09  0.001046736    1.224    0.183
        96  -9.3307    135.3483    193.0864   1.0400122656e+02   1.5864237768e+01    0.3318118    0.1891191  52.97  0.001472648    1.706    0.414
        97  -7.7481    215.6818    194.3359   8.8226386590e+01   9.6313394347e-01    0.1198831    0.1074553  82.98 0.0007048846    1.700    0.412
        98  -8.0483     43.9798    193.9909   1.2283586363e+02   2.9247726099e+01     0.215865   0.07912344  56.62 0.0007936524    2.650    0.623
        99  -8.8392    186.5212    191.1776   9.3227165314e+01   6.7825778170e+00    0.3878538    0.1681021 -31.25  0.001500509    3.120    0.679
       100  -8.5742    162.2802    191.6129   9.8186043002e+01   1.1234223631e+01    0.3591863    0.1152955 -40.87  0.001238298    3.838    0.739
       101  -7.6612     78.3065    193.6358   1.1594031947e+02   2.4919690266e+01    0.1350117   0.08104831  72.44 0.0007037974    1.742    0.426
       102  -8.1782    100.2848    200.3348   1.1225737179e+02   2.0308090195e+01    0.1133476    0.1011971 -20.53 0.0003435381    1.623    0.384
       103  -9.6036    137.6480    179.7605   1.0133295969e+02   1.8037870558e+01    0.6855457    0.2456054 -46.79  0.002548703    3.070    0.674
       104  -8.6438    138.6706    189.3535   1.0271230014e+02   1.5982434338e+01    0.2722945    0.1902714 -69.27  0.001415401    1.738    0.425
       105  -9.3734    140.5455    184.7682   1.0155986919e+02   1.6524593283e+01    0.4334769    0.2855458  21.24  0.002028457    2.104    0.525
       106 -10.3384    211.1937    182.6577   8.6816896433e+01   3.5412414638e+00    0.7559545    0.3957109 -23.90  0.003214169    2.318    0.569
       107 -10.7010    204.5318    176.2927   8.6823669299e+01   5.8147081794e+00    0.5686472     0.445417 -15.32  0.002788845    1.317    0.240
       108  -9.4752    203.5289    188.3870   8.9390989943e+01   4.0674045718e+00    0.4127871    0.3825004 -86.06  0.002178416    1.487    0.328
       109 -10.3284    197.5127    183.3483   8.9587593839e+01   5.9998775469e+00    0.6676762    0.4024687 -35.75  0.003304127    1.766    0.434
       110  -9.9893    207.8413    170.2456   8.4944691548e+01   6.1676735533e+00    0.4412427    0.3054943  27.19    0.0014363    1.434    0.303
       111 -10.7437    213.6130    167.8655   8.3341195295e+01   5.4369563614e+00    0.8948913    0.3736846  33.88   0.00336095    2.732    0.634
       112  -8.1421     67.0390    195.2873   1.1840150662e+02   2.6125081739e+01    0.2292781    0.1016585  73.89 0.0008973752    3.521    0.716
       113  -7.7366     87.3162    189.6430   1.1360071725e+02   2.4435739203e+01     0.138107   0.08545715  72.60 0.0007044692    1.749    0.428
       114  -8.1472     66.8364    189.3633   1.1781968729e+02   2.7374612490e+01    0.1616654    0.1141158  30.17 0.0009455727    1.791    0.442
       115  -8.6136    156.1232    187.8790   9.8810759558e+01   1.3055929720e+01     0.210076    0.1770658  69.27 0.0008155102    1.314    0.239
       116  -8.9240    120.6971    186.9101   1.0614088130e+02   1.9629837748e+01    0.3461897    0.1713883 -61.18  0.001363467    2.289    0.563
       117  -9.8364     95.2289    187.2778   1.1162733646e+02   2.3724690523e+01    0.5687972    0.2206717  55.46  0.002028543    3.038    0.671
       118  -8.5809     55.0849    187.2016   1.2000076077e+02   2.9331135242e+01      0.33944    0.1472488  77.11  0.001351433    3.499    0.714
       119  -9.7735    229.6057    185.6232   8.3998253196e+01  -2.3997349718e-01    0.2919597    0.2144054  56.33  0.001588038    1.856    0.461
       120  -8.8974    148.8577    186.3675   1.0007092847e+02   1.4688236139e+01    0.2540973    0.2033646 -40.72  0.001426147    1.405    0.288
       121  -9.2987    108.9991    185.7402   1.0847207838e+02   2.1838755995e+01    0.4129365     0.218454  75.26  0.001529096    3.577    0.720
       122  -8.5459    144.4376    186.5811   1.0103900848e+02   1.5462980389e+01    0.2135043    0.1847319  54.73 0.0004485335    1.079    0.073
       123 -10.5214    174.7338    180.6947   9.3652048193e+01   1.0820798409e+01    0.5608996    0.2797992 -32.34  0.002310026    2.552    0.608
       124  -7.8560     74.6203    184.2886   1.1562438673e+02   2.7383345883e+01     0.137233    0.0810428  67.17 0.0007016718    1.736    0.424
       125 -10.2243     13.8488    182.5871   1.2778390170e+02   3.4700487709e+01    0.3580298    0.2813607 -10.64  0.002451858    2.395    0.582
       126  -8.2648    218.0099    182.7284   8.5550144515e+01   2.2724963481e+00    0.1843626    0.1589275  12.95 0.0004558619    1.002    0.002
       127  -8.6973    165.5836    182.8708   9.5949879143e+01   1.2186358837e+01    0.2444673    0.1753021  33.00 0.0006550004    1.358    0.263
       128  -8.1900    130.7352    183.4138   1.0343634895e+02   1.8566154645e+01    0.1927547    0.1246153  32.71 0.0007175062    1.678    0.404
       129  -9.0015    157.1550    181.2379   9.7418932696e+01   1.4095822005e+01    0.2488264     0.196953  18.74 0.0005237726    1.445    0.308
       130  -9.3552    147.7957    180.9530   9.9356776720e+01   1.5918794592e+01    0.2834275    0.2013492 -78.89  0.001202415    1.963    0.491
       131 -10.4092    149.0051    175.0765   9.8040741300e+01   1.6832680156e+01    0.4193703    0.3375703 -49.60  0.002261718    1.334    0.250
       132  -8.2633     34.7572    188.1493   1.2414845505e+02   3.1477202831e+01     0.209182   0.08453682  68.01 0.0009456484    2.819    0.645
       133  -9.9649    231.8576    178.4433   8.2157127991e+01   4.0108203120e-01    0.4642387     0.198413 -23.77  0.001816385    2.930    0.659
       134  -9.6969    183.2437    180.7051   9.1917369484e+01   9.1756735366e+00    0.2706303    0.2388877  45.78  0.001042602    1.142    0.125
       135  -8.6248    110.1751    180.0193   1.0736801332e+02   2.2825467787e+01    0.2404202    0.1736686  28.39  0.001267883    1.669    0.401
       136  -8.3588    104.2764    179.6589   1.0860640521e+02   2.3876194115e+01    0.1377307   0.09534737  77.40 0.0002481497    1.619    0.382
       137  -9.4413     97.1191    177.9668   1.0993255141e+02   2.5384648819e+01    0.4095794    0.2500386  26.37  0.001943565    2.257    0.557
       138  -7.9582    129.6846    177.3674   1.0266149934e+02   1.9971523446e+01    0.1461995    0.1037729  78.20 0.0007037866    1.775    0.437
       139  -8.7036     87.4378    177.2059   1.1195704155e+02   2.7041328671e+01    0.2567422    0.1690162  42.71  0.001398348    1.496    0.332
       140  -9.2165     76.9967    176.0135   1.1409290449e+02   2.8823971169e+01    0.3963929    0.1902581  59.41  0.001651271    2.325    0.570
       141  -8.0487     59.7355    177.1067   1.1796739384e+02   3.0902498114e+01    0.2239058    0.1042109  70.50 0.0009430266    2.866    0.651
       142  -8.5671     12.6840    177.0693   1.2763446580e+02   3.5951061162e+01    0.1620103    0.1144684 -87.75 0.0008319814    1.102    0.093
       143  -9.5197    183.3875    173.9088   9.0558420048e+01   1.0340133280e+01    0.5059075    0.2527694 -24.18  0.001826558    3.298    0.697
       144  -9.5867    104.9932    174.7489   1.0770856366e+02   2.4798784165e+01    0.3698484    0.2280233  72.89  0.001719967    2.063    0.515
       145  -8.8191     15.0069    171.0015   1.2673821097e+02   3.7025172287e+01    0.2525406    0.1606781  21.78  0.001589135    2.309    0.567
       146  -8.2334    218.2981    174.0462   8.3743270662e+01   3.5572159959e+00    0.1879769    0.1602569 -14.89 0.0005764078    1.133    0.117
       147  -8.8251    178.5060    176.5420   9.2078548386e+01   1.0829425188e+01     0.219585    0.1841616 -21.63 3.595567e-05    1.285    0.222
       148  -9.0859    193.5092    173.0235   8.8333028067e+01   8.5029108843e+00    0.2609847    0.1791915  26.94 0.0004906695    1.493    0.330
       149  -7.8519     34.3721    173.6899   1.2298540725e+02   3.4576811222e+01    0.1296972   0.07004149  67.88 0.0007033392    1.773    0.436
       150  -9.0616    176.9261    171.3178   9.1375034604e+01   1.2085394659e+01    0.2607988    0.1973387 -21.19 0.0006897739    1.518    0.341
       151  -9.0213    178.8575    167.2501   9.0150130026e+01   1.2445182033e+01    0.3672285    0.2289051  27.23  0.001643694    1.841    0.457
       152  -9.8109    161.7529    170.3766   9.4399619687e+01   1.5269298628e+01    0.4160793    0.2355161  43.50  0.001874784    1.656    0.396
       153  -8.9661    121.9063    170.0382   1.0314299439e+02   2.2890505934e+01    0.3223255    0.2160838  77.87 0.0009153862    1.981    0.495
       154  -8.4949     79.7813    171.0029   1.1281386512e+02   2.9520599967e+01    0.4012308    0.1762727  25.37   0.00139987    4.442    0.775
       155  -8.7984     20.3020    174.0286   1.2589936540e+02   3.5898664499e+01    0.2889464    0.1122591 -84.68  0.001397611    2.374    0.579
       156  -8.3434     55.0844    169.7916   1.1815256773e+02   3.3081039404e+01    0.2625735    0.1284836  81.65  0.001144919    2.674    0.626
       157  -8.1897    247.3290    168.7236   7.7443445264e+01  -9.3714821965e-01     0.115279    0.1081533 -70.28 0.0004827039    1.594    0.373
       158  -8.6272    198.2802    168.0499   8.6359762120e+01   8.4152915017e+00    0.3694518    0.1674569  29.81  0.001312989    2.984    0.665
       159  -8.5862    111.8504    167.1569   1.0493898118e+02   2.5273218695e+01    0.3561328      0.19028 -83.35  0.001215238    3.852    0.740
       160  -8.8267     99.2194    166.3549   1.0770800184e+02   2.7563013562e+01    0.3057266    0.1774056  62.45  0.001399225    1.984    0.496
       161  -9.2395    185.7907    163.9775   8.8034036793e+01   1.1642067003e+01    0.3492278     0.244808 -14.02  0.001370008    1.785    0.440
       162 -10.1133    157.6429    164.6687   9.4165790434e+01   1.7196634132e+01    0.5858451    0.3371326  41.61  0.002623021    1.658    0.397
       163  -8.0892    160.3129    160.3304   9.2701200240e+01   1.7518813599e+01    0.1487632    0.1155047   2.38 0.0005956731    1.674    0.403
       164  -9.4370    149.5865    164.6152   9.5932013432e+01   1.8802422416e+01    0.3761775     0.270238  64.80  0.001816251    1.633    0.388
       165  -8.7578    139.4014    165.2691   9.8335075015e+01   2.0645521798e+01     0.317798    0.2008825  73.62  0.001037975    2.475    0.596
       166  -9.1230     79.9373    164.0784   1.1181151503e+02   3.1035262419e+01    0.4180872    0.2095412  74.33  0.001554985    3.443    0.710
       167  -8.0732     37.8242    164.8471   1.2140276510e+02   3.6144738965e+01    0.1727262    0.1150312  73.05  0.000459188    1.359    0.264
       168  -8.7412    192.4303    162.8029   8.6429162662e+01   1.0505956221e+01    0.2063502    0.1348238 -23.98 0.0009487181    1.745    0.427
       169  -8.8099    122.7464    163.1380   1.0173465623e+02   2.4208536186e+01    0.2634052    0.1897826  12.80  0.001109419    2.120    0.528
       170  -8.1378     69.8145    163.2152   1.1402402429e+02   3.2650059733e+01     0.226326    0.1148716  70.87  0.000889972    2.744    0.636
       171  -9.0312      9.1081    160.9310   1.2719488163e+02   3.9686185771e+01    0.4081688    0.1382034  72.08   0.00156772    4.209    0.762
       172  -8.3421    177.5849    160.7966   8.9075843963e+01   1.3903483813e+01    0.1991041    0.1387932 -54.43 0.0006598335    1.689    0.408
       173  -9.4066    150.5790    159.6416   9.4721542651e+01   1.9615140659e+01    0.4133906    0.3610281  32.93  0.002138379    1.152    0.132
       174  -8.9779     93.2522    160.8819   1.0822491094e+02   2.9733783026e+01    0.3152983    0.1862501  67.61  0.001425313    2.096    0.523
       175  -8.4437    205.6084    159.6542   8.3128858181e+01   8.3888871349e+00    0.2112926    0.1558282   5.20 0.0005033424    1.553    0.356
       176  -8.6789    144.4915    159.5548   9.6076224123e+01   2.0839500817e+01    0.2559481    0.1893127  45.83 3.076419e-05    1.297    0.229
       177  -9.2534    139.4720    158.8193   9.7073325068e+01   2.1975033744e+01    0.3934208    0.2567509  13.98  0.001585902    2.628    0.619
       178  -7.8578     62.2704    160.6745   1.1542573943e+02   3.4218546315e+01    0.1322816   0.08619505  77.47 0.0003086534    1.576    0.365
       179  -9.1125    105.9053    158.2380   1.0479895739e+02   2.8249192011e+01    0.3765553    0.2227587  67.71    0.0013841    2.246    0.555
       180  -8.5091    167.8360    157.5841   9.0484191787e+01   1.6522672916e+01    0.2736092    0.1963295 -87.16   0.00102345    2.299    0.565
       181  -9.6348    213.3319    155.2231   8.0666488595e+01   7.5844385501e+00    0.3554582    0.3013726  51.40  0.001252513    1.328    0.247
       182  -8.1288    178.2356    156.1788   8.7951237178e+01   1.4640895623e+01    0.2459232    0.1572731   4.78 0.0009380463    2.721    0.633
       183  -7.9626    157.5440    156.5372   9.2527019676e+01   1.8839744808e+01     0.146722    0.1397169  63.08  0.000106914    1.073    0.068
       184  -8.9155    119.8487    155.7793   1.0105340463e+02   2.6334646570e+01    0.3295715    0.2064413  72.48  0.001383661    2.294    0.564
       185  -8.9809     82.0684    155.0205   1.0995296025e+02   3.2772117152e+01    0.3994687    0.2111362  73.13  0.001552955    3.032    0.670
       186  -9.0874     50.1044    155.5752   1.1760068502e+02   3.6862633064e+01    0.3543403    0.1681037  59.39   0.00160129    2.381    0.580
       187  -7.7907    226.9525    156.0000   7.8301047710e+01   4.7587528042e+00    0.2103355   0.07754105  45.95 0.0004161907    2.742    0.635
       188  -8.8055    145.0426    154.8562   9.5000995678e+01   2.1707707915e+01    0.2412775    0.1840355  82.28 0.0006909648    1.702    0.413
       189  -8.4814    145.4908    151.4950   9.4200716896e+01   2.2322100991e+01    0.2234342    0.1414766 -37.01 0.0009842975    1.775    0.436
       190  -9.2019    133.7315    153.2648   9.7296312939e+01   2.4269299050e+01    0.4462893     0.292437  87.04  0.001485014    2.542    0.607
       191  -8.9563     67.9764    153.6307   1.1312191893e+02   3.5075991417e+01    0.3338549    0.1836362  84.22  0.001166472    2.441    0.590
       192  -8.8095    205.3497    151.8936   8.1467738362e+01   9.7833432407e+00    0.3725925    0.1350601 -36.29  0.001306743    2.800    0.643
       193  -8.4803    106.6737    152.8214   1.0365217163e+02   2.9329961364e+01     0.261436    0.1985131   9.24   0.00127169    1.974    0.493
       194  -8.4273    168.7324    152.4238   8.9180531487e+01   1.7348389310e+01    0.2129901     0.136402  32.98 0.0009371581    1.667    0.400
       195  -9.7967    190.0092    146.4700   8.3324555565e+01   1.3983956121e+01    0.4034714    0.2092573 -28.08  0.001163516    2.329    0.571
       196  -8.1215     91.2978    151.6390   1.0717127957e+02   3.2135117584e+01    0.1465612    0.1005197  80.21 0.0007033981    1.712    0.416
       197  -8.5384     28.6143    149.9831   1.2194086768e+02   4.0395605081e+01    0.3199649    0.1363842  75.69  0.001312252    3.280    0.695
       198  -8.7586    230.1680    149.0354   7.6172513985e+01   5.2458144674e+00    0.2495786    0.1849143 -47.85 0.0007626314    1.591    0.372
       199  -8.1990    120.3664    150.3036   9.9878768694e+01   2.7447256351e+01      0.14505    0.1171033  -4.89 0.0007035392    1.741    0.425
       200  -8.2656    220.8025    149.1902   7.7913107538e+01   7.0869230468e+00    0.1957581      0.15603  10.92 0.0007209298    1.273    0.215
       201  -9.0500     39.6371    147.8570   1.1912747409e+02   3.9781215857e+01    0.3449895    0.1695927  64.49  0.001633779    2.389    0.581
       202  -8.5654    199.9828    146.6660   8.1345219362e+01   1.1829931723e+01    0.4572493    0.1866435 -28.60   0.00149522    3.267    0.694
       203  -9.6136     56.5485    146.0926   1.1481819409e+02   3.8276682170e+01     0.535495    0.2557329  68.60  0.002126071    3.183    0.686
       204  -9.8237    149.2532    145.5864   9.2064806016e+01   2.2796845542e+01     0.508181    0.3341426  85.28  0.001924814    2.820    0.645
       205  -9.7038    107.7023    145.6415   1.0205798007e+02   3.0775235223e+01    0.6126865    0.3218286  66.82  0.002134811    3.377    0.704
       206  -8.6358     13.3939    146.5366   1.2507846584e+02   4.2500051989e+01     0.224675    0.1101801  61.60   0.00107776    2.092    0.522
       207  -8.3467    195.4377    146.2485   8.2163722003e+01   1.2868742708e+01    0.2044024    0.1391869 -48.68  0.000823519    1.636    0.389
       208  -9.6344     68.8471    145.4975   1.1169672732e+02   3.6839628941e+01    0.3826053    0.2527752  65.08  0.002006413    1.631    0.387
       209  -9.6326     69.9767    141.4447   1.1077312121e+02   3.7632856959e+01    0.4379812    0.2405261  88.11  0.001816362    2.649    0.623
       210  -7.8025    138.6404    145.2771   9.4482079969e+01   2.5022544390e+01    0.1530753    0.1157675  76.49 0.0006984489    1.661    0.398
       211  -8.5184    218.9439    143.6487   7.6995223531e+01   8.3938921174e+00    0.2056593    0.1783423  36.06  0.001127898    1.173    0.147
       212  -8.0271    165.6581    144.3409   8.8062169870e+01   1.9607150015e+01    0.2361248    0.1850643 -89.76  0.001093585    1.760    0.432
       213  -9.2659    125.3969    143.2580   9.7234834213e+01   2.8063393118e+01     0.447444    0.2761143  87.75   0.00160227    3.187    0.686
       214  -9.0296     88.1035    143.8668   1.0661363194e+02   3.4425946541e+01    0.2902463     0.212148  87.96  0.001106938    1.506    0.336
       215  -8.2784    181.6182    143.1762   8.4324158186e+01   1.6407642547e+01    0.2236323    0.1404593 -27.79 0.0009530032    1.802    0.445
       216  -8.7669      2.7770    142.3921   1.2711549764e+02   4.4218001454e+01    0.2864735     0.116005  83.69  0.001361794    2.546    0.607
       217  -8.4332     98.7883    151.0141   1.0523874648e+02   3.1068901294e+01    0.2360028     0.153007  86.77  0.001057924    2.052    0.513
       218  -7.9952     81.4860    139.9793   1.0760163349e+02   3.6338267438e+01    0.1947945    0.1137337 -87.48 0.0008082404    2.392    0.582
       219  -9.3675     23.5481    138.4818   1.2190512913e+02   4.3470172666e+01     0.426553    0.1859446  73.47  0.001811133    3.160    0.684
       220  -8.8543    107.6087    137.8393   1.0053540141e+02   3.2573859507e+01    0.4067181    0.2713253   3.65  0.001590833    3.015    0.668
       221  -8.0963    209.6822    138.2922   7.7498548201e+01   1.1259054600e+01    0.1413178    0.1199047 -77.38 0.0002238274    1.602    0.376
       222  -8.1975    197.5120    138.0066   7.9824390091e+01   1.3931654632e+01    0.2097399    0.1273676 -59.03  0.000761537    2.460    0.594
       223  -8.0296    182.6246    138.6716   8.3058708289e+01   1.7055064169e+01    0.1635467    0.1176132   9.46 0.0007025436    1.837    0.456
       224  -7.9866    172.3073    138.6536   8.5280594470e+01   1.9311734710e+01     0.154246     0.123062 -82.62  0.000704332    1.699    0.412
       225  -9.4469    150.0700    136.3592   8.9795079682e+01   2.4573711245e+01    0.4535871    0.2644773  25.54  0.001702506    2.506    0.601
       226  -8.4992     57.1826    136.6717   1.1327841885e+02   4.0399865159e+01    0.2560068      0.16738 -11.68  0.001158211    3.044    0.671
       227  -9.5175     39.2886    136.4938   1.1779255070e+02   4.2441470050e+01    0.2795019    0.1588525  67.11  0.001158156    2.001    0.500
       228  -8.4467    125.1412    136.2413   9.5794993957e+01   2.9676269893e+01    0.2487882    0.1684413  -5.74  0.000945757    2.850    0.649
       229  -8.7054    232.0257    133.4900   7.2272646975e+01   7.3965537445e+00    0.2431841    0.1788941 -28.69  0.001249085    1.262    0.207
       230  -9.2965     69.0017    133.9461   1.0977765840e+02   3.9527282105e+01    0.2186489     0.156593 -34.61  0.001134337    1.799    0.444
       231  -9.2594    132.4892    131.9903   9.3020400773e+01   2.9164619032e+01    0.3813144    0.2628456 -81.51  0.001592873    2.143    0.533
       232  -8.8708    112.6470    133.3268   9.8308464002e+01   3.2698337410e+01    0.2327857    0.1726367  84.19  0.000824939    1.702    0.412
       233  -9.7722     83.5006    131.9327   1.0560640792e+02   3.7923803064e+01    0.3979138    0.2647595  84.49   0.00129048    1.937    0.484
       234  -8.7111    226.9277    131.5256   7.2706248983e+01   8.7748280243e+00    0.2406542    0.2007312 -46.57  0.001139793    1.315    0.239
       235  -8.4940    143.3103    132.1000   9.0407617321e+01   2.6909596562e+01     0.297391    0.2016854  73.64  0.001216247    2.157    0.536
       236  -8.8792     23.1558    130.8034   1.2113217736e+02   4.5265253884e+01     0.315824    0.1195178 -49.16  0.001388114    2.932    0.659
       237  -9.2924     12.6955    129.3172   1.2356926782e+02   4.6435744583e+01    0.4582579    0.1928207  80.61  0.001976579    3.083    0.676
       238  -9.5436     13.2119    120.9698   1.2252359095e+02   4.8303819083e+01    0.4366327   0.09773136 -54.11  0.001662701    3.715    0.731
       239  -8.4002    168.8385    130.2238   8.4030548812e+01   2.1764214721e+01    0.2617586    0.1757352 -84.58 0.0009511132    2.863    0.651
       240  -8.6248    152.9663    129.6350   8.7523886141e+01   2.5374718519e+01    0.3145657    0.2024373 -62.35  0.001057468    1.987    0.497
       241  -9.7559     99.4439    128.2575   1.0065570002e+02   3.6211283086e+01     0.525313    0.3230713  89.91  0.001810449    2.771    0.639
       242  -8.6727     73.3043    129.6714   1.0788684190e+02   3.9945720646e+01    0.2155178    0.1467827  77.43 0.0006403865    1.771    0.435
       243  -9.0482     41.1426    129.6771   1.1638695724e+02   4.3843439141e+01    0.2458277    0.1528386 -18.64   0.00115789    3.017    0.669
       244  -9.3827    118.3685    125.7603   9.5151519117e+01   3.3347637100e+01    0.5249965    0.3128124  72.49  0.001870833    3.072    0.674
       245  -9.7885     59.6786    124.6596   1.1065886390e+02   4.2930358947e+01    0.5899952    0.3104888  79.60  0.002214325    3.470    0.712
       246  -9.1103    132.4029    125.2973   9.1470312363e+01   3.0661803179e+01    0.3388598    0.2375133  13.39  0.001416216    2.145    0.534
       247 -10.2398     44.0500    122.9220   1.1460971462e+02   4.5129397893e+01     0.676237    0.3360202  82.03  0.002527877    3.348    0.701
       248  -8.4183    179.2694    124.4565   8.0314528027e+01   2.0566036476e+01    0.2687829    0.1864613 -59.56  0.000734954    1.800    0.444
       249  -8.9978     84.6915    122.2117   1.0335376802e+02   4.0031709825e+01    0.3766877     0.265819   1.81  0.001723892    2.324    0.570
       250 -10.2135     28.3795    122.2662   1.1871233973e+02   4.6793303627e+01     0.726964    0.3124076  76.72  0.002518943    4.679    0.786
       251  -8.1622    158.2993    121.6326   8.4296004795e+01   2.5875594372e+01    0.1613284    0.1246899 -78.88 0.0007032382    1.732    0.423
       252  -9.7449    142.3996    120.1819   8.7731755093e+01   2.9677492042e+01    0.4173987    0.3053993 -78.75  0.001480143    1.906    0.475
       253  -8.6461     98.6917    120.2748   9.9114473120e+01   3.8198669791e+01    0.3034041    0.1610029 -35.93  0.001167373    2.487    0.598
       254  -8.6241    118.1842    119.6586   9.3760312006e+01   3.4766549013e+01    0.3223437    0.1978748  15.78  0.001158316    3.040    0.671
       255  -8.5998    108.0724    120.1948   9.6567224178e+01   3.6551566897e+01    0.2344411    0.2060793 -20.33  0.001236126    1.313    0.238
       256  -9.3998     71.2261    118.3583   1.0629815014e+02   4.2914046443e+01    0.6234781    0.2322147 -52.01   0.00225871    2.376    0.579
       257  -9.0706    131.0923    118.8878   9.0234444286e+01   3.2348718303e+01    0.3314009    0.2297302  88.21  0.001329763    2.312    0.568
       258  -9.6003      2.6838    116.6329   1.2476726133e+02   4.9991236315e+01     0.517289    0.2003838  86.13  0.002197081    3.188    0.686
       259  -9.2162      2.4101    109.9759   1.2412273326e+02   5.1513873195e+01     0.351491    0.1420881 -40.74  0.001650634    3.218    0.689
       260  -9.4602    109.6919    114.5225   9.4779364889e+01   3.7552794311e+01    0.4492261    0.2859229 -79.16  0.001293782    2.514    0.602
       261  -9.8515     79.4570    113.1224   1.0288043573e+02   4.2969061432e+01    0.4861694    0.3076338  85.77   0.00172614    2.488    0.598
       262  -9.5801     92.8145    112.7941   9.9025585522e+01   4.0936049543e+01    0.4141354    0.2862708 -86.01  0.001352199    1.986    0.497
       263  -8.6739    142.0449    112.0239   8.5719115149e+01   3.1508742192e+01     0.476857    0.2732148  23.30  0.001632471    2.973    0.664
       264  -8.4699    122.0648    113.0046   9.1091827480e+01   3.5497455348e+01    0.2372275    0.1861658 -86.63 0.0005311484    1.624    0.384
       265  -8.6017    158.0940    111.3782   8.1679486207e+01   2.8042272080e+01    0.2562675      0.21651 -66.96 0.0006408127    1.346    0.257
       266  -9.6461     66.5217    110.7223   1.0608826696e+02   4.5357677245e+01    0.3880879    0.2431338  81.00  0.001630239    2.397    0.583
       267 -11.0631     14.5025    109.2703   1.2074281042e+02   5.0899302968e+01    0.5859609    0.2693171 -68.30  0.002458337    1.641    0.391
       268 -10.7520     23.1754    102.9855   1.1737498090e+02   5.1711126342e+01    0.7017983    0.3465354  73.48  0.003012812    3.264    0.694
       269 -10.3849     21.5825     92.2140   1.1609890596e+02   5.4318265289e+01    0.5662417    0.2288313 -39.29  0.002475365    2.991    0.666
       270  -9.1489    133.7811    108.6475   8.6908381438e+01   3.4026107962e+01    0.5376025    0.2089937 -44.88  0.001820804    2.510    0.602
       271  -9.9606     60.7583    106.5394   1.0690901992e+02   4.7086885392e+01    0.2795636    0.2190003 -16.10  0.001549197    1.659    0.397
       272  -8.8223    122.5049    107.5595   8.9565049591e+01   3.6619537482e+01    0.4909966    0.1515395  40.59  0.001462035    3.573    0.720
       273  -9.7960    110.7882    106.5502   9.2475124529e+01   3.9156028020e+01    0.4271035    0.2720651  25.45  0.001417343    2.059    0.514
       274 -10.5024     45.7506    102.6108   1.1060079024e+02   4.9738736333e+01    0.7260209      0.37767  70.55  0.002766842    3.793    0.736
       275  -8.8661    150.5799    104.1615   8.1507716818e+01   3.1251633741e+01    0.3741497    0.2244596 -59.53   0.00100861    2.193    0.544
       276  -8.3728    139.5692    104.8050   8.4399726144e+01   3.3592955803e+01    0.2175881    0.1460919 -54.79 0.0005915202    1.613    0.380
       277  -8.9437     93.6556    103.9342   9.6643709946e+01   4.2844936209e+01     0.315643    0.2182525  16.72  0.001365085    1.994    0.499
       278  -9.7143      6.6494    103.2114   1.2215506643e+02   5.2798384126e+01    0.2622391    0.1493206 -83.73  0.001049801    1.529    0.346
       279  -7.7153    215.3340    102.7126   6.7612858928e+01   1.6243058315e+01    0.1507913    0.1182161 -70.19 0.0007016415    1.626    0.385
       280  -9.2154    128.4393    102.1257   8.6529399136e+01   3.6576028384e+01    0.3196039    0.2363364 -77.83  0.001150006    1.869    0.465
       281  -9.2328    129.7397     97.6140   8.4927810505e+01   3.7266627127e+01    0.3890139    0.2732453  21.73  0.001167465    1.844    0.458
       282  -8.6564     82.2928    100.2935   9.9071353209e+01   4.5532245889e+01    0.2760406    0.1969504  83.52 0.0007954785    2.007    0.502
       283  -8.1400    101.4336    100.2314   9.3449908292e+01   4.2322527930e+01    0.2139427     0.137437 -60.16 0.0008871222    1.668    0.401
       284 -10.1051     64.0002     96.3145   1.0367736316e+02   4.9066578340e+01    0.4814591    0.2987522  85.58  0.001897664    2.803    0.643
       285  -9.5689      7.7083     96.9752   1.2102708198e+02   5.4154326774e+01    0.2846537    0.1394169 -36.54  0.001484629    2.499    0.600
       286  -8.8006     94.9537     97.1346   9.4508950887e+01   4.4171755401e+01    0.2230481    0.1930629 -79.89 0.0004845126    1.296    0.229
       287  -9.9518     45.4455     91.9267   1.0852095482e+02   5.2261553277e+01    0.4063056    0.2226886  13.49   0.00190797    2.707    0.631
       288  -9.0605    124.6799     91.1520   8.4414390872e+01   3.9718634573e+01    0.3646244    0.2686183 -86.76  0.001213338    2.066    0.516
       289  -9.0886    108.4899     91.6167   8.9051863941e+01   4.2911659266e+01    0.4315117    0.2511024  24.88   0.00168312    2.450    0.592
       290 -10.1413     34.6708     89.6176   1.1148155287e+02   5.3843114138e+01    0.4713312    0.2584125 -82.33  0.002097332    2.308    0.567
       291 -10.0995     36.7526     81.2736   1.0902607210e+02   5.5559387920e+01    0.4756367    0.2565659 -26.22  0.002220694    2.592    0.614
       292  -9.6092      5.0675     92.0586   1.2112772501e+02   5.5421795451e+01    0.2914496    0.1643948  84.28  0.001522114    1.963    0.491
       293 -10.4263      8.6904     83.1679   1.1865470714e+02   5.7222753986e+01    0.4771158    0.3268873 -44.04 0.0009577999    1.400    0.286
       294  -8.7600     96.4480     90.6296   9.2288727216e+01   4.5364318699e+01    0.3209593    0.2146804  -1.41   0.00123924    2.506    0.601
       295  -9.9712    109.7104     99.4405   9.0888407140e+01   4.0954576668e+01    0.6971891    0.3895514  65.90  0.002374769    3.391    0.705
       296  -9.3688     86.2967     86.6322   9.4246100225e+01   4.7987397420e+01    0.3482106    0.2443151 -79.01  0.001065744    2.091    0.522
       297  -8.9913     65.7680     86.8233   1.0079118275e+02   5.1011577517e+01    0.5198605    0.2557535  15.08  0.001848803    4.051    0.753
       298  -9.7434     48.3832     84.5165   1.0589642178e+02   5.3649301305e+01    0.4482477    0.2766424  72.20  0.002010953    2.829    0.646
       299  -9.5887     49.5656     77.2889   1.0371224818e+02   5.5148208200e+01    0.4040563    0.2507462  -4.67  0.001678342    2.448    0.592
       300  -9.0357    126.5116     84.3438   8.1885978279e+01   4.0736618440e+01    0.4572401    0.2606968  18.79  0.001465771    3.551    0.718
       301  -9.2281    104.8637     83.2662   8.7649983137e+01   4.5405561366e+01    0.3853539    0.2833019 -85.45    0.0014924    2.135    0.532
       302  -9.8360     24.6162     81.2668   1.1309177979e+02   5.6587491958e+01    0.3048804    0.2131562  77.73  0.001346517    1.828    0.453
       303  -9.3806     88.5885     79.8358   9.1559169574e+01   4.9087778548e+01    0.6270069    0.2801328  24.35  0.001938271    4.421    0.774
       304  -8.5212     74.7653     80.9437   9.6290322422e+01   5.1053261624e+01    0.2230644    0.1573944 -76.52 0.0008864864    1.958    0.489
       305  -8.7947    184.1736     78.0798   6.6631379645e+01   2.8092466933e+01    0.2430587    0.2117589   8.72 0.0006959991    1.273    0.215
       306  -8.5080     61.6383     77.2032   9.9583575670e+01   5.3709605876e+01    0.3341314    0.1578374 -64.02  0.001310989    2.685    0.628
       307  -8.9656    105.9568     76.5779   8.5262694216e+01   4.6588988537e+01     0.458101    0.2260669  28.10  0.001591169    3.084    0.676
       308  -8.6844    127.8792     75.7107   7.8825720474e+01   4.2157958549e+01    0.2980686    0.1985219 -63.70   0.00115882    2.110    0.526
       309  -8.1086     13.4960     74.5032   1.1552271756e+02   5.8875674325e+01    0.1224147   0.09326608 -59.60 0.0008106767    1.002    0.002
       310  -9.2768     82.5301     72.9082   9.1375729519e+01   5.1572121240e+01    0.3496262     0.256043 -85.65   0.00142385    2.262    0.558
       311 -10.1401     28.3242     70.6625   1.0950851907e+02   5.8668035825e+01    0.7444184    0.3053912 -26.08   0.00255417    5.122    0.805
       312  -9.2179     44.2553     67.4375   1.0295055731e+02   5.7889433917e+01    0.2374634    0.1626088  -4.19  0.001300589    1.858    0.462
       313  -8.6861    105.8111     71.9684   8.3827293371e+01   4.7551202047e+01    0.2419138    0.1703042 -66.05  0.001066674    1.976    0.494
       314  -8.5131     95.4454     71.7526   8.6903817217e+01   4.9570920746e+01     0.281896    0.1344431 -49.14  0.001072099    2.118    0.528
       315 -10.5597      7.6206     67.7420   1.1626305008e+02   6.0709523805e+01    0.7022578    0.1814203 -48.13  0.003028115    2.822    0.646
       316  -9.5976     51.3241     69.7500   1.0106692320e+02   5.6607185929e+01    0.4524431    0.2166916 -67.13  0.001705025    3.005    0.667
       317  -8.9360     16.4514     70.3124   1.1365207773e+02   5.9616409479e+01    0.2532021    0.1597672  81.38 0.0009384851    2.249    0.555
       318  -9.8457     17.9866     62.9328   1.1146285172e+02   6.1128343569e+01    0.5725295    0.1318886 -46.21  0.002113738    3.289    0.696
       319  -9.0529      1.4105     68.8424   1.1864985871e+02   6.0782462870e+01    0.2875533   0.07700476 -65.26  0.001258345    2.517    0.603
       320  -9.2207     10.0269     74.5009   1.1670769450e+02   5.9083938036e+01    0.2200506    0.1726662 -55.92 0.0004885028    1.074    0.069
       321  -8.1115    146.4451     68.2431   7.1736672299e+01   3.9222728432e+01    0.2225086    0.1427631 -46.20 0.0009420589    1.635    0.388
       322  -9.3766    116.9062     67.5489   7.9159918029e+01   4.6126952285e+01    0.2613358    0.2069672 -40.86 0.0003586294    1.238    0.192
       323  -7.9823    121.6690     66.3527   7.7438504668e+01   4.5318137721e+01    0.1559551     0.121611 -73.74 0.0007046562    1.778    0.438
       324  -8.7191     82.5129     65.5128   8.9006322313e+01   5.3100282443e+01    0.2423973    0.1745614   4.46  0.001078169    1.747    0.428
       325  -8.4050     85.3414     63.3100   8.7338014975e+01   5.3062951242e+01    0.2044989    0.1452135  16.34 0.0007182464    1.680    0.405
       326  -8.8700     42.4090     72.6122   1.0499177703e+02   5.6949079198e+01    0.3292719    0.1166276 -62.07  0.001251022    2.898    0.655
       327  -8.3060    110.0118     64.0030   7.9931609968e+01   4.8248209640e+01    0.2268664    0.1855776 -73.72 0.0007559964    1.644    0.392
       328  -9.3464     73.2412     60.1321   9.0342372389e+01   5.5665108715e+01    0.3493564      0.23067 -57.87  0.001096859    1.784    0.439
       329  -9.2007     75.9620     49.7813   8.5721561314e+01   5.7219369634e+01    0.4060033     0.226525   5.60  0.001449302    3.740    0.733
       330  -8.4923     51.3063     61.3652   9.8602785203e+01   5.8395117763e+01    0.1420714   0.08665495 -28.44 0.0007037307    1.745    0.427
       331  -7.5505    170.4289     60.5269   6.4044912335e+01   3.4534211221e+01     0.152509    0.1494563   5.14 7.934125e-05    1.026    0.025
       332  -9.9854      7.7935     50.7021   1.1247349941e+02   6.4351454292e+01    0.3742313   0.06737435 -53.21    0.0015188    2.933    0.659
       333 -10.3881      6.9341     57.3848   1.1436494811e+02   6.2986095542e+01    0.4335093    0.2560699 -42.43  0.002370259    1.429    0.300
       334  -9.3962      1.6755     55.8954   1.1605008836e+02   6.3563749321e+01     0.444671   0.09884907 -57.51   0.00195155    2.562    0.610
       335  -8.4315    111.3018     58.8440   7.7768222054e+01   4.8930532882e+01    0.3361928    0.1594714  28.45  0.001084457    3.499    0.714
       336  -9.3245     39.1958     57.8394   1.0207683257e+02   6.0450327819e+01    0.2296041    0.1836765 -38.49  0.001460238    1.044    0.042
       337  -8.4261     24.6799     59.3295   1.0804806187e+02   6.1418647505e+01    0.1747593    0.1360329  85.05 0.0007232538    1.744    0.427
       338  -8.6464     62.9316     55.2872   9.2354116438e+01   5.8137939236e+01    0.2279615    0.1681503 -50.64 0.0006375948    1.352    0.260
       339  -9.0826     43.9442     55.5766   9.9566599005e+01   6.0425909775e+01    0.2552662    0.1607755 -66.09  0.001009631    1.968    0.492
       340  -9.9053    100.5407     54.2823   7.9331541148e+01   5.1952159540e+01    0.2663769    0.2346991  -0.57 0.0002142691    1.097    0.089
       341  -8.7757     54.4611     54.5000   9.5222178966e+01   5.9416129634e+01    0.2348029    0.1180878 -58.02  0.001023235    2.351    0.575
       342  -9.1015     25.7780     54.8652   1.0641973929e+02   6.2276420698e+01    0.2479498    0.1569729 -14.34  0.001424332    1.881    0.468
       343  -8.7455     92.4875     51.5396   8.0844255755e+01   5.3997562664e+01    0.2688405    0.1842883 -59.90  0.001001148    2.084    0.520
       344  -9.1263     31.0911     51.8962   1.0345708616e+02   6.2445504069e+01    0.2288025     0.171665  82.34  0.001000263    2.171    0.539
       345  -9.1752     46.1099     49.1638   9.6623392721e+01   6.1476628172e+01    0.2414339    0.1649765   3.36  0.001013695    1.725    0.420
       346  -9.4624     17.0259     39.9741   1.0563737620e+02   6.5966621336e+01    0.3710108   0.09893516 -38.08  0.001384241    3.811    0.738
       347  -9.3723     22.3795     47.0966   1.0554905766e+02   6.4145419394e+01    0.3830189     0.193918  11.86  0.002029418    2.533    0.605
       348  -9.4486     16.2901     45.1318   1.0750282204e+02   6.4983030973e+01    0.2234072    0.1867992  48.58  0.001557684    1.671    0.402
       349  -8.3343     81.8004     47.2014   8.2740074849e+01   5.6701741938e+01    0.1996605    0.1790481 -35.92 0.0005026046    1.181    0.153
       350  -8.7224     64.2588     46.8476   8.8845195014e+01   5.9567040266e+01    0.2657459     0.165031   3.42  0.001241431    2.245    0.555
       351  -8.2110    130.6070     45.9005   6.7961542750e+01   4.6756461290e+01    0.2105843     0.171819  32.46 0.0006429111    1.217    0.178
       352  -7.5986      1.3104     46.2981   1.1403360327e+02   6.5591444618e+01    0.1206432   0.06087335 -41.76 0.0002415294    1.598    0.374
       353  -8.8230     45.0083     45.0399   9.5624406508e+01   6.2405732064e+01     0.183643    0.1526114 -72.69 0.0006339729    1.687    0.407
       354  -8.5611     58.3986     43.2045   8.9686461575e+01   6.1067717469e+01    0.1894692     0.113735 -51.06 0.0009474975    1.798    0.444
       355  -9.9566      4.9057     41.4521   1.1129336142e+02   6.6406933047e+01    0.4262533    0.1944533 -73.85  0.002002867    2.898    0.655
       356  -8.2720     69.0063     41.7700   8.5152892278e+01   5.9768334623e+01    0.1903103    0.1586012  75.33 0.0008542148    1.968    0.492
       357  -8.4246    113.9022     41.5118   7.0684477948e+01   5.1263730399e+01    0.2106194    0.1392358  47.04 0.0004434974    1.497    0.332
       358  -8.7923     36.8537     41.1461   9.7573990679e+01   6.4033806425e+01    0.1793251    0.1598514 -53.04  0.001089584    1.325    0.245
       359  -7.8131    123.4902     40.4538   6.7752681109e+01   4.9247867644e+01    0.1498929    0.1343523  16.80 0.0008078646    1.068    0.063
       360  -9.0150     84.0234     39.9429   7.9159521244e+01   5.7546477885e+01    0.2159457    0.1787882  -1.69  0.000508795    1.135    0.119
       361  -8.0998     46.3517     39.3165   9.2977813768e+01   6.3327481279e+01    0.1354609   0.08451562 -17.91 0.0005253524    1.736    0.424
       362  -8.9768    106.3190     36.9182   7.1031281720e+01   5.3604925388e+01    0.2745246    0.1904868  37.32  0.000326021    1.411    0.291
       363  -8.7180     25.8488     36.9151   1.0077977191e+02   6.5875620877e+01    0.1907473    0.1558837  62.91   0.00102485    1.985    0.496
       364  -8.1353     38.3238     35.3273   9.4802244604e+01   6.4969019431e+01    0.1322796    0.0793725 -22.08 0.0004461348    1.693    0.409
       365  -8.4928    119.3095     33.4646   6.6173548137e+01   5.1210168359e+01    0.2401001    0.1623539 -46.71 0.0007656344    1.735    0.424
       366  -8.9892     21.4562     34.0635   1.0172267597e+02   6.6781676493e+01    0.1830561   0.09500714 -50.76  0.000775618    1.563    0.360
       367  -9.0696      6.5378     34.1514   1.0847948330e+02   6.7772371757e+01    0.1852526    0.1479053 -15.90 0.0008523182    1.314    0.239
       368  -9.7453    222.0570     32.6025   4.7894176977e+01   2.5329056097e+01     0.316234    0.2068826 -69.92 0.0008390628    1.680    0.405
       369  -8.2351     60.4818     32.9726   8.4799948071e+01   6.2560744527e+01    0.1642166     0.109427 -57.34  0.000609657    2.304    0.566
       370  -7.9327     49.6734     33.3220   8.9255530728e+01   6.3988659727e+01     0.113739    0.1017283 -70.30 0.0005750835    1.687    0.407
       371  -8.5603     12.8669     31.7267   1.0481363932e+02   6.7854092738e+01    0.1897841    0.1401715 -78.00 0.0006550483    1.963    0.490
       372  -8.5966    147.3014     28.7118   5.8096201178e+01   4.5023847399e+01    0.1436228    0.1121707 -67.45            0    1.561    0.359
       373  -8.9040      2.2583     27.9806   1.0853157987e+02   6.9193542829e+01    0.1990942     0.148709   8.34  0.001266661    1.599    0.375
       374  -7.9542     91.5149     26.9939   7.1384158020e+01   5.8076954185e+01    0.1881409    0.1084099 -49.58 0.0008094819    2.494    0.599
       375  -9.0458     44.0624     25.6674   8.8383517285e+01   6.5987742564e+01    0.1987479    0.1458645 -25.27 0.0004420023    1.106    0.096
       376  -9.0109    110.3902     24.4638   6.4929020100e+01   5.4413548526e+01    0.2384982    0.2122287  17.63 0.0002556433    1.014    0.013
       377  -8.7528     76.9448     25.2742   7.5418539472e+01   6.1066575898e+01    0.1873204    0.1591102   1.91 0.0004574151    1.019    0.019
       378  -8.8258     84.5316     21.1234   7.1045523933e+01   6.0225616275e+01    0.2560955    0.2141314 -59.20  0.001020691    1.739    0.425
       379  -8.8195     58.7896     22.1452   8.0726746099e+01   6.4514707845e+01    0.1792031    0.1514006 -16.31 0.0002748903    1.119    0.106
       380  -9.5510     13.0863     21.3533   1.0092947029e+02   6.9755334448e+01    0.2335575    0.1720249 -14.85 0.0007681006    1.266    0.210
       381 -10.5845    169.6799    232.2289   1.0307260476e+02   3.3951383577e+00    0.3528455    0.3207173  80.84  0.001583804    1.385    0.278
       382  -8.0766     48.2879     21.7052   8.4815588491e+01   6.6077363363e+01    0.1073528   0.09668283 -47.18 0.0002477339    1.548    0.354
       383  -8.2339     40.8895     21.1543   8.7763978888e+01   6.7106268111e+01    0.1714613    0.1179248 -13.94 0.0003939819    1.311    0.237
       384  -8.2328     73.7816     20.1723   7.4234456374e+01   6.2333225494e+01    0.1940728    0.1424348 -66.70 0.0009358873    2.762    0.638
       385  -9.4508     28.8475     18.1887   9.1941860657e+01   6.8927386918e+01    0.2714032    0.1884677  26.18  0.001035985    1.642    0.391
       386  -8.1628      1.4607     19.5281   1.0604775362e+02   7.0813500065e+01     0.113354   0.08084604 -39.44 9.316592e-05    1.006    0.006
       387  -8.2105     63.0275     21.0318   7.8571114496e+01   6.4019442441e+01    0.1820695    0.1560244 -54.67 0.0006704988    1.721    0.419
       388  -8.4182     50.5692     15.4741   8.0930760330e+01   6.6686349850e+01    0.2060978    0.1033141  25.10 0.0006135918    2.232    0.552
       389  -9.3184     41.1393     13.9374   8.4263367573e+01   6.8177482934e+01    0.2084777    0.1507179   9.06 0.0003916235    1.303    0.233
       390  -9.2797    107.6049    249.0317   1.1618232509e+02   1.0646493899e+01    0.2076335    0.1373697  42.27 0.0005940036    1.323    0.244
       391  -9.5374     87.5362    249.2589   1.1962055236e+02   1.3466078252e+01    0.2228238     0.121273  46.45  0.001407387    1.446    0.308
       392  -8.9373     61.5641    249.6297   1.2393962191e+02   1.6833059663e+01    0.1820371   0.09295531  29.41 0.0009476755    3.216    0.689
       393  -9.3729     97.4346    243.2780   1.1740392178e+02   1.3036412615e+01    0.2096661    0.1954307 -52.06  0.001487868    1.539    0.350
       394 -11.0028    237.8120    240.6608   9.2314542159e+01  -8.4435898732e+00    0.4022453     0.273991  21.68  0.001504697    1.131    0.116
