#   1 NUMBER                 Running object number                                     
#   2 MAG_AUTO               Kron-like elliptical aperture magnitude                    [mag]
#   3 X_IMAGE                Object position along x                                    [pixel]
#   4 Y_IMAGE                Object position along y                                    [pixel]
#   5 X_WORLD                Barycenter position along world x axis                     [deg]
#   6 Y_WORLD                Barycenter position along world y axis                     [deg]
#   7 A_WORLD                Profile RMS along major axis (world units)                 [deg]
#   8 B_WORLD                Profile RMS along minor axis (world units)                 [deg]
#   9 THETA_WORLD            Position angle (CCW/world-x)                               [deg]
#  10 FWHM_WORLD             FWHM assuming a gaussian core                              [deg]
#  11 ELONGATION             A_IMAGE/B_IMAGE                                           
#  12 ELLIPTICITY            1 - B_IMAGE/A_IMAGE                                       
         1 -13.5440    172.9521    112.0153   1.8517797760e+01   2.5717580071e+01     3.226717     1.257957 -40.60   0.01178097    2.300    0.565
         2 -13.0333    222.7497     84.4166   4.7060051653e+00   2.1045057813e+01     2.815703     1.450808 -17.62   0.01165004    3.365    0.703
         3 -13.8589    250.1281    112.9736   7.5415812419e+00   1.2635181036e+01     1.768878    0.4006333 -40.62   0.00115706    3.246    0.692
         4 -15.0557    207.3031    115.5155   1.3592040342e+01   1.8886697563e+01     6.483006     1.722797 -39.55   0.02339428    3.078    0.675
         5 -14.2088    245.4203     88.5723   3.1639336605e+00   1.6732253210e+01     3.964712     1.621932 -59.30     0.014086    5.332    0.812
         6 -13.2215    238.0378     72.8637   6.2256634488e-01   2.0063388246e+01     1.094113    0.7966784   2.05  0.003248962    2.164    0.538
         7 -11.0562    215.6132     22.9519   3.5140584190e+02   3.0377335764e+01     0.394006    0.3453053  20.93   0.00218365    1.675    0.403
         8 -11.6057    178.4109     24.0922   3.5459800983e+02   3.8060905442e+01    0.8603172    0.4746509 -79.30  0.004317871    1.934    0.483
         9 -11.5198    239.7694     19.9568   3.4934112294e+02   2.6211534193e+01    0.5283147    0.2646056  74.18  0.002419573    2.254    0.556
        10 -10.7284    249.6210     16.0898   3.4807651823e+02   2.4917245132e+01    0.3528996    0.1674839 -37.08 0.0006473493    1.569    0.363
        11 -10.5782    211.7179     17.3131   3.5035117850e+02   3.1758542558e+01    0.2602912    0.1874933 -22.32  0.001199083    1.596    0.374
        12 -10.8265    247.0317      2.6517   3.4550929893e+02   2.6709909945e+01    0.6503505     0.259037  82.71  0.003740631    2.710    0.631
        13 -12.0140    229.5511      9.9539   3.4773749527e+02   2.9102326700e+01     1.048802     0.313728  54.99  0.004073319    5.775    0.827
        14 -11.9513    228.1438      5.7571   3.4690232194e+02   2.9782667992e+01    0.9712136    0.2990771  57.21  0.004106449    4.837    0.793
        15  -8.8740    150.9147     13.3920   3.5418742096e+02   4.5607077426e+01    0.2232854    0.1552509 -49.16 0.0007377084    1.321    0.243
        16 -10.2149    204.3587     12.5103   3.4967173897e+02   3.3746304504e+01    0.2007222    0.1683619 -48.98 0.0006323559    1.143    0.125
        17  -9.4214    120.3777      9.3853   3.5651428560e+02   5.3510338448e+01    0.2850033    0.2482629 -57.16  0.001136697    1.137    0.121
        18 -10.6676    181.9651      3.5182   3.4880763472e+02   3.9392178457e+01    0.2731978    0.2190892  77.58   0.00181576    1.302    0.232
        19 -10.3431    212.1880      3.6603   3.4717447523e+02   3.3051212267e+01    0.2807269    0.1520086 -25.88  0.001265422    1.902    0.474
        20  -9.4616    171.9888      2.4942   3.4918588286e+02   4.1716869026e+01    0.2493834     0.134968 -47.55   0.00129609    1.570    0.363
        21 -10.4229    219.9626      1.8155   3.4640368035e+02   3.1711622130e+01     0.368957    0.1468834  86.86  0.001497295    2.587    0.613
        22 -12.9355    193.7805    194.2370   3.1339742195e+01   7.8914386523e+00     1.670853     1.254134  72.64  0.008318672    3.502    0.714
        23 -10.6478    246.8228    234.6530   2.9026312521e+01  -3.1942713063e+00    0.3544036    0.2974287  42.90  0.002703552    2.612    0.617
        24 -10.8792    238.3413    242.8786   3.1480544573e+01  -3.4013621563e+00    0.2385155     0.168725  -6.89  0.001933255    1.074    0.069
        25 -10.6392    249.1194    247.3355   3.0498946375e+01  -4.8053557300e+00    0.5977162    0.2403641 -27.74  0.003800828    2.002    0.500
        26 -11.0125    243.3380    245.0294   3.1030763585e+01  -4.0719357776e+00    0.4547805    0.2034993 -27.36  0.002991504    1.801    0.445
        27  -9.9789    217.1238    249.1636   3.5712302061e+01  -2.2386261342e+00    0.2300816    0.1676012  35.18  0.001685881    2.042    0.510
        28  -8.9845    190.1858    244.1596   3.9640051643e+01   1.0112315575e+00    0.1375061    0.1130924  14.02 0.0003641916    1.309    0.236
        29  -9.1277    129.2256    242.2697   5.1299475706e+01   8.0017360266e+00    0.2487012    0.1898136 -83.01   0.00138586    2.175    0.540
        30 -14.8052    180.7411    169.9392   2.9424632642e+01   1.3748108978e+01     3.212437     2.475113 -59.15   0.01821333    1.741    0.426
        31 -10.2056    182.0395    201.9012   3.4814626402e+01   8.1559789336e+00    0.3752185     0.232432 -14.53 0.0008883539    1.698    0.411
        32 -13.0360    220.3996    112.0556   1.0992643764e+01   1.7268158616e+01     1.357336    0.9108711 -23.04  0.004416445    1.499    0.333
        33  -9.0934    250.6223    198.7023   2.2936480352e+01   8.1661657104e-01    0.1786378   0.07812776 -32.30 0.0003551863    1.769    0.435
        34  -9.0978    228.3368    234.0147   3.1755266340e+01  -1.4501900917e+00    0.1489338    0.1062548 -11.93 0.0006013379    1.069    0.064
        35  -8.5313    229.3127    197.9337   2.5971467446e+01   3.1440816074e+00    0.1553845    0.1107199 -18.81 0.0002935964    1.069    0.065
        36 -13.5630    227.7236    166.9414   2.0810965167e+01   7.7723143004e+00     1.610968     1.146412  39.02  0.006783684    1.765    0.433
        37 -10.0829      6.2306    202.0368   7.6997196918e+01   2.9246930356e+01    0.1983996    0.1600116  37.41 0.0006700974    1.168    0.144
        38 -11.5567     17.1061    194.8921   7.3874939108e+01   3.0023966059e+01    0.4788642    0.3946808  57.68  0.001903671    1.034    0.033
        39 -10.1822    227.6770    192.3300   2.5287979622e+01   4.1046481266e+00    0.2173777     0.176626  -2.89 0.0006024453    1.162    0.140
        40 -10.3362    172.9787    189.2833   3.4457118719e+01   1.1463149261e+01    0.2738569    0.2216481  13.48 0.0008957304    1.156    0.135
        41  -9.5501     60.9553    230.0979   6.5358834258e+01   1.8009025957e+01    0.1990025    0.1724508 -63.94 0.0003745067    1.347    0.258
        42  -8.6590     83.1898    188.8881   5.5552185072e+01   2.4206613057e+01    0.2547104    0.1731518  -9.24 0.0008946849    1.997    0.499
        43  -9.3633    131.3798    180.8555   4.2090862182e+01   1.9085574601e+01    0.2804895    0.2292928 -86.63  0.001288042    1.712    0.416
        44  -8.7171    245.3124    193.5475   2.2848423979e+01   2.0245260918e+00    0.1643567    0.1006021  33.43  0.000802057    1.981    0.495
        45 -14.6774    240.4790    123.4428   1.0734653921e+01   1.2501694395e+01     2.755228    0.7120152 -40.36   0.01109917    2.975    0.664
        46 -10.8530    128.9394    169.2542   4.0633602235e+01   2.1898956646e+01    0.5805442    0.2498606 -54.60  0.001976638    2.543    0.607
        47 -12.3819    134.4628    148.8592   3.5299058082e+01   2.5389769972e+01      2.55594    0.6551251 -55.36   0.00555326    7.585    0.868
        48 -11.8578    145.8645    145.7300   3.1925854365e+01   2.4064983234e+01    0.5120516    0.4359075 -45.83 0.0008036433    1.160    0.138
        49 -12.9354    137.0181    131.3155   3.0831225973e+01   2.8734252547e+01     1.651549    0.6948926 -44.25  0.006167373    2.283    0.562
        50 -10.1324    116.9276    167.5648   4.3346024585e+01   2.4163371637e+01    0.3084877    0.2087076 -52.93 0.0006818355    1.517    0.341
        51 -11.7149    133.3519    119.7233   2.8975333119e+01   3.1948091173e+01     1.345128    0.4081658  43.66    0.0042034    3.439    0.709
        52 -10.8065    134.7661    109.1545   2.5958238757e+01   3.3926919254e+01     1.152827    0.2455177 -44.45  0.002995079    4.477    0.777
        53  -9.2466    113.8143    151.8522   4.1215304208e+01   2.8249853176e+01      0.28255    0.2053805 -64.89  0.000833915    1.549    0.354
        54 -10.4500     69.8324    145.3088   5.2978843196e+01   3.6786753070e+01    0.5817931    0.3853964  76.46  0.002433925    1.938    0.484
        55 -10.3251     66.3387    143.6752   5.3828825506e+01   3.7704625490e+01    0.5002751    0.2949671  88.20  0.001954557    2.373    0.579
        56 -11.9271    160.0844    143.6979   2.8332075833e+01   2.1991305440e+01    0.8859313    0.3673295  38.10  0.003474474    2.607    0.616
        57 -11.4491    151.1243    140.4028   2.9577626144e+01   2.4235407040e+01    0.5195957    0.2334571 -43.97  0.002079997    2.101    0.524
        58  -9.5497    165.5142    133.0431   2.4859530846e+01   2.3117632074e+01    0.2657321    0.2275194 -80.59  0.001385164    1.510    0.338
        59 -10.0870    161.4944    137.9318   2.6779889455e+01   2.2881854076e+01    0.3105909    0.2490381  -2.63  0.001656317    1.411    0.291
        60 -11.7361    160.3224    129.3125   2.5091369267e+01   2.4795695727e+01    0.6637801     0.410578 -42.43  0.003123334    1.495    0.331
        61  -7.9479    114.5489    142.5084   3.9112804080e+01   3.0299356385e+01    0.1478422    0.1453748 -31.65 0.0001220554    1.015    0.015
        62 -11.0128    152.5670    126.8483   2.6190801092e+01   2.6739468931e+01    0.4139431    0.2939954  31.49  0.002033993    1.571    0.364
        63  -9.8157    125.2728    127.2507   3.2843340725e+01   3.1846812689e+01    0.4221192    0.1952194 -43.30  0.001594866    2.141    0.533
        64  -9.1441     77.5475    125.1945   4.6610041402e+01   4.0875648543e+01    0.4663616    0.2023672  35.12  0.001288139    2.282    0.562
        65  -7.8938    179.3010    124.2841   2.0201614997e+01   2.2278763280e+01    0.1346764    0.1036321  -6.13 0.0001896383    1.553    0.356
        66 -11.6709    157.1505    112.1516   2.1669799115e+01   2.8784923825e+01    0.8496028    0.4125952 -46.25   0.00242749    1.947    0.486
        67  -9.9945    120.4229     97.7448   2.6535672346e+01   3.9353938310e+01    0.3001026    0.2311264 -38.98  0.001020584    1.295    0.228
        68 -10.9944    121.0821    102.6756   2.7723075095e+01   3.8147875505e+01    0.4618443    0.4102063  54.81  0.001952797    1.173    0.147
        69 -11.3360    124.0618    113.0530   2.9674916418e+01   3.5256327902e+01    0.5963455    0.4916731 -18.37  0.002640006    1.396    0.284
        70 -10.7702    125.0354    107.1926   2.7894085152e+01   3.6345907748e+01    0.5114142     0.353014 -38.41  0.001719713    1.457    0.314
        71 -10.5356    148.5684    113.5608   2.3868783479e+01   3.0216721687e+01    0.4124445    0.3137939  14.76  0.001296372    1.707    0.414
        72 -11.4705    142.3363    135.3338   3.0472798151e+01   2.6886607046e+01    0.5967494    0.3752203 -37.63  0.001954988    1.576    0.366
        73 -11.6259     66.8976    105.8877   4.5992731377e+01   4.7605284227e+01     1.126565     1.018853 -62.87  0.005907282    1.077    0.072
        74 -11.4713     55.4072    108.6683   5.1015371793e+01   4.8588785573e+01     0.574987    0.4977576 -54.13  0.001404577    1.117    0.105
        75 -12.8682     48.1502    104.5230   5.2994901960e+01   5.0681326957e+01     1.350264     1.014625  15.49  0.004919654    1.486    0.327
        76 -11.2477     38.6588    103.9927   5.6792502616e+01   5.1980988613e+01      0.50531    0.3059854  29.24 0.0008916224    1.701    0.412
        77 -10.3641    141.5658    107.0409   2.3796024710e+01   3.2968634441e+01    0.3942792    0.3167166  87.79 0.0007217682    1.582    0.368
        78  -8.0275     92.9866    109.1904   3.7744759000e+01   4.2231636872e+01    0.2039993    0.1212703  38.73  0.000467419    1.717    0.418
        79 -12.1464      6.2401    102.2633   7.0391241656e+01   5.5189855058e+01     1.017871    0.5957882 -82.15  0.004095564    1.574    0.365
        80 -11.2317     11.8338    101.1653   6.7835703615e+01   5.5155724853e+01    0.7606496     0.350502 -84.90  0.002765186    2.223    0.550
        81 -13.1616    245.0572    179.1679   2.0453731114e+01   3.9775047227e+00      1.21973      0.61663 -26.87  0.004505757    1.611    0.379
        82  -9.3382    158.3723    101.1573   1.8642485535e+01   3.0657057534e+01    0.3026781    0.2557146   3.61  0.001322797    1.446    0.308
        83 -14.8299    205.4165    178.4485   2.6505144128e+01   8.8867570706e+00     2.824029     2.559063  62.18    0.0190403    1.751    0.429
        84 -10.4643    127.0459     97.3663   2.4706600263e+01   3.8026205424e+01    0.4038803     0.282658  59.98   0.00118725    1.613    0.380
        85  -9.1551    111.8876     95.6023   2.8279902802e+01   4.1621401619e+01    0.3554063    0.1975911  42.66  0.001298335    1.866    0.464
        86 -12.8671    192.0934    117.7175   1.6474208313e+01   2.1155161987e+01     1.246039     1.086529 -62.50  0.007592119    1.287    0.223
        87  -8.2916    154.2050     94.2160   1.7664397036e+01   3.2841072327e+01    0.1946268    0.1623539 -68.97 0.0003944511    1.292    0.226
        88  -8.9486    126.0912     92.6152   2.3606911567e+01   3.9220498510e+01    0.2556333     0.195474 -52.69 0.0003431702    1.292    0.226
        89 -10.1225    239.9710    229.1398   2.9237083755e+01  -1.9375488957e+00     0.241045    0.1727415  29.04  0.001714584    1.817    0.450
        90  -9.0300    168.2636     87.1945   1.3139871403e+01   3.1137105521e+01    0.3267764    0.1716244 -35.12  0.001139047    1.826    0.452
        91  -7.5292    107.3097     87.7337   2.7286495530e+01   4.4307418817e+01    0.1509732    0.1210606  87.49            0    1.538    0.350
        92  -8.4754    146.0368     86.3188   1.7192951981e+01   3.6091376181e+01    0.1957975    0.1827408  75.46  0.000486266    1.119    0.106
        93 -10.2323    177.4101     71.6935   7.5679648340e+00   3.1777544108e+01    0.4512928    0.2838045 -53.63  0.002256585    1.537    0.349
        94 -10.4502    183.4670     78.0677   8.3142964165e+00   2.9492117048e+01    0.4892259    0.4416727  77.24  0.001552956    1.215    0.177
        95  -9.2721    173.7983     82.8995   1.1072804725e+01   3.0710101052e+01    0.2445645    0.2030834 -49.41 0.0004071815    1.082    0.076
        96  -9.3845    171.3034     79.0957   1.0485402795e+01   3.1876178437e+01    0.3550135    0.2057342 -30.96  0.001480253    1.766    0.434
        97  -8.2532    150.8335     81.4136   1.4829995730e+01   3.5933994240e+01    0.1939791    0.1361249  42.30 0.0004013997    1.622    0.384
        98  -9.3198    232.2752    224.8782   2.9778318092e+01  -6.9561700038e-01      0.20406    0.1349435  35.50  0.001340323    2.085    0.520
        99  -8.3994    195.7348     78.5860   6.7074019440e+00   2.6935838792e+01    0.1551807     0.124898 -89.94 0.0002337378    1.420    0.296
       100  -8.3021    119.3364     77.8316   2.0914578011e+01   4.3700879907e+01    0.2182043    0.1386868 -32.50 0.0009360982    1.727    0.421
       101  -9.1428    200.5730     73.8941   4.9400530377e+00   2.6700468139e+01    0.2308707    0.2053801 -64.54  0.000655143    1.118    0.106
       102  -8.9977    188.8516     70.6981   5.6811572969e+00   2.9535920715e+01    0.2123553    0.1649161 -31.31 0.0003815416    1.269    0.212
       103 -10.4671    175.5305     77.6121   9.4118713117e+00   3.1223550185e+01    0.3479252    0.2933028  28.22 0.0005674953    1.492    0.330
       104  -8.8242    145.8272     70.1900   1.2573147177e+01   3.9041943520e+01    0.1926257    0.1736349  -4.31 0.0004062482    1.321    0.243
       105  -9.1765    152.8281     66.4549   1.0154676820e+01   3.8066227281e+01    0.5579591    0.2574234 -20.63   0.00168581    4.513    0.778
       106  -9.0631    202.4760     67.5589   3.1809208162e+00   2.7262004769e+01    0.2367284    0.1778271 -64.22 -1.096817e-06    1.311    0.238
       107  -9.8305    203.6168     63.0938   1.9729305341e+00   2.7678085491e+01    0.4303343    0.2509697 -24.32  0.001350369    1.937    0.484
       108  -7.9331    122.6407     68.2031   1.7018653486e+01   4.4768140754e+01    0.2059995    0.1401139 -29.30 0.0008041281    1.638    0.389
       109 -15.6368    244.4063    137.6737   1.3000692325e+01   9.8995043814e+00     2.329749     1.870726  -7.05   0.01671307    1.283    0.221
       110  -9.7074    144.2210     59.5948   9.6782638716e+00   4.1178677086e+01    0.2686246     0.267879 -79.64 0.0008305137    1.125    0.111
       111  -9.1972    177.0049     59.1456   4.2861007671e+00   3.3786687546e+01    0.2338682    0.1893196  42.83  0.001064036    1.514    0.340
       112  -8.8090    163.4822     59.0541   6.2350757607e+00   3.6810804111e+01    0.2122269     0.128192 -36.80 0.0003987822    1.547    0.353
       113  -9.8480    189.5037     55.7712   1.7962164763e+00   3.1592636013e+01    0.2301564    0.2161569 -25.86 0.0005759801    1.236    0.191
       114 -10.3750    249.2275    222.0000   2.6793343190e+01  -1.9260315808e+00    0.2280205    0.1651995 -23.23 0.0006173961    1.283    0.221
       115 -10.6914    227.0012     49.1209   3.5646556563e+02   2.5105734767e+01    0.5719948     0.310607 -21.31   0.00293163    2.301    0.565
       116 -11.6039    232.6607     39.6129   3.5394903248e+02   2.5250810894e+01    0.5972763    0.4217812 -32.70  0.003969717    1.325    0.245
       117  -9.8301    209.1213     28.0785   3.5305652298e+02   3.1083402059e+01    0.2382119    0.1799047 -85.59 0.0003499326    1.315    0.239
       118 -11.5797    214.3754     31.6142   3.5349334869e+02   2.9632445289e+01    0.6568348     0.425659 -78.15  0.003447094    1.547    0.354
       119 -11.5399    223.0103     42.8303   3.5538701755e+02   2.6628894922e+01    0.7886936    0.3173603 -42.58  0.003985569    1.857    0.462
       120 -10.3480    219.6129     38.2063   3.5460892356e+02   2.7835450693e+01    0.3965603    0.2618318 -24.73  0.002171331    1.640    0.390
       121  -8.3588    231.5179     51.5100   3.5661793072e+02   2.3989309669e+01    0.1195626   0.09381719 -46.48 9.168543e-06    1.041    0.039
       122  -9.6802    238.1082     49.1741   3.5559543833e+02   2.3123886658e+01    0.2060623    0.1684355 -31.85 0.0004595268    1.272    0.214
       123  -8.1118    249.6436     47.2403   3.5435998329e+02   2.1410672005e+01     0.113072    0.0647544 -59.23 0.0003168816    1.586    0.369
       124  -9.6613    241.4051     44.1608   3.5429691805e+02   2.3167494808e+01     0.323566    0.1887462 -53.56  0.001074195    1.395    0.283
       125  -9.0411    199.6734     34.1214   3.5528282808e+02   3.2295954980e+01    0.3569061    0.1813635 -75.14  0.001388784    2.315    0.568
       126 -11.0900    191.7832     37.7499   3.5692558955e+02   3.3506907258e+01    0.5836904    0.4158994 -51.52  0.003492846    1.179    0.152
       127  -9.1257    199.1868     41.5665   3.5717077936e+02   3.1473806239e+01    0.2015301    0.1660281 -39.97 0.0008387314    1.163    0.140
       128  -9.6115    197.4742     38.5090   3.5657244179e+02   3.2213885097e+01    0.3468751    0.1655999 -47.33  0.001731978    1.742    0.426
       129  -7.6352     76.2731     40.6607   2.0238479590e+01   6.0296451473e+01    0.1420528    0.1122528 -72.91   0.00025877    1.609    0.378
       130  -9.3686    239.3791     33.7476   3.5224700945e+02   2.4746902400e+01    0.2198151    0.1660226  -7.24  0.001443937    1.928    0.481
       131  -7.8888     98.5717     31.4947   9.5345483256e+00   5.6446673448e+01    0.1394322    0.1325941  81.70 0.0001082108    1.022    0.022
       132  -8.2602     82.8502     29.9040   1.3210680736e+01   6.0438752322e+01    0.1817491    0.1605055 -79.37 0.0002682364    1.252    0.201
       133  -8.7342    154.4302    223.9893   4.3688605929e+01   7.9961334283e+00    0.1658456    0.1144404 -41.38 0.0004909705    1.550    0.355
       134 -10.4755    177.3957    221.6041   3.8788237627e+01   5.6287045296e+00    0.3632471     0.196026   2.23  0.001601281    2.309    0.567
       135  -9.9898    243.4967     27.5385   3.5070867827e+02   2.4732628564e+01    0.2164686    0.1586373 -49.81 0.0008857054    1.012    0.012
       136 -10.1152    247.9192     24.2239   3.4979251970e+02   2.4339410317e+01    0.3458834    0.2444435  22.26  0.002049734    2.791    0.642
       137  -9.9602    239.5463    221.4168   2.8137871013e+01  -9.5935700864e-01    0.2261068     0.214632 -17.80  0.001366336    1.888    0.470
       138 -11.1123    203.3147     17.9747   3.5105214947e+02   3.3385902055e+01    0.3416847    0.2423519 -62.45  0.001389745    1.171    0.146
       139  -9.0797    234.6116    217.2901   2.8255174202e+01   3.3045261522e-02    0.2005107    0.1696927  34.26  0.001280316    1.907    0.476
       140  -9.0956    204.4075    221.2059   3.3801603937e+01   2.6364261483e+00    0.1951548    0.1367276  15.82   0.00061126    1.284    0.221
       141  -9.8375    200.4115    220.2332   3.4351432011e+01   3.2096492801e+00    0.2302579    0.1757124  10.39 0.0004315494    1.170    0.146
       142  -9.0196    225.0960    219.0101   3.0014404753e+01   7.6162926367e-01    0.2059023    0.1441515  34.53 0.0009975722    1.888    0.470
       143  -9.8448    220.8319    215.9868   3.0232584777e+01   1.5999919123e+00     0.257375    0.2063062 -12.04 0.0008241715    1.181    0.153
       144 -10.2355    215.7711    212.5704   3.0526939633e+01   2.6017564353e+00    0.3432757    0.2648803  57.75 0.0009006982    2.983    0.665
       145  -9.8523    190.4798     15.2471   3.5127163376e+02   3.6374538460e+01    0.2193117    0.1575987  89.66 0.0008984201    1.335    0.251
       146  -8.0459    251.0000    210.9742   2.4839168939e+01  -7.5537033656e-01    0.1677799   0.04651861 -36.50 0.0007980298    2.912    0.657
       147 -11.0130    241.7888    206.3528   2.5448129027e+01   7.1917396604e-01    0.3608722    0.2388178  39.18  0.001879885    2.235    0.553
       148  -8.0736     98.1355     14.8161   2.5371877164e+00   5.8547994493e+01    0.1757815    0.1466994  40.84 0.0002275772    1.256    0.204
       149 -10.4606      6.5907    208.6022   7.7159029518e+01   2.7739733002e+01    0.3530254     0.198264   8.19  0.001830999    2.209    0.547
       150  -9.4263    213.7921    205.8223   2.9774271296e+01   3.7634614070e+00     0.242856    0.1907316  41.71  0.001169694    1.901    0.474
