#   1 NUMBER                 Running object number                                     
#   2 MAG_AUTO               Kron-like elliptical aperture magnitude                    [mag]
#   3 X_IMAGE                Object position along x                                    [pixel]
#   4 Y_IMAGE                Object position along y                                    [pixel]
#   5 X_WORLD                Barycenter position along world x axis                     [deg]
#   6 Y_WORLD                Barycenter position along world y axis                     [deg]
#   7 A_WORLD                Profile RMS along major axis (world units)                 [deg]
#   8 B_WORLD                Profile RMS along minor axis (world units)                 [deg]
#   9 THETA_WORLD            Position angle (CCW/world-x)                               [deg]
#  10 FWHM_WORLD             FWHM assuming a gaussian core                              [deg]
#  11 ELONGATION             A_IMAGE/B_IMAGE                                           
#  12 ELLIPTICITY            1 - B_IMAGE/A_IMAGE                                       
         1 -13.3633    221.4785      6.7530   3.5835874544e+01   2.9159949125e+01     1.240575     0.887512  58.64  0.004670348    1.498    0.333
         2 -14.3256    195.1113     37.3814   4.6519468148e+01   3.1934296079e+01     2.653832     1.678147  21.26    0.0114959    2.542    0.607
         3 -10.0660    189.6722     14.7325   4.1009825727e+01   3.5922037252e+01    0.2253841    0.2002941  41.50 0.0007853286    1.269    0.212
         4 -10.1071     79.8902     15.0908   6.3085402926e+01   6.1857387496e+01    0.2860074    0.1812223  59.55  0.001090192    1.969    0.492
         5 -11.4966    195.0697      3.7732   3.7506229429e+01   3.5688862906e+01    0.4212318     0.282227  89.96   0.00233753    1.406    0.289
         6  -9.9698    158.1662    235.2075   9.9592663016e+01   3.8399937171e+00    0.2247371    0.1935786  30.82  0.001283147    1.038    0.037
         7 -11.5345    249.4016    244.0075   8.3962899821e+01  -1.0895906695e+01    0.3909228    0.2480581 -23.83  0.002598062    1.541    0.351
         8  -9.3532     48.5492    217.4980   1.1960907130e+02   2.3138512985e+01    0.1847498    0.1144897  20.98 0.0007583529    2.418    0.586
         9  -9.5892     50.3977    224.6895   1.1982197864e+02   2.1485902180e+01    0.1833321    0.1070268  86.92 0.0007394879    1.663    0.399
        10 -10.4417    183.8234    211.9713   9.0780391502e+01   3.3821165854e+00    0.4143777    0.2233448 -39.78  0.002024249    2.026    0.507
        11  -9.9784    170.1390    212.5926   9.3686462805e+01   5.6073888891e+00    0.3343744    0.1147402  32.36  0.001154982    3.300    0.697
        12 -10.0044    148.8791    209.4762   9.7643616466e+01   9.8063676502e+00    0.2720496    0.1785017 -28.40  0.001350432    1.991    0.498
        13  -8.0050     57.5344    208.5671   1.1702988588e+02   2.3884710165e+01    0.3598501    0.1714191 -51.42  0.001737287    2.654    0.623
        14  -9.6001     28.8632    209.6315   1.2285352181e+02   2.6935713790e+01    0.1490296    0.1004749  55.94 0.0004196376    1.272    0.214
        15 -10.0051     40.4768    224.3875   1.2167731532e+02   2.2700348058e+01    0.2209587    0.1187345  73.22   0.00079076    1.738    0.425
        16 -11.4264    195.3312    205.8054   8.7372815449e+01   2.4371473307e+00    0.5029817    0.2449139  29.66  0.002231971    2.073    0.518
        17 -10.9553    193.7147    195.7907   8.5847199579e+01   4.3847050140e+00     1.020982    0.6659706 -71.13  0.003949784    3.901    0.744
        18  -8.0927     69.9138    199.4626   1.1348498586e+02   2.4222566946e+01    0.2342776    0.1584389  19.82  0.001244366    2.061    0.515
        19 -11.8517     30.9936    205.7390   1.2215827842e+02   2.7521077190e+01    0.3439319    0.1353589  50.41  0.001716142    2.193    0.544
        20  -8.8670    224.1878    206.5893   8.1933300961e+01  -2.4346631517e+00    0.1769588    0.1063593  24.06 0.0002905844    1.573    0.364
        21  -9.1595     96.5104    201.5447   1.0790305531e+02   1.9969468847e+01    0.2542596    0.1278995 -62.14  0.001189174    2.090    0.522
        22 -11.7608    133.9450    196.7409   9.8857811005e+01   1.4841769229e+01    0.5037615    0.2645698 -60.88  0.001324531    2.351    0.575
        23 -12.6217     54.4557    198.2865   1.1669404641e+02   2.6452406807e+01    0.5488104    0.2844198 -51.89  0.002763417    2.300    0.565
        24 -10.9624     65.5968    204.6735   1.1496529968e+02   2.3678137486e+01    0.3308536    0.1924773 -69.83  0.001435566    1.682    0.406
        25  -9.0647     38.3061    199.0894   1.2016000594e+02   2.8146402122e+01    0.1521148    0.1139523  78.84 0.0002159461    1.100    0.091
        26 -10.7789    120.2890    193.9764   1.0149062300e+02   1.7744011773e+01    0.2525335    0.2329946 -13.51 0.0006343474    1.273    0.214
        27  -9.1066     81.9910    194.6127   1.1024811047e+02   2.3603142683e+01    0.2506938    0.1965736  77.04 0.0009598686    1.222    0.182
        28 -11.4041    127.5724    192.2764   9.9567688165e+01   1.6856416043e+01    0.3407206    0.2642327 -63.50  0.001698044    1.414    0.293
        29  -8.6071     77.7162    192.3884   1.1093340125e+02   2.4696826010e+01    0.1410694   0.08932116  73.35  0.000504575    1.746    0.427
        30  -8.6874     96.7653    190.5900   1.0635940936e+02   2.2280073856e+01    0.1895284    0.1143629  49.31 0.0004800452    1.570    0.363
        31 -11.5182     62.1353    186.4306   1.1374972217e+02   2.8114526414e+01    0.6895756    0.4439241 -69.99  0.003070251    1.460    0.315
        32 -11.8893     67.2260    182.7763   1.1215102968e+02   2.8280504395e+01     0.669448    0.3629336 -69.93  0.003318198    1.775    0.437
        33 -10.8021    149.3084    188.2433   9.3964128647e+01   1.3818632123e+01     0.377288    0.2359151  53.43  0.001744582    1.768    0.434
        34  -8.7026     73.7544    188.5242   1.1135580584e+02   2.6104194177e+01    0.1710146    0.1101217  52.76 0.0004770261    1.464    0.317
        35  -8.3407     76.4902    224.3724   1.1469738621e+02   1.8213895751e+01    0.1216406   0.09818705  59.73 9.767188e-05    1.034    0.033
        36 -11.7068    115.0654    184.0243   1.0111260107e+02   2.0750701702e+01    0.6127783    0.3003636 -45.65  0.002577688    2.296    0.564
        37 -10.7299     98.8260    181.3130   1.0451831631e+02   2.4013228620e+01    0.4429076    0.2879483 -31.30  0.002022505    2.296    0.565
        38  -9.3780     94.3805    186.8903   1.0638533990e+02   2.3462735399e+01    0.2432561    0.1701844  56.58 0.0005211798    1.396    0.284
        39  -9.3214    238.4750    185.4627   7.5233086072e+01  -1.5625716695e+00    0.1318874    0.1116662  -4.82 0.0002572683    1.059    0.056
        40 -10.2925    150.1226    178.4075   9.1960883547e+01   1.5665672452e+01    0.4356659    0.2893555 -73.29  0.001781694    2.337    0.572
        41 -11.1391    143.9410    178.5204   9.3404788270e+01   1.6794338227e+01    0.4934827    0.2971625 -53.01   0.00135396    1.794    0.443
        42 -10.2637    189.2652    177.5729   8.3188399245e+01   8.4219094816e+00    0.4816847    0.3376302 -53.40  0.002352851    1.762    0.432
        43 -10.6643     54.7474    222.2183   1.1878556436e+02   2.1447455954e+01     0.212898     0.130775  55.47 0.0006336765    1.366    0.268
        44  -9.8610     55.8412    174.6479   1.1383565649e+02   3.1596209408e+01    0.3207625    0.1837282  52.43  0.001647803    1.720    0.418
        45  -9.9106     46.0496    172.8927   1.1594050113e+02   3.3150381323e+01    0.3059746    0.2492054  45.93  0.001442611    1.295    0.228
        46 -10.3771    139.0304    171.2449   9.3173541149e+01   1.9254438662e+01    0.3626297    0.2560075  31.83 0.0009950175    1.448    0.309
        47 -10.2182    240.1533    169.1681   7.1596605335e+01   6.8567113264e-01    0.2136001    0.1616643  -3.46 0.0005087346    1.248    0.199
        48 -10.3174     56.4072    217.9872   1.1810262360e+02   2.2089733000e+01    0.3133092    0.1514699  76.94  0.001458235    2.510    0.602
        49 -10.2818     58.9639    229.8656   1.1860197884e+02   1.9432828647e+01    0.1697417    0.1358814  80.50 0.0004189432    1.117    0.105
        50 -11.5216     94.1537    151.6892   1.0072159306e+02   3.1669168022e+01    0.7302679    0.5377529 -36.88  0.003620209    1.566    0.362
        51 -10.0227    187.3805    152.3587   7.8158808487e+01   1.3580163265e+01    0.3037901    0.2631915 -83.73  0.001547438    1.550    0.355
        52 -10.7299    133.9974    145.9291   8.9176998627e+01   2.5843539972e+01     1.300333    0.3460495 -55.23  0.002923555    6.299    0.841
        53  -9.8073    174.8453    149.2794   8.0192452369e+01   1.6772854223e+01    0.2608263    0.2125255 -51.66 0.0007230124    1.329    0.248
        54  -8.8524    109.1826    147.6374   9.5964953575e+01   3.0097299339e+01    0.2233961    0.1769565  59.01 0.0009826223    1.353    0.261
        55  -9.4985    143.4790    145.5089   8.6712270854e+01   2.4043901483e+01    0.2796482    0.1482934 -57.64  0.001037614    2.298    0.565
        56  -9.3480     86.3766    143.0487   1.0119835917e+02   3.4986909571e+01     0.271615    0.1925679  64.00  0.001305293    1.637    0.389
        57 -10.5581    106.3859    137.9137   9.4682480225e+01   3.2907774723e+01    0.5494754    0.3376429 -31.69  0.002255319    2.126    0.530
        58 -11.5351     94.1183    137.7879   9.8029428581e+01   3.5033132730e+01    0.2856271    0.2578593 -37.72 0.0004010133    1.161    0.139
        59 -10.2906    135.9978    130.3733   8.5052946059e+01   2.8970450069e+01    0.6068772    0.1623389 -48.95  0.001650921    3.884    0.743
        60 -10.4408    105.8649    130.7241   9.3240893770e+01   3.4719241750e+01    0.3899748     0.322002 -59.36  0.001206653    1.191    0.160
        61  -8.4739     99.3094    130.9863   9.5134476871e+01   3.5806465397e+01    0.1755421    0.1322432 -55.27 0.0005942382    1.269    0.212
        62 -10.3467    114.1627    129.0785   9.0566314050e+01   3.3585517617e+01    0.3679898    0.3116111 -15.54  0.001033452    1.361    0.265
        63 -10.4170    101.4592    124.9607   9.3163487720e+01   3.6880316468e+01    0.3162083    0.2463622 -33.83 0.0007005034    1.369    0.269
        64 -10.6714    120.5990    123.1815   8.7380652011e+01   3.3724589154e+01    0.4653755    0.3798926  -9.40  0.002227401    1.474    0.322
        65 -10.3097     77.4472    120.2682   9.9146894397e+01   4.1906872368e+01    0.4339396     0.186043  39.24  0.001697532    2.467    0.595
        66  -9.3013    109.4817    118.3368   8.9282001507e+01   3.6992743897e+01    0.2440687    0.2349539  68.34 0.0002854863    1.102    0.092
        67 -10.0807    231.2480    113.7621   6.0671830746e+01   1.1613691839e+01    0.2859696    0.2582276 -30.62 0.0007070425    1.020    0.020
        68  -9.2047    167.6905    112.7217   7.2768962055e+01   2.5848751395e+01    0.3930891    0.2565091 -72.17   0.00144116    2.649    0.623
        69 -11.3466    117.8607    109.7930   8.4698281143e+01   3.7342705221e+01    0.7649505    0.5257452  68.67  0.003161384    2.120    0.528
        70  -9.5648    205.3533    110.1246   6.4302110693e+01   1.7794889623e+01    0.3207993    0.2294103  43.40  0.001047676    1.483    0.326
        71  -9.8823    134.6561    105.9199   7.9044894689e+01   3.4694863706e+01    0.7686071    0.1439839 -44.94  0.001762389    5.300    0.811
        72 -10.2429     66.9870    104.0384   9.8740729816e+01   4.7316641184e+01    0.3260754    0.2182142  16.83  0.001575057    1.850    0.459
        73  -9.5687     64.9744     99.9138   9.8414318941e+01   4.8570998721e+01    0.2703222    0.2042149  30.18  0.001436381    1.474    0.321
        74 -10.1096     72.1754    250.2704   1.1779660179e+02   1.4005635075e+01    0.1825825    0.1179752  52.31 0.0002894159    1.210    0.174
        75 -11.6197     51.9737     90.0412   1.0041816869e+02   5.2511101208e+01    0.4290905    0.3004186 -66.87  0.001402616    1.466    0.318
        76  -9.0175    184.1235     77.1782   5.9486874662e+01   2.8655962280e+01    0.2335161    0.2068726  25.91 0.0006815694    1.234    0.190
        77  -9.3844     65.7601     70.5862   9.0016459358e+01   5.5089429272e+01    0.3098961    0.2167236  50.12  0.001558004    1.872    0.466
        78  -9.9285     72.3480    245.4308   1.1737419599e+02   1.4835894080e+01    0.2442685    0.1183926  60.21 0.0002730667    1.961    0.490
        79 -12.9865    179.4137     51.5817   5.2970670099e+01   3.3894145070e+01    0.8570167    0.7504964  -2.40 0.0008411339    1.300    0.231
        80 -19.4938     13.0857    144.2332   1.2094198927e+02   4.2996822301e+01     19.09488     4.333299 -76.41   0.06387798    4.134    0.758
        81  -9.2309    168.0954    233.2306   9.7340409025e+01   2.5610274396e+00    0.2306208    0.1775266  55.05  0.001392384    1.501    0.334
        82 -10.7427     53.2952    230.5032   1.1972386538e+02   2.0008111489e+01    0.2776558    0.1533811 -87.86  0.001455685    1.829    0.453
