#   1 NUMBER                 Running object number                                     
#   2 MAG_AUTO               Kron-like elliptical aperture magnitude                    [mag]
#   3 X_IMAGE                Object position along x                                    [pixel]
#   4 Y_IMAGE                Object position along y                                    [pixel]
#   5 X_WORLD                Barycenter position along world x axis                     [deg]
#   6 Y_WORLD                Barycenter position along world y axis                     [deg]
#   7 A_WORLD                Profile RMS along major axis (world units)                 [deg]
#   8 B_WORLD                Profile RMS along minor axis (world units)                 [deg]
#   9 THETA_WORLD            Position angle (CCW/world-x)                               [deg]
#  10 FWHM_WORLD             FWHM assuming a gaussian core                              [deg]
#  11 ELONGATION             A_IMAGE/B_IMAGE                                           
#  12 ELLIPTICITY            1 - B_IMAGE/A_IMAGE                                       
         1 -10.7904     35.5204     12.0007   4.3939623262e+01   7.0253798234e+01    0.1820899    0.1004444 -41.23 0.0004791091    1.559    0.359
         2 -11.4939     39.7915     21.9727   4.6659231851e+01   6.8054554319e+01    0.6385901     0.353296 -14.89  0.003007704    2.636    0.621
         3 -11.6876     32.8184     18.3264   4.8305905847e+01   6.9490355718e+01    0.5177782    0.3358087 -26.34  0.001667496    1.409    0.290
         4 -10.8668     15.3665     20.5903   5.8023450490e+01   7.0671760935e+01    0.2690294    0.1888797 -60.56  0.001387031    1.432    0.301
         5 -11.4128     44.0520     11.1092   3.9419860543e+01   6.9311385769e+01    0.3325556    0.2436581  -0.83   0.00113854    1.363    0.266
         6 -11.8484     92.1530      9.9967   2.0827851098e+01   6.0929482758e+01    0.5442734    0.2196466  51.95 4.556624e-05    2.342    0.573
         7 -10.3068     53.7650      3.6195   3.1067286746e+01   6.8941439923e+01    0.3472255    0.2057418 -51.75  0.001671529    2.822    0.646
         8  -9.7357     57.5080      2.9989   2.9174205232e+01   6.8411147657e+01    0.2113645    0.1420906  -2.35  0.001009045    1.489    0.329
         9 -10.4021     57.7191     11.6911   3.3755160289e+01   6.7206816421e+01    0.1982405    0.1482857  -4.90 0.0002078041    1.276    0.216
        10 -10.8169     54.9016      9.1580   3.3601786651e+01   6.8013024302e+01    0.2723907    0.2232904 -26.73 0.0003310254    1.175    0.149
        11 -10.0017    203.1499     11.2449   1.1577297789e+00   3.1850891406e+01    0.2124642     0.192003  58.93 0.0006004927    1.194    0.162
        12  -9.3923    101.1678     10.8559   1.8694649356e+01   5.8833856519e+01    0.1843213    0.1456725  19.62            0    1.255    0.203
        13  -9.6181      2.9263     11.3600   6.1068268646e+01   7.3219419812e+01     0.141437    0.1070976 -37.77  0.001050202    1.069    0.065
        14 -10.3237    191.8904      9.9878   2.0421193499e+00   3.5069961707e+01    0.4725809     0.165394  71.38  0.001316525    2.692    0.629
        15 -10.6984     85.5917      9.5137   2.2581631420e+01   6.2371018619e+01    0.4665737    0.2471752 -42.26  0.001110164    2.188    0.543
        16 -10.5126     81.6923      8.6436   2.3391176180e+01   6.3270397429e+01    0.2656064     0.133408  30.53  0.001148204    2.337    0.572
        17  -9.3462    169.0125      9.5127   4.8161922050e+00   4.1449174515e+01    0.2248935     0.116758 -78.46 0.0008105377    2.643    0.622
        18  -9.5300     15.9859      7.9992   5.2201718538e+01   7.2902251140e+01    0.1496941   0.09688655 -41.40 0.0009815258    1.208    0.172
        19 -10.5009     70.8123      5.2811   2.5357080966e+01   6.5784042436e+01    0.2367475    0.1647429 -12.68 0.0003379194    1.354    0.262
        20  -9.5778     61.6810      6.6577   2.9507852926e+01   6.7241961404e+01    0.1346249   0.08743091   6.79 0.0003627829    1.718    0.418
        21 -10.8231     44.9833      4.7892   3.5589427659e+01   7.0109966844e+01    0.3627271    0.2317958  54.21  0.001935066    2.467    0.595
        22 -10.8700     38.9601      3.9348   3.7955749054e+01   7.1058470661e+01     0.198449    0.1594088 -14.18 0.0004053042    1.015    0.015
        23 -11.7984     29.5841      4.7151   4.3117040033e+01   7.2094623121e+01    0.2808907     0.180505 -45.67 0.0003998747    1.622    0.383
        24 -10.6167    193.9382      4.8905   2.4897986483e-01   3.5057213199e+01    0.2314437    0.1916211  75.87  0.000370203    1.134    0.118
        25 -12.2720    204.9632      2.6003   3.5844474619e+02   3.2302849461e+01    0.2735044    0.2367958 -77.83 0.0002496082    1.026    0.026
        26  -9.5337     64.3307      4.6663   2.7412349647e+01   6.7034885646e+01    0.1195788   0.09874263 -55.56 0.0007052136    1.726    0.421
        27  -9.6166    148.7604      2.3745   5.2655342031e+00   4.7713110896e+01    0.2081352     0.119629  58.45 0.0005000506    1.564    0.361
        28  -9.3967    245.3120      1.2522   3.5476752064e+02   2.2077418925e+01    0.1214971   0.09948912  50.13 0.0002949017    1.519    0.342
        29  -9.9334    100.9427      1.4514   1.4364051557e+01   5.9888651974e+01    0.2021616    0.1283948  60.04 0.0008271533    1.562    0.360
        30  -9.4028     80.4154      1.4843   2.0149642696e+01   6.4341100427e+01    0.1313839    0.1128764  10.40 0.0001933786    1.020    0.020
        31  -9.7326     19.8538      1.4297   4.6608234581e+01   7.3631471754e+01    0.1388317    0.1027123  13.77 0.0003346535    1.442    0.306
        32  -9.1329      1.2596      1.3876   5.7696359301e+01   7.5105151944e+01    0.1185372   0.05585232 -35.62  0.000357103    1.687    0.407
        33  -9.5821     59.0139    131.4795   6.8494202468e+01   4.1256978937e+01    0.2023404    0.1492942 -75.10 -4.322493e-05    1.163    0.140
        34 -11.0712     24.2356    249.5524   8.4890773037e+01   2.1710109451e+01    0.2369226    0.1234334  53.26  0.001757705    1.355    0.262
        35  -9.0064     37.2546    132.3358   7.4132283978e+01   4.3654934265e+01    0.1207575   0.08264191 -56.48 0.0001232534    1.568    0.362
        36 -11.0561    246.3425    127.6223   2.6276358810e+01   3.9008904923e+00    0.2573106    0.2144016  -0.87 0.0004783345    1.174    0.148
        37 -10.6294     40.0847    128.0220   7.2882668124e+01   4.4359890789e+01    0.2339928    0.1718101  41.83 0.0006328236    1.543    0.352
        38 -10.5312     74.8016    122.1581   6.2812982945e+01   4.1251221596e+01    0.2360735     0.173963 -57.01 0.0004037655    1.333    0.250
        39 -11.2857     74.9923    126.4517   6.3526793072e+01   4.0196147620e+01    0.2593841    0.1865353 -70.31  0.001392125    1.242    0.195
        40  -9.6831      7.8592    126.6854   8.0840868764e+01   4.7649397720e+01    0.1507963    0.1179207  80.24 0.0004588552    1.127    0.113
        41 -10.6286     44.5240    124.8483   7.1307945686e+01   4.4613459433e+01    0.4446363    0.1833468  86.95  0.001454403    4.417    0.774
        42 -11.1300     82.8206    120.1537   6.0280333772e+01   4.0478759759e+01    0.4340313    0.2997054 -70.67  0.000955011    1.347    0.258
        43 -11.3300     16.3190    117.4952   7.7819410222e+01   4.9091682523e+01    0.2945514    0.1569143 -36.70  0.001441632    3.148    0.682
        44 -11.1473     69.2453    115.6318   6.3129083875e+01   4.3638143126e+01    0.3174163    0.2347232 -82.85  0.001723751    1.261    0.207
        45 -11.5517     26.7140    117.3835   7.5054883686e+01   4.8215663542e+01     0.316589    0.1966438 -49.04 0.0004363467    1.850    0.460
        46 -12.1832      2.8339    111.8754   8.0798948906e+01   5.1377117303e+01    0.2382181    0.1825617  71.56 0.0003225918    1.247    0.198
        47 -11.3241     26.4746    110.8705   7.4296329749e+01   4.9770501915e+01    0.4058587     0.203905 -78.70  0.002099705    1.668    0.400
        48 -12.8986      2.0145    104.7179   8.0337148257e+01   5.3063531739e+01    0.3390403    0.2043264 -56.63   0.00113115    1.605    0.377
        49 -10.8113      4.0844     97.3145   7.8982714298e+01   5.4630422470e+01    0.3144859    0.2098758  32.33  0.001421329    1.872    0.466
        50 -10.2118     40.5124    106.0133   6.9607610458e+01   4.9547218495e+01    0.2071703    0.1526646  82.85 0.0006329052    1.298    0.229
        51 -10.0496    117.9800    105.2437   4.7448190425e+01   3.7476272355e+01    0.2060267    0.1300816  47.87 0.0008887806    1.616    0.381
        52  -9.9366     88.4166    104.9112   5.5505215114e+01   4.3189173179e+01    0.3816663    0.1742078  58.73  0.001318174    3.234    0.691
        53  -9.8957    103.7792    101.5720   5.0375183067e+01   4.1178528883e+01    0.2333276    0.2219807 -26.12  0.001276029    1.229    0.186
        54 -11.7950     20.0658     98.4351   7.4456978136e+01   5.3241298860e+01    0.3522103    0.2495076  32.14  0.002249666    1.752    0.429
        55 -11.1083     19.0320     94.4925   7.4211064856e+01   5.4246209760e+01     0.246394    0.1882384 -47.49  0.001305511    1.442    0.306
        56 -10.2006    107.7599     96.3762   4.7924713371e+01   4.1599233826e+01    0.3810062    0.1937465 -47.27   0.00151629    1.898    0.473
        57 -10.0868     37.1927     97.4746   6.9175096707e+01   5.1927682194e+01    0.2716823    0.1490924 -86.02  0.001318375    1.938    0.484
        58 -10.4827    119.3104     93.8777   4.4075543067e+01   3.9768620382e+01    0.2581883    0.2088348  64.67 0.0002069326    1.301    0.231
        59 -11.0419     93.6403     92.7815   5.1019076680e+01   4.5125404238e+01    0.3765603    0.2970211  12.59  0.001131607    1.787    0.440
        60 -10.9805    146.2207     91.3273   3.6460911668e+01   3.4136402646e+01    0.3465808    0.2424181  82.72 0.0009845108    1.939    0.484
        61 -11.0063     66.6661     91.7142   5.8921523674e+01   4.9743925735e+01    0.2342401    0.1996702 -74.38 0.0002859076    1.064    0.060
        62 -11.2440     57.6757     91.9030   6.1766775154e+01   5.0915353857e+01     0.331881    0.2077462  30.33  0.001208271    1.957    0.489
        63  -9.9682      7.4073     91.2024   7.7280657291e+01   5.5828331418e+01    0.1684759    0.1322416 -56.61 0.0003912561    1.300    0.231
        64  -9.0193    116.2987     90.6533   4.3993462052e+01   4.1134607984e+01    0.1612784    0.1198738 -83.00 0.0007036108    1.680    0.405
        65  -9.1499    218.2904     98.2794   2.3695494724e+01   1.4830932464e+01    0.1485366    0.1173173  15.18 0.0002727669    1.525    0.344
        66 -10.2539     30.8806     87.5283   6.9401333536e+01   5.4887582423e+01    0.1705728    0.1368475 -74.21 0.0002971895    1.027    0.026
        67 -10.0338    173.0445     85.6672   2.8757928391e+01   2.8522660474e+01      0.22509     0.204771  59.20 0.0003534582    1.104    0.094
        68 -11.0803     91.9830     85.1425   4.9453344825e+01   4.7190459739e+01    0.2305259    0.1945238 -57.77 0.0003047034    1.091    0.083
        69 -10.5244     81.1197     85.4656   5.2869363198e+01   4.8997327964e+01    0.2888777    0.2743291  75.48  0.001690865    1.120    0.107
        70  -9.2401     34.4131     84.2688   6.7650143878e+01   5.5325806925e+01    0.1280746   0.08499991 -37.30 0.0004470962    1.771    0.435
        71  -9.6502      7.3203     84.3128   7.6403614703e+01   5.7419017540e+01    0.1209659   0.06951513 -51.02 0.0007038048    1.651    0.394
        72  -9.9839    136.2945     82.9765   3.6454697199e+01   3.8275878161e+01    0.2298194    0.2011196 -45.33 0.0005241054    1.126    0.112
        73 -11.9866     65.4387     82.0973   5.6979404900e+01   5.2182999326e+01    0.2342602     0.221753  89.59 0.0004386259    1.123    0.110
        74  -9.7066    143.3381     81.6956   3.4312975627e+01   3.6836597060e+01    0.1670072    0.1258029 -81.28 0.0007039779    1.673    0.402
        75 -10.7501     18.7314     81.0762   7.2228137264e+01   5.7396493140e+01    0.1779999    0.1560561 -63.40 0.0002550533    1.170    0.145
        76 -10.2398    176.5035     76.9349   2.5471643800e+01   2.9264725914e+01    0.3722997    0.2539685  64.42   0.00130195    1.540    0.351
        77 -10.1496     48.0786     78.7862   6.1928826429e+01   5.5178511751e+01    0.2295544    0.1620727 -50.48 0.0003152975    1.275    0.215
        78 -10.6422    181.7414     79.8667   2.5293578175e+01   2.7348693291e+01    0.3066538    0.2358177  67.79 0.0006770474    1.365    0.267
        79  -8.9043    162.7151     77.6796   2.8596819336e+01   3.2731571743e+01    0.1605238    0.1296949  12.15 0.0007000167    1.593    0.372
        80 -12.0659     11.6964     74.8618   7.3548127797e+01   5.9313154940e+01    0.3561939    0.2485084 -85.04  0.001328695    1.286    0.222
        81 -11.6695      4.9427     73.1278   7.5567988419e+01   6.0111241513e+01    0.2414374    0.1809123  78.59 0.0002795777    1.380    0.275
        82  -9.9214    149.4326     80.1818   3.2385903247e+01   3.5631514531e+01    0.2367197    0.1462253 -51.65 0.0007937652    1.699    0.411
        83 -10.0718    152.1506     71.1505   2.8938525986e+01   3.6712789361e+01    0.2303092    0.1877375 -67.87 0.0005514628    1.343    0.255
        84 -10.3599     37.2167     69.2875   6.3465595240e+01   5.8533133357e+01    0.2764081    0.1754184 -80.63  0.001461962    1.744    0.427
        85 -11.1304     17.6560     62.8614   6.9185641352e+01   6.1640463056e+01    0.4402305    0.2337332 -37.76   0.00141366    2.055    0.513
        86 -11.2032     13.5013     66.4653   7.1431057463e+01   6.1107645459e+01     0.282837    0.1740626 -72.46 0.0005612072    1.315    0.240
        87 -11.5882      9.9705     66.0221   7.2624827777e+01   6.1428463905e+01    0.2744485    0.1969147 -86.77  0.001307293    1.332    0.249
        88 -12.1378      7.5419     63.0286   7.2965545215e+01   6.2242970181e+01    0.5017891    0.1427553 -62.14 0.0007818221    2.307    0.567
        89  -9.0747    186.7844     61.9614   1.8982552978e+01   2.9164677315e+01    0.1994734    0.1287275 -32.87 -0.0006383859    1.547    0.354
        90 -10.4879     97.5496     60.7414   4.0143832825e+01   5.1448280614e+01    0.3267095    0.2304731  64.13  0.001314797    1.784    0.439
        91 -11.4858     57.9927     59.0053   5.3042462335e+01   5.8424381663e+01    0.2251106    0.2133241  29.60 0.0003615398    1.218    0.179
        92 -10.6264     42.3463     58.8103   5.8837002188e+01   6.0360553645e+01    0.3390169    0.1885729 -40.19  0.001118669    1.762    0.433
        93 -10.3236     37.9832     59.2499   6.0620165197e+01   6.0719052402e+01    0.2178812    0.1402881 -41.63  0.000320738    1.453    0.312
        94  -9.8834    145.5360     58.4592   2.6307428025e+01   4.0779207425e+01    0.1568748     0.155047 -75.95 0.0002495262    1.011    0.011
        95 -10.7273      1.9163     57.2967   7.4026506120e+01   6.3813099254e+01    0.1588858    0.1294833 -61.66  0.001165666    1.112    0.101
        96 -10.0087     14.9071     54.7009   6.8456139197e+01   6.3644926367e+01    0.1571466    0.1369776 -63.20 0.0006635847    1.129    0.114
        97 -10.1826    127.1379     53.5987   2.9143032178e+01   4.6267223599e+01    0.3468838    0.2466785  16.40  0.001432733    1.951    0.487
        98 -11.9907     61.9262     50.0416   4.8602156229e+01   5.9773655918e+01     0.337307    0.1797594 -45.70 0.0004066736    1.631    0.387
        99  -9.2451    214.2938     52.9973   1.1921519442e+01   2.3245998998e+01    0.1837218    0.1326467 -34.61 0.0003898192    1.329    0.247
       100 -11.0735     85.4100     54.3657   4.1812952444e+01   5.5055978321e+01    0.3788387    0.3408559 -69.64  0.001281025    1.239    0.193
       101  -9.8911    143.1240     51.8754   2.4602940661e+01   4.2564781182e+01    0.2452879    0.2084596 -66.94 0.0005226835    1.275    0.216
       102 -10.1981    138.1776     50.1683   2.5165622895e+01   4.4128429252e+01    0.2263544     0.208427  18.84 0.0003545991    1.164    0.141
       103 -10.0273     92.9500     49.9919   3.7737415390e+01   5.4485608879e+01    0.2107562    0.1981879 -26.42            0    1.013    0.013
       104  -9.7357     78.1435     49.9166   4.2676229984e+01   5.7232883926e+01    0.1995875    0.1856566 -71.89 0.0004608375    1.224    0.183
       105  -9.1244    102.2456     47.9987   3.4078894036e+01   5.2960455669e+01    0.1852703    0.1204914 -38.01 0.0001921017    1.468    0.319
       106  -9.9839     51.3260     48.4088   5.2107750903e+01   6.1544005387e+01    0.2057966    0.1299898  26.13 0.0005876565    1.897    0.473
       107 -10.5484     16.8516     46.0456   6.5535899493e+01   6.5396682636e+01    0.2798072    0.1507583 -58.76  0.001345266    1.412    0.292
       108 -10.7998     70.8732     42.1211   4.2322627442e+01   5.9968599925e+01    0.4242828    0.2849825 -52.45   0.00218342    1.547    0.354
       109 -11.5138     91.6193     40.5888   3.4523952146e+01   5.6483961290e+01    0.6283058    0.3833013 -62.22 0.0006407051    2.613    0.617
       110 -10.2718    107.8614     39.3313   2.9046297286e+01   5.3260751253e+01    0.3232723    0.2765722  49.63  0.001727987    1.206    0.171
       111 -11.2832     85.6834     42.8136   3.7372866072e+01   5.7232071594e+01    0.2345297    0.2220459 -21.67 0.0002227554    1.043    0.042
       112  -9.5367     52.8024     42.9144   4.9575419411e+01   6.2475868913e+01    0.1801035    0.1403209 -42.23 0.0004754252    1.092    0.084
       113 -11.2342     38.9522     41.9477   5.4919859531e+01   6.4320378453e+01    0.1841539    0.1701496 -38.00  0.001260126    1.135    0.119
       114  -9.5637     28.4571     42.5012   5.9564791014e+01   6.5232602722e+01    0.1257406    0.0974287 -45.98 0.0002241846    1.046    0.044
       115 -10.4669    184.1506     41.2947   1.2995325493e+01   3.3163081367e+01    0.2784107    0.1947674  74.87 0.0006353962    1.469    0.319
       116 -10.5029    116.6011     40.6357   2.7113960210e+01   5.1037411909e+01    0.3404375     0.249491 -64.40 0.0009992504    1.747    0.428
       117 -10.4850     62.0817     41.0370   4.5215779521e+01   6.1548293767e+01    0.1945068    0.1676256 -32.55  0.001183108    1.009    0.009
       118  -9.4619    130.5261     39.1712   2.2976541565e+01   4.7884906714e+01    0.3064069    0.1381949 -37.95  0.001140647    2.166    0.538
       119  -9.5067     80.8752     38.7967   3.7409630481e+01   5.8854141836e+01    0.1769622    0.1607818 -62.11 0.0002881239    1.285    0.222
       120 -11.2271    122.0333     37.5505   2.4478536442e+01   5.0240308677e+01    0.2887535    0.2123888 -30.60  0.000303873    1.354    0.261
       121 -11.0993     67.1636     35.7775   4.1159404993e+01   6.1752103350e+01    0.2759627    0.2425188 -52.09 0.0003046722    1.259    0.206
       122 -10.3709     22.8514     34.5412   5.9455356544e+01   6.7349123324e+01    0.2005533     0.131671 -52.45 0.0001034399    1.209    0.173
       123  -9.9529      6.1769     34.8145   6.7201050241e+01   6.8424107927e+01    0.1654734    0.1319237 -66.12 0.0005923575    1.180    0.152
       124 -10.7429     46.6475     32.9682   4.8294724897e+01   6.5203781543e+01    0.3663846    0.2805301  84.52   0.00199518    2.322    0.569
       125  -9.6050      2.2361     34.4166   6.8906691108e+01   6.8709002684e+01    0.1217968    0.1071094  32.65  0.000419198    1.509    0.337
       126  -9.1676     18.3292     32.2901   6.0790404881e+01   6.8158412057e+01     0.122582   0.07074453 -34.58 0.0007017163    1.621    0.383
       127  -9.5188    217.2282     31.1527   5.3198061590e+00   2.5599458901e+01    0.2064221     0.156311 -65.35 0.0004471639    1.281    0.220
       128  -9.4141    111.2838     31.3615   2.4861464331e+01   5.3753735574e+01    0.1528144    0.1105793  12.39 0.0007018883    1.680    0.405
       129  -9.8495    101.7366     30.9976   2.7429018189e+01   5.5963631158e+01     0.197261    0.1774832 -25.04 0.0003836537    1.079    0.073
       130 -10.4466    117.7010     28.7321   2.2081727105e+01   5.2626283843e+01    0.3257221    0.2459132 -52.14  0.001605349    1.501    0.334
       131 -10.6253     11.2751     29.9344   6.3358343762e+01   6.9122107414e+01    0.1660617    0.1618566  14.48  0.001312748    1.339    0.253
       132  -9.7962     97.2508     29.6350   2.8199177053e+01   5.7144871489e+01    0.1951798    0.1267517  40.30   0.00052191    1.572    0.364
       133  -9.4873     39.6097     29.5059   4.9968393143e+01   6.6699422561e+01    0.1543182    0.1124095   0.56            0    1.578    0.366
       134  -9.7827      1.6542     28.1748   6.7467172546e+01   7.0016938932e+01    0.2686365   0.05588961 -47.58  0.001149271    2.995    0.666
       135  -9.3610    201.5011     28.4919   6.4950374456e+00   3.0182257342e+01    0.1522473    0.1405096 -74.12 0.0001111755    1.005    0.005
       136 -10.9215     80.6711     27.2126   3.2539425116e+01   6.0859457499e+01     0.298686    0.2030384 -41.90  0.001551654    1.482    0.325
       137 -11.4085     91.2498     26.3611   2.8646566640e+01   5.8904774706e+01    0.3364322    0.2198156 -33.34 0.0007286188    1.464    0.317
       138 -11.4935    216.9897     25.7073   3.8055241659e+00   2.6377389148e+01    0.2530482    0.2198774 -54.28 0.0002449468    1.064    0.060
       139 -10.7306    213.0245     23.9208   3.7473325610e+00   2.7660922041e+01    0.2285834     0.198003 -50.40 0.0002914325    1.091    0.083
       140 -10.4880    182.9601     25.4845   8.1128609592e+00   3.5686369249e+01    0.2470101    0.2205923 -16.45  0.001291274    1.239    0.193
       141 -10.3683     31.5121     10.5013   4.5176350119e+01   7.0960122079e+01    0.1587149     0.105669  10.45  0.000744955    1.667    0.400
       142  -9.9137     31.3567    248.2924   8.3770483505e+01   2.1102040832e+01   0.08190134   0.07281332  66.38 0.0007029764    1.689    0.408
       143 -11.4203     19.2879    247.3807   8.5539814784e+01   2.2607278197e+01    0.2385038    0.1939791 -49.39  0.001873694    2.701    0.630
       144 -10.1083    147.2297    244.2486   6.4538699526e+01   5.2340698071e+00    0.1807395    0.1598166  65.77  0.001395113    1.244    0.196
       145 -10.2606    126.3878     24.5152   1.8247013965e+01   5.1074267591e+01     0.387308    0.2274293  71.68  0.001082442    2.030    0.507
       146 -10.1276    130.3318     23.1879   1.6817750285e+01   5.0249886019e+01    0.2847489    0.2143543 -33.92  0.000698253    1.351    0.260
       147  -9.8993     53.1433     23.8144   4.1586035414e+01   6.5987287795e+01    0.1846251    0.1652937 -37.44 0.0007087358    1.208    0.172
       148 -10.6205     33.8656     24.9130   5.0697579127e+01   6.8189734769e+01     0.323622    0.2346589 -73.64  0.001844754    2.153    0.536
       149 -10.4303    112.9880     21.2159   2.0163761914e+01   5.4796592659e+01     0.359024    0.2145723 -27.67  0.001647139    1.671    0.402
       150 -10.3706    101.1881     21.0233   2.3282091308e+01   5.7542719472e+01    0.3555137    0.2129517 -38.66   0.00166881    1.710    0.415
       151 -10.6488     63.4834     21.5994   3.6322718248e+01   6.4774245134e+01    0.2500711     0.195034  -6.03 0.0005264211    1.261    0.207
       152 -10.0097     14.8427    244.1549   8.6078825806e+01   2.3612691655e+01    0.1237657   0.09341841  73.13  0.001070397    1.319    0.242
       153  -9.6947     78.0176     21.0369   3.0643978631e+01   6.2311081419e+01    0.1921139    0.1592431 -57.30 0.0003653489    1.555    0.357
       154  -9.7900      2.1601     21.7499   6.5241745728e+01   7.1274792636e+01    0.2316199   0.08336113 -44.48 0.0008402053    2.057    0.514
       155 -10.4226    212.6150     18.5019   2.2402290962e+00   2.8445168878e+01    0.4280497    0.2150521 -45.67  0.001363028    1.853    0.460
       156 -10.1510    122.6279     18.1884   1.6540091857e+01   5.2833710939e+01    0.1979569    0.1367539  -7.21  0.000313388    1.640    0.390
       157  -8.9275    229.7305     17.7276   2.8467979252e-01   2.4056750804e+01    0.1286611    0.1089522  36.56 0.0001875197    1.477    0.323
       158  -9.3482     83.6792     15.2898   2.5998046128e+01   6.2024774689e+01    0.1262881    0.1066576 -64.04 0.0003491322    1.603    0.376
       159 -11.7929      6.5049    243.0108   8.7270937475e+01   2.4673310856e+01    0.2158424    0.1199492  82.64   0.00129948    1.352    0.260
       160  -9.0189    167.0000     13.0240   6.3100767154e+00   4.1621267398e+01     0.229763   0.08592733 -23.94 0.0007862854    2.832    0.647
       161  -9.0995    142.5270     13.5492   1.0560952727e+01   4.8231955752e+01    0.1461869    0.1395106  73.88 3.576405e-05    1.037    0.036
       162 -11.8097      3.4872    242.5367   8.7697718139e+01   2.5057940329e+01    0.5802121    0.1456927  84.82  0.002692284    4.199    0.762
       163  -9.2902     36.9810    240.5847   8.2542324658e+01   2.1703696929e+01    0.2529502   0.07136144  66.95  0.001089562    3.880    0.742
       164  -9.0428    117.6955    238.7016   6.9019260146e+01   1.0752293286e+01    0.1023491   0.08272632  32.35 0.0002920996    1.587    0.370
       165 -11.0545     17.9826    235.0455   8.5250027925e+01   2.4792586516e+01    0.1573446    0.1017733  67.08 0.0004714662    1.047    0.045
       166 -10.2429     56.5597    230.4277   7.8782757024e+01   2.0987349372e+01    0.2216801    0.1764284 -33.28  0.001426525    3.024    0.669
       167 -11.1538      7.5524    229.2822   8.6639114126e+01   2.6875096146e+01    0.2150791   0.09198713 -87.73  0.001065183    1.920    0.479
       168  -9.6542     28.5116    232.4945   8.3486298774e+01   2.4058286993e+01     0.107351   0.06959346  68.34 7.834846e-05    1.002    0.001
       169  -9.5485     12.2907    226.7030   8.5801661688e+01   2.6834577048e+01    0.1085299    0.0481316  65.75 0.0001552723    1.557    0.358
       170 -11.1336      1.8274    220.1210   8.7203934713e+01   2.9050231246e+01     0.254714    0.1031616  85.88  0.001600161    1.923    0.480
       171  -9.6001    249.4227    216.2215   4.3354241082e+01  -8.0143230853e+00    0.1412939     0.102896 -32.05  0.000952093    1.697    0.411
       172  -9.5141    244.4556    215.0459   4.3956503944e+01  -7.1257392993e+00     0.156273    0.1053282 -20.09 0.0005974635    1.558    0.358
       173  -9.2156    230.3351    207.3138   4.4985492080e+01  -3.9858011483e+00    0.1273114   0.07885411  17.01 0.0007046235    1.688    0.408
       174  -8.9469      8.3138    201.7232   8.5400370398e+01   3.1798457792e+01    0.1124749   0.05202751  65.50 0.0005555875    1.564    0.361
       175  -9.5158    237.3912    186.8268   4.0147880332e+01  -2.6789494707e+00     0.173585    0.1091101 -13.82 0.0009438333    1.735    0.424
       176  -9.8488     16.8283    165.7479   8.1808932083e+01   3.8235233764e+01     0.175953    0.1007174 -47.96 0.0009625128    2.841    0.648
       177  -9.0469      1.3019    164.3395   8.4856870255e+01   3.9932643442e+01    0.1025873   0.07024788 -64.93 0.0003693044    1.670    0.401
       178  -9.7471    240.4677    163.4795   3.5055984406e+01  -1.4040182885e-01    0.1314135    0.1154585   8.31 0.0002246758    1.028    0.027
       179 -10.5579      7.0161    153.9326   8.3066109121e+01   4.1667591554e+01    0.2147094    0.1162035  63.45  0.001334043    1.547    0.353
       180 -10.7552     11.9705    152.7324   8.1925956465e+01   4.1498265816e+01    0.1591342    0.1190856  77.35  0.000190458    1.091    0.083
       181  -9.2026     40.9750    152.0012   7.5417809386e+01   3.8714472800e+01    0.1493349    0.1143798  84.50 -0.003769674    1.000    0.000
       182 -11.9133      3.7204    145.9590   8.3251344659e+01   4.3674344066e+01     0.434868    0.2492814  79.20  0.001692823    1.348    0.258
       183 -10.6421     23.4214    147.8286   7.9010691510e+01   4.1518978134e+01    0.1919158    0.1746728  62.54  0.001401095    1.379    0.275
       184 -10.6362     15.8339    138.3293   7.9933623245e+01   4.4359248994e+01    0.2628613    0.1467757 -62.91  0.001233891    1.699    0.411
       185  -9.8510      3.4528    138.8780   8.2826194834e+01   4.5253621123e+01     0.177353    0.1456198 -34.16 0.0008412591    1.905    0.475
       186 -12.3731     69.2477    135.8576   6.6550960919e+01   3.8810310802e+01    0.2746762    0.2187661 -75.48 0.0004271298    1.123    0.110
       187 -10.6265     26.9392    135.9998   7.7074714388e+01   4.3862409579e+01    0.1788434      0.13911 -88.29   0.00031295    1.052    0.049
