#   1 NUMBER                 Running object number                                     
#   2 MAG_AUTO               Kron-like elliptical aperture magnitude                    [mag]
#   3 X_IMAGE                Object position along x                                    [pixel]
#   4 Y_IMAGE                Object position along y                                    [pixel]
#   5 X_WORLD                Barycenter position along world x axis                     [deg]
#   6 Y_WORLD                Barycenter position along world y axis                     [deg]
#   7 A_WORLD                Profile RMS along major axis (world units)                 [deg]
#   8 B_WORLD                Profile RMS along minor axis (world units)                 [deg]
#   9 THETA_WORLD            Position angle (CCW/world-x)                               [deg]
#  10 FWHM_WORLD             FWHM assuming a gaussian core                              [deg]
#  11 ELONGATION             A_IMAGE/B_IMAGE                                           
#  12 ELLIPTICITY            1 - B_IMAGE/A_IMAGE                                       
         1 -14.3352    177.5058     92.5952   5.4442243886e+01   2.7729728395e+01      4.17693     1.958195 -54.58   0.01535369    2.636    0.621
         2 -11.4693    248.7024      9.3447   2.7491239686e+01   2.4580504684e+01    0.5115936    0.2901821 -22.91  0.002303468    2.768    0.639
         3  99.0000    202.5741     20.9901   3.3408074650e+01   3.2630659878e+01     8.304874     1.035331  56.61   0.02306886    7.168    0.860
         4 -12.5507    217.6730     34.3255   3.4860561046e+01   2.7810745956e+01     2.073337     0.480637 -39.76  0.008024668    3.374    0.704
         5 -14.7319    216.7911     76.5943   4.4286197173e+01   2.1967849481e+01      8.98545     3.519344 -51.74   0.03546461    2.659    0.624
         6 -14.8701    238.7032     58.8533   3.7893395764e+01   2.0258808257e+01     4.425635    0.7843524  54.32   0.01361676    6.553    0.847
         7 -14.1319    178.7287     78.9634   5.0738107164e+01   2.9860148185e+01     3.863993     1.836801 -47.00  0.002279452    2.076    0.518
         8 -11.6728    212.6400     22.8150   3.2862591591e+01   3.0260130154e+01    0.8697258    0.2857373 -33.46  0.003775167    3.049    0.672
         9 -11.4702    120.7286     39.3528   5.0918978710e+01   4.9380796815e+01    0.7208281    0.4321006  16.13  0.001220646    2.730    0.634
        10 -10.6438    134.5376     22.9966   4.2901243709e+01   4.8078231901e+01    0.4167832    0.1204097 -30.27  0.001555104    3.607    0.723
        11 -10.3234    148.4263     18.9389   3.9424906057e+01   4.5233416748e+01    0.3058399    0.2135885 -57.17  0.001178034    1.557    0.358
        12 -13.1566    249.6908     26.4648   3.0579641685e+01   2.2426761373e+01     2.257503    0.4113005 -33.64  0.006970835    6.705    0.851
        13 -10.8499    134.9081     12.3261   3.9570846446e+01   4.9042838957e+01    0.4472057    0.1806596 -27.21  0.002014515    2.777    0.640
        14 -11.0241    139.5624      9.5268   3.8012699272e+01   4.8208906264e+01    0.5541732    0.2783829 -13.67  0.002615371    2.812    0.644
        15  -8.0654     79.6004     10.8086   5.0937328130e+01   6.1506256737e+01    0.1529128    0.1141244 -32.57 0.0006230629    1.579    0.367
        16 -12.7043    231.0900     31.8046   3.3097924503e+01   2.5375293699e+01     2.219695     1.055649 -43.02   0.01042341    1.807    0.447
        17 -10.2134    128.4103      7.8116   3.9229167276e+01   5.0953851168e+01    0.2358874    0.2034341 -47.96  0.000803807    1.316    0.240
        18  -9.6463    119.0187      6.4999   4.0406930121e+01   5.3229900208e+01    0.1993417    0.1074818  65.30  0.001022269    1.582    0.368
        19  -8.4952    235.7264      3.3396   2.7186067654e+01   2.7696044370e+01    0.2223002    0.1456196  43.56   0.00135014    2.567    0.610
        20  -8.6380    158.7199      3.0238   3.3675924939e+01   4.4324097184e+01     0.223681    0.1325008  56.17   0.00125868    1.575    0.365
        21 -10.2271    113.2865      2.9937   4.0266710319e+01   5.4817003998e+01     0.299886    0.1611841  73.38  0.001528275    1.823    0.451
        22 -10.0164    230.2508      1.6968   2.7220417635e+01   2.8939432804e+01    0.1754239     0.129591  86.24  0.001157219    1.221    0.181
        23  -8.5319    240.4106      1.3709   2.6535282024e+01   2.6995960659e+01    0.1036799     0.084394 -79.84 0.0007846905    1.160    0.138
        24  -9.3389    128.4593      1.5881   3.7283596248e+01   5.1447518984e+01    0.3088925   0.08375847  62.36  0.001203549    2.695    0.629
        25  -9.0738    174.3638    175.9330   7.4512505199e+01   1.1379927761e+01    0.2352062     0.205768  47.51 0.0005603509    1.287    0.223
        26  -9.1230    237.3980    172.2577   6.1494315507e+01   1.5886222604e+00    0.1875505     0.108336 -45.32 0.0009472676    1.666    0.400
        27 -12.0764      2.9984    164.8403   1.1756551152e+02   3.8889669601e+01    0.8740996    0.3252769 -75.49  0.003710308    2.206    0.547
        28  -8.7961    250.5586    171.5202   5.9201960317e+01  -1.9440334309e-01     0.128606    0.1025021 -28.00 1.119374e-05    1.026    0.025
        29  -8.2315    194.6712    171.3511   6.9251062812e+01   8.7035313169e+00    0.1401681     0.116325 -80.75 0.0007047922    1.768    0.434
        30 -10.0297    249.1104    248.4256   7.3200654253e+01  -1.1567764794e+01    0.2667674    0.1687799 -13.71  0.001769273    1.275    0.215
        31  -9.2554    187.3979    239.7005   8.3341436898e+01  -2.6100249663e+00    0.2302123    0.1992546  56.92 0.0006905127    1.705    0.413
        32 -11.7834    159.2840     90.9945   5.7695533163e+01   3.2137017034e+01    0.8459854    0.3505954 -41.66  0.001207131    2.349    0.574
        33 -12.2786    198.8526     84.1724   4.8657408400e+01   2.4514764930e+01     1.107119    0.5686324  42.70  0.004204229    2.493    0.599
        34 -13.9723    232.8860    104.1712   4.8120235561e+01   1.4252994732e+01     3.193649     1.830676 -60.96  0.004380334    2.083    0.520
        35 -10.1690    207.5069    233.8293   7.8382656963e+01  -4.4367078093e+00    0.2152508    0.1758764   6.94 0.0003696273    1.072    0.067
        36  -9.1386    175.0506    233.3884   8.4868828209e+01   2.1982864923e-01    0.2439538    0.1829683 -34.46 0.0003293532    1.378    0.274
        37  -9.0404    176.3350    229.1167   8.3902304166e+01   7.7372678312e-01    0.2110712    0.1605105  13.51 0.0003319363    1.205    0.170
        38  -9.5358    249.2917    157.3265   5.6633100592e+01   2.3656219383e+00     0.259277    0.1334879 -31.05  0.001103566    1.774    0.436
        39 -11.7619     65.7190    142.5489   9.6617149070e+01   3.8276172434e+01     2.434242     1.061195  37.04  0.009469725    2.345    0.574
        40 -12.5089     33.8926    151.4246   1.0762685278e+02   3.9704406662e+01    0.6872765    0.5746166  60.19  0.001367511    1.254    0.203
        41 -12.5372     41.5744    148.4551   1.0493853688e+02   3.9683232283e+01    0.9153279    0.7089432  89.85  0.003194056    1.309    0.236
        42 -10.9250    174.4781    151.0091   6.9145691718e+01   1.6604953221e+01    0.4304887    0.3303261 -41.41 0.0003652649    1.235    0.191
        43 -10.5150    180.2924    148.0540   6.7225359954e+01   1.6093370582e+01     0.328488     0.315699  12.43 0.0009337382    1.081    0.075
        44 -12.1795     47.6499    146.3455   1.0278837242e+02   3.9558105054e+01    0.6890507    0.5144439 -79.19  0.001941373    1.320    0.242
        45  -9.8829    134.0659    146.5713   7.7829969352e+01   2.5570164042e+01    0.8866552    0.2779596 -53.90   0.00245576    3.845    0.740
        46  -8.7224    132.4864    138.9756   7.6486083351e+01   2.7662452857e+01    0.3151792    0.1536574 -53.82  0.001137512    2.191    0.544
        47  -7.9940    118.1708    147.3533   8.2251781154e+01   2.8429338545e+01    0.1938562    0.1450084  47.35  0.000159097    1.403    0.287
        48 -10.1065    192.1588    143.6091   6.3777701939e+01   1.4703520922e+01    0.3525207    0.2362238 -41.93 0.0005938704    1.376    0.273
        49  -8.7783    158.4707    143.3674   7.1044327696e+01   2.1434011634e+01    0.2977863    0.1937282  44.92  0.001268482    1.607    0.378
        50 -11.1548    177.6556    140.8746   6.6157813688e+01   1.8110784976e+01    0.5098528    0.3696576  80.41  0.002211793    2.192    0.544
        51  -8.6306    228.4270    135.9647   5.5564679577e+01   9.4747009339e+00    0.2127147    0.1166504 -39.87  0.000410511    1.561    0.360
        52 -10.2020    205.5565    135.6959   5.9444666840e+01   1.3695419144e+01    0.3295257    0.2422796  14.12  0.001617845    1.803    0.445
        53  -9.2290    187.5820    135.2732   6.2805276626e+01   1.7279781326e+01    0.2195332    0.1343533 -33.22 0.0009580396    1.655    0.396
        54 -10.5700    155.6831    137.3277   7.0288135801e+01   2.3333477460e+01    0.5390308    0.3579217  32.72   0.00236194    1.660    0.397
        55  -9.9634    191.3292    132.2254   6.1358591919e+01   1.7144187029e+01    0.2892621    0.2152649  60.37  0.001421174    1.607    0.378
        56  -9.9130    225.3745    129.2796   5.4633554578e+01   1.1221976380e+01    0.3617359    0.2613226 -49.19  0.001971217    1.288    0.223
        57  -8.9453    136.1546    129.4112   7.3225008605e+01   2.9132239104e+01    0.3101543    0.1088267 -44.61  0.000968994    2.789    0.641
        58 -10.5605    208.7343    127.3928   5.7021932393e+01   1.4669475390e+01    0.3489376    0.3363643  12.89  0.002096575    1.143    0.125
        59 -10.2619    160.8775    128.3020   6.6905230232e+01   2.4219848146e+01    0.3839863    0.3142997 -65.77  0.001339293    1.381    0.276
        60  -8.0142     92.4889    127.4620   8.5154124157e+01   3.7967672328e+01    0.1545969    0.1476753 -36.38 0.0002066108    1.013    0.013
        61  -9.7203    171.0365    122.3472   6.3192348226e+01   2.3328707161e+01    0.4117242    0.2700293  79.07  0.001584557    2.669    0.625
        62  -9.5029    214.0412    121.3972   5.4772572336e+01   1.4768048189e+01    0.2745106    0.1820368 -26.33  0.001225231    1.659    0.397
        63  -9.1172    135.1950    120.5429   7.1251824389e+01   3.1336284606e+01    0.4149057    0.1695938 -48.49  0.001405424    2.461    0.594
        64 -10.2175    162.7111    120.0889   6.4467877553e+01   2.5571972633e+01    0.4009879    0.2598468 -73.18  0.001532769    2.534    0.605
        65  -9.0888     29.2523    116.6391   1.0370931019e+02   4.9058905706e+01    0.4514596    0.1773855 -75.85  0.001553389    3.324    0.699
        66  -9.9670    201.5053    116.0325   5.5715843701e+01   1.8237369512e+01    0.3207106    0.2625283  56.57  0.001301685    1.353    0.261
        67 -10.8214    204.5440    110.6091   5.3934449808e+01   1.8631501553e+01    0.5505877    0.4512327 -18.75  0.002740193    1.388    0.280
        68  -9.5743    135.0000    111.3747   6.8918645419e+01   3.3398430796e+01    0.6598467    0.1937624 -45.16  0.001932531    3.349    0.701
        69 -11.3310    135.2509    101.3521   6.6152746321e+01   3.5473373626e+01     1.125299    0.3221318 -39.41  0.002782849    3.812    0.738
        70  -8.2858     67.6444    115.0011   9.0211568842e+01   4.5004664312e+01    0.2026272    0.1751007 -46.65 0.0003632448    1.072    0.067
        71  -9.9793    168.3535    113.9188   6.1687920993e+01   2.5628026746e+01    0.5503914    0.3697804 -29.88  0.002462738    1.631    0.387
        72 -11.9524    122.0625    103.5832   7.0273522298e+01   3.7833644320e+01     1.775951    0.7000548  49.23  0.005919111    2.789    0.642
        73 -11.9204    115.4181     93.5806   6.9313497408e+01   4.1349041575e+01    0.9895156    0.4992164  35.21  0.003753904    2.236    0.553
        74  -9.8096    149.7125    104.0474   6.3334120644e+01   3.1730746251e+01    0.3332983    0.2874471  -4.73 0.0005643445    1.345    0.257
        75 -10.6116    160.8456     99.5925   5.9639304743e+01   3.0137997345e+01    0.5600877    0.3678838  41.43  0.002512152    1.635    0.388
        76  -9.9344    169.4276     99.3745   5.7771293747e+01   2.8262910224e+01    0.6417303    0.4730338  61.45  0.003120072    1.464    0.317
        77 -10.4584    167.7297     92.8823   5.6436148324e+01   2.9871013462e+01    0.3929128    0.3084917 -11.13  0.001911811    1.633    0.388
        78  -8.8238    197.2193     97.3038   5.2060942652e+01   2.2575226848e+01    0.2699696    0.2262014 -86.58  0.001057653    1.312    0.238
        79 -10.3884     85.9991     97.1537   7.9420762570e+01   4.6287327043e+01    0.2430499       0.2219 -35.52            0    1.054    0.052
        80 -10.3624    143.6413     94.4692   6.2181192830e+01   3.5006804400e+01    0.3754509    0.3272944 -49.05 0.0007846195    1.147    0.128
        81 -13.9513    231.8170     71.1432   4.1212471686e+01   1.9789653667e+01     1.888826     1.001047  78.46   0.00463448    2.477    0.596
        82  -8.9391    246.4984    226.4867   6.9969650625e+01  -8.2602824180e+00    0.1216614   0.09140222 -10.50  1.86575e-06    1.009    0.009
        83 -12.8525    249.9297     62.8001   3.7560447268e+01   1.7576909070e+01    0.5591524    0.2580281 -39.16 0.0004866057    1.877    0.467
        84 -11.5242    131.1420     84.6362   6.2473954339e+01   3.9717411415e+01    0.5145959    0.3452082  27.91  0.002253982    1.838    0.456
        85  -9.8679    151.0142     71.3885   5.4046858639e+01   3.7540023791e+01    0.2844693    0.2068419 -41.08 0.0005266278    1.389    0.280
        86  -9.3707    133.2839     64.8088   5.6049014168e+01   4.2749325871e+01    0.2912294    0.1770456  31.42   0.00117993    2.102    0.524
        87  -7.7994    212.7269    166.6965   6.4757453115e+01   6.5006613934e+00    0.1387814   0.09972795 -12.40 0.0002112521    1.538    0.350
        88 -10.0640    125.5111     61.2785   5.6823504428e+01   4.5104446883e+01    0.2887223    0.2471239 -60.41 0.0005846023    1.310    0.236
        89  -8.7829    177.5023    224.3129   8.2855263643e+01   1.4486252403e+00    0.2121909    0.1302805 -47.47 0.0003862599    1.815    0.449
        90  -9.4955    242.6091    219.1936   6.9369480990e+01  -6.7213033774e+00     0.243396    0.1370334  45.61  0.001243954    2.799    0.643
        91 -10.9842      3.6884     47.7097   9.8680045857e+01   6.6617434127e+01    0.3033105    0.1967276 -54.75  0.001862972    1.405    0.288
        92 -10.0602     25.2144    165.8440   1.1181985136e+02   3.6839001688e+01    0.2483818    0.2100388 -87.82  0.001508734    1.040    0.039
        93  -9.8913    191.9425     46.0760   4.0465462457e+01   3.1880403351e+01    0.2969651    0.2064689 -52.75 0.0008488038    1.358    0.264
        94 -10.0350    144.1408    217.8612   8.9104571091e+01   7.8773585057e+00    0.2489288    0.2077373 -48.18 0.0004993243    1.303    0.233
        95  -9.6051    190.1076     35.2599   3.8082107527e+01   3.3702881669e+01    0.2114177    0.1669191 -50.84 0.0002516025    1.225    0.183
        96  -8.2948    166.0586     33.5050   4.0843399238e+01   3.9462170601e+01    0.1940376    0.1192715  67.44 0.0003620583    1.491    0.329
        97 -11.2127    145.3662     30.4365   4.3252736338e+01   4.4703918119e+01    0.4660401    0.2626028 -45.14  0.001390362    1.915    0.478
        98 -11.4494      5.5986     41.0027   9.5634862921e+01   6.7804904038e+01    0.4161677    0.2486039 -66.63  0.002289782    2.196    0.545
        99 -10.0831    187.9147     27.1026   3.6375939078e+01   3.5182806541e+01     0.314692    0.1947578 -57.52  0.001508825    1.576    0.366
       100  -9.2746    159.8208     27.0905   4.0018746431e+01   4.1677600798e+01    0.2091137    0.1898457 -87.28 0.0003782529    1.051    0.049
       101  -9.8080     37.9209    213.7757   1.1336563157e+02   2.3892856811e+01    0.2784648    0.1778296  54.33  0.001492655    1.423    0.297
       102  -9.9975    179.6360     24.0164   3.6593495743e+01   3.7419610819e+01    0.4073571    0.3136582 -89.11  0.001914392    1.171    0.146
       103  -8.9674    204.9582     36.5072   3.6658972414e+01   3.0252052178e+01    0.2660739    0.2259643 -17.73  0.001523789    1.556    0.358
       104  -8.0421     95.9724    212.5184   9.9599516318e+01   1.6554314059e+01    0.1906947    0.1303298  33.30 0.0009651674    1.404    0.288
       105  -9.8921    143.6731     20.8638   4.0719770407e+01   4.6153708563e+01    0.2469905    0.1833734  32.21  0.001400145    1.592    0.372
       106  -9.3918     19.8870    211.1599   1.1717181181e+02   2.6375125315e+01    0.2070121    0.1437606  65.96  0.001256994    1.257    0.205
       107  -8.3079    166.9801     16.5106   3.6226444757e+01   4.1143518388e+01    0.1772194    0.1100192  72.27 0.0003512245    1.416    0.294
       108  -9.5997    244.1893    208.3866   6.7164940560e+01  -5.2736296618e+00    0.2157506    0.1791199 -32.95  0.001266484    1.340    0.254
       109  -9.4005    250.1716    204.0188   6.5359826151e+01  -5.3539993758e+00     0.283142    0.1492713 -44.99  0.001131061    2.047    0.512
       110  -7.8063    221.5690    205.5512   7.0695769583e+01  -1.7843745957e+00    0.1294826    0.1085147 -13.31 0.0001687731    1.050    0.047
       111  -8.0940    163.7827     10.6578   3.5088141497e+01   4.2462296376e+01    0.1113181   0.09018072  34.74 0.0002862247    1.530    0.346
       112  -8.7635    167.0123    203.9272   8.1557869740e+01   6.9433054424e+00    0.2042911    0.1861785   0.72   0.00118719    1.012    0.012
       113 -11.3114    191.7163    154.9318   6.6366578653e+01   1.2509231028e+01     0.709219    0.4981761  89.98  0.001687947    2.852    0.649
       114  -9.9534    241.5623    199.6092   6.6009721445e+01  -3.5519190966e+00    0.4921336    0.2769977  48.31  0.002443458    2.792    0.642
       115  -8.6142    238.2830     12.4127   2.8733452636e+01   2.6226981344e+01    0.1736236   0.09377762  74.15 0.0007972533    1.765    0.433
       116  -8.2800    204.3225    200.3259   7.3036866412e+01   1.6598686016e+00    0.1429041   0.09521114  -7.54  0.000704799    1.686    0.407
       117 -10.2039    192.3420    193.8126   7.4220878775e+01   4.7504149315e+00     0.930013    0.4771342 -63.01  0.002667039    6.084    0.836
       118  -9.4264     28.1997    198.2343   1.1424671364e+02   2.8561642331e+01    0.2100759     0.183812 -70.89 0.0006340368    1.192    0.161
       119  -8.4008     30.9383    182.7162   1.1210958701e+02   3.2055992521e+01    0.1710456     0.153877  69.35  0.000295648    1.097    0.088
       120 -10.0812    235.4163    179.5669   6.3262466024e+01   6.2694567477e-01    0.2337857    0.2091671 -32.37 0.0005784972    1.219    0.179
       121 -12.2031    230.6381    167.4448   6.1690048116e+01   3.4607962994e+00     1.497348    0.6749198 -25.40  0.005675571    3.060    0.673
       122 -11.9339     16.4942    149.5307   1.1241388708e+02   4.1729736666e+01    0.9412684    0.3053546 -70.93  0.003648469    2.561    0.609
