#   1 NUMBER                 Running object number                                     
#   2 MAG_AUTO               Kron-like elliptical aperture magnitude                    [mag]
#   3 X_IMAGE                Object position along x                                    [pixel]
#   4 Y_IMAGE                Object position along y                                    [pixel]
#   5 X_WORLD                Barycenter position along world x axis                     [deg]
#   6 Y_WORLD                Barycenter position along world y axis                     [deg]
#   7 A_WORLD                Profile RMS along major axis (world units)                 [deg]
#   8 B_WORLD                Profile RMS along minor axis (world units)                 [deg]
#   9 THETA_WORLD            Position angle (CCW/world-x)                               [deg]
#  10 FWHM_WORLD             FWHM assuming a gaussian core                              [deg]
#  11 ELONGATION             A_IMAGE/B_IMAGE                                           
#  12 ELLIPTICITY            1 - B_IMAGE/A_IMAGE                                       
         1 -15.3464      4.5081    125.9945   1.2526134338e+02   4.7777078048e+01     6.809421    0.6679094 -73.78   0.01685147    8.328    0.880
         2 -13.5659    208.1417     35.8397   5.0794883220e+01   2.8331136162e+01     1.245242    0.9328688 -40.69  0.005531002    1.288    0.223
         3 -13.9787    227.8060     18.0386   4.3779893769e+01   2.5581096296e+01    0.9515029    0.8590956  47.49   0.00175422    1.261    0.207
         4 -13.6431      4.5501      6.4616   9.8431556073e+01   7.2777531990e+01     1.238116    0.6375911 -35.26  0.007862498    1.412    0.292
         5 -11.9099    144.5993    243.3902   1.0955093809e+02   6.2286323217e+00    0.3180099    0.2394442 -42.38  0.002168153    1.725    0.420
         6 -11.3049    161.3814    249.6686   1.0737367085e+02   2.7143174872e+00    0.3073774    0.1383584  33.51  0.001551538    2.173    0.540
         7 -11.2474    142.9396    249.2727   1.1052864236e+02   5.6462860907e+00    0.4224021    0.1663553  53.48  0.001948491    2.700    0.630
         8 -12.7502    136.0756    244.4731   1.1117876425e+02   7.4035190097e+00    0.6747381    0.4449809 -41.65  0.004289615    2.071    0.517
         9 -12.5236    131.2717    240.5146   1.1157582437e+02   8.7433591259e+00    0.4696913    0.3064374  20.63    0.0022876    2.305    0.566
        10 -12.9022    124.9656    240.5135   1.1269352788e+02   9.7185752495e+00    0.7491464    0.4055099  24.84  0.003502938    3.202    0.688
        11 -12.9772    123.9986    248.6959   1.1374132974e+02   8.6256920672e+00    0.7586331    0.3977846  38.09  0.004413917    1.708    0.414
        12 -12.6310    113.9308    248.7342   1.1547352309e+02   1.0120197228e+01    0.8316541    0.4225964  53.08  0.004903178    1.628    0.386
        13 -14.7173     89.4059    244.2819   1.1923675558e+02   1.4332443450e+01     2.531117     1.005807  44.48   0.01374287    1.982    0.495
        14  -8.7439     52.2625    231.3944   1.2449112614e+02   2.1350100779e+01   0.09312843   0.07857873 -58.35 0.0006973362    1.709    0.415
        15 -13.2570     58.9818    247.3510   1.2449648752e+02   1.7820733948e+01     1.583516    0.6385449  45.30  0.009378702    1.938    0.484
        16 -12.1153     90.5124    224.8150   1.1722682721e+02   1.7465747255e+01    0.4702198     0.185056  54.67  0.002236599    2.400    0.583
        17 -11.4572    101.4079    220.3928   1.1475545427e+02   1.6652010808e+01    0.2624596    0.2042288  49.79  0.001123025    1.145    0.127
        18  -9.2008     59.9489    220.5269   1.2233391124e+02   2.2355841086e+01    0.1571196   0.09222125  47.44   0.00035796    1.479    0.324
        19 -10.9455     50.7777    218.5697   1.2379961525e+02   2.3843497934e+01    0.3106038     0.160516  80.96 0.0007692394    1.935    0.483
        20 -10.7599    180.7268    243.1305   1.0313875460e+02   5.0724557064e-01    0.2379736    0.1098598  49.58  0.001133625    2.118    0.528
        21 -11.0349     72.2784    219.6266   1.2004438116e+02   2.0923756931e+01     0.326314    0.1615477  56.64  0.001834503    1.755    0.430
        22  -9.3081     88.2399    213.8080   1.1651696880e+02   1.9784591011e+01    0.2068685    0.1014019  69.71  0.000942364    2.717    0.632
        23  -9.7036     66.7337    233.5107   1.2219800507e+02   1.9175391609e+01    0.2227092    0.1358179 -77.22  0.001483868    1.649    0.393
        24 -12.7373    105.8091    230.3182   1.1501829129e+02   1.4275542726e+01    0.5996919    0.2275229  52.82  0.002788142    2.449    0.592
        25  -8.8816    137.5045    207.5221   1.0617289701e+02   1.3137070254e+01     0.129805    0.1104939  54.61 8.421845e-05    1.048    0.046
        26  -9.4076    106.6214    203.7611   1.1178375155e+02   1.8903224984e+01    0.1661243    0.1131228 -78.37 0.0006152679    1.633    0.388
        27 -10.4229     56.1035    207.8864   1.2196690389e+02   2.5215106289e+01    0.1868387    0.1254872  68.13  0.001229604    1.236    0.191
        28  -8.6794     73.6343    204.2906   1.1831346155e+02   2.3640941168e+01    0.1293005   0.07392726  66.32 0.0002837662    1.706    0.414
        29  -9.5307     88.2922    201.6496   1.1516347803e+02   2.2090657041e+01    0.1298687   0.08146022  72.78 0.0007029455    1.674    0.403
        30  -9.7281    250.5195    200.5018   8.3834153147e+01  -5.4002392147e+00     0.126911   0.09874319   8.40 -4.954262e-05    1.022    0.021
        31 -15.5191     10.8242    240.9368   1.3160683404e+02   2.4226107485e+01     3.252161     1.729315  79.23 0.0005432438    1.429    0.300
        32  -9.2936     80.2015    197.4107   1.1628750704e+02   2.4088321293e+01    0.1645014   0.09816463  53.17   0.00040387    1.490    0.329
        33 -10.3464     21.6812    193.3288   1.2719529815e+02   3.1906368411e+01    0.1951069   0.09338158  73.70  0.001072971    1.919    0.479
        34 -10.2813     19.0023    189.2274   1.2740836141e+02   3.2988755378e+01    0.3459767    0.1389146  88.16  0.001741631    2.458    0.593
        35 -15.2587     19.7292    218.8933   1.2912202135e+02   2.7207147894e+01      1.51543    0.9222442  73.17   0.01105377    1.232    0.188
        36 -12.1565     47.5237    191.2905   1.2212713627e+02   2.9545785028e+01    0.2606059    0.2031191 -82.55 0.0007022013    1.170    0.145
        37 -13.0276     33.8136    205.3359   1.2583408082e+02   2.8290907338e+01    0.5637632    0.4698287 -87.79  0.004386153    1.255    0.203
        38 -10.1223     57.4808    190.1218   1.2004885229e+02   2.8585228914e+01    0.1673497    0.1033526 -76.04 0.0003137354    1.476    0.323
        39 -12.1820     55.1868    183.7225   1.1986301362e+02   3.0197165609e+01    0.2395892     0.204952  83.12  0.000511061    1.102    0.092
        40 -10.1757     37.0716    179.9676   1.2317671001e+02   3.3067067023e+01    0.1856152    0.1663826  69.10 0.0009919064    1.263    0.208
        41 -10.4740     45.4491    177.8248   1.2126692740e+02   3.2593708640e+01    0.2401927    0.1743453  72.12 0.0003165355    1.188    0.158
        42  -8.7996     74.7187    178.3430   1.1516043341e+02   2.8791211625e+01    0.1325525   0.08497909  75.94 0.0002415522    1.633    0.388
        43  -9.8141     32.0345    176.9076   1.2392099847e+02   3.4241954131e+01    0.1747745    0.1364091  86.49 0.0004114519    1.026    0.026
        44 -11.0658    249.1746    172.8298   7.8574578087e+01  -1.5664563354e+00    0.3041413    0.2080669   7.00  0.001673761    1.455    0.313
        45 -10.9014     67.8476    171.7989   1.1582942148e+02   3.1132937225e+01    0.2482862    0.1818859 -67.32 0.0004839944    1.292    0.226
        46 -12.9958     19.3707    169.9344   1.2589785993e+02   3.6951641218e+01    0.4828635    0.3274208 -69.97  0.001992086    1.348    0.258
        47 -11.0827     52.0730    170.5607   1.1910744950e+02   3.3386591948e+01    0.2370918    0.2148017 -72.17 0.0004877336    1.266    0.210
        48 -10.7666     41.1643    167.6158   1.2113561114e+02   3.5270587355e+01    0.2398731    0.2274247  43.92  0.001754666    1.390    0.280
        49 -12.0962     75.8681    163.7935   1.1297511825e+02   3.1797609493e+01    0.5778565    0.4230604 -62.79  0.001543653    1.310    0.237
        50 -10.8285    249.5095    161.5295   7.6129456311e+01  -3.7825345994e-02    0.3252026    0.1046483 -39.87  0.001171202    3.333    0.700
        51 -11.2247    247.5079    157.6073   7.5617078589e+01   8.8807192424e-01    0.3867971    0.1761473  50.16  0.001649225    2.599    0.615
        52  -9.6166     49.8757    161.2041   1.1851809060e+02   3.5704049618e+01     0.181452    0.1397241  76.55 0.0002590216    1.163    0.140
        53  -8.6472     42.6754    161.2762   1.2012908825e+02   3.6498971764e+01    0.1252238   0.07763346  70.52 0.0002331982    1.584    0.369
        54 -13.3436     16.1196    120.7046   1.2176499031e+02   4.8153960368e+01    0.6927189    0.3149942  62.03  0.002435923    2.879    0.653
        55 -11.8852    150.4096    247.6742   1.0904189034e+02   4.7069627691e+00    0.3115887    0.2836683 -81.93  0.002382924    1.372    0.271
        56  -9.3806    235.9915    146.0224   7.5009811343e+01   4.8053219919e+00    0.1734903    0.1494878 -10.32 0.0004948549    1.032    0.031
        57 -11.1904     68.5049    143.6508   1.1171387374e+02   3.7375300059e+01    0.5897829    0.3194892  72.81  0.002170132    2.749    0.636
        58 -12.6829    241.8722    120.8023   6.8111987119e+01   7.5943141802e+00    0.7151594    0.4373551  48.70  0.003426761    1.775    0.437
        59 -13.1771    248.4004    101.7569   6.2477612897e+01   9.2132859739e+00     1.032782    0.4882182 -28.72  0.004316108    1.973    0.493
        60 -11.7279     25.5827    155.7688   1.2332744330e+02   3.9448315615e+01    0.2777545    0.2088874  60.63  0.001321941    1.304    0.233
        61 -10.4292     79.0478    148.3100   1.0987561669e+02   3.4837864169e+01    0.2167387    0.1865671 -87.86 0.0004133462    1.059    0.055
        62 -10.1094    105.5063    135.3379   1.0087362853e+02   3.3595680444e+01    0.4090272    0.2670233 -13.82   0.00157293    3.123    0.680
        63 -11.3650    249.5930    150.9541   7.3807203356e+01   1.4802111132e+00    0.3219921    0.2215829 -38.85   0.00147906    1.521    0.343
        64 -13.4628    248.2189    113.9452   6.5459769665e+01   7.3680227550e+00     1.248541    0.4833921 -36.38   0.00487057    2.273    0.560
        65  -9.5134     94.9985    145.3069   1.0544544393e+02   3.3085876641e+01    0.1876048    0.1742177  71.68 0.0003317781    1.072    0.067
        66 -11.0171     91.2483    149.5061   1.0711068535e+02   3.2727317038e+01    0.2956962    0.2660333  58.03 0.0009998387    1.131    0.116
        67 -12.8922    248.1855    134.9417   7.0416277099e+01   4.1439761718e+00     1.027396    0.4411187 -24.48  0.003984105    2.512    0.602
        68 -10.8430     23.9119    149.6620   1.2309315259e+02   4.0956318915e+01    0.1636403    0.1315273  85.21 0.0005698677    1.077    0.071
        69 -11.0090    243.5970    247.1868   9.3024531543e+01  -9.5432027673e+00    0.1483747   0.09011458  -8.13 0.0007149968    1.707    0.414
        70 -10.3398    198.0419    245.4814   1.0044868489e+02  -2.5254995347e+00    0.1853203   0.09134259  38.88  0.000815093    1.587    0.370
