#   1 NUMBER                 Running object number                                     
#   2 MAG_AUTO               Kron-like elliptical aperture magnitude                    [mag]
#   3 X_IMAGE                Object position along x                                    [pixel]
#   4 Y_IMAGE                Object position along y                                    [pixel]
#   5 X_WORLD                Barycenter position along world x axis                     [deg]
#   6 Y_WORLD                Barycenter position along world y axis                     [deg]
#   7 A_WORLD                Profile RMS along major axis (world units)                 [deg]
#   8 B_WORLD                Profile RMS along minor axis (world units)                 [deg]
#   9 THETA_WORLD            Position angle (CCW/world-x)                               [deg]
#  10 FWHM_WORLD             FWHM assuming a gaussian core                              [deg]
#  11 ELONGATION             A_IMAGE/B_IMAGE                                           
#  12 ELLIPTICITY            1 - B_IMAGE/A_IMAGE                                       
         1 -11.0291     69.8573     27.2530   9.1622451574e+01   6.0889635023e+01    0.6465536    0.3758397 -10.25  0.003405269    1.991    0.498
         2 -12.0661     76.8715     24.9081   8.8460115557e+01   5.9981122698e+01    0.4958785    0.2893145  -7.46  0.001506535    2.044    0.511
         3 -11.4789     92.3400      8.7727   7.7944124701e+01   5.8749069805e+01    0.3663312    0.2844534  -1.29  0.002405078    1.329    0.247
         4 -10.9260     90.0938     16.1593   8.1282733101e+01   5.8493370013e+01    0.2855102    0.1928775 -10.88  0.000430545    1.578    0.366
         5 -10.9907     87.1902     12.0590   8.0533822298e+01   5.9447290431e+01    0.3119574    0.2281322  35.30  0.001217799    1.149    0.129
         6 -11.3904     13.2588     20.6433   1.1139329809e+02   6.8833216296e+01    0.2473299    0.1836239 -34.95 0.0008248644    1.327    0.246
         7 -10.6093     13.6197     15.9891   1.0937080723e+02   6.9457744184e+01    0.3365855    0.1587303  23.02  0.002059054    2.123    0.529
         8 -11.0527     40.1971     19.1530   9.9211714903e+01   6.6214258825e+01    0.4827577    0.3129588  22.74  0.003173722    1.405    0.288
         9 -11.0713     22.3943      9.1224   1.0245885840e+02   6.9505575053e+01    0.3584719    0.1873494  12.41  0.002165076    1.956    0.489
        10 -11.8016     30.3253      7.4201   9.8241166319e+01   6.8818863512e+01    0.3284726    0.2428945  16.73  0.001219779    1.213    0.175
        11 -12.3756     40.0139      8.6702   9.4809704806e+01   6.7467014832e+01    0.5612067     0.299952 -28.00  0.002559967    1.774    0.436
        12 -10.8513    100.0925     18.8093   7.9626806082e+01   5.6249334593e+01     0.342294    0.2483262 -54.59  0.001948041    1.967    0.492
        13 -10.4080     57.1724     15.4434   9.1259275105e+01   6.4282933751e+01    0.2452042    0.1512831 -44.32  0.001386628    2.372    0.578
        14 -11.2708    155.8969     13.8753   6.6924648763e+01   4.4305205927e+01    0.4033445    0.2413521  36.16  0.002049932    1.994    0.498
        15 -10.5535     68.7826     13.6119   8.6593331186e+01   6.2609965770e+01    0.2180767     0.180978  38.86 0.0007315857    1.274    0.215
        16 -10.2048    119.3179     12.1931   7.2945721126e+01   5.2824623976e+01    0.2127486    0.1619421  57.52 0.0006376322    1.164    0.141
        17 -11.2424    151.2321      6.9529   6.5690753484e+01   4.6046257431e+01    0.2724764    0.2455358 -34.21 0.0009087154    1.297    0.229
        18 -12.2539     56.2943      5.4854   8.7373816677e+01   6.5439301569e+01    0.5500257    0.3912015  15.11  0.003780803    1.167    0.143
        19 -10.1185     50.1721      2.0076   8.8018713504e+01   6.6701765551e+01    0.2417874    0.1481498  42.26 0.0005476389    1.586    0.370
        20 -11.5834     10.7484      6.8257   1.0683310142e+02   7.0914526529e+01    0.4532829    0.3694682  27.78  0.003603891    1.764    0.433
        21  -9.8318     10.4673      1.5219   1.0457800832e+02   7.1586291989e+01    0.1346411   0.08578499 -34.84 0.0009152085    1.628    0.386
        22  -9.9678      2.5520      2.7236   1.0902525241e+02   7.2112211364e+01      0.18468    0.1096263  -1.11  0.001146076    1.448    0.309
        23 -11.1229      4.2937      9.8578   1.1125016349e+02   7.1048919085e+01    0.1988037    0.1423461  -5.26 0.0002602815    1.147    0.128
        24 -10.7686      2.5346      6.4828   1.1068183712e+02   7.1630662295e+01    0.1924943    0.1390153 -10.19 0.0006423821    1.081    0.075
        25 -10.1875    210.1890      7.4568   5.8664019844e+01   3.2227581235e+01    0.1923677    0.1353639 -49.23  0.001099396    1.415    0.293
        26 -11.8973     80.3632      1.8970   7.8479697285e+01   6.1618082054e+01    0.3611259    0.1668385  50.03  0.001236816    1.811    0.448
        27 -11.5169     69.5040      6.5928   8.3517974716e+01   6.3164280484e+01    0.7711597    0.2098722  46.45  0.003292624    2.967    0.663
        28  -9.0062     49.3170      7.2848   9.0640860373e+01   6.6318446850e+01    0.1169709   0.07025898  13.73 0.0006995994    1.585    0.369
        29 -11.1148    194.5961      4.0808   5.9477365925e+01   3.6159560366e+01    0.2685314    0.1780755 -58.11  0.001586358    1.497    0.332
        30 -10.9586    120.5102      4.4288   7.0167156559e+01   5.3231960819e+01    0.2999674    0.1638903  46.18  0.001084388    1.568    0.362
        31  -9.8000    235.5791      4.2640   5.5776320808e+01   2.6939970888e+01    0.1430201    0.1149208 -29.48 0.0009522813    1.656    0.396
        32 -11.3212    130.3112      3.4698   6.8063893059e+01   5.1134708674e+01     0.243111    0.1866985  77.50      0.00101    1.309    0.236
        33 -10.3428     16.5717      3.4906   1.0258684774e+02   7.0770788774e+01    0.1716743    0.1068648 -28.34 6.210955e-05    1.436    0.304
        34 -10.6047     19.5543      2.5219   1.0076595663e+02   7.0575819194e+01    0.2034631    0.1363919   1.44 0.0006701627    1.170    0.145
        35 -10.6694    172.3745      2.7634   6.1682841969e+01   4.1472221578e+01    0.1933679    0.1526239 -88.76 0.0004447517    1.161    0.138
        36 -10.6940    160.2795      2.6662   6.3216157624e+01   4.4311674149e+01    0.2740228    0.1906569 -84.20  0.001592999    1.499    0.333
        37  -9.6193    100.1031      1.8338   7.3544160397e+01   5.7764628871e+01    0.1686244    0.1588539  73.76 0.0006140288    1.280    0.218
        38 -11.5311     35.1513     12.9203   9.8630787648e+01   6.7601406620e+01    0.3094687    0.2442352 -28.05  0.001242729    1.447    0.309
        39 -10.2872     23.9119    150.8468   1.3745483835e+02   4.1306282064e+01    0.1848822    0.1478503 -59.59 0.0003935677    1.206    0.171
        40 -11.8271     17.2973    249.2991   1.4737778617e+02   2.0415248588e+01    0.2655216    0.1603228  31.68  0.001676864    2.315    0.568
        41 -11.6015      2.8490    248.8669   1.4966275786e+02   2.2030271781e+01    0.3950631    0.2433505  58.12  0.002880002    1.320    0.243
        42 -12.6845      9.0749    245.2322   1.4847536026e+02   2.2082138780e+01    0.4756755    0.2268169  31.65  0.002695739    2.892    0.654
        43 -12.3516      5.1704    240.8657   1.4886321963e+02   2.3332363162e+01    0.4543255    0.2126514  55.88  0.002842193    1.714    0.417
        44  -9.5784     14.9992    150.5124   1.3958600779e+02   4.2160126479e+01    0.1525624    0.1227061  35.21 0.0005078353    1.531    0.347
        45 -10.3317     21.9406    143.3150   1.3697720618e+02   4.3261243664e+01    0.2283159    0.1466922 -79.96 0.0009883861    1.359    0.264
        46 -11.0146      3.2539    138.7130   1.4109554953e+02   4.5779489867e+01    0.2662134    0.1486226  35.30  0.001569303    2.130    0.531
        47 -11.0235     12.6710    130.4263   1.3766061251e+02   4.7023224916e+01    0.3265877    0.1865534  63.91  0.001280652    2.203    0.546
        48  -9.7535      2.3036    132.3527   1.4059302805e+02   4.7299878922e+01    0.1258044   0.06851662 -50.07 0.0007040278    1.706    0.414
        49 -11.7847     23.6020    121.4341   1.3334968815e+02   4.8251341324e+01    0.4930729    0.2490183 -83.93 0.0009186576    2.475    0.596
        50 -10.6046      3.3839    118.8800   1.3859518939e+02   5.0298121786e+01    0.1963072     0.168452 -33.35 0.0007893408    1.357    0.263
        51  -9.3535      9.3035    116.6657   1.3664290830e+02   5.0419984611e+01    0.1194542   0.08227751  79.64 0.0003474641    1.662    0.398
        52 -10.6649     65.5858    111.7371   1.1907980696e+02   4.5962217104e+01     0.465164     0.142527 -50.11  0.001646533    2.777    0.640
        53  -9.4658      2.2975    114.2919   1.3826331295e+02   5.1398250114e+01    0.1202161   0.06927481 -47.37 0.0001894953    1.561    0.359
        54  -9.5286      5.5241    113.4513   1.3723701278e+02   5.1391285272e+01    0.1213955   0.09295367 -63.11 3.366845e-05    1.021    0.021
        55 -10.0423    249.1656    111.8164   7.6895178949e+01   8.0674396510e+00    0.1841683    0.1629072 -15.48  0.001074409    1.332    0.249
        56 -11.1272     58.2509    107.9846   1.2045853017e+02   4.7781215402e+01    0.3228937    0.2178794 -16.30  0.001231605    1.987    0.497
        57 -11.5267      4.7801    108.7044   1.3674562237e+02   5.2501504648e+01    0.3530814    0.2211587   5.41   0.00215194    2.151    0.535
        58  -9.9283     34.4561    107.9404   1.2775513781e+02   5.0400206322e+01    0.1986105    0.1093504 -62.16 0.0009230078    1.549    0.355
        59  -9.8932     79.1753    107.0699   1.1386679253e+02   4.5060210484e+01    0.2178622    0.1831355 -30.23 0.0004414305    1.200    0.167
        60  -9.6907     20.6345    107.2949   1.3182958611e+02   5.1730253865e+01    0.1204179   0.08831142  73.12 0.0007029997    1.716    0.417
        61  -9.8612    113.4959    102.5107   1.0270351673e+02   3.9983672787e+01    0.1500094    0.1449066 -29.96  0.000129439    1.014    0.014
        62 -10.8614     57.2178    101.6324   1.1930809348e+02   4.9347354578e+01    0.2941866    0.2562023  41.13  0.001416385    1.320    0.242
        63 -10.2604     62.1215     98.8305   1.1708438851e+02   4.9342975179e+01     0.201136    0.1819482 -77.56 0.0008331303    1.251    0.201
        64 -11.8772     18.3687     94.9465   1.3023702090e+02   5.4646871627e+01    0.4695441    0.3320375 -52.15  0.002655997    1.119    0.106
        65  -9.4432    129.4872     97.4905   9.7028494889e+01   3.7720407394e+01    0.1504972    0.1489272 -37.99 -8.471501e-05    1.002    0.002
        66  -9.0628    101.6521     96.7077   1.0446587866e+02   4.3503198294e+01    0.1503168    0.1147499  -3.92 0.0002804838    1.668    0.400
        67 -10.5352     78.9163     94.9758   1.1082060025e+02   4.7769004024e+01    0.2100378    0.1884953 -32.39 0.0003191487    1.032    0.031
        68  -9.7055      3.5055     95.4808   1.3501370794e+02   5.5489205040e+01    0.1190939   0.09153493 -58.94 0.0001509059    1.014    0.014
        69  -9.5379     83.9662     94.0000   1.0899797609e+02   4.7171575125e+01    0.2271544    0.0814959  37.79 0.0008060883    2.968    0.663
        70 -11.1176     27.2908     90.9679   1.2652541758e+02   5.4812277229e+01    0.4837289    0.3335381  51.42   0.00281637    1.961    0.490
        71 -10.3726     25.2923     85.1034   1.2589553022e+02   5.6233957472e+01    0.2415433    0.1792955 -73.78 0.0007321449    1.508    0.337
        72 -10.9429      1.8391     90.0289   1.3459776285e+02   5.6755455379e+01    0.2500172    0.1254261 -63.73 0.0002541575    1.537    0.349
        73 -11.4779     11.1278     87.9561   1.3121409428e+02   5.6653850154e+01    0.5754094    0.1898152 -60.82  0.002627101    2.283    0.562
        74 -10.3729     17.4462     88.6078   1.2926873859e+02   5.6086587189e+01    0.3712099    0.2006562 -21.69  0.001761384    2.332    0.571
        75 -11.3165     76.3569     89.3128   1.1007714923e+02   4.9366771631e+01    0.2534297     0.229716 -11.55 0.0003287922    1.091    0.084
        76 -11.0706     98.7426     89.3694   1.0324855901e+02   4.5569840473e+01    0.2630116    0.1886214  28.62  0.001096579    1.514    0.340
        77  -9.5343     43.8029     89.5727   1.2074248943e+02   5.3541708719e+01    0.1698086    0.1179618  42.15 0.0009476479    1.755    0.430
        78  -9.1156     40.3316     87.1188   1.2130199233e+02   5.4427988284e+01    0.1686303    0.1077774 -65.10            0    1.663    0.399
        79 -10.3665     54.4730     84.4329   1.1587170216e+02   5.3408293110e+01    0.2445537    0.1836423 -48.92  0.001076716    1.204    0.170
        80 -10.5725     77.7676     83.2105   1.0790390752e+02   5.0404055325e+01    0.2530308    0.2034608  26.58 0.0004363348    1.304    0.233
        81  -9.2958    129.2168     83.6539   9.3163869996e+01   4.0522092548e+01     0.194187    0.1355503  39.00 -0.000275831    1.472    0.321
        82  -9.8584    100.5955     82.0632   1.0056959410e+02   4.6684599205e+01     0.334706    0.1351208 -43.20  0.001256641    2.415    0.586
        83 -10.2015      3.9915     82.7721   1.3256334216e+02   5.8175760451e+01    0.2781603    0.1401061 -64.93  0.001213831    1.647    0.393
        84 -10.0710      2.9461     78.4775   1.3207376394e+02   5.9126876970e+01    0.1599002    0.1271269 -51.23 0.0003500602    1.051    0.048
        85 -11.4701     63.6990     80.2053   1.1162400746e+02   5.3079068196e+01    0.3893068    0.3482544 -42.65  0.002413898    1.120    0.107
        86 -10.0556     89.2774     80.3245   1.0345164410e+02   4.9074701411e+01    0.2742181    0.1866194 -52.37 0.0008247989    1.580    0.367
        87  -9.5812    124.3864     79.1516   9.3092394569e+01   4.2418102524e+01    0.2017857    0.1356519 -51.54 0.0003858075    1.636    0.389
        88 -10.5107     58.5585     91.2453   1.1631169325e+02   5.1456895096e+01     0.306364    0.2123853 -24.18 0.0008609138    1.583    0.368
        89 -10.2712    176.5993     77.2571   8.0750445099e+01   3.0612022957e+01    0.2996116    0.2433526  42.41   0.00152754    1.331    0.249
        90 -11.7508     56.0107     75.4818   1.1286948238e+02   5.5037508873e+01    0.4156197    0.2779211  13.36  0.002248912    1.722    0.419
        91  -9.7365    250.2599     80.9959   7.0123344914e+01   1.3131298331e+01    0.1770984    0.1033481 -42.65 0.0005655384    1.517    0.341
        92 -10.4816     15.3625     75.8340   1.2721267331e+02   5.8911811536e+01    0.1726587    0.1586383  21.18 0.0007026874    1.360    0.265
        93  -9.8386     32.3855     73.1579   1.2051443677e+02   5.8085491380e+01    0.1719346    0.1683208 -85.75 0.0003350493    1.321    0.243
        94 -11.0364     35.9859     71.9934   1.1891685076e+02   5.7975644014e+01    0.3904687    0.2508934 -58.37 0.0008957815    1.578    0.366
        95  -9.1711    224.2947     74.2708   7.2101695541e+01   1.9857245909e+01    0.1257403    0.1113322  24.68 0.0002306084    1.518    0.341
        96  -9.3706    136.4875     74.4776   8.8658548468e+01   4.0586223027e+01    0.1459102    0.1427188  47.80 0.0008101157    1.010    0.010
        97 -10.9491      4.1608     73.8138   1.3069759047e+02   6.0017436187e+01    0.3398501     0.188541  17.12  0.001511272    2.181    0.542
        98  -9.3021     96.1466     73.3729   9.9251910812e+01   4.9165756958e+01    0.1888441     0.131139  51.54  0.000471394    1.631    0.387
        99 -10.8312    106.0876     71.4472   9.5748857692e+01   4.7613798351e+01      0.25875    0.2193162 -29.18 0.0005974847    1.165    0.142
       100  -9.4550     92.4727     72.4649   1.0007940169e+02   5.0004105717e+01    0.1382952    0.1299954  -9.95 0.0001192334    1.033    0.032
       101  -9.7748     80.8210     72.2303   1.0364401708e+02   5.2054978474e+01    0.2139745    0.1555676  88.79 0.0009475837    2.784    0.641
       102  -9.0219     46.0293     68.6073   1.1436894318e+02   5.7578745578e+01     0.254278    0.1734825  86.43  0.001088395    3.806    0.737
       103  -9.6231     10.1466     69.1922   1.2753815040e+02   6.0597369460e+01      0.19327    0.1248156 -37.51  0.001242749    1.283    0.221
       104 -10.2381    114.2068     66.6549   9.1995571653e+01   4.6805293115e+01    0.2177186    0.2032571  69.56 0.0002834485    1.208    0.172
       105 -11.3243     39.7442     61.7757   1.1462522791e+02   5.9561637674e+01    0.6439587    0.2550544 -32.74  0.002407941    2.900    0.655
       106 -10.4156    131.7304     64.5120   8.6830394554e+01   4.3364437504e+01     0.364464    0.2674155  62.00  0.001816802    1.452    0.311
       107 -10.1467     14.4505     63.9578   1.2467732824e+02   6.1345940356e+01     0.251319    0.1615692 -77.64  0.001399991    2.305    0.566
       108 -11.4547     34.2607     65.0297   1.1760450481e+02   5.9502186393e+01    0.2846976     0.187236 -36.82 0.0004359989    1.267    0.210
       109 -10.2817     72.6550     63.5705   1.0357325495e+02   5.4940787242e+01    0.2026502    0.1545503 -56.85  0.001115843    1.645    0.392
       110 -11.2119      3.8455     61.4257   1.2802119939e+02   6.2494467766e+01    0.3973069    0.2611251  68.34  0.001437607    2.967    0.663
       111 -11.0811      9.6650     60.3131   1.2554904552e+02   6.2364864175e+01    0.3076673    0.1654564 -37.50 0.0001712895    1.513    0.339
       112 -10.5584     62.5241     61.9920   1.0650921400e+02   5.6718633045e+01    0.3197134    0.1845164 -42.83  0.001067561    1.617    0.382
       113 -10.3371     60.4822     58.0957   1.0595669991e+02   5.7692675904e+01    0.2909872    0.1964343 -42.29 0.0007671276    1.425    0.298
       114 -10.9497     54.9770     58.8052   1.0814179112e+02   5.8306983763e+01    0.5312979    0.2748957 -49.53  0.002617793    2.014    0.504
       115  -9.8850     51.3323     57.7021   1.0909942514e+02   5.8966870627e+01     0.179262    0.1619271 -20.10 0.0003338328    1.143    0.125
       116 -11.7098     15.2358     46.1341   1.1938078466e+02   6.4591911920e+01    0.7925785    0.4373834  -6.92  0.004613158    2.057    0.514
       117 -10.3482      1.7569     54.7853   1.2718334077e+02   6.3873842884e+01    0.2020763    0.1322995 -41.03  0.000798324    1.141    0.123
       118 -10.5759      5.8648     50.8979   1.2454339022e+02   6.4363138350e+01    0.2991167    0.1354678 -31.96 0.0004081779    1.979    0.495
       119 -12.9921     20.6400     56.8412   1.2040346149e+02   6.2243054513e+01    0.4037718    0.3728359 -76.88   0.00296989    1.501    0.334
       120 -10.6057     20.3620     51.1090   1.1883192880e+02   6.3312760947e+01    0.2722298    0.1703919 -26.99 0.0007323063    1.394    0.283
       121  -9.5951     17.3488     64.2853   1.2368039343e+02   6.1077056457e+01    0.2008169    0.1288512 -30.35 0.0006017405    1.382    0.277
       122  -9.2616    100.9582     61.5014   9.4068082022e+01   5.0341261059e+01    0.1854088    0.1245247  70.59 0.0008081967    2.477    0.596
       123  -9.2088     67.4142     60.5202   1.0434970453e+02   5.6274350478e+01    0.1313475    0.1128517 -15.21 0.0001036811    1.020    0.019
       124  -9.9820    118.4296     59.2156   8.8530398757e+01   4.7142927720e+01    0.1982508     0.131161 -46.46 0.0009534959    1.674    0.403
       125 -10.9381     83.6096     56.9529   9.7829530197e+01   5.4280733356e+01    0.2338251    0.2079468  -8.12 0.0005437987    1.029    0.028
       126 -11.9323     87.5885     53.9831   9.5583348178e+01   5.4062181967e+01    0.4715357     0.291675  44.97  0.001428454    1.657    0.396
       127  -8.9229     71.4857     57.4985   1.0197284052e+02   5.6178580198e+01    0.1323985    0.1145912  -8.39 3.061643e-05    1.019    0.019
       128 -10.1886    225.0517     55.2507   6.7662682546e+01   2.2684340600e+01     0.348114    0.2335437 -17.84  0.001673161    2.295    0.564
       129 -10.4709     99.7196     56.0950   9.2657182737e+01   5.1461960354e+01     0.189037    0.1618181 -18.18 0.0004667809    1.150    0.130
       130 -11.5679    114.6038     53.9303   8.7838735027e+01   4.8780038512e+01    0.3387767    0.2681578  37.97 0.0009177303    1.198    0.166
       131 -12.2599     66.0858     52.5840   1.0215349182e+02   5.7821833033e+01    0.4843965    0.2178849  32.62  0.001659961    2.325    0.570
       132 -10.2372     75.4686     50.0095   9.8095437365e+01   5.6768744517e+01    0.4132845    0.2488418  -7.75  0.001297581    2.269    0.559
       133 -10.0660     78.7098     45.6714   9.5517941824e+01   5.6893742295e+01    0.3171578    0.1661395  40.65  0.001241828    1.865    0.464
       134 -10.0087     34.4145     53.4081   1.1405165854e+02   6.1633658511e+01    0.2713047    0.1409138 -26.20   0.00103877    2.010    0.502
       135 -10.3072    105.8591     52.9425   8.9875282441e+01   5.0737455565e+01     0.239038    0.1914692  44.51 0.0007521217    1.217    0.178
       136  -8.6874    169.6925     52.6798   7.5391820801e+01   3.6240170146e+01    0.1420895    0.1085064  28.85 0.0002373968    1.639    0.390
       137  -9.7030     38.0483     49.0940   1.1125253389e+02   6.2007436041e+01    0.1823125    0.1294941 -18.64 0.0005044024    1.254    0.203
       138  -9.0859    211.9975     48.7943   6.7863618270e+01   2.6644494174e+01    0.1699319    0.1014829  67.67 0.0008298047    1.599    0.375
       139 -10.5047    103.0161     47.5335   8.8859286047e+01   5.2114548282e+01        0.364    0.1570562  36.30   0.00109026    2.589    0.614
       140  -9.1712     87.5016     48.4842   9.3729653921e+01   5.4930570421e+01    0.1333292    0.1174422   7.49 0.0003595038    1.015    0.015
       141 -10.0029     53.2286     48.3586   1.0527837815e+02   6.0317165223e+01    0.2824547    0.1467328  28.74 0.0009000522    1.993    0.498
       142  -9.4751     65.0058     46.2385   1.0031955682e+02   5.8999142783e+01    0.1700459    0.1434633  12.78 0.0003104604    1.108    0.097
       143 -10.2322     30.9074     45.7775   1.1294695798e+02   6.3305098712e+01    0.1954725    0.1546931 -39.04 0.0003634882    1.239    0.193
       144 -10.6979     25.6069     43.8458   1.1443225607e+02   6.4131562172e+01    0.3486742    0.2424406 -60.36  0.001194678    1.975    0.494
       145  -9.6076     30.4797     30.5424   1.0771261705e+02   6.5771178322e+01    0.1652913    0.1065199 -13.94 7.198162e-05    1.398    0.285
       146 -10.5828     22.7121     38.5950   1.1385034856e+02   6.5263177251e+01    0.2134446    0.1541728  22.91 0.0008717063    1.543    0.352
       147 -11.4352     26.5187     35.3632   1.1113414869e+02   6.5430668972e+01    0.4247411    0.2095572 -31.52  0.001905648    1.759    0.432
       148  -9.4037     91.4343     44.5073   9.1157987673e+01   5.4792991847e+01    0.1320189    0.1169725  10.60  6.20369e-05    1.010    0.010
       149 -10.4685     69.9288     41.8179   9.7044136084e+01   5.8907344128e+01    0.3255885    0.2044012 -26.72  0.001804243    1.539    0.350
       150 -10.3099     70.3605     35.5272   9.4588654237e+01   5.9729897101e+01     0.420627    0.1996125 -14.54  0.001631066    3.604    0.723
       151  -9.6746      2.4885     42.3425   1.2350709564e+02   6.6095145517e+01    0.1622422   0.09506197   9.51 0.0008269766    1.871    0.465
       152  -9.9181    181.8703     40.7084   7.0160083009e+01   3.4964255006e+01    0.2367978    0.2193418   1.48  0.001422268    1.343    0.255
       153 -10.9704    139.2295     40.3150   7.7724368662e+01   4.5215632373e+01    0.2767325    0.2366368  88.25   0.00142676    1.302    0.232
       154 -10.2150     36.3006     41.2907   1.0926828096e+02   6.3489972790e+01    0.2223354    0.1490172  12.68  0.001176641    1.486    0.327
       155  -9.5015    159.9461     40.4853   7.3750837547e+01   4.0291004024e+01    0.2070498    0.1266133  61.99 0.0003221153    1.499    0.333
       156 -11.1374    134.0836     34.0615   7.6874858847e+01   4.7189584902e+01    0.2105778    0.1767327  40.72 0.0003066226    1.128    0.114
       157  -9.6657    134.0368     39.7793   7.8665534964e+01   4.6481600353e+01    0.2615452    0.1669672  47.79 0.0007725676    1.434    0.303
       158  -9.7306    131.0486     37.5036   7.8604746889e+01   4.7454016863e+01    0.2478151    0.2149756  63.66 0.0009195036    1.141    0.124
       159  -9.2947     43.0024     40.7406   1.0644651319e+02   6.2816428584e+01    0.1376089   0.09523048  22.31 0.0003943628    1.440    0.305
       160 -10.3987     12.6933     38.4149   1.1799588037e+02   6.6103486310e+01    0.3259834    0.1173812 -53.61  0.001555442    2.783    0.641
       161 -12.2477    121.8110     36.7256   8.0447844346e+01   4.9617353397e+01    0.5052881    0.4534274  42.69  0.003108622    1.018    0.018
       162  -9.4930    101.5286     39.4581   8.6514971986e+01   5.3535909625e+01    0.1339527     0.116647  22.08 8.066333e-05    1.041    0.039
       163  -9.3506      5.5815     39.4240   1.2133073687e+02   6.6415885558e+01    0.1119073   0.08012575 -31.56 3.309473e-05    1.037    0.036
       164  -9.9135     90.9880     35.8362   8.8227803371e+01   5.6063288722e+01    0.1969568     0.154495  77.66  0.001081796    1.984    0.496
       165 -10.4679      1.8310     35.8410   1.2182660855e+02   6.7252000199e+01    0.2387002    0.1226546 -31.71  0.001363427    1.555    0.357
       166  -9.2812     98.9775     36.0000   8.6015350398e+01   5.4495917583e+01    0.2006608   0.06898484  50.32 0.0007703189    2.724    0.633
       167  -9.4860     54.6930     34.6391   9.9769929024e+01   6.2218330541e+01    0.2092331    0.1059592  25.66 0.0009570791    2.080    0.519
       168 -10.2203     50.4152     33.8829   1.0107726508e+02   6.2910534228e+01    0.1848291    0.1746662   7.60 0.0005909912    1.381    0.276
       169 -10.4664    145.0224     32.9817   7.4345352650e+01   4.4783494668e+01     0.196118    0.1760514  57.69            0    1.006    0.006
       170 -11.0263     20.1426     31.6165   1.1247682712e+02   6.6601933586e+01    0.4204822     0.209151  -3.59  0.002141959    2.658    0.624
       171  -9.5478    166.4512     31.0384   7.0010031172e+01   3.9915423138e+01    0.1847857    0.1344249 -32.47 0.0003824591    1.532    0.347
       172 -10.0899    126.8593     30.6389   7.7340393829e+01   4.9234768558e+01    0.2186859    0.1450367  43.58 0.0004835272    1.387    0.279
       173 -11.5747     44.0378     29.3226   1.0177352118e+02   6.4382705131e+01    0.4222533      0.27259 -22.32  0.001973977    1.370    0.270
       174  -9.9666    205.1997     30.4020   6.4412130077e+01   3.0727009259e+01    0.1928022    0.1128749  83.06 0.0009510117    1.702    0.412
       175 -10.0927    150.1267     29.6743   7.2415716259e+01   4.3973538756e+01    0.3093334    0.1617991  73.31  0.001350351    2.162    0.537
       176 -10.2033    194.9964    249.7547   1.1423350545e+02  -6.4324051994e+00    0.1702224   0.09241705  37.61 0.0006072882    1.586    0.369
       177  -9.3260    229.7357    247.9815   1.0742951311e+02  -1.1526315971e+01    0.1442642   0.09798001 -29.10 0.0008816061    1.508    0.337
       178 -10.8624     74.7052     21.6604   8.7891107261e+01   6.0731761236e+01    0.2837902    0.1805836  -6.71  0.001088838    1.681    0.405
       179 -10.3321      7.4131     27.9770   1.1675699474e+02   6.8175427873e+01    0.1929117    0.1656817  21.00  0.001182945    1.564    0.361
       180  -9.9327    140.3386     26.9411   7.3426163697e+01   4.6579864226e+01    0.2365613    0.1676536  69.53 0.0006545518    1.381    0.276
       181 -10.2811    155.1874     26.0443   7.0479874517e+01   4.3190586344e+01    0.3771722    0.1746337  76.11  0.001484414    2.747    0.636
       182 -10.2586    113.8268     25.1778   7.8491443174e+01   5.2712309702e+01    0.2155378    0.2017889  40.57 0.0008023859    1.088    0.081
       183  -9.9607    100.9275     25.9131   8.1938449468e+01   5.5319480277e+01    0.1860249    0.1570715 -72.04   0.00111746    1.675    0.403
       184  -9.4118     18.3383     26.3178   1.1130204703e+02   6.7567100177e+01    0.1186451   0.06630684 -16.69 0.0007048958    1.705    0.414
       185  -9.6006    218.7022     25.3982   6.1737917931e+01   2.8224714367e+01     0.142253   0.07986272 -65.76 9.758039e-05    1.811    0.448
       186 -10.0874     59.1239     24.3675   9.4181284350e+01   6.2941456963e+01    0.2230965    0.1437055 -10.04 0.0009136333    1.540    0.351
       187  -9.7535     52.4755     24.9815   9.6843053739e+01   6.3835449725e+01    0.1505306    0.0988389 -51.64 0.0008101122    2.583    0.613
       188  -9.3600     94.1469     23.7893   8.2985813332e+01   5.6904669974e+01    0.1676075    0.1249621  25.05 0.0003603656    1.243    0.196
       189 -10.3896     34.1634    247.1388   1.4442290041e+02   1.8887923852e+01     0.165234   0.09962939  68.30 0.0004328044    1.311    0.237
       190  -9.9897     85.0109     21.0297   8.4533851978e+01   5.8949695742e+01    0.2655136    0.1394204  37.64 0.0009226445    1.714    0.417
       191  -9.7732     89.2812     22.2230   8.3759474609e+01   5.8015923665e+01    0.3753733    0.1768185 -33.52  0.001847705    2.282    0.562
       192  -9.3694    224.6869    246.6720   1.0813864116e+02  -1.0599567314e+01    0.1268015   0.08289316   4.35 0.0004911398    1.669    0.401
       193  -9.7896    217.4447    245.0000   1.0920683290e+02  -9.2653751757e+00    0.2780781   0.06209638  39.23 0.0009440901    4.011    0.751
       194  -9.4002     74.2682    243.6525   1.3692931297e+02   1.4260621207e+01    0.1511715    0.1041118  42.06  0.000290916    1.462    0.316
       195 -10.7370     19.9708     16.7593   1.0680304216e+02   6.8772955676e+01    0.1816795    0.1322957   6.15 0.0003800115    1.212    0.175
       196 -11.1281     37.5834    241.9700   1.4345530072e+02   1.9490558724e+01      0.38701     0.106388  54.85  0.001598585    3.339    0.700
       197 -10.2964      2.0673     22.4527   1.1721985608e+02   6.9391768481e+01    0.2124883     0.118994 -40.69 0.0008681921    1.406    0.289
       198  -9.8033    124.4949     21.2502   7.4823693082e+01   5.0799017590e+01    0.1635908    0.1202439 -42.52 0.0004869577    1.581    0.368
       199  -9.6978    202.4293    240.6860   1.1134258492e+02  -6.2501591208e+00    0.1648389    0.1162324 -23.48 0.0009427603    1.557    0.358
       200  -9.2961     60.5914    241.0000   1.3922764588e+02   1.6709575499e+01    0.2497946   0.06068294  38.59 0.0009251675    3.858    0.741
       201  -9.0044    148.7231    239.6801   1.2181423854e+02   3.0072852711e+00    0.1232787    0.1009511   3.35 0.0002391198    1.576    0.366
       202 -12.4299     26.3703    235.7441   1.4496714430e+02   2.2062867373e+01    0.3738744    0.2448275 -78.63  0.001754975    1.359    0.264
       203 -10.9814     31.0110     20.6038   1.0358544923e+02   6.7115154590e+01    0.2308602    0.1569461 -35.93 0.0001092976    1.511    0.338
       204 -10.2726     26.4516     16.5094   1.0384285119e+02   6.8149642025e+01    0.2144876      0.17224  10.87 0.0006921064    1.266    0.210
       205  -9.9073    175.4523     20.5214   6.5848252376e+01   3.8967394357e+01    0.1318832     0.113645  81.35 9.858454e-05    1.018    0.017
       206  -9.7860    132.1545     20.2042   7.2936975503e+01   4.9183795568e+01    0.2022714    0.1585929  39.63 0.0006659693    1.216    0.177
       207 -13.5997     10.0470    230.2212   1.4742272928e+02   2.4949085645e+01    0.7749816    0.4210945  80.49  0.004874372    1.479    0.324
       208 -11.9778      4.1634    232.4881   1.4855312515e+02   2.5087139917e+01    0.4109856     0.187562  78.03 0.0003704653    1.882    0.469
       209 -10.1108    199.8700     17.2140   6.1954470509e+01   3.3548300767e+01    0.1962821    0.1491252 -79.88 0.0004722789    1.190    0.160
       210 -10.0148    249.0379    234.3170   1.0159929957e+02  -1.2420818820e+01    0.2145834    0.1417811  -5.07  0.001115802    1.507    0.336
       211 -10.4133    190.3510     13.9026   6.2272739560e+01   3.6145973534e+01    0.2201155     0.153787  84.95 0.0006008107    1.277    0.217
       212  -8.9683    200.2856    235.6857   1.1092324374e+02  -5.1159855447e+00    0.1172233    0.1018453  69.96 0.0006994208    1.582    0.368
       213 -10.3746     62.7310     13.7777   8.8651936704e+01   6.3590637161e+01     0.144595    0.1339391  18.61 0.0007187305    1.325    0.245
       214  -9.6630    140.2508    227.4025   1.2173660231e+02   6.7782869530e+00    0.1999395     0.112895  50.16 0.0009448907    1.658    0.397
       215  -9.5013     99.5333     11.4212   7.7117564159e+01   5.7074760028e+01    0.1251314    0.1018371  36.15 -4.249914e-05    1.033    0.032
       216  -9.5387    109.7197    226.6458   1.2797147496e+02   1.2177770838e+01    0.1228121    0.1063989 -20.02 0.0007013609    1.656    0.396
       217 -10.3560     32.8269    225.0837   1.4300590613e+02   2.3510610359e+01    0.2872713    0.1468426  45.97  0.001640279    1.799    0.444
       218 -10.1845     25.5987    225.2068   1.4433857405e+02   2.4312358602e+01    0.1606433   0.08896784 -68.49 0.0008920048    1.684    0.406
       219 -12.3118      7.9343    217.7328   1.4698730495e+02   2.7731398580e+01    0.4154652    0.2315257  84.89  0.001903457    1.432    0.302
       220 -10.8032     15.9030    212.5439   1.4517287099e+02   2.8029402986e+01    0.2742055    0.1787864 -47.65  0.001652088    2.251    0.556
       221  -9.5366    209.5189    211.5254   1.0482712725e+02  -2.6752672340e+00    0.1346331    0.1220492   9.24 0.0002276404    1.017    0.016
       222  -9.7416     20.5871    209.7361   1.4407718670e+02   2.8147449891e+01    0.1629117   0.08911647  89.64 0.0003363892    1.555    0.357
       223  -9.6516    246.8324    207.1821   9.7012751588e+01  -8.0972764789e+00    0.1812202    0.1313331 -12.18 0.0007580605    1.324    0.245
       224 -10.2131      2.2447    205.9497   1.4722663425e+02   3.0760740502e+01    0.1518401   0.07498301 -81.15 0.0006245014    1.579    0.367
       225  -9.0682    197.3077    204.2883   1.0590214088e+02   7.8668846221e-01    0.1396743    0.1047385   3.55  0.000419903    1.574    0.365
       226 -11.4499      9.3123    203.4648   1.4573399591e+02   3.0637246481e+01     0.229496    0.1823368  80.30 0.0008358709    1.116    0.104
       227  -9.6368    180.8091    199.3219   1.0837156341e+02   4.8044154948e+00    0.3072132    0.1210633  48.02  0.001104455    2.693    0.629
       228  -9.5825     23.2098    197.5848   1.4254812455e+02   3.0547070228e+01    0.1401189    0.1197267  24.46 0.0005692336    1.670    0.401
       229 -10.0317      7.0143    191.9909   1.4530286531e+02   3.3363634690e+01    0.2539535    0.1120951  68.95  0.001259012    2.358    0.576
       230 -10.1802     15.4363    185.0335   1.4301720965e+02   3.4145033482e+01    0.1842458   0.09539889 -78.90 0.0009533043    1.561    0.359
       231  -9.3629      1.1991    183.0650   1.4575823793e+02   3.5846037671e+01    0.1568407   0.07086477 -75.70 0.0005641301    1.696    0.410
       232  -9.6667    249.3342    168.6707   8.8935820486e+01  -2.1096380318e+00    0.1312414    0.1052305 -68.98 -0.0002501479    1.724    0.420
       233 -10.7993      4.8698    167.5453   1.4367151417e+02   3.9045356861e+01    0.2895707    0.1647396  60.73  0.001388947    1.797    0.444
       234  -9.1731     41.7468    158.0440   1.3400952789e+02   3.7783088601e+01    0.1758759   0.09764449 -69.33 0.0008753017    1.533    0.348
       235  -9.0890    247.4750    155.5275   8.6516698396e+01   5.3548385915e-01    0.1381502    0.1214816 -30.92 8.589625e-05    1.002    0.002
       236  -9.9818      2.4657    153.4913   1.4286157661e+02   4.2442918590e+01     0.121107   0.09127331 -80.79 5.555515e-05    1.014    0.014
