#   1 NUMBER                 Running object number                                     
#   2 MAG_AUTO               Kron-like elliptical aperture magnitude                    [mag]
#   3 X_IMAGE                Object position along x                                    [pixel]
#   4 Y_IMAGE                Object position along y                                    [pixel]
#   5 X_WORLD                Barycenter position along world x axis                     [deg]
#   6 Y_WORLD                Barycenter position along world y axis                     [deg]
#   7 A_WORLD                Profile RMS along major axis (world units)                 [deg]
#   8 B_WORLD                Profile RMS along minor axis (world units)                 [deg]
#   9 THETA_WORLD            Position angle (CCW/world-x)                               [deg]
#  10 FWHM_WORLD             FWHM assuming a gaussian core                              [deg]
#  11 ELONGATION             A_IMAGE/B_IMAGE                                           
#  12 ELLIPTICITY            1 - B_IMAGE/A_IMAGE                                       
         1 -12.7429     57.6220     34.5315   7.0241615715e+01   6.2966231823e+01    0.3575511     0.294763 -10.02 0.0003925467    1.119    0.107
         2 -12.4069    128.7038     11.5021   4.1401372880e+01   5.0678452238e+01    0.4153579    0.2851087  79.98  0.002320217    1.473    0.321
         3 -10.3506    126.4656      3.1109   3.9098425944e+01   5.1910106635e+01    0.2609361    0.1810443 -19.20 0.0007380318    1.734    0.423
         4 -12.5568    129.1184     19.2042   4.3793686335e+01   4.9849611421e+01    0.3110636    0.2529758  -5.23 0.0006236744    1.469    0.319
         5 -11.9838      8.2326      9.0760   8.3497756286e+01   7.2925548443e+01    0.4773577    0.3139844   4.22  0.002647624    1.274    0.215
         6 -10.0178     14.9909     13.9553   8.1833396688e+01   7.1581360401e+01    0.2008238    0.1472469 -11.51 0.0007113299    1.041    0.039
         7 -11.2733     12.1607      2.1892   7.7559666819e+01   7.3475470475e+01     0.286677    0.1704209   5.06  0.001204903    1.479    0.324
         8 -10.8329     16.0850      6.4428   7.7473512544e+01   7.2505426067e+01    0.4896766    0.2371873 -37.94  0.002808117    2.070    0.517
         9 -11.6145     21.7769      5.8343   7.3928007549e+01   7.1925910843e+01    0.5778804    0.3959258 -41.34  0.003682527    1.987    0.497
        10 -11.6286     26.6755      2.6296   6.9591802589e+01   7.1677919407e+01    0.6147447    0.1855517  34.54  0.002741519    2.973    0.664
        11 -11.9736      4.5386     17.8995   8.9780526451e+01   7.1877787319e+01    0.4296443    0.3497756  38.66  0.002292175    1.916    0.478
        12 -11.0355      9.7867     15.6500   8.5662473878e+01   7.1812206360e+01    0.2611434    0.1587214 -13.07 0.0007373102    1.418    0.295
        13 -10.8648     14.3917     22.9513   8.6222963607e+01   7.0259338455e+01    0.5040807    0.1600542 -34.69  0.002166696    2.980    0.664
        14 -11.1413     20.0267     17.1816   8.0508345200e+01   7.0592140390e+01    0.3371858    0.2790503 -11.23  0.002428913    1.201    0.167
        15 -10.4891     22.5827     13.2542   7.7232026424e+01   7.0863637991e+01    0.2128207    0.1004736 -34.39  0.001159439    1.975    0.494
        16 -11.8516     97.8904     22.3356   5.1850739636e+01   5.6679667904e+01    0.6377832    0.2844853  49.23 0.0008134926    1.877    0.467
        17 -10.9239     48.2743     16.1033   6.6073651087e+01   6.6933156179e+01    0.6369983    0.3739218   0.87  0.003373479    1.974    0.493
        18 -10.4201     43.6159      8.6684   6.4536301765e+01   6.8526573581e+01    0.3331155    0.2257424 -26.98  0.001056144    1.575    0.365
        19 -10.5326     39.7176     11.0193   6.7461697786e+01   6.8862522570e+01    0.2405542    0.1537723  37.29 0.0006476889    1.499    0.333
        20 -11.7773     40.0905     15.4146   6.9417984984e+01   6.8275881426e+01    0.3526671     0.251117  16.63 0.0007428704    1.169    0.145
        21 -12.0820    238.1537     17.4191   3.0394501389e+01   2.5360241793e+01    0.2869963    0.2355517 -53.57 0.0002574172    1.211    0.174
        22 -11.4226    233.8074     11.7169   2.9597743354e+01   2.6861900243e+01    0.3380632    0.1486333 -33.66  0.001788483    2.333    0.571
        23 -10.8202     32.4963     16.7469   7.3728386375e+01   6.9163133750e+01    0.4796025    0.2091333  21.24  0.002197915    2.642    0.622
        24 -11.3665     77.5068     11.1788   5.3182726904e+01   6.2102698928e+01    0.5771368    0.1862901  52.28  0.002398718    2.557    0.609
        25 -10.3657     70.5652     13.5104   5.6397191336e+01   6.3251512468e+01    0.2156376    0.1687536   5.43 0.0008297631    1.241    0.194
        26 -10.9857    157.9954     13.1760   3.7403431067e+01   4.3572184811e+01     0.399273    0.1206808 -41.19  0.001571674    3.337    0.700
        27 -10.8222    117.3786     12.1473   4.3722853622e+01   5.3269154835e+01    0.4880344    0.3435345   6.58  0.002753648    1.768    0.435
        28 -10.2484    100.0111     12.8732   4.7768734868e+01   5.7152380719e+01    0.2845854    0.1772345   0.34 0.0009986223    2.029    0.507
        29 -10.0030    138.2908     11.3812   3.9764204629e+01   4.8422008551e+01    0.2054103    0.1421903 -56.65  0.000727402    1.658    0.397
        30 -11.3548    164.2926      7.9971   3.5206119694e+01   4.2573262604e+01    0.3769133    0.2368515 -12.95  0.001099332    2.194    0.544
        31 -11.3571    146.2675      6.9758   3.7265836957e+01   4.6921698351e+01    0.5265216    0.2408832  50.17  0.002510394    2.057    0.514
        32 -10.8295    148.5148      2.0303   3.5547027558e+01   4.6807842340e+01    0.2336812    0.1966512  73.27 0.0005486515    1.020    0.019
        33 -11.1638    190.1257      6.6163   3.2106381971e+01   3.6742185114e+01    0.4517402     0.286671  88.95  0.002662749    1.402    0.287
        34  -9.7255    100.6602      7.6889   4.5683676343e+01   5.7462663476e+01    0.1768477    0.1230485  -5.25 0.0008977009    1.689    0.408
        35 -10.4031     90.0825      7.2839   4.8078179691e+01   5.9817108869e+01     0.341743    0.1457594  57.81  0.001353243    2.000    0.500
        36 -10.1059     94.5086      3.0562   4.5347632991e+01   5.9196240457e+01    0.3537883    0.1631691  21.41 0.0009993825    3.234    0.691
        37  -9.4447     34.7705      7.3533   6.7974922091e+01   7.0014388717e+01    0.1647639   0.08953341  28.40 0.0009374975    1.591    0.371
        38  -9.5788    156.4553      6.4389   3.5754355471e+01   4.4559516863e+01    0.1263381     0.105694  73.00 0.0001326146    1.040    0.038
        39 -10.1136     81.3555      5.5995   4.9723707478e+01   6.1807826437e+01    0.1849929    0.1408516 -30.85 0.0002545717    1.569    0.363
        40  -9.0613     38.3047      6.2956   6.5757374709e+01   6.9608925254e+01    0.1224496   0.07410183  12.42 0.0006998627    1.582    0.368
        41 -12.0981    179.0160      4.1781   3.2612073829e+01   3.9502053920e+01    0.2313025    0.1925925 -81.87 0.0003333798    1.062    0.058
        42 -10.3992    118.8923      3.9134   4.0661101721e+01   5.3611539933e+01    0.2438935    0.1647171  77.15   0.00138504    1.455    0.313
        43 -11.3457     67.7955      3.7169   5.2978987917e+01   6.4702377597e+01    0.2408678     0.165889  39.21 0.0003682497    1.169    0.145
        44 -10.2777    170.3485      8.8402   3.4714446585e+01   4.1075962940e+01    0.1519058    0.1203407  -5.46 0.0005086243    1.713    0.416
        45 -11.0534    194.8854      2.2392   3.0671200282e+01   3.6093986112e+01    0.3333758    0.1708029 -84.24   0.00173243    1.943    0.485
        46 -10.6423     74.5821      2.3174   5.0269593903e+01   6.3468269720e+01    0.2551804     0.180549  66.55  0.001043632    1.622    0.383
        47 -10.5413    230.8848      1.6670   2.7842104946e+01   2.8506208801e+01    0.1585694    0.1300685  88.03 0.0002084097    1.202    0.168
        48 -10.6141    108.1437      1.6704   4.1909737769e+01   5.6252845308e+01    0.2134695    0.1449157  52.77 0.0006829247    1.204    0.170
        49 -11.3999     98.0897      4.4286   4.5046425866e+01   5.8299471679e+01    0.3201244    0.2466454  15.01  0.001394748    1.400    0.285
        50 -12.9345    214.9615      6.1122   2.9868627477e+01   3.1348238368e+01      1.00817    0.4671288  82.34  0.005310635    1.999    0.500
        51 -10.2016     10.1052    162.7557   1.1677986396e+02   3.8976378053e+01    0.2590695    0.1455553  42.16  0.001273228    1.840    0.457
        52 -10.6155    250.0868    246.8537   7.3868641706e+01  -1.1425788919e+01    0.1863803    0.1337166  -4.95 0.0009208858    1.021    0.021
        53  -9.5484    239.6616    250.6876   7.6321548123e+01  -1.0741921116e+01    0.1231226   0.07046063  -2.18 0.0007046054    1.692    0.409
        54 -12.3586    226.2564    245.5874   7.7926248604e+01  -8.4590259825e+00    0.6448106    0.3226319  -5.81  0.002966994    2.821    0.645
        55 -12.4760    232.4485    245.4194   7.6762809674e+01  -9.1926777765e+00     0.561044    0.2292829 -32.32  0.002831822    2.320    0.569
        56 -10.2484     72.5242    250.1298   1.1027850508e+02   1.2358180469e+01    0.2117265    0.1653106  13.84   0.00089083    1.634    0.388
        57 -13.1979     19.3269    237.9674   1.2012531072e+02   2.1001735932e+01     1.726842    0.4666629  57.41  0.006691003    3.822    0.738
        58 -11.8087      4.9547    236.0472   1.2279018485e+02   2.2780971736e+01    0.5002646     0.333934  44.60   0.00242802    1.363    0.266
        59 -13.2943      5.7696    245.2315   1.2307333438e+02   2.0869806370e+01     0.893115    0.5422079  37.74  0.004753352    1.572    0.364
        60 -12.4630     22.1821    249.0717   1.2020843955e+02   1.8489649758e+01    0.6305808    0.2179921  36.20  0.003173607    2.395    0.582
        61 -11.3095     17.2728    247.4132   1.2104343018e+02   1.9318091772e+01    0.2666672    0.1810792  54.58 0.0006573019    1.176    0.149
        62 -12.6698     21.5507    157.2060   1.1316513960e+02   3.9439399037e+01    0.6291519    0.4689403   6.34 0.0008980175    1.712    0.416
        63  -9.4333    216.3855    155.2016   6.2795210169e+01   7.9345430417e+00    0.1898202    0.1210441 -46.87 0.0003516047    1.556    0.358
        64 -10.2561     11.2914    153.8252   1.1562194521e+02   4.1095288527e+01    0.2257015    0.1982175   8.37  0.001464289    1.411    0.291
        65  -9.9136    177.1640    150.7707   6.9733059380e+01   1.6158151474e+01    0.2403725    0.1982915  67.09  0.001189736    1.529    0.346
        66  -9.7635     33.1941    147.8586   1.0872005392e+02   4.0755216248e+01    0.1829626    0.1425096 -49.39 0.0003200061    1.270    0.213
        67 -10.5003     17.8401    146.9243   1.1305911635e+02   4.2324648458e+01    0.2964233    0.1964204 -22.02  0.001120201    1.982    0.495
        68 -10.1377    207.0797    146.5067   6.2661062581e+01   1.1250256075e+01    0.2007323    0.1429748  42.41 0.0005959717    1.528    0.346
        69  -9.2978     41.1756    146.3440   1.0614316866e+02   4.0342046587e+01    0.1781496    0.1225898  40.35 0.0002560604    1.547    0.354
        70  -9.7402    220.2833    143.9760   5.9700951500e+01   9.3076739691e+00    0.2015144    0.1633382 -35.60 0.0006990548    1.092    0.085
        71  -9.9287     10.4398    144.4854   1.1490354715e+02   4.3481803610e+01    0.2046944     0.123316  -7.12 0.0009381367    2.344    0.573
        72  -9.7837     81.8486    139.7697   9.2598953160e+01   3.6733167096e+01    0.2123345    0.1777549  71.18  0.001062323    1.363    0.266
        73 -10.4382     54.4449    138.5932   1.0084207601e+02   4.0832489732e+01    0.3133746    0.1307843 -62.23  0.001208353    2.184    0.542
        74 -10.3393      9.2642    135.5240   1.1426308596e+02   4.5797167201e+01    0.2931646    0.1362988 -86.84  0.001285482    2.266    0.559
        75  -9.5732      2.6238    135.7898   1.1624478182e+02   4.6142252014e+01    0.1897133    0.1032249 -85.68 0.0009555416    1.698    0.411
        76  -9.4978    122.7279    135.3333   7.9641742374e+01   3.0559368367e+01    0.1559404    0.1264842  89.64 0.0002887057    1.594    0.373
        77  -9.3868     39.9885    135.2001   1.0479568522e+02   4.3317939399e+01    0.1654435     0.112147  24.58  0.000834195    1.649    0.394
        78  -9.6994     20.6934    135.1949   1.1077926071e+02   4.5059184284e+01    0.2015368   0.09652754 -62.03 0.0009318209    1.710    0.415
        79  -9.8231    249.1992    134.1998   5.3002834345e+01   6.0595453152e+00    0.1747027    0.1384398 -53.46 0.0005348795    1.310    0.236
        80 -10.6091    112.2224    132.4369   8.1921605804e+01   3.3280347761e+01    0.3135513    0.1840239 -40.12  0.001263551    1.775    0.437
        81 -11.1419     54.7275    132.6147   9.9677134303e+01   4.2328519081e+01    0.3799009    0.2233688  46.46   0.00116373    1.917    0.478
        82 -11.2922     36.6643    129.8416   1.0498464153e+02   4.5016868238e+01    0.5992313    0.2482979 -46.48  0.002411137    2.336    0.572
        83 -11.2769     73.8392    129.3124   9.2909470205e+01   4.0590512631e+01    0.3313371    0.3014602 -61.49 0.0009355035    1.074    0.069
        84  -9.0814      9.3113    129.3245   1.1352530225e+02   4.7339683397e+01    0.1375952   0.07983389 -46.01 0.0002938581    1.657    0.397
        85 -10.6635     24.2978    126.0711   1.0837283943e+02   4.7075497193e+01    0.2085288    0.1919601  40.56 0.0003576227    1.238    0.192
        86 -11.4418     13.1860    125.9638   1.1189908007e+02   4.7924648071e+01    0.4871984    0.2107268  18.65 0.0003420009    2.715    0.632
        87 -11.5677     10.7613    122.6172   1.1223052698e+02   4.8916872945e+01    0.4494897    0.2442267  34.43  0.002307379    2.081    0.520
        88  -9.3114     48.3325    125.6877   1.0046285364e+02   4.4844263005e+01    0.1450031    0.1064107  68.59 0.0007044414    1.678    0.404
        89 -10.0616    220.0185    124.2942   5.5460163747e+01   1.2941944399e+01    0.1889433    0.1771205 -37.15 0.0005276668    1.057    0.053
        90 -10.3878      1.3477    119.1992   1.1479954280e+02   5.0302290569e+01    0.2300178    0.1262894  77.39 0.0003565231    2.172    0.540
        91 -10.9625     21.6932    121.3709   1.0851419413e+02   4.8462373052e+01    0.3031768    0.2183985 -19.23 0.0009317743    1.621    0.383
        92  -9.3568     32.6319    121.7081   1.0495159324e+02   4.7458187167e+01    0.1462912   0.09172095 -34.70 0.0007026246    1.715    0.417
        93 -10.5081     72.9302    117.9154   9.0674695261e+01   4.3568333639e+01    0.4552619    0.2683129 -76.24  0.001744219    2.560    0.609
        94 -10.0419     85.9807    116.5058   8.6071712086e+01   4.1844650956e+01    0.2201146    0.1515175  32.69 0.0003583136    1.504    0.335
        95 -10.6551     16.5384    115.5394   1.0934434989e+02   5.0292567861e+01    0.2683421    0.1420382 -32.79  0.001266609    2.123    0.529
        96  -9.8629    213.9916    115.5249   5.4509036456e+01   1.5696531798e+01    0.1923185    0.1409879  49.95 0.0004373016    1.511    0.338
        97 -11.0636    249.3182    112.2524   4.8497826879e+01   9.6921340845e+00    0.2341356     0.186637 -52.15 0.0003991912    1.153    0.133
        98 -10.1200     94.9808    112.5031   8.2191667906e+01   4.1235031809e+01    0.2876273    0.2217245 -67.42 0.0009214423    1.515    0.340
        99 -11.8219     55.2294    109.6621   9.4821360229e+01   4.8030505857e+01    0.4829735    0.2563632 -50.39  0.001507974    1.680    0.405
       100 -11.4080     37.0288    110.1149   1.0133041759e+02   4.9941245371e+01    0.4219018    0.2800177  60.00  0.001548663    2.005    0.501
       101 -10.3157      1.4178    108.9616   1.1349610952e+02   5.2797857063e+01    0.3238932    0.1512491 -89.86  0.001412635    2.574    0.611
       102  -9.8338      2.4904    105.4991   1.1266264396e+02   5.3584164018e+01    0.2241973    0.1020063 -67.89 0.0005916395    1.751    0.429
       103 -12.2452     14.4541    109.2063   1.0908089565e+02   5.1995637220e+01    0.4802933    0.3410095   9.32  0.002773113    1.658    0.397
       104 -10.8823     24.7559    107.4746   1.0517835961e+02   5.1676649927e+01    0.2185467    0.2073349  62.04  0.001393925    1.221    0.181
       105 -11.0945     32.4582    105.2796   1.0200868186e+02   5.1560741416e+01    0.4855232     0.212826 -48.03  0.001820055    1.961    0.490
       106  -9.9880    243.6312    104.7579   4.7707491232e+01   1.1929200355e+01    0.1885029    0.1023079 -46.09 0.0006267249    1.581    0.367
       107 -10.4181     51.3318    104.1524   9.4949358426e+01   4.9850168730e+01    0.2398742    0.1581517 -41.81  0.001175317    1.409    0.290
       108 -11.2018    121.2158    100.0916   7.0949814029e+01   3.8850225910e+01    0.6526382    0.3824122 -18.94  0.002274904    2.910    0.656
       109 -11.4408    143.5134     98.5886   6.4644117908e+01   3.4271438573e+01    0.6096061    0.3777478  53.35  0.002606186    1.687    0.407
       110 -10.8543     61.9320     98.8535   8.9836602388e+01   4.9748594058e+01    0.3218927    0.2697541 -23.03 0.0009758595    1.173    0.147
       111 -10.4154     66.2200     98.1696   8.8120730886e+01   4.9302028664e+01    0.2368728    0.2067892   9.13  0.000517681    1.174    0.148
       112  -9.8839    173.4666     83.5070   5.3991849456e+01   3.0234691883e+01    0.2332212     0.189883  65.04 0.0006483956    1.255    0.203
       113 -12.6779    158.0293     89.0294   5.8644836569e+01   3.2807581761e+01    0.8119906    0.5131787 -60.58  0.003424156    1.998    0.500
       114 -12.2945    165.7340     83.5903   5.5545298019e+01   3.2011225460e+01     0.928647    0.7310798  67.00  0.004715258    1.332    0.249
       115 -11.2949    156.0306     82.9693   5.7416913563e+01   3.4381009729e+01    0.9899617     0.429958  33.98  0.002825827    4.511    0.778
       116 -10.1243     23.0604     99.1065   1.0424149389e+02   5.3847211917e+01    0.2980078    0.1707498  21.93 0.0009912169    1.958    0.489
       117 -11.0241     14.4220     96.1609   1.0690287541e+02   5.5161696820e+01    0.4841305    0.1681941 -61.83  0.002039432    2.227    0.551
       118 -10.2325      4.5864     98.3703   1.1087933004e+02   5.5194866072e+01    0.2510912    0.1525837  -4.43  0.001373879    1.969    0.492
       119 -10.0675    153.5257     96.4559   6.1674605752e+01   3.2426418261e+01    0.1498389    0.1492193 -70.16 5.652429e-05    1.003    0.003
       120 -11.3464     37.4609     94.8466   9.7939080568e+01   5.3602885966e+01    0.2970804    0.2444761  50.95 0.0003899351    1.487    0.328
       121  -9.3906    250.3045     95.6992   4.4978286912e+01   1.2193841512e+01     0.128355   0.08585172 -63.04 0.0003663054    1.592    0.372
       122 -10.9377     51.5437     98.2271   9.3467509102e+01   5.1244828300e+01    0.5175008    0.2234207 -34.99   0.00123405    2.882    0.653
       123 -11.2834     25.6836     90.8368   1.0156966975e+02   5.5613041524e+01     0.413357    0.2060495 -59.75  0.001959824    1.724    0.420
       124 -11.2365     21.5758     87.3816   1.0243578376e+02   5.6743114541e+01    0.4993599    0.2041282 -58.30  0.002222059    1.983    0.496
       125  -9.2164    113.4324     93.4948   7.1303523331e+01   4.1877809440e+01    0.1536093    0.1460054  -3.42 0.0001047854    1.033    0.032
       126  -9.4899     31.2519     92.9797   9.9888829088e+01   5.4632036722e+01    0.1735741    0.1036946 -59.09 0.0003997369    1.487    0.327
       127  -9.4009     46.5562     92.5705   9.3941241442e+01   5.3165583028e+01    0.1380525    0.1254498 -38.17 9.077287e-05    1.047    0.044
       128 -10.6312     57.5930     90.0525   8.9118577275e+01   5.2375893272e+01    0.4347271    0.2425716  21.50  0.001681392    2.002    0.501
       129 -10.6646     10.3695     91.0288   1.0750484727e+02   5.6627712162e+01    0.3522505    0.2074507   5.30   0.00136386    1.986    0.497
       130  -9.3879     10.3206     87.6863   1.0690816292e+02   5.7415846592e+01     0.176883    0.1231504 -80.47 0.0006612566    1.555    0.357
       131  -9.5724     82.6589    109.1849   8.5321543584e+01   4.4152118635e+01    0.2289413    0.1291647 -43.48 0.0009504101    1.720    0.418
       132 -10.5478     96.0575     89.9090   7.5591855895e+01   4.6110709017e+01    0.3608143    0.2192753  24.59  0.001501049    1.963    0.490
       133 -10.3922     83.0352     88.9210   7.9631215052e+01   4.8702040685e+01    0.2252652    0.2034134 -17.59 0.0005424155    1.052    0.050
       134 -10.9491     78.3023     88.2612   8.1079556200e+01   4.9653132695e+01    0.3389369    0.3073217 -13.28   0.00187806    1.041    0.039
       135 -10.4662     65.1563     87.6519   8.5638364059e+01   5.1854975556e+01    0.3350004    0.2306237 -31.42  0.001001669    1.449    0.310
       136 -10.5157     68.4922     83.4591   8.3192334032e+01   5.2272765292e+01    0.2809801    0.1755987  -3.58 0.0009497288    2.310    0.567
       137 -10.3013     46.0391     87.2962   9.2798457028e+01   5.4443831483e+01    0.3362618     0.244352  75.37   0.00162154    2.208    0.547
       138 -10.0014     43.5988     83.1936   9.2676144349e+01   5.5652302093e+01    0.2661659    0.1630281  42.22  0.001139519    1.984    0.496
       139 -11.4522      4.5682     85.1121   1.0867918682e+02   5.8322578506e+01    0.5128023    0.1539632 -50.96  0.002194899    2.337    0.572
       140  -9.1636    139.2760     87.6896   6.2637855677e+01   3.7372154783e+01    0.1495424     0.120534 -77.97 0.0006968754    1.556    0.357
       141  -9.2819    120.6801     87.2916   6.7411771016e+01   4.1598003941e+01    0.1500618    0.1231976  88.83 0.0004035805    1.605    0.377
       142 -11.5746     31.0055     82.0957   9.7447659677e+01   5.7181030039e+01    0.4152913    0.3516344   7.54  0.001793209    1.256    0.204
       143 -11.3268     20.0212     80.9532   1.0164866784e+02   5.8342135033e+01    0.5579484    0.3507281 -42.93  0.001603641    1.332    0.249
       144 -11.1349      6.6361     41.3684   9.7246163997e+01   6.7578569624e+01    0.5253224    0.1622823 -42.50 0.0009137088    2.400    0.583
       145 -11.8700     12.1908     49.3069   9.6898515987e+01   6.5668187306e+01    0.7934255    0.3030511 -62.90  0.003307131    3.175    0.685
       146 -11.7530      6.4714     51.8471   1.0042498377e+02   6.5514394955e+01    0.5688428    0.2838132 -42.65  0.002733117    1.549    0.355
       147 -12.8654     10.6832     75.0478   1.0420687036e+02   6.0294557255e+01      1.01942     0.523255  22.10  0.005317688    2.183    0.542
       148 -14.0662     16.7370     67.5077   9.9824554429e+01   6.1570900920e+01     0.610779    0.4517097 -30.84  0.002086569    1.162    0.139
       149 -10.8162     15.1765     59.3824   9.8380970893e+01   6.3409185303e+01    0.2682026    0.1848532 -22.82  0.000577829    1.309    0.236
       150 -11.2676     10.0211     63.4383   1.0179615994e+02   6.2883762279e+01    0.3977712    0.3136689 -73.77  0.001856757    1.488    0.328
       151 -13.1323      4.8692     65.8603   1.0467218136e+02   6.2643803835e+01    0.7097166    0.3970245  87.77  0.002261052    3.267    0.694
       152 -11.7538      5.2736     58.9675   1.0285508967e+02   6.4101645114e+01    0.2640718    0.2220095 -16.61 0.0002910511    1.184    0.155
       153  -9.5813     70.9974     79.5094   8.1080536304e+01   5.2721643101e+01    0.1998211    0.1388955  32.18 -0.0001166149    1.456    0.313
       154 -10.3721     61.0269     78.0666   8.4388089091e+01   5.4542361691e+01    0.3644207     0.250996 -26.38   0.00114795    1.474    0.322
       155 -10.9686     61.9190     72.1987   8.2227968054e+01   5.5636275484e+01    0.3298799    0.1784505 -41.48 0.0006027252    1.742    0.426
       156  -9.0335    228.7046     78.7084   4.4101400119e+01   1.8979292578e+01    0.1184417    0.1034915   4.85 0.0002411996    1.556    0.357
       157 -12.7408     44.7706     75.2413   8.9997322592e+01   5.7272601355e+01    0.2836991    0.2492649   5.72 0.0006616419    1.153    0.133
       158 -10.9193     37.1175     69.5144   9.1521740015e+01   5.9350843126e+01    0.5481959    0.3109325  56.05  0.002188677    3.677    0.728
       159 -10.7827     90.7998     74.4397   7.2539111475e+01   5.0261731021e+01    0.3351007    0.1840863 -28.55  0.001085608    2.166    0.538
       160 -10.9672     77.0540     63.9260   7.3808358998e+01   5.4785167349e+01    0.4222358    0.4029344   7.65   0.00210544    1.132    0.116
       161 -10.2030     75.3218     74.9501   7.8077075644e+01   5.2950807956e+01    0.2983325    0.2480018  22.52  0.001627657    1.178    0.151
       162 -10.0444     74.0105     71.4987   7.7443001528e+01   5.3861464199e+01    0.2660913     0.184696  -5.72 0.0009554178    1.743    0.426
       163 -10.8532     77.9365     70.0041   7.5531613284e+01   5.3479644162e+01    0.3456659    0.2291186  44.58   0.00101035    1.624    0.384
       164 -11.2748     51.6412     62.7631   8.3284982465e+01   5.8984428210e+01      0.33562    0.2211051 -29.92 0.0009889768    1.438    0.304
       165 -10.1743     53.9911     74.2316   8.5977290391e+01   5.6331846652e+01    0.2422372    0.1876722 -46.25 0.0006037667    1.259    0.206
       166 -11.8907     50.3381     68.7807   8.5768174668e+01   5.7947571581e+01    0.4517606    0.2872513 -39.85 0.0007603697    1.431    0.301
       167 -10.6744    207.5581     73.4358   4.5780707165e+01   2.4232346551e+01    0.2196656    0.2041129 -68.91 0.0002059246    1.048    0.046
       168  -9.8166    145.6373     74.1933   5.7238643472e+01   3.8362956648e+01    0.2085186    0.1420068 -26.24 0.0009477535    1.681    0.405
       169 -10.4973    100.9449     72.2728   6.8581007998e+01   4.8664327192e+01    0.4157339    0.2565466  67.19  0.001317334    2.803    0.643
       170  -9.8240    128.9722     71.5241   6.0445670394e+01   4.2691235218e+01    0.2277138    0.1411813  48.29  0.000409066    1.548    0.354
       171  -9.2889    167.6956     69.7268   5.1415358882e+01   3.3913015293e+01    0.1395023    0.1116424  26.27 0.0002299629    1.540    0.351
       172 -10.2834    123.4110     68.9857   6.1098528654e+01   4.4397035709e+01    0.3387517    0.1964355  36.28 0.0008451573    1.875    0.467
       173 -10.0216    127.7026     66.5562   5.9237330687e+01   4.3834336743e+01    0.2155934     0.200593  26.58  0.001194492    1.070    0.065
       174  -9.9266     42.8293     68.2554   8.8726631158e+01   5.8980926236e+01    0.1901984    0.1831926  -7.82  0.001209164    1.211    0.175
       175 -11.5911     43.7243     38.1965   7.7742073162e+01   6.4477410377e+01     0.500996    0.2949722  46.34  0.002502498    2.369    0.578
       176 -11.8761     30.8032     63.5366   9.2496332229e+01   6.1243977759e+01     0.732769     0.626014 -89.20  0.004427742    1.706    0.414
       177 -11.6092     35.0215     42.6256   8.3505852718e+01   6.4823337707e+01    0.6774929    0.3206871  10.98  0.002895453    2.860    0.650
       178 -13.1382     37.2187     50.0225   8.5189940099e+01   6.3228946191e+01    0.7892774    0.6395863  -8.33  0.003453099    1.067    0.063
       179 -10.7036     26.5327     55.9958   9.2120139637e+01   6.3184055961e+01    0.2785091    0.1851429 -38.83 0.0004180762    1.266    0.210
       180 -12.1474     26.7605     49.6897   8.9959984350e+01   6.4398238776e+01    0.5082009    0.3460042 -53.26   0.00191245    1.565    0.361
       181 -11.0447     93.8986     66.4585   6.8905922359e+01   5.1153168855e+01    0.3568344    0.2641531   8.99  0.001752389    1.568    0.362
       182  -9.7066     99.5909     65.1638   6.6671280625e+01   5.0231671076e+01     0.215417    0.1805268  18.46  0.001148659    1.188    0.159
       183  -9.3459    143.5918     64.4905   5.4853402798e+01   4.0468252006e+01    0.1424842     0.138611  66.05 0.0001044857    1.019    0.018
       184 -10.8527    105.2326     63.4302   6.4384253008e+01   4.9351081147e+01    0.3063121    0.2187605  15.07 0.0009880442    1.698    0.411
       185  -9.9920    153.2658     63.6040   5.2538982484e+01   3.8315599521e+01    0.2041899    0.1279935  47.74 0.0005297618    1.576    0.365
       186  -9.6010    201.9487     62.0168   4.3871649736e+01   2.7222094104e+01    0.1629883    0.1459609 -71.73 0.0005926463    1.003    0.003
       187 -10.6555    120.3129     61.2736   5.9470256233e+01   4.6393907131e+01    0.3330675    0.2474344  65.22  0.001534769    1.509    0.337
       188  -9.6819    168.2518     61.4112   4.9056609868e+01   3.5094766748e+01     0.189033    0.1322659  73.50 0.0002777762    1.505    0.336
       189 -10.7619     84.3960     60.9462   7.0196607969e+01   5.3980608927e+01    0.4223394    0.2846399  18.89  0.002030323    1.668    0.400
       190 -10.0775    155.2005     60.3626   5.1223093526e+01   3.8360820677e+01    0.1955096    0.1314426  69.40 0.0002880624    1.570    0.363
       191  -9.3365     98.4295     60.4414   6.5441906720e+01   5.1287797051e+01    0.1432361    0.1318881  17.45 2.435625e-05    1.003    0.003
       192  -9.5802     69.5077     59.9906   7.5235231509e+01   5.6805964736e+01    0.2049233    0.1104331 -20.91 0.0008105688    2.574    0.611
       193 -11.7612     59.6370     58.5031   7.8563312669e+01   5.8652862438e+01    0.4170026    0.2625171 -30.51   0.00126668    1.551    0.355
       194 -11.5453     62.6347     50.8859   7.4619491249e+01   5.9546925309e+01    0.3551807    0.2133433 -28.25  0.001761318    1.688    0.408
       195  -9.7512    147.1210     57.0669   5.1902217345e+01   4.0789937851e+01    0.2062512    0.1899908  24.75 0.0004176202    1.178    0.151
       196  -9.3578    111.6535     57.6945   6.0636023876e+01   4.8909153461e+01    0.1518345    0.1072669  19.65  0.000534319    1.695    0.410
       197 -11.0824     75.2651     56.2242   7.1762588961e+01   5.6482944896e+01    0.2249302    0.2058679   2.25 0.0002998214    1.064    0.060
       198  -9.5591     68.4600     56.4414   7.4377476579e+01   5.7620336056e+01    0.1384568    0.1222744   1.52 3.349097e-05    1.013    0.013
       199 -10.1910    132.3221     54.4477   5.4344885223e+01   4.4688793122e+01    0.3553504    0.1621917  50.31  0.001441372    2.015    0.504
       200 -12.3820    105.1804     52.6802   6.0769266002e+01   5.1114712220e+01    0.3582783    0.2582111  44.92 0.0003721358    1.291    0.225
       201  -9.6087     82.5338     54.3034   6.8494907260e+01   5.5473127651e+01    0.1831211    0.1291966 -20.37 0.0009257532    1.502    0.334
       202 -10.3676     55.5916     53.8696   7.8564851151e+01   6.0105870441e+01     0.293834    0.1888894  -0.30  0.001442621    1.843    0.457
       203 -10.1896    120.1962     52.6497   5.6703768607e+01   4.7770297599e+01    0.2785018    0.2132565  16.16 0.0007976643    1.531    0.347
       204 -11.2692     88.2982     51.1690   6.5425998645e+01   5.4864038445e+01    0.2685739    0.2322627   0.10 0.0005878073    1.121    0.108
       205  -9.5886    237.2450     50.9889   3.7223664726e+01   2.1338869078e+01    0.1639386   0.09181154 -40.63 0.0008716308    1.597    0.374
       206 -11.6256    129.0509     49.0974   5.3412336484e+01   4.6239568231e+01    0.5122693    0.3739225  14.64  0.002279758    1.757    0.431
       207 -10.0316     77.6655     51.1275   6.9049443210e+01   5.6907982896e+01    0.2404421    0.1850011  47.78 0.0006277763    1.428    0.300
       208 -10.3698     78.4631     46.7805   6.7154921787e+01   5.7455205012e+01    0.2725795    0.1803653 -47.55   0.00131785    1.863    0.463
       209 -10.7623     45.0879     49.6787   8.1529345275e+01   6.2322470413e+01     0.377519    0.1945366 -43.08  0.001846677    1.846    0.458
       210 -11.0522    199.8623     49.6276   4.1194215277e+01   2.9472207762e+01    0.2360417    0.1988284 -76.88 0.0006125474    1.082    0.076
       211  -9.5142    151.6819     47.6939   4.8251157984e+01   4.1054226671e+01    0.1418035    0.1041126  31.23 0.0002727104    1.631    0.387
       212  -9.4855    119.9537     47.0914   5.4935583849e+01   4.8636803669e+01    0.1631977    0.1558629  34.92    0.0008809    1.044    0.042
       213 -10.7923    142.2025     44.9590   4.9286859814e+01   4.3698781235e+01    0.4912363    0.2949983 -80.92  0.001960614    2.850    0.649
       214 -10.9165     53.5404     49.8920   7.7966070923e+01   6.1115353289e+01    0.2796138    0.1936159  16.76  0.000926969    1.408    0.290
       215 -10.2174     62.7186     40.5764   7.0635233520e+01   6.1214861526e+01    0.4413662    0.1626191  30.28  0.001580354    3.377    0.704
       216 -11.1087     67.0955     41.5150   6.9304589842e+01   6.0324257432e+01    0.3852379    0.3246129 -22.36  0.002179569    1.200    0.167
       217 -11.0751     71.3910     41.1761   6.7560006333e+01   5.9615092552e+01     0.389213    0.2552939 -51.47  0.001402087    2.153    0.536
       218 -12.3578     73.9779     36.9915   6.4977377047e+01   5.9750905203e+01    0.6043704     0.416784   1.64  0.002514041    1.622    0.383
       219 -11.5916     70.3719     37.2819   6.6401752656e+01   6.0372097606e+01    0.3504149    0.2571039 -16.83   0.00111316    1.369    0.269
       220 -10.3482     98.7325     39.5386   5.7983725608e+01   5.4411867300e+01    0.4178852    0.1414895  48.28  0.001563412    2.592    0.614
       221 -10.8140     91.9858     43.9019   6.1601363468e+01   5.5221452513e+01    0.3882709    0.3082726 -56.47  0.001788103    1.672    0.402
       222 -10.5181     95.7803     43.1056   6.0149228454e+01   5.4545010714e+01    0.2466291    0.1824983   1.68 0.0005602636    1.545    0.353
       223 -10.3016     83.6882     45.0621   6.4716063032e+01   5.6717440099e+01     0.314521    0.1807453  53.08  0.001006213    1.947    0.486
       224  -9.6090     50.9916     45.0251   7.7214306575e+01   6.2324931343e+01    0.1618341    0.1303811 -21.42 0.0006021788    1.135    0.119
       225 -10.1648    131.2446     42.0632   5.0681215063e+01   4.6691579344e+01    0.2710525    0.1969324 -70.66  0.001003263    1.794    0.443
       226 -10.8837    124.6625     42.2056   5.2202937827e+01   4.8218185425e+01    0.2960862    0.2157691  80.57  0.001255927    1.680    0.405
       227  -9.9564    106.9991     42.9526   5.6886583261e+01   5.2141155303e+01    0.2102236    0.1860281  41.78 0.0003458514    1.040    0.039
       228 -11.0272      8.0840     33.6919   9.3903220507e+01   6.8917168125e+01    0.3860263    0.3372642 -49.94   0.00266602    1.421    0.296
       229 -10.5575     18.3081     42.4158   9.1616416823e+01   6.6532884897e+01    0.5486329    0.1306724 -42.05  0.002080972    3.323    0.699
       230 -11.1144     23.8550     41.3795   8.8467250571e+01   6.6227590392e+01      0.34736    0.2962593  69.08  0.002161381    2.052    0.513
       231 -10.7947     22.9342     26.1536   8.2937018991e+01   6.8916062337e+01    0.3357898    0.2357131  12.56 0.0009323234    1.294    0.227
       232 -11.7910     17.9660     31.5754   8.7797314365e+01   6.8504691266e+01      0.50754    0.3857185  16.19   0.00340175    1.356    0.262
       233 -10.8660     30.0610     32.9198   8.2103118952e+01   6.7045292450e+01    0.3035836      0.20656  -8.43  0.000983549    1.338    0.252
       234 -12.4407     27.7190     38.0692   8.5308310179e+01   6.6429727863e+01    0.3510475    0.2120988  20.10   0.00118933    1.613    0.380
       235 -11.6014     24.1562     35.0945   8.5950639229e+01   6.7310584128e+01       0.3168    0.2046408   7.88 0.0007694003    1.469    0.319
       236 -11.5676     53.0917     40.7301   7.4641642555e+01   6.2723691344e+01    0.3517331     0.222666  35.23  0.001105529    1.557    0.358
       237 -12.0288     37.0398    244.0091   1.1701118192e+02   1.7888000936e+01     0.672684    0.3073815 -87.65  0.003209391    2.412    0.585
       238 -10.2477    111.5501     46.2432   5.6802502500e+01   5.0665404144e+01    0.4785332    0.1493116  46.76   0.00165719    2.894    0.654
       239 -11.0369    224.9968     38.2992   3.5780793168e+01   2.5522149580e+01    0.2776807    0.1883126  85.46 0.0005397344    1.423    0.297
       240  -9.5063    116.4969     39.5048   5.3246399557e+01   5.0463744327e+01    0.1384323    0.1262421  47.68 -0.0001426045    1.029    0.028
       241  -9.3826    160.4066     38.4357   4.4067597865e+01   4.0185509451e+01    0.1343282    0.1216674  84.40 4.982632e-05    1.029    0.028
       242  -9.1642     85.9699     38.7799   6.1597189749e+01   5.7173962232e+01    0.1691223    0.1014736  44.69 -0.0006383859    1.523    0.343
       243 -10.0715      1.6442     37.6849   9.8706364264e+01   6.8569952981e+01    0.2127726    0.1026458 -41.81 0.0007820824    1.566    0.362
       244 -11.1248     83.9791     35.6970   6.1060863981e+01   5.7994640172e+01    0.4169148    0.2352095  17.72  0.001231436    2.490    0.598
       245  -9.6505    134.6011     35.7858   4.7992349901e+01   4.6697905438e+01     0.189457    0.1234043 -43.99 0.0009508161    1.697    0.411
       246 -11.5019     98.1495     31.7063   5.5276407545e+01   5.5547311101e+01    0.5588077     0.395675 -65.58  0.002776734    2.239    0.553
       247 -11.4770    102.2348     28.6247   5.3036735245e+01   5.5021121511e+01    0.4103323    0.2893486  74.33 0.0009522053    1.786    0.440
       248 -10.4140    107.2073     34.6352   5.3900865662e+01   5.3190119808e+01    0.3036339    0.1547638  54.61 0.0009813467    1.787    0.440
       249 -11.2299    221.7191     32.1723   3.4792789590e+01   2.6980805579e+01    0.2197082     0.176213 -62.63 0.0002527908    1.075    0.070
       250  -9.5530    201.7724     34.3703   3.7363055701e+01   3.1046352005e+01    0.1684174    0.1077512  62.52 0.0003047754    1.532    0.347
       251 -10.2512    205.9085     32.4566   3.6464151547e+01   3.0362684822e+01     0.181997    0.1529011 -60.99 0.0003083131    1.104    0.095
       252 -10.0042    178.3497     32.7847   3.9874405330e+01   3.6620724076e+01    0.1682495    0.1266992 -18.05 0.0004613558    1.689    0.408
       253 -10.3828    166.5470     32.7477   4.1539152825e+01   3.9418565857e+01    0.2282634    0.1365338 -24.14  0.001120068    2.027    0.507
       254 -10.1256     48.6562     31.5705   7.2803310838e+01   6.4803279896e+01    0.2492397    0.1590394  22.54 0.0005511755    1.452    0.311
       255 -10.8805     50.2488     27.8459   7.0513010192e+01   6.5096677695e+01    0.3069637    0.1852939   5.90   0.00100061    1.918    0.479
       256 -10.4849    236.3000     30.3877   3.3108176406e+01   2.4201051874e+01    0.2151013    0.1810581  45.60 0.0008370328    1.663    0.399
       257  -9.6746     89.3594     31.6012   5.7793139747e+01   5.7427672353e+01    0.2378599    0.1213669  54.05 0.0006408672    1.926    0.481
       258  -9.4666     44.4500     31.4789   7.4641433124e+01   6.5430328560e+01    0.1281087    0.1039334   0.08 6.914408e-05    1.004    0.004
       259  -9.9046    111.2708     28.3696   5.0674831788e+01   5.3022496227e+01    0.2408436    0.1666481  -4.06  0.001256189    1.786    0.440
       260 -11.1494     69.6955     26.5409   6.2262567101e+01   6.1941886683e+01    0.4602202    0.2446434  30.97  0.001771558    1.842    0.457
       261 -13.0926     74.6763    238.0958   1.0868458085e+02   1.4460623735e+01    0.8140463    0.5400198 -69.67  0.004701922    1.632    0.387
       262 -10.8149    243.8481    237.1522   7.3347144508e+01  -9.4288473684e+00     0.224803    0.1502391 -38.91  0.001260052    1.737    0.424
       263 -11.3560    127.9784     26.7565   4.6451510346e+01   4.9323186804e+01    0.6093294    0.3413979  69.26  0.002578134    1.815    0.449
       264 -12.0131     30.4789    233.7845   1.1763657424e+02   2.0701186423e+01    0.4867518    0.2481118 -85.63  0.002632236    1.941    0.485
       265 -10.9683    152.6918     39.0288   4.5550246283e+01   4.1961468193e+01    0.2516927    0.2377177  27.59 0.0005390271    1.187    0.157
       266 -10.2372    214.6254     25.8506   3.4107410290e+01   2.9254848547e+01    0.1888875    0.1505565  73.80 0.0003714384    1.245    0.197
       267  -9.9034    203.8591     25.8257   3.5169938760e+01   3.1610659121e+01    0.1822068    0.1250877 -66.60 0.0005561621    1.350    0.259
       268 -10.8533    193.2551     25.5783   3.6253811813e+01   3.4022390659e+01    0.2621174     0.134951 -50.93   0.00112044    1.896    0.472
       269 -10.3455    169.1153     26.0637   3.9376484146e+01   3.9585618437e+01    0.1908679    0.1704856  83.13  0.001207059    1.029    0.028
       270 -12.0985    164.9029     23.0816   3.9160027131e+01   4.0915492523e+01    0.3394784    0.2361456  84.53  0.001890602    1.384    0.277
       271  -9.4706    144.0073     26.2248   4.3294645351e+01   4.5566225018e+01    0.1939519    0.1364806 -60.14   0.00075267    1.632    0.387
       272  -9.8563    119.0380     25.8031   4.8011686760e+01   5.1522575045e+01    0.1991338    0.1520382  39.19 0.0003083222    1.252    0.201
       273 -10.1416    159.7451    235.9914   8.9744383610e+01   2.3295227633e+00    0.1550962    0.1131429 -41.88  0.000477145    1.523    0.343
       274 -10.1566    109.4538    242.7761   1.0163523064e+02   8.6534651299e+00    0.2598494    0.1344486  47.79 0.0009137343    1.832    0.454
       275 -10.2302      1.4705     25.9129   9.4776288286e+01   7.0731900853e+01    0.1981495    0.1111615 -41.18 0.0003669267    1.403    0.287
       276  -9.7035    177.3221    235.3273   8.5912534415e+01  -1.9953337280e-01    0.1365316   0.09124185  -1.60 0.0007048363    1.689    0.408
       277 -11.5119     89.0443    249.4669   1.0676058057e+02   1.0270966375e+01    0.3022822    0.2406184  40.51 0.0008631753    1.089    0.082
       278 -10.5846     88.8251    241.3200   1.0595450206e+02   1.1882990656e+01    0.2317534    0.1561391 -33.54  0.001225318    2.149    0.535
       279 -10.1613     38.2361    232.8242   1.1597184092e+02   2.0048824867e+01    0.1775574    0.1355757  67.89 0.0005551297    1.100    0.091
       280 -10.1421     23.9828    232.5178   1.1887000817e+02   2.1650467995e+01     0.197843    0.1465291 -67.45 0.0006519358    1.467    0.318
       281  -9.2239     50.3191    240.3107   1.1404147141e+02   1.7095696291e+01    0.1090218   0.09445655 -27.80 0.0006887235    1.644    0.392
       282 -11.4190      7.9390     25.0652   9.0742045274e+01   7.0440751869e+01    0.4447315    0.1698463  17.22  0.002196509    2.644    0.622
       283  -9.9899    152.5012    230.0126   9.0399839277e+01   4.5170366814e+00    0.1733939    0.1232298 -84.32 0.0008105871    2.613    0.617
       284 -10.9159     24.6806     20.4654   7.9500519348e+01   6.9597857913e+01    0.2636195    0.2128489 -29.95  0.001817372    1.361    0.265
       285 -11.3014      4.5116    226.7297   1.2241043265e+02   2.4743895184e+01    0.2974429    0.1855753  58.71  0.001927726    1.313    0.238
       286  -9.6514    169.7216    229.3224   8.6554720405e+01   1.9776488997e+00     0.121107    0.1045701  61.99 0.0003293591    1.584    0.369
       287 -10.0816    106.5629     22.7679   4.9819206710e+01   5.4706814603e+01     0.269215    0.1757187 -70.18 0.0007352703    2.563    0.610
       288 -10.6525    120.6428    226.5188   9.7027540921e+01   1.0157091801e+01     0.214594    0.1310544 -56.67 0.0009497399    1.848    0.459
       289 -11.3385    108.5999     17.4228   4.7425208709e+01   5.4791246539e+01    0.2750362    0.2002999  49.36 0.0001251418    1.169    0.144
       290 -11.4718     58.9814     22.0012   6.4343674563e+01   6.4430741786e+01    0.3012322    0.1716409 -17.04  0.001102499    1.920    0.479
       291 -10.1891    185.9519     22.9750   3.6458008003e+01   3.5991170974e+01    0.2002932    0.1627645 -82.37 0.0006286589    1.094    0.086
       292  -9.6417    226.1792     22.1721   3.2292401047e+01   2.7244200342e+01    0.1646515    0.1437433  85.44 0.0006349217    1.209    0.173
       293 -10.4635     67.5678     21.6509   6.0957194144e+01   6.2930670420e+01    0.3522848    0.1724978  51.98  0.001569777    2.160    0.537
       294 -10.0849    120.3628     21.1434   4.6158282614e+01   5.1708975139e+01    0.1666002    0.1582644  -9.10 0.0005055944    1.189    0.159
       295  -9.6733    181.4459     19.7244   3.6180179876e+01   3.7390236179e+01    0.1499448    0.1265138  -9.41 0.0009292089    1.569    0.363
       296  -9.6815    172.9336     20.4314   3.7394116094e+01   3.9302840005e+01    0.1844638   0.09687201 -82.62 0.0008051941    2.423    0.587
       297  -9.9483    139.5423     20.0028   4.2180789264e+01   4.7293620673e+01    0.2641397    0.1468897  51.47  0.000693423    1.619    0.382
       298 -10.0048     66.0360    226.3113   1.0940813234e+02   1.8064323216e+01    0.1990461    0.1715189 -64.93 0.0006739589    1.282    0.220
       299  -9.5011    190.4823    226.4839   8.1724208176e+01  -6.7412152118e-01    0.1344626    0.1102417   4.38 0.0008098166    1.044    0.042
       300 -11.3600     21.1846    222.3540   1.1878539249e+02   2.4093851056e+01    0.2633373    0.1824217  76.88 0.0009816346    1.233    0.189
       301 -10.8772     41.7911     19.3863   7.0496984638e+01   6.7518137868e+01     0.311272    0.1784373  26.68  0.001160032    1.569    0.363
       302 -10.0981    126.7288    222.0112   9.4987430122e+01   1.0114778390e+01    0.1765849    0.1737118 -60.28 0.0003772375    1.138    0.122
       303  -9.9006     37.9835    217.6924   1.1484388197e+02   2.3342071665e+01    0.1768272    0.1443398  53.03 0.0008696004    1.129    0.114
       304 -11.8867     10.0642    217.2518   1.2077092334e+02   2.6264229931e+01    0.3330877    0.2219329  49.54  0.001760768    1.338    0.253
       305 -10.2444    103.5102     19.6960   4.9445729051e+01   5.5711894312e+01    0.2460925    0.1943503  67.96 0.0006847716    1.319    0.242
       306 -10.1557     54.6551     18.8994   6.4689265991e+01   6.5547841015e+01     0.166207    0.1435018   4.93  0.001109559    1.138    0.121
       307 -11.2554     29.6202    215.9174   1.1653359451e+02   2.4639553068e+01      0.36214    0.2611192  27.29  0.001950361    1.579    0.367
       308 -10.5047     23.4289    216.8354   1.1793625065e+02   2.5072787025e+01    0.2330232    0.1776315 -21.19  0.001402987    2.061    0.515
       309 -10.1656     69.5298     16.5137   5.8051084393e+01   6.3137800031e+01    0.2278222    0.1415972  45.42 0.0006274921    1.422    0.297
       310 -11.7847    237.3624    213.5353   7.0386452015e+01  -5.2125799608e+00    0.5171138    0.2633989   7.81  0.002107885    2.910    0.656
       311  -9.8960    195.4507    238.6902   8.2741144060e+01  -3.3667638477e+00     0.226525    0.1369285  10.83  0.001186985    1.725    0.420
       312 -10.1471     21.6973    212.6736   1.1801466988e+02   2.6167986997e+01    0.3069168    0.1368677  46.78  0.001556979    1.962    0.490
       313 -10.2554     62.1714     14.7124   5.9880669980e+01   6.4705351494e+01    0.2754013    0.1645602  59.62  0.001336253    2.296    0.565
       314  -9.4614    184.7137     14.6245   3.4559518352e+01   3.7173673144e+01    0.1208433   0.09056485  38.91 0.0007017216    1.720    0.419
       315  -9.7826    208.8455    211.9412   7.5461163286e+01  -9.6490594219e-01    0.2089672    0.1524376  -7.83 0.0006812771    1.296    0.228
       316  -9.3020     96.5299     13.4513   4.8839739479e+01   5.7867519942e+01    0.2239416     0.113559  59.12 7.484542e-05    1.770    0.435
       317  -9.6664     30.9260     12.8350   7.2629856096e+01   6.9883194004e+01    0.1794499    0.1259334   2.03 0.0005407249    1.195    0.163
       318  -9.4037     76.3046    212.3250   1.0552052372e+02   1.9764984237e+01    0.1299001    0.1043148 -26.22 0.0004246109    1.643    0.391
       319 -10.0946     74.9067     16.2102   5.6125797972e+01   6.2124319324e+01    0.3946149    0.1756663  51.62  0.001212048    2.029    0.507
       320 -10.5887     10.7717    208.3333   1.2007456767e+02   2.8166382357e+01    0.2413938    0.1880412 -37.22 0.0004177337    1.794    0.443
       321 -12.1338      4.9770    208.2092   1.2129805117e+02   2.8701691761e+01    0.5356354     0.294838  81.32  0.003057556    1.600    0.375
       322  -9.2690    188.2588    205.3488   7.8451500644e+01   3.3676335825e+00    0.1411829    0.0972996 -10.75 0.0004598388    1.602    0.376
       323 -11.0601     17.0613    193.5087   1.1763436236e+02   3.0993285171e+01    0.3801379    0.2691934  51.63  0.002331595    1.332    0.249
       324 -10.6666     20.9402    199.3907   1.1719835897e+02   2.9262138744e+01     0.372905    0.2110073 -43.30  0.001880311    2.413    0.586
       325 -10.8005    245.0684    202.5603   6.7031623300e+01  -4.5471778362e+00    0.3315407    0.1514824  39.48  0.001622141    2.538    0.606
       326  -9.7881    136.9691    215.5322   9.1634875297e+01   9.7874530749e+00    0.2020946    0.1184498  11.14 0.0008096677    2.556    0.609
       327 -10.3734    175.3193    202.8106   8.0763468542e+01   5.9578645320e+00    0.2251977    0.1816049  37.21 0.0005056306    1.269    0.212
       328 -11.1625     16.5194    184.5201   1.1704696684e+02   3.3168778061e+01    0.4196753    0.1961507 -76.91  0.001755464    1.874    0.466
       329 -10.2108     14.7032    180.6608   1.1716770890e+02   3.4250712599e+01    0.2575582    0.1847104 -30.72  0.001479856    1.897    0.473
       330 -10.0548    168.2567    183.9759   7.8751238157e+01   1.0918553584e+01    0.2976171    0.1825442  59.79  0.001182401    2.618    0.618
       331  -9.8740     58.8128    182.1714   1.0614546461e+02   2.9228660665e+01     0.189078    0.1609986 -41.09 0.0009642456    1.337    0.252
       332  -9.8872    244.4692    178.4921   6.2582865892e+01  -6.2646902512e-01    0.2390512    0.1019556 -29.95  0.001025959    2.319    0.569
       333 -10.8053     46.5162    177.7916   1.0882069663e+02   3.1792270028e+01    0.3215544    0.2504057 -77.07   0.00113419    1.184    0.155
       334  -9.6068     69.5651    178.2021   1.0276235932e+02   2.8798365600e+01    0.1920228    0.1248447 -52.23 0.0005102645    1.555    0.357
       335 -10.9120     34.1768    174.0940   1.1162727047e+02   3.4042105651e+01    0.2626838    0.1916655 -60.59 0.0004771702    1.313    0.239
       336 -10.8399     18.1968    173.2165   1.1565260075e+02   3.5756969680e+01    0.3567002    0.1993565  63.03  0.001782361    1.853    0.460
       337 -12.2402     36.0572    165.7056   1.1016927468e+02   3.5946811453e+01    0.8879107    0.4888442 -71.56  0.004291517    1.639    0.390
       338 -12.8707     49.4750    161.7451   1.0594223973e+02   3.5488685313e+01    0.8029746    0.4224485  30.67  0.003651899    1.995    0.499
       339  -9.5866     99.1850    164.8380   9.2467960837e+01   2.7639009790e+01     0.199704    0.1752884 -22.74 0.0003482122    1.261    0.207
