#   1 NUMBER                 Running object number                                     
#   2 MAG_AUTO               Kron-like elliptical aperture magnitude                    [mag]
#   3 X_IMAGE                Object position along x                                    [pixel]
#   4 Y_IMAGE                Object position along y                                    [pixel]
#   5 X_WORLD                Barycenter position along world x axis                     [deg]
#   6 Y_WORLD                Barycenter position along world y axis                     [deg]
#   7 A_WORLD                Profile RMS along major axis (world units)                 [deg]
#   8 B_WORLD                Profile RMS along minor axis (world units)                 [deg]
#   9 THETA_WORLD            Position angle (CCW/world-x)                               [deg]
#  10 FWHM_WORLD             FWHM assuming a gaussian core                              [deg]
#  11 ELONGATION             A_IMAGE/B_IMAGE                                           
#  12 ELLIPTICITY            1 - B_IMAGE/A_IMAGE                                       
         1 -10.4693     50.6863     36.3252   9.4770456410e+01   6.2878033217e+01    0.7769983    0.6344718 -61.96  0.004873432    1.572    0.364
         2 -10.0543     38.5629      8.7979   8.8027226813e+01   6.8872292808e+01    0.9172304    0.3881115 -26.13  0.004294698    2.491    0.598
         3 -10.7318     39.5789     29.8433   9.6741769573e+01   6.5325619840e+01    0.8739802    0.3051337 -47.67  0.003892074    2.437    0.590
         4 -11.8124     44.4474     22.2543   9.1637528627e+01   6.6072127576e+01    0.9066559    0.8531707  69.56  0.006054205    1.659    0.397
         5  -8.9527     12.4085     33.4787   1.0947397188e+02   6.6969589832e+01    0.3599708    0.1591713 -60.43  0.001924969    1.961    0.490
         6 -11.1505    128.0653     17.7865   6.3163501763e+01   5.1172323875e+01     1.127434    0.8200706  34.77  0.005852172    1.330    0.248
         7 -11.7936     74.6643      9.1010   7.4093076200e+01   6.3434553238e+01     1.497326    0.8759031 -46.78  0.007337544    2.441    0.590
         8 -11.4362    109.4964      4.4827   6.2029763713e+01   5.6885679115e+01     1.558552    0.7673347  45.11  0.007221596    1.819    0.450
         9 -11.4018    131.3572      3.5311   5.6926144385e+01   5.1839595212e+01     1.449582    0.5795296  62.46   0.00581046    2.318    0.569
        10 -10.7396    121.0938      3.8937   5.9160918854e+01   5.4271738064e+01    0.7533535    0.6044233 -75.22  0.004147859    1.641    0.391
        11 -11.4013    155.4469     20.9071   5.8796464621e+01   4.3977660934e+01    0.9838622    0.4824676  64.78  0.003151871    2.015    0.504
        12 -13.7990    167.2045     11.0522   5.3464364693e+01   4.1981526118e+01     3.668183     2.000063  63.23   0.01642556    1.677    0.404
        13 -10.1780    116.1969     16.2250   6.5308359233e+01   5.4126621442e+01    0.9371368       0.3792 -36.55  0.003721464    2.576    0.612
        14  -9.6683     40.4535     15.2068   9.0219272436e+01   6.7678334533e+01    0.3427125    0.2307854  16.36  0.001730647    1.570    0.363
        15  -9.6244     94.0847     17.9144   7.1968331490e+01   5.8670053657e+01    0.4559025    0.3624751 -41.12  0.002178983    1.453    0.312
        16  -9.3343     64.8207     16.5060   8.1042102403e+01   6.4115189505e+01    0.2796544    0.2522378 -82.40  0.001357125    1.819    0.450
        17  -8.7942     20.0633     14.4038   9.9133414492e+01   6.9877630526e+01    0.4610312    0.1802851 -31.89  0.002225649    2.520    0.603
        18  -7.6838      8.0251     16.9529   1.0590304934e+02   7.0323786899e+01    0.1906807   0.08927177 -19.07  0.001005138    2.648    0.622
        19 -10.2315    248.6523     14.7955   4.5106304964e+01   2.0751871556e+01    0.3471983    0.2456883 -41.25  0.001536245    1.281    0.220
        20  -8.4940     51.7928      2.3950   7.9186982175e+01   6.7969808543e+01    0.2377302    0.1731971  -4.77  0.001536905    1.157    0.135
        21 -10.3835     60.3139      3.3713   7.6377908883e+01   6.6543813350e+01    0.7474893    0.4471873 -18.20  0.004259472    1.508    0.337
        22  -8.4545     54.6084      7.6349   8.0715474998e+01   6.6885407518e+01    0.2379112     0.202228  61.93 0.0008903742    1.931    0.482
        23  -9.9309    250.5165      8.9065   4.3526302640e+01   2.0968206206e+01    0.5447158    0.1475796 -28.53  0.001975036    3.313    0.698
        24 -10.0772    200.5143      7.9496   4.8092183927e+01   3.3528745861e+01    0.3159572     0.189027  66.58  0.001012334    1.550    0.355
        25  -8.2599     49.6589      6.8965   8.2344382680e+01   6.7695503638e+01    0.2036893    0.1454535  12.13 0.0008873618    1.332    0.249
        26  -8.5859    230.5944      6.2238   4.4565915124e+01   2.6042756165e+01    0.1764107    0.1309199 -11.39 0.0007736275    1.616    0.381
        27 -10.5162    212.9232      4.5430   4.5802739601e+01   3.0662584300e+01    0.5882971    0.1518776  67.89  0.001979559    3.314    0.698
        28  -8.8421     17.0395      2.2256   9.5057780697e+01   7.2094066154e+01     0.262115    0.2003916 -57.05  0.001794324    1.965    0.491
        29  -9.2398    105.1991     25.2762   7.1880786621e+01   5.5414309737e+01    0.5431079    0.4199097   5.32  0.002957007    1.308    0.236
        30 -11.5648     84.3322      4.0348   6.8603091360e+01   6.2209600498e+01      1.24979    0.4630912  50.34  0.005360972    2.550    0.608
        31  -9.6064    246.6736      2.3283   4.2254277877e+01   2.2568773673e+01    0.2742501    0.1554132 -79.82  0.001304012    1.847    0.458
        32  -8.6554     26.7734      3.0290   9.0619054259e+01   7.1037035976e+01    0.3140985    0.1237799 -38.58  0.001631368    2.071    0.517
        33  -9.2861     73.9633     68.8417   9.7404135878e+01   5.3373287136e+01    0.3002407    0.2773689 -70.80  0.001319743    1.206    0.171
        34  -8.8870     82.9799     69.0502   9.4599725849e+01   5.1941927422e+01    0.2793762    0.2259141 -83.49  0.001495511    1.651    0.394
        35  -8.0010     34.0845     68.4904   1.1060613208e+02   5.8139458049e+01     0.155385    0.1239418  20.10  0.000618313    1.548    0.354
        36  -8.7300     69.2191     61.7751   9.6809338523e+01   5.5516427493e+01    0.2394362    0.2116048 -40.76  0.001033248    1.040    0.038
        37  -9.3160     48.1587     61.1970   1.0385339084e+02   5.8290986514e+01    0.4093162     0.231883  32.47  0.002192661    2.077    0.519
        38  -9.1594     15.3996     61.7965   1.1554019002e+02   6.1008965221e+01    0.2449903    0.1119376 -50.62  0.001285148    1.672    0.402
        39  -8.1610     76.1202     60.4224   9.4093327162e+01   5.4769967799e+01    0.2351518    0.1858869  53.96  0.001051815    1.575    0.365
        40  -8.4842     92.9439     57.2484   8.7659221765e+01   5.2582870217e+01    0.2966492    0.1774298  47.58  0.001388352    1.878    0.468
        41  -9.2194    227.9109     78.8916   6.4187596032e+01   1.7093065799e+01    0.4418934    0.2976459  21.07  0.001463001    2.003    0.501
        42  -9.3213    198.9289     55.4040   6.2283944701e+01   2.7951668024e+01     0.277314    0.2601328  31.09 0.0005154721    1.116    0.104
        43  -8.9802     66.2396     53.6261   9.5196149856e+01   5.7565692267e+01    0.3907455    0.1603814 -51.48  0.001611975    2.395    0.582
        44  -7.6622     35.4771     52.5107   1.0594373460e+02   6.1375057510e+01    0.1243947   0.09895972 -45.49 2.798728e-05    1.001    0.001
        45  -8.4337    220.9605     80.6693   6.5759712599e+01   1.8488049575e+01     0.209281    0.2000381  66.48 0.0009263226    1.103    0.093
        46 -10.1927     82.0232     38.8852   8.4466961783e+01   5.7802677136e+01    0.9352651    0.3778085 -31.50  0.003651858    2.604    0.616
        47 -10.0220     86.4970     48.9731   8.6784595550e+01   5.5259605862e+01    0.3950767    0.2957987 -29.33  0.001706388    1.233    0.189
        48  -7.7670    111.6533     46.6656   7.8358038196e+01   5.0808426142e+01    0.1547945    0.1091338  10.07  0.000704894    1.771    0.435
        49  -9.8667     82.9402     47.3477   8.7350496312e+01   5.6164627400e+01    0.4433355    0.3463584 -17.35  0.001714891    1.263    0.208
        50  -9.6597    184.3501    246.2113   1.0613292282e+02   3.4502350073e-01    0.2787736    0.1578416  65.48   0.00134682    3.310    0.698
        51 -10.1296    169.8109    242.6076   1.0812025613e+02   3.1324210213e+00    0.2554075     0.154812 -51.54  0.001594961    2.222    0.550
        52  -9.5102    162.5889    243.8394   1.0949253574e+02   4.1367503189e+00    0.1409896    0.1178794 -51.01  0.001039975    1.568    0.362
        53  -8.7035    200.2394    239.7439   1.0260277062e+02  -1.4446944059e+00     0.157057   0.09155601 -21.49 0.0008977569    2.429    0.588
        54 -10.2223      3.5867     40.2216   1.1498716084e+02   6.6143954799e+01    0.4000492    0.3508125 -34.07   0.00306019    1.242    0.195
        55  -8.2217     70.5240     36.5207   8.7486058495e+01   6.0085731533e+01    0.3620582    0.1984103 -19.54  0.001602332    2.355    0.575
        56  -8.4976     66.7919     35.6091   8.8462078384e+01   6.0810563013e+01    0.2676538    0.1717667  48.12  0.001411599    1.998    0.499
        57  -7.8664     98.3303     36.3102   7.8300110148e+01   5.5207316507e+01    0.1459503    0.1025841   9.31 0.0006604955    1.668    0.400
        58  -9.8568    123.9950    205.9913   1.1168280746e+02   1.6264421875e+01    0.1761187    0.1458104  59.09  0.001156524    1.006    0.006
        59 -10.3017    225.0110     29.0489   5.1162526474e+01   2.4837400551e+01     0.521744     0.392562  59.11  0.001969005    1.354    0.262
        60  -9.4746     86.2682     30.8520   7.9865678304e+01   5.8348225728e+01    0.3869389    0.2301888 -18.04  0.001840627    1.840    0.456
        61  -9.9509     90.5462     28.9590   7.7727126271e+01   5.7837723309e+01    0.3679558    0.2768266 -38.70  0.002037969    1.384    0.277
        62  -8.1485    238.3310    202.6640   9.0208792189e+01  -3.3447893260e+00    0.1085086   0.09957252  76.03 0.0003278784    1.733    0.423
        63 -11.4691     11.0940    140.9234   1.2760943501e+02   4.4015699930e+01     0.568949     0.293099 -75.10  0.003482958    1.489    0.328
        64 -12.6653    241.3850    132.5531   7.5308473862e+01   5.7257338628e+00      1.51529     1.163246  42.77  0.005532984    1.336    0.251
        65  -9.0847     40.1364    142.0751   1.2121754350e+02   4.1113370646e+01    0.2608545    0.1872799  33.69  0.001664441    1.704    0.413
        66  -7.1300     24.6450    141.3258   1.2465130197e+02   4.2785625982e+01    0.1249584   0.07000529  71.33 0.0004277946    1.770    0.435
        67  -9.5118     11.4455    127.7368   1.2631283020e+02   4.6833698225e+01    0.2919582   0.08020857 -70.79  0.001302257    2.639    0.621
        68  -9.3135     18.0277    126.7773   1.2466209428e+02   4.6532218988e+01    0.2544111    0.1136841  81.35  0.001188099    2.702    0.630
        69  -8.1537     27.2493     35.1411   1.0377035503e+02   6.5540869931e+01    0.2451355    0.1514874  -7.16  0.001431326    2.003    0.501
        70  -7.8348     22.0542     23.0131   1.0167137740e+02   6.8216379198e+01    0.3178318    0.1798924 -59.55  0.001791324    2.038    0.509
        71  -8.1192     22.7593    125.4366   1.2337671691e+02   4.6437697803e+01    0.1344688    0.1156212  -7.85 0.0009490685    1.714    0.417
        72  -9.0521    110.8219     16.3883   6.6716400225e+01   5.5316953602e+01    0.3392729    0.2343238  43.66  0.001350953    1.358    0.264
        73  -8.4316     94.6496    121.6756   1.0449755900e+02   3.8476802376e+01    0.1397339    0.1098453 -21.56 0.0007048576    1.754    0.430
        74 -10.3206     11.9635    118.2614   1.2520921981e+02   4.8867450862e+01    0.3019915    0.1881968 -86.98  0.001934646    1.326    0.246
        75  -7.7561    192.6748    116.2852   8.0288914626e+01   1.9169764355e+01    0.1504182      0.12248 -81.39 0.0003704606    1.603    0.376
        76  -9.3582     66.5388     29.8038   8.6212404027e+01   6.1821769063e+01    0.3276859    0.2031299 -22.96  0.001524445    1.575    0.365
        77  -7.9757      2.6909    111.6894   1.2681079831e+02   5.0929523318e+01    0.1113813   0.06643445 -54.15 0.0003565781    1.622    0.383
        78  -7.9366     87.3161    110.3413   1.0403119999e+02   4.2215763997e+01    0.1406768    0.1058168 -27.61 0.0007048351    1.709    0.415
        79  -9.6119     17.1224    103.9579   1.2215377596e+02   5.1654590627e+01    0.3601067    0.2210896 -86.45  0.002192207    1.476    0.323
        80 -10.2718     75.1171     26.6430   8.1836815904e+01   6.0947927859e+01    0.4482206    0.4164139   6.31  0.002915371    1.174    0.148
        81  -8.7448     68.4986    105.5122   1.0818092471e+02   4.6046934148e+01     0.134795    0.1172538 -69.02 -8.497553e-07    1.018    0.018
        82  -9.6676     47.0088    101.3152   1.1342652276e+02   4.9578614653e+01     0.410295    0.1872198 -60.37  0.001986466    1.781    0.439
        83  -9.2410     29.8061    101.8425   1.1836671683e+02   5.1115265241e+01    0.3119947    0.1322661 -51.67  0.001534071    2.100    0.524
        84  -8.2334    230.3164     10.3325   4.5650120008e+01   2.5674928665e+01    0.1364155    0.1005858  35.70 0.0007047072    1.688    0.407
        85 -11.8676     42.7119     81.7030   1.1078217608e+02   5.4431410628e+01    0.9974217    0.7576967 -35.24  0.006011962    1.396    0.284
        86  -8.5419    101.0265     83.4927   9.3450249782e+01   4.5825973700e+01    0.2128331    0.1451004  41.22 0.0009248767    1.577    0.366
        87 -10.9638      4.8416     76.7914   1.2177986128e+02   5.8413414633e+01    0.6340376    0.4273016  64.10  0.003918182    1.810    0.448
        88 -11.3251     14.5805     72.7380   1.1799281962e+02   5.8712104691e+01    0.7607073    0.6000175  88.60  0.005013776    1.361    0.265
        89  -8.5427    125.7098     29.0602   6.8058140937e+01   5.0326706751e+01    0.3149542    0.2648925  -7.79  0.001712647    1.183    0.154
        90 -10.0501     24.9204     65.7644   1.1310841471e+02   5.9486811387e+01    0.6297956    0.2179701 -51.48  0.002442368    2.143    0.533
        91  -9.0670      2.1976     88.7753   1.2428307177e+02   5.5954841418e+01    0.3400715    0.1625372 -83.18   0.00168082    1.891    0.471
        92  -8.9444    138.4564     78.0092   8.1751186556e+01   3.9218840453e+01      0.37586     0.290586  79.83   0.00173292    1.688    0.408
        93  -7.8488     81.5055     79.5353   9.8111491724e+01   4.9965324789e+01    0.1394488    0.1251155 -45.60 0.0004213089    1.005    0.005
        94  -8.4594     78.8088     72.0188   9.6800336852e+01   5.1979657449e+01    0.2458357    0.1808363  55.48  0.001295955    1.690    0.408
