#   1 NUMBER                 Running object number                                     
#   2 MAG_AUTO               Kron-like elliptical aperture magnitude                    [mag]
#   3 X_IMAGE                Object position along x                                    [pixel]
#   4 Y_IMAGE                Object position along y                                    [pixel]
#   5 X_WORLD                Barycenter position along world x axis                     [deg]
#   6 Y_WORLD                Barycenter position along world y axis                     [deg]
#   7 A_WORLD                Profile RMS along major axis (world units)                 [deg]
#   8 B_WORLD                Profile RMS along minor axis (world units)                 [deg]
#   9 THETA_WORLD            Position angle (CCW/world-x)                               [deg]
#  10 FWHM_WORLD             FWHM assuming a gaussian core                              [deg]
#  11 ELONGATION             A_IMAGE/B_IMAGE                                           
#  12 ELLIPTICITY            1 - B_IMAGE/A_IMAGE                                       
         1 -17.4326    164.8813    177.5217   1.0480753020e+02   1.2396417017e+01     5.662076     2.583012  61.64   0.01416617    5.897    0.830
         2 -18.4971    143.9534    105.3251   9.2843912343e+01   3.2899835912e+01     6.247427      3.74565 -59.53   0.02371514    2.057    0.514
         3 -15.4049      8.3267      7.3720   1.0603574162e+02   7.1079207067e+01     1.098501     0.648661  -6.08  0.007657796    1.455    0.313
         4 -16.1378    161.9200    188.4826   1.0766843630e+02   1.0599973122e+01     1.312167    0.9237756  73.73  0.005765006    2.046    0.511
         5 -12.0488    144.5746    233.9130   1.1931591546e+02   4.4791005567e+00    0.2965176    0.1603228  53.69  0.001339002    1.992    0.498
         6 -15.8632    138.8137    178.8147   1.1113234255e+02   1.7274879945e+01     1.769677    0.6960291 -40.74  0.005707616    3.221    0.690
         7 -15.6535    132.3261    177.9202   1.1251265172e+02   1.8737242894e+01     1.244401    0.7171382 -47.74  0.004659711    1.769    0.435
         8 -12.5864    121.3578    222.1317   1.2253000779e+02   1.0862396462e+01    0.2763622    0.1895547  49.26 0.0008634132    1.332    0.249
         9 -13.1945    129.7943    219.7115   1.2032542788e+02   9.9024024513e+00    0.3154478     0.255399 -54.03  0.001758812    1.337    0.252
        10 -13.9857    110.0013    216.6760   1.2422314580e+02   1.3965637900e+01     0.663022     0.310589  37.49  0.002819749    2.095    0.523
        11 -16.5213     94.9511    193.1044   1.2413829219e+02   2.1840552968e+01     1.960463     1.263142 -83.93  0.009072822    1.826    0.452
        12 -14.3588    192.0853    207.4945   1.0479289774e+02   1.0840637030e+00    0.4122162    0.3322598 -70.62  0.002091841    1.683    0.406
        13 -15.7135    122.0563    187.8797   1.1682470234e+02   1.8345679581e+01     1.304049    0.7350193 -67.76  0.005324744    2.154    0.536
        14 -14.9480    172.8434    197.7670   1.0703961797e+02   6.5485524210e+00    0.5518094    0.3727348  40.29  0.002668617    1.433    0.302
        15 -15.9857    160.7404    202.5246   1.1058475255e+02   7.8506517409e+00     1.933117    0.8163809  56.27  0.005834905    4.190    0.761
        16 -14.4246    130.7574    199.1065   1.1675284358e+02   1.4187236998e+01    0.7665193    0.3853745 -55.45  0.003180127    2.082    0.520
        17 -13.5001    136.0005    210.0451   1.1740964524e+02   1.0839223003e+01    0.3762717    0.2680478 -40.50 0.0009791354    1.611    0.379
        18 -14.8582    205.1781    195.5699   9.9824154375e+01   9.7969340133e-01    0.5744466    0.3783565 -44.83  0.002857092    1.541    0.351
        19 -15.2092    202.9003    185.2722   9.8227899027e+01   3.3737143734e+00    0.7041073    0.4419376 -29.08  0.003243482    1.739    0.425
        20 -17.4738    144.5093    187.3958   1.1144468058e+02   1.4219958748e+01     2.658947     1.984352 -76.19   0.01259607    1.638    0.390
        21 -16.2167    192.5255    190.0468   1.0132632141e+02   4.3812254413e+00     1.311635    0.5895984 -41.03  0.005200162    2.243    0.554
        22 -13.8367    115.7493    197.1493   1.1990217870e+02   1.7341019201e+01    0.4302673    0.3162373  16.90   0.00204823    1.853    0.460
        23 -16.8773    148.9852    208.0582   1.1417756982e+02   8.8845198609e+00     4.221742     2.513773  89.95   0.01371972    4.399    0.773
        24 -13.6511    113.0835    187.2560   1.1886015547e+02   2.0114921679e+01    0.5361491    0.2048312 -50.78  0.001926298    2.637    0.621
        25 -15.8963    181.0832    177.4983   1.0121068684e+02   9.1642829119e+00     1.077104    0.5755396 -45.48  0.004486302    1.863    0.463
        26 -12.5529    105.1109    182.3544   1.1994113556e+02   2.2682857977e+01    0.2482823    0.1978742 -50.94 0.0005202141    1.302    0.232
        27 -17.0836     73.0661    198.9602   1.3005812857e+02   2.3855830401e+01     3.113564     1.440304  56.26   0.01294827    2.404    0.584
        28 -14.2759    108.1391    171.5650   1.1725752915e+02   2.4749970608e+01     0.608467    0.4178408 -71.03  0.002685917    1.571    0.363
        29 -14.8062    170.0483    170.6855   1.0221918507e+02   1.2846892565e+01    0.6843426    0.5576765 -64.73  0.002336457    1.360    0.264
        30 -14.6491    179.3283    150.9176   9.5831254056e+01   1.5215422975e+01    0.5685804    0.3784806  59.78  0.002465867    1.766    0.434
        31 -15.4310    177.0598    165.5665   9.9566174873e+01   1.2522776095e+01    0.7981353    0.5331557  30.98  0.003541116    1.691    0.409
        32 -14.1408    177.5110    159.9717   9.8248165434e+01   1.3639245182e+01    0.4386133    0.3319103 -40.72  0.001774847    1.309    0.236
        33 -14.6349    193.5014    167.2319   9.6399585025e+01   8.8257306706e+00    0.8658737     0.232159 -40.96  0.002481263    3.876    0.742
        34 -15.7205    205.1711    162.9678   9.3102506308e+01   7.3694807527e+00    0.9580068     0.536299 -47.26  0.004145791    1.755    0.430
        35 -14.7207    215.1915    168.1681   9.2246924876e+01   4.3969852876e+00     0.544154     0.448843 -85.37  0.002827271    1.652    0.395
        36 -13.8707    162.0238    163.8052   1.0257489743e+02   1.6017378813e+01    0.3410662    0.2832156  64.85  0.001167056    1.326    0.246
        37 -14.9078    127.0240    209.0455   1.1926048960e+02   1.2670180264e+01     1.010217    0.3969616  47.20  0.002908463    2.487    0.598
        38 -14.7912    111.4687    208.0464   1.2261596074e+02   1.5619261730e+01    0.6877701    0.5353872  29.91  0.003652826    1.437    0.304
        39 -12.0433    229.5012    160.0004   8.7855314563e+01   3.2822870392e+00    0.2266643    0.1284521 -41.41  0.001037479    1.604    0.377
        40 -12.8515    172.8755    160.1045   9.9304786712e+01   1.4578127218e+01    0.2396633    0.2134172  87.48 0.0006483374    1.268    0.211
        41 -15.5211    110.9187    155.7264   1.1344599136e+02   2.8097151431e+01     1.619866    0.9214662  75.27  0.005097361    3.831    0.739
        42 -16.1556    117.0053    152.4530   1.1117886526e+02   2.7750123587e+01     1.975162     1.175964  77.96  0.006538846    3.419    0.707
        43 -13.2881     99.1297    141.1590   1.1352100164e+02   3.3772301022e+01    0.4619614    0.3420067  10.99  0.001417907    1.851    0.460
        44 -13.6070    108.8201    142.1765   1.1111426287e+02   3.1773959200e+01    0.5477989    0.4033659 -30.13  0.001547438    1.628    0.386
        45 -14.4186    104.4239    142.0231   1.1226707012e+02   3.2617348725e+01    0.7852802    0.4526572 -40.40  0.001242997    1.906    0.475
        46 -12.2151    100.9989    157.3149   1.1635752418e+02   2.9491720550e+01    0.2153679    0.1981107  54.51 0.0008236132    1.112    0.100
        47 -16.1692     73.4760    182.6123   1.2768275854e+02   2.7699173556e+01     1.543615      1.02043  40.14  0.007863707    1.568    0.362
        48 -17.5098    149.6038    130.7896   9.7941640657e+01   2.6121468678e+01     2.357269     1.946724  50.85   0.01087498    1.231    0.187
        49 -11.4588    206.5304    229.8263   1.0592312478e+02  -5.3268399517e+00    0.2521696    0.1722289  32.11  0.001400499    1.350    0.259
        50 -13.7264    115.2504    129.4404   1.0644769873e+02   3.3585774955e+01    0.3946717    0.3338608  63.56  0.001896115    1.286    0.222
        51 -12.2099    103.4866    128.0378   1.0935161112e+02   3.6141247962e+01    0.2389839    0.1451062 -51.18 0.0008806238    1.575    0.365
        52 -15.1368    130.1801    184.5851   1.1428988436e+02   1.7597831627e+01     1.518484    0.8147172  67.85  0.004912135    3.624    0.724
        53 -16.0812    185.3299    112.6197   8.5506668869e+01   2.1934811164e+01     1.570657     1.185257  31.59  0.007395906    1.613    0.380
        54 -13.7204    196.4880    150.6934   9.2160722833e+01   1.1644156666e+01    0.4369896    0.2051428  45.96  0.001683863    2.227    0.551
        55 -13.3289     86.8121    119.2727   1.1205570186e+02   4.1107913794e+01    0.4170535    0.2394298 -67.68  0.001678502    2.246    0.555
        56 -16.1739    135.5487    116.5092   9.7868828603e+01   3.2353913518e+01     1.602476     1.283794 -79.27  0.007554505    1.512    0.339
        57 -12.1822     44.5135    113.4923   1.2361423543e+02   4.8243691484e+01    0.1355512    0.1156732 -50.91 0.0008104133    1.019    0.019
        58 -12.4162     85.5971    108.2878   1.0972047562e+02   4.3831450323e+01      0.20892    0.1280414 -41.67 0.0007601572    1.582    0.368
        59 -14.0598    102.5799    107.3822   1.0446218640e+02   4.1045778461e+01      0.42565    0.2698953  36.51  0.001919158    1.657    0.396
        60 -15.6170    177.2256    140.1707   9.3821895829e+01   1.7990318736e+01    0.8111292    0.7228856 -73.46  0.004157729    1.192    0.161
        61 -12.8656    175.0059    105.8014   8.5929805268e+01   2.5676577866e+01    0.2794211    0.2198798 -45.80 0.0007796983    1.247    0.198
        62 -11.5237     86.3208     99.3258   1.0716424923e+02   4.5691209904e+01    0.1499418    0.1095184 -14.94  0.000704709    1.682    0.406
        63 -12.8059     19.5181     95.5160   1.2795954406e+02   5.4596667526e+01    0.3935221    0.2378151 -41.57  0.002261372    1.449    0.310
        64 -13.7493     95.9152     91.1939   1.0200570712e+02   4.5727829327e+01    0.3907232    0.2124941 -46.80  0.001144856    1.808    0.447
        65 -13.4269    116.7761    137.7888   1.0799487154e+02   3.1315492491e+01    0.4251116    0.3271625  -1.22  0.001909232    1.824    0.452
        66 -13.5829    118.3923    142.8566   1.0871769264e+02   2.9791946791e+01    0.4577729    0.3148131 -70.59  0.001159934    1.731    0.422
        67 -12.7027     56.9993     95.4602   1.1550443857e+02   5.0852635660e+01      0.21753    0.1669148 -47.85 0.0005998233    1.166    0.142
        68 -13.3404    188.5620    146.4462   9.2841977552e+01   1.4203129208e+01    0.2798879    0.2684754 -42.75 0.0008043108    1.011    0.011
        69 -15.6128    105.1339     84.4146   9.7332014640e+01   4.5342248009e+01    0.9864036    0.6225559 -55.82  0.004433805    1.895    0.472
        70 -15.0496     95.2545     74.2752   9.7212228791e+01   4.9140990675e+01     0.633757    0.5497788 -86.87  0.003493676    1.557    0.358
        71 -14.7496    104.8363     68.8500   9.2717005517e+01   4.8266014850e+01    0.6120389    0.4824758  62.20  0.002873453    1.516    0.340
        72 -13.6972     50.2466     84.3343   1.1490153392e+02   5.4046409695e+01    0.4666094    0.3455333 -31.81  0.002094519    1.237    0.192
        73 -14.6951    103.3469     74.5128   9.4889538886e+01   4.7554288329e+01    0.5569163    0.4378175  37.92  0.002691317    1.250    0.200
        74 -13.4096     90.1157     83.6204   1.0158690832e+02   4.8291885886e+01    0.2955015    0.2350226 -77.56  0.001497493    1.784    0.440
        75 -12.6970     16.7123     69.6984   1.2317890562e+02   6.0207196376e+01    0.7407255    0.1691309 -40.28  0.002616605    4.130    0.758
        76 -12.2051     90.0412    144.9790   1.1681334819e+02   3.4388703220e+01     0.245153     0.178529  76.43  0.001133005    1.720    0.418
        77 -13.9791    128.6995    150.0261   1.0764409642e+02   2.6048099574e+01    0.4684725    0.2819935 -37.34  0.001678703    1.909    0.476
        78 -13.4889    178.4792     65.0529   7.4779813338e+01   3.2198935491e+01    0.4556275    0.3224876  65.20  0.002200475    1.359    0.264
        79 -14.4947     99.2010     69.5310   9.4566291336e+01   4.9248008155e+01    0.5253186     0.446505  -8.62  0.002382091    1.199    0.166
        80 -13.4510     71.3053     61.7128   1.0090217196e+02   5.5482479118e+01    0.4720287    0.2268336  18.56  0.001707296    3.715    0.731
        81 -13.1050    125.6471    132.4847   1.0440369754e+02   3.0802388451e+01    0.3520932    0.2423223  28.77  0.001528009    1.713    0.416
        82 -12.7302     48.8203     47.9570   1.0434107758e+02   6.0977451489e+01    0.2840124    0.1732246  16.48  0.001578436    1.719    0.418
        83 -13.0352     53.5939     43.4145   1.0095317694e+02   6.1060212793e+01    0.2652892    0.1805809  -4.17  0.001551369    1.496    0.332
        84 -13.2532     66.0298     40.0558   9.5265602974e+01   5.9726239580e+01    0.4420538    0.2221937  15.08  0.001768681    3.383    0.704
