#   1 NUMBER                 Running object number                                     
#   2 MAG_AUTO               Kron-like elliptical aperture magnitude                    [mag]
#   3 X_IMAGE                Object position along x                                    [pixel]
#   4 Y_IMAGE                Object position along y                                    [pixel]
#   5 X_WORLD                Barycenter position along world x axis                     [deg]
#   6 Y_WORLD                Barycenter position along world y axis                     [deg]
#   7 A_WORLD                Profile RMS along major axis (world units)                 [deg]
#   8 B_WORLD                Profile RMS along minor axis (world units)                 [deg]
#   9 THETA_WORLD            Position angle (CCW/world-x)                               [deg]
#  10 FWHM_WORLD             FWHM assuming a gaussian core                              [deg]
#  11 ELONGATION             A_IMAGE/B_IMAGE                                           
#  12 ELLIPTICITY            1 - B_IMAGE/A_IMAGE                                       
         1 -11.5585      2.0196     22.7353   9.6420268502e+01   7.0616011180e+01     0.475754    0.1685856 -49.18  0.002118069    2.203    0.546
         2 -11.2784     38.9628     19.5616   7.6192185979e+01   6.7459301975e+01     0.337927    0.2802963  36.33  0.002253967    1.566    0.361
         3 -11.0048    204.5146     18.5554   3.7139618793e+01   3.1907681010e+01    0.2026884    0.1326572 -67.35 0.0006477096    1.500    0.334
         4 -10.8158     13.7340     15.7984   8.7089211538e+01   7.0862896990e+01    0.2667476     0.232954 -17.79  0.001670382    1.351    0.260
         5 -10.5914     15.7169      8.3650   8.2444041003e+01   7.1766031786e+01    0.3087457    0.1518072 -17.96  0.001331587    2.092    0.522
         6 -11.6996    234.8270     14.9932   3.3619480537e+01   2.5656479297e+01    0.2242399     0.181085 -68.63 0.0002983611    1.013    0.013
         7 -11.2587     20.4604      2.1974   7.6656299277e+01   7.2059926424e+01     0.446909    0.2069776  38.80  0.002425729    2.537    0.606
         8 -11.5881     34.7871     12.6299   7.4823932279e+01   6.8950976809e+01    0.3152964    0.2592369   2.91 0.0009437152    1.150    0.130
         9 -12.3656     31.2527      7.6117   7.4000760215e+01   7.0053483550e+01    0.8715098       0.3976  39.12  0.004613873    2.314    0.568
        10 -11.8418     66.1553     13.8515   6.2527883334e+01   6.3833469022e+01    0.3163304    0.2335549  37.84 0.0005209966    1.243    0.196
        11 -10.8201    208.0518     13.0946   3.5501254832e+01   3.1693279819e+01    0.2002735    0.1663323 -50.97  0.000367949    1.182    0.154
        12  -9.9326     86.0328     11.9418   5.5407689169e+01   6.0161643432e+01    0.2127392    0.1709101  -0.94  0.001063971    1.240    0.194
        13 -10.2551     44.9296     10.8153   6.9356238290e+01   6.7727719501e+01    0.3890674    0.1969544   5.34  0.001142944    2.913    0.657
        14 -10.9365    135.0613     11.3613   4.4318104413e+01   4.9164135366e+01    0.2304157    0.1934007  38.54 0.0004591873    1.177    0.150
        15 -10.7738    125.7216     10.5721   4.5725228703e+01   5.1446689782e+01    0.3452886    0.2014131 -49.17  0.001145849    2.152    0.535
        16 -10.3494     22.2657      9.6206   7.9559398731e+01   7.0891598799e+01    0.3206971    0.1730069   9.33  0.001790033    1.953    0.488
        17 -10.8252     57.1275      7.9923   6.3074599139e+01   6.6055877127e+01    0.2564982    0.2451089 -38.34 0.0008599844    1.541    0.351
        18 -11.4105     57.6119      2.6093   6.0290863954e+01   6.6499512318e+01    0.3672676    0.2281779   6.29 0.0009023716    1.600    0.375
        19 -10.6128    193.5933      7.7693   3.5620328157e+01   3.5543082270e+01    0.1725442    0.1035091 -44.88  0.000596009    1.628    0.386
        20 -10.3700    204.2887      6.9931   3.4420861743e+01   3.3169795206e+01    0.1657529    0.1440271 -67.81 0.0002882122    1.086    0.079
        21 -11.3165    188.6366      6.4402   3.5788379110e+01   3.6823600896e+01    0.3729833    0.1608122  42.11  0.001506194    3.443    0.710
        22 -11.3541    151.2561      6.2360   4.0198862245e+01   4.5737986896e+01     0.223427    0.1965314 -87.21 0.0002406367    1.127    0.113
        23 -10.2391    217.4806      5.9895   3.3063275297e+01   3.0332028704e+01    0.1833066   0.06760513 -51.61 0.0008101875    2.562    0.610
        24 -10.6355     65.4721      6.5287   5.9397585418e+01   6.4708549861e+01    0.2628509    0.1054053  48.78  0.001222864    2.221    0.550
        25  -9.8143     98.7933     11.4734   5.1844392639e+01   5.7494328603e+01    0.3299157    0.2180543 -88.75  0.001572741    2.581    0.613
        26  -9.9090    120.0074      4.0530   4.4527695387e+01   5.3332463428e+01    0.2015382    0.1730764  56.18  0.001282125    1.032    0.031
        27 -10.6613    101.9839      1.8016   4.7327354825e+01   5.7607939295e+01    0.3589496    0.1544756  58.63  0.001150327    1.947    0.486
        28 -10.3331    168.4983      3.5022   3.7212020198e+01   4.1846646487e+01    0.1272819    0.1101983  75.62 0.0008104903    1.031    0.030
        29  -9.5344    129.7191      3.3445   4.2578538603e+01   5.1114250072e+01    0.1259088   0.09292655 -64.77 0.0003040242    1.636    0.389
        30  -9.7008      2.7915      6.5628   8.8978276227e+01   7.3181632094e+01    0.1870629   0.09342631  13.00 0.0006982734    1.970    0.492
        31  -9.8611    242.5225      2.4616   3.0504358634e+01   2.5413657853e+01    0.1151763   0.09160995 -70.81 0.0001803082    1.020    0.020
        32  -9.9996    176.3411      2.3698   3.6030191010e+01   4.0085347793e+01    0.1934904    0.1305177  44.54  0.001092684    1.656    0.396
        33 -11.4875     80.2693      1.6120   5.2612176574e+01   6.2258008155e+01    0.2828908    0.1414622  52.57  0.001130033    1.712    0.416
        34  -9.4816      1.3443      2.1759   8.7671683203e+01   7.3935785899e+01    0.1419843   0.08751349 -42.22  0.000844531    1.661    0.398
        35 -11.0042     11.8169      1.8877   8.1283930039e+01   7.3037905890e+01    0.1778784    0.1360946  12.09  0.000447982    1.307    0.235
        36  -9.6174     22.2964    179.9899   1.1838391266e+02   3.3676229921e+01    0.1740935    0.1367597 -85.12  0.000473724    1.066    0.062
        37 -12.0557     17.8965    249.1802   1.2395536362e+02   1.9617214026e+01    0.3177018    0.2429653  25.48  0.002333319    1.786    0.440
        38 -12.2314      9.7959    245.6445   1.2516941934e+02   2.1079418511e+01    0.4515969    0.2619364  61.08   0.00312669    1.320    0.242
        39 -12.5059      5.5308    240.3119   1.2564889356e+02   2.2489860662e+01    0.4834909    0.2969742  40.64  0.003394342    1.572    0.364
        40 -10.1350      6.1451    249.8727   1.2598093866e+02   2.0650132104e+01    0.1678604    0.1249109  70.32  0.001321238    1.052    0.049
        41 -10.9959      1.7524    248.9951   1.2667276264e+02   2.1225602139e+01    0.3348139    0.1581912 -82.88   0.00213239    1.870    0.465
        42 -10.6197      5.1399    167.4795   1.2128122909e+02   3.8030020156e+01    0.2613309    0.1417882  68.44  0.001111404    1.820    0.451
        43  -9.6398    226.4688    163.9945   6.8152694681e+01   4.1778545629e+00    0.2098955    0.1225777 -35.13 0.0007423965    1.540    0.351
        44  -9.3496    247.3281    155.2985   6.2744008127e+01   2.1496172551e+00    0.1349501   0.09363841  -3.90 0.0006569619    1.637    0.389
        45 -10.9167      3.7429    153.5444   1.2045225124e+02   4.1402554335e+01    0.3680913    0.1128124  23.70   0.00157634    3.745    0.733
        46 -10.4182     15.9744    150.4738   1.1706836107e+02   4.1229276877e+01    0.1647799    0.1266384  26.73 0.0008986207    1.570    0.363
        47 -10.5631     22.9228    146.8772   1.1484174281e+02   4.1530671806e+01    0.2144277    0.1635001 -18.24  0.001260761    1.748    0.428
        48 -10.6528     37.0787    146.0631   1.1089826870e+02   4.0418925033e+01    0.1953039    0.1674782 -75.44 0.0002945853    1.003    0.003
        49 -10.1445    212.5201    133.9307   6.4067313141e+01   1.2139613860e+01    0.2443298    0.2086191  73.93 0.0008066767    1.512    0.338
        50  -9.4664     96.2402    133.9972   9.1803405363e+01   3.5452861113e+01    0.2011456    0.1233087 -53.58 0.0005960949    1.560    0.359
        51 -10.4789      3.0461    133.4455   1.1871118234e+02   4.6245282021e+01    0.3296478    0.1709526  60.11  0.001674655    2.250    0.556
        52 -10.7231     11.9380    129.7738   1.1582367095e+02   4.6550923551e+01    0.2197373    0.1592572  58.80  0.001221491    1.527    0.345
        53 -10.1553    248.6825    129.3341   5.7018795145e+01   6.2107366886e+00    0.1334051   0.09760159 -59.81 0.0003164087    1.694    0.410
        54  -9.5331     28.6002    128.2386   1.1077729442e+02   4.5623649275e+01    0.1835799    0.1025817 -58.85 0.0002649191    1.485    0.327
        55 -11.2363     23.9891    121.5598   1.1116389317e+02   4.7654848184e+01    0.3363308    0.2292364  70.76  0.001617047    1.732    0.423
        56 -11.7776      8.9665    120.9096   1.1558467526e+02   4.8896824793e+01    0.3175507     0.234013 -56.69  0.001982073    1.183    0.154
        57  -9.4491     17.6689    121.7298   1.1309938999e+02   4.8101050802e+01    0.1296201   0.08276524 -42.19 0.0001450866    1.586    0.370
        58 -10.3817     69.0512    117.0157   9.6203497979e+01   4.3831705279e+01    0.2237786    0.1982266 -48.16  0.000319111    1.033    0.032
        59  -8.9192     95.7171    113.2989   8.7057877316e+01   4.0503930782e+01    0.1464291    0.1210113  86.44 0.0001902156    1.547    0.353
        60  -9.2977    139.3602    112.1879   7.4545233988e+01   3.2105011759e+01    0.2120433    0.1446035 -51.80 0.0001219979    1.538    0.350
        61 -10.1703     65.1941    110.2687   9.5907698791e+01   4.6001994124e+01    0.2405618    0.1944073 -60.38 0.0003918352    1.185    0.156
        62 -11.7187      2.7330    109.4529   1.1599119210e+02   5.2013656971e+01    0.5272079    0.2379072 -85.23  0.002395572    2.392    0.582
        63 -10.7472      6.6175    107.1876   1.1446128896e+02   5.2337794239e+01    0.2044601    0.1620682  83.69 0.0004062674    1.337    0.252
        64 -10.7952      4.0179    104.6249   1.1492833421e+02   5.3093065598e+01    0.1906592    0.1721874  89.46 0.0007732899    1.208    0.172
        65 -11.2190     58.0044    107.3447   9.7593024434e+01   4.7649259596e+01    0.3411346    0.2314133 -28.82 0.0009816795    1.643    0.392
        66  -9.3855     28.5565    105.9606   1.0711336911e+02   5.1080506514e+01    0.1936634    0.1094666 -60.49            0    1.454    0.312
        67 -10.0862     17.2180    104.6374   1.1063686678e+02   5.2274467395e+01     0.158687    0.1165335 -12.90 0.0003602482    1.629    0.386
        68  -9.8066    186.8013    103.0892   6.1435955124e+01   2.3343389739e+01    0.2261588    0.1986632 -62.01 0.0006080403    1.207    0.171
        69 -10.0860     56.0637     97.2326   9.5860098175e+01   5.0299185026e+01    0.2148536    0.1717506 -31.96 0.0005068958    1.202    0.168
        70  -9.9718     10.7032     96.2877   1.1143138614e+02   5.4685834345e+01    0.1795728      0.12599 -49.98 0.0002358441    1.193    0.162
        71 -10.4225     11.1574     92.2996   1.1058878707e+02   5.5595721565e+01    0.3322237    0.1590645 -87.59  0.001363186    3.131    0.681
        72 -10.0862      3.1711     95.7850   1.1390745281e+02   5.5224228126e+01    0.1746125    0.1165494 -45.41 0.0009302925    1.327    0.246
        73 -10.6856     24.5122     87.8826   1.0494681834e+02   5.5698651542e+01    0.3600884    0.2028448 -49.22 0.0009391975    1.439    0.305
        74 -12.1446     20.6906     92.9049   1.0734353738e+02   5.4815727585e+01    0.3655065    0.2262858 -37.66 0.0005408611    1.534    0.348
        75 -10.0066     19.1885     87.2075   1.0674992200e+02   5.6254523755e+01     0.258002    0.1576959 -73.86  0.001359852    1.682    0.406
        76 -12.0201    125.2088     93.3122   7.3010711506e+01   3.9141408508e+01    0.2735354    0.2654038  14.29 0.0002289611    1.032    0.031
        77 -11.8216     58.0346     91.6373   9.3757160500e+01   5.1348215674e+01    0.2982177     0.255479 -17.32 0.0003827449    1.171    0.146
        78 -10.1258     51.1195     91.8690   9.6259899701e+01   5.2151746211e+01    0.2029925    0.1894082 -88.37 0.0009874664    1.268    0.211
        79 -10.4581     43.9732     89.9349   9.8338921311e+01   5.3408529642e+01    0.3688946     0.281572  86.85  0.001080394    1.805    0.446
        80 -10.0286     28.2868     92.4860   1.0455813381e+02   5.4316378687e+01     0.291532    0.1356909  14.90  0.001308302    2.699    0.629
        81  -9.9826      6.9495     91.4988   1.1192159412e+02   5.6026274068e+01    0.2120078     0.128987 -54.97 0.0004959254    1.278    0.217
        82  -9.8984     64.6807     88.4787   9.0575517518e+01   5.1169724755e+01    0.2588187    0.1213411 -51.43   0.00106953    1.956    0.489
        83  -9.9405     12.4912     88.4556   1.0941872605e+02   5.6410674319e+01    0.2227561    0.1385686  83.80  0.001063825    2.200    0.545
        84  -9.7784     11.2909     85.3222   1.0926225393e+02   5.7209259913e+01    0.1736107    0.1544287 -34.13 0.0006081968    1.170    0.145
        85  -9.3602     84.9685     88.0512   8.3551532886e+01   4.8099023756e+01    0.1717144    0.1592949 -20.08            0    1.013    0.013
        86 -12.4188     55.3503     85.6975   9.3134274386e+01   5.3042618606e+01    0.2766051    0.2696324 -49.64 0.0002781894    1.169    0.145
        87 -10.3701     78.6148     93.8453   8.7308618198e+01   4.7867340474e+01     0.244888    0.2012773  28.18 0.0007073332    1.284    0.221
        88  -9.3826    139.3131     82.7100   6.6214141998e+01   3.8100698703e+01    0.1506508    0.1227135 -81.44 0.0001749932    1.588    0.370
        89 -10.5690      2.8480     81.2121   1.1159913418e+02   5.8611214156e+01     0.323763     0.083896 -57.71  0.001361483    2.442    0.590
        90  -9.9499     89.1544     80.4063   7.9867151080e+01   4.8983719643e+01    0.3148007    0.2274968  86.07  0.001260233    2.656    0.624
        91 -10.1785     64.0600     80.8269   8.8617718956e+01   5.2949167420e+01    0.2824983    0.1875788 -41.63 0.0008644764    1.357    0.263
        92  -9.3238    124.4964     79.4546   6.9043408322e+01   4.2043771117e+01    0.1496433    0.1469967  -0.03 0.0001661835    1.044    0.042
        93  -9.3721     47.8995     79.1289   9.4079003816e+01   5.5413802534e+01    0.1858563    0.1377016 -28.87  0.000293988    1.270    0.213
        94 -10.6958     27.4958     77.3814   1.0142381104e+02   5.7852333854e+01    0.3868521    0.2076347 -10.81 0.0005830898    2.523    0.604
        95 -10.6585     55.4578     75.9965   9.0346468654e+01   5.5163916422e+01    0.3441372    0.3266873 -22.70   0.00157944    1.134    0.118
        96 -10.2536    176.9328     76.9600   5.6390972715e+01   3.0303250097e+01     0.232813    0.2230029 -75.35  0.001222348    1.044    0.042
        97  -9.5748     41.1264     74.8587   9.5478342776e+01   5.7108707675e+01     0.191597    0.1353337 -29.36 0.0004083582    1.325    0.245
        98 -10.6986     37.1039     74.9273   9.7058805100e+01   5.7510362276e+01    0.4142412    0.2378552 -59.76  0.001268936    1.711    0.415
        99 -10.0590     33.4730     73.4548   9.8083760776e+01   5.8187551574e+01    0.2203485    0.1541719  31.66  0.001179378    1.663    0.399
       100 -10.7464     10.3857     69.5118   1.0632045165e+02   6.0828600389e+01     0.358193    0.1318983 -49.07   0.00149168    1.980    0.495
       101 -11.7204     15.0813     75.1548   1.0573033539e+02   5.9282595239e+01    0.3875745    0.2224637  30.07  0.001625078    2.083    0.520
       102 -10.1226     20.4715     72.2800   1.0293449961e+02   5.9544485960e+01    0.3535382    0.1153066 -55.63  0.001113491    2.303    0.566
       103  -9.3968    217.0136     72.0548   4.8564089705e+01   2.1913380064e+01    0.1671601    0.1393827 -44.38 0.0003592731    1.103    0.093
       104 -11.2164    106.4001     71.4296   7.1608482880e+01   4.7416710371e+01    0.3342213    0.3093106  78.66  0.001202113    1.317    0.241
       105  -9.4973     93.4691     72.2369   7.5863816687e+01   4.9821269573e+01     0.310794    0.1120612  51.96  0.000893931    4.458    0.776
       106 -10.2409     45.9342     69.5887   9.2081744187e+01   5.7703756514e+01    0.2443805    0.1756513   0.75 0.0009385396    1.512    0.339
       107 -10.4631      5.7118     69.0113   1.0808710222e+02   6.1200313712e+01    0.2556082    0.1811319  78.50  0.001371423    2.010    0.503
       108  -9.8666      1.6694     66.5543   1.0919063783e+02   6.1940096078e+01    0.1554688    0.1163437   1.36  0.001022211    1.542    0.351
       109 -10.3194     80.5881     67.2116   7.8473491493e+01   5.3133219020e+01     0.207138    0.1258097 -30.96 0.0009476495    1.656    0.396
       110 -11.0369     14.8884     64.0104   1.0315342186e+02   6.1740109431e+01    0.3648964    0.2500351 -57.67 0.0008548955    1.289    0.224
       111  -9.7056     97.0028     64.2326   7.2072071967e+01   5.0635364680e+01    0.2030166    0.1797432  26.01 0.0003333928    1.100    0.091
       112 -10.5117     62.8250     62.3525   8.3235778583e+01   5.6935775349e+01    0.2760106    0.1763531 -36.78 0.0009544839    1.430    0.301
       113  -9.6841      4.3314     62.6340   1.0723002272e+02   6.2659704334e+01    0.1144422   0.08896676  74.82 0.0003718986    1.817    0.450
       114  -9.7419    100.3359     60.9898   6.9933433066e+01   5.0542462451e+01    0.2381261    0.1096018 -55.29 0.0007048775    4.483    0.777
       115  -9.7085     38.5338     61.4900   9.2574272783e+01   6.0214815512e+01    0.1823021    0.1193434   4.72  0.000972658    1.697    0.411
       116  -9.6719     41.4107     58.7626   9.0515722252e+01   6.0448296020e+01    0.1864778    0.1551349 -35.82 0.0004992538    1.104    0.095
       117 -13.2878     20.4324     58.0785   9.9196865540e+01   6.2591474375e+01    0.3959134      0.25253 -58.83 0.0009754969    1.518    0.341
       118  -9.8888      1.3811     60.0334   1.0787270710e+02   6.3362138796e+01    0.1792878   0.09211217 -59.90 0.0003897866    1.543    0.352
       119 -10.7942     83.5263     56.5179   7.3758479947e+01   5.4574616193e+01    0.4229212    0.2876956 -63.21  0.001890758    2.457    0.593
       120 -11.5170     87.2165     54.0280   7.1630567237e+01   5.4315057027e+01    0.4479407    0.3222772  12.54  0.001784152    1.529    0.346
       121  -9.6586     48.1726     58.4024   8.7629868868e+01   5.9711872562e+01    0.1648985    0.1217767  36.78 0.0003713565    1.584    0.369
       122 -11.3229    114.7528     54.1193   6.3423587795e+01   4.8621018962e+01     0.386832    0.2971325 -40.42  0.001495508    1.380    0.276
       123  -9.8718     71.6209     56.6728   7.7991061668e+01   5.6623113984e+01    0.1807979    0.1253098 -45.06 0.0007206298    1.519    0.342
       124 -10.6988     33.0303     55.7407   9.3061757966e+01   6.1947489652e+01    0.4403619    0.1766259 -34.15  0.001503507    2.581    0.613
       125 -10.5512      4.9314     57.3520   1.0571388434e+02   6.3753548030e+01    0.1666293    0.1306989 -32.84 0.0004574887    1.120    0.107
       126 -10.4764    104.9176     55.9133   6.6807002604e+01   5.0454171647e+01    0.2149723    0.1962559  12.93 0.0003064924    1.017    0.017
       127 -10.2940     96.2656     55.9286   6.9417353796e+01   5.2229682459e+01    0.2390475    0.1974486  30.32 0.0005417487    1.160    0.138
       128 -12.8100     66.5056     52.7111   7.8445199021e+01   5.8164143633e+01    0.3945308      0.26281  35.40 0.0008396071    1.539    0.350
       129 -10.6364     10.4527     58.5156   1.0362399994e+02   6.3193227561e+01    0.3272519    0.2610535 -43.13  0.002205546    1.044    0.042
       130  -9.9471    149.2865     52.2429   5.4653346242e+01   4.0868738158e+01    0.2575513    0.1691463  54.31 0.0003925166    1.451    0.311
       131 -10.6069    105.8975     50.9115   6.4766058459e+01   5.1047926783e+01     0.316594     0.150765 -27.48 0.0008739733    2.357    0.576
       132  -9.6705    121.7496     51.2952   6.0631092033e+01   4.7489007614e+01    0.1961322    0.1593157  17.56 0.0006353967    1.306    0.234
       133 -10.1937     76.3151     49.6789   7.3748306231e+01   5.7041246244e+01    0.2445297     0.219297 -34.25  0.001456652    1.241    0.194
       134 -11.4370     78.6907     46.0138   7.1535398536e+01   5.7216593065e+01    0.3802653    0.2512791  34.86  0.000396006    1.461    0.316
       135 -12.1107     10.0252     47.0376   1.0061913830e+02   6.5573077253e+01    0.3944751    0.3829129  39.48  0.002936087    1.434    0.303
       136  -9.5792     53.0024     48.4770   8.2151895127e+01   6.0934725814e+01    0.1935146    0.1236932  27.55  0.001030057    1.587    0.370
       137  -9.6562    154.5236     47.4866   5.2162068869e+01   4.0285083356e+01    0.2190223     0.188652 -18.73 0.0005956198    1.263    0.208
       138  -9.9207    152.2222     44.6396   5.1735812783e+01   4.1236141009e+01    0.2016948    0.1832668 -79.69 0.0001899933    1.163    0.140
       139 -10.0016    135.9332     46.5206   5.5684545455e+01   4.4886842702e+01    0.1996759    0.1968483  33.96 0.0008194052    1.047    0.045
       140  -9.6610    119.3342     47.3090   5.9883315401e+01   4.8630454609e+01    0.1510129    0.1047177  22.04  0.000704241    1.674    0.403
       141 -10.1343     66.5870     47.0184   7.6287594643e+01   5.9136505606e+01    0.4539579    0.1591661  38.77  0.001755784    2.872    0.652
       142  -9.8063    101.8415     48.1831   6.4963149329e+01   5.2328596269e+01    0.1924143    0.1531733  18.07 0.0004067015    1.260    0.206
       143 -10.5655     25.5961     43.9607   9.2406906605e+01   6.4949563861e+01    0.2691518    0.2021682 -74.19  0.001530816    2.189    0.543
       144 -11.3326     16.3680     43.3582   9.6497274664e+01   6.5847070056e+01    0.4700769    0.3839208  58.24  0.003002814    1.989    0.497
       145  -9.0165    143.5430     44.4801   5.3407863183e+01   4.3353307254e+01    0.1416931     0.133134  44.54 7.788338e-05    1.025    0.025
       146  -9.6428    108.2388     44.0919   6.1678004474e+01   5.1566481924e+01    0.2293803    0.1580961 -57.64  0.001074485    2.052    0.513
       147 -10.1775     69.0325     42.0637   7.3459504073e+01   5.9541117676e+01    0.2020614    0.1723498   2.39  0.001219469    1.015    0.015
       148 -10.6524     59.6017     41.6920   7.6908164876e+01   6.1128209492e+01    0.2227417    0.1994095  21.82 0.0006868824    1.238    0.192
       149 -10.4988     36.0991     41.6215   8.6785060164e+01   6.4294843587e+01    0.3353734    0.1515973 -45.54  0.001297111    2.023    0.506
       150  -9.7300     35.3463     28.8611   8.2004567259e+01   6.6535661013e+01    0.1728609    0.1178816 -12.83  0.001034935    1.309    0.236
       151 -12.4055     39.7201     32.4888   8.1535499051e+01   6.5415056670e+01    0.4369683    0.2835382 -25.36 0.0005232714    1.351    0.260
       152 -11.2485     44.6826     27.1461   7.7052316804e+01   6.5585634074e+01    0.3936152     0.294962   1.00  0.001655587    1.155    0.135
       153 -10.2477     37.6094     48.8508   8.8760861372e+01   6.2799116578e+01    0.3168939     0.173172  24.39  0.001644896    1.928    0.481
       154  -9.8934    140.0823     40.4788   5.2842972463e+01   4.4721898979e+01    0.2260756    0.1937373 -71.01  0.001236988    1.335    0.251
       155  -9.8789     43.1693     40.2108   8.3126340491e+01   6.3691834783e+01    0.1984928    0.1499822 -11.40  0.001205314    1.159    0.137
       156  -9.5920    152.0051     39.2748   5.0132890323e+01   4.2001255049e+01    0.1979982     0.176096  62.82 0.0004899615    1.061    0.057
       157 -10.4111    128.0616     38.6231   5.4824892970e+01   4.7816964699e+01    0.2050673    0.1895366 -42.54 0.0003706842    1.182    0.154
       158 -11.7819    121.3751     37.1896   5.5880599276e+01   4.9558492758e+01    0.3903646    0.3699202  20.36  0.001422859    1.050    0.047
       159 -10.5265     96.9701     37.9584   6.2612939882e+01   5.4837326307e+01    0.2060023    0.1818107  15.26            0    1.030    0.029
       160 -10.2905     22.2141     37.9884   9.1850385705e+01   6.6364000077e+01    0.1718947     0.148787 -33.11 0.0005763825    1.237    0.192
       161 -10.7884     27.1558     34.7822   8.8280597809e+01   6.6460848884e+01    0.2926684    0.1649966 -16.84 0.0009515405    1.855    0.461
       162 -10.0784    133.7407     34.6330   5.2253194255e+01   4.6983876900e+01    0.2129733    0.1454358  38.39 0.0008392977    1.475    0.322
       163 -10.8006     91.3736     33.5331   6.2581294582e+01   5.6590732814e+01    0.3899246    0.2424634 -10.77  0.001815289    1.873    0.466
       164 -11.0945      2.2586     34.9290   1.0060152826e+02   6.8387783303e+01    0.2171279    0.2081829  60.60  0.001655056    1.565    0.361
       165 -10.2797     73.3620     32.9771   6.8244988235e+01   6.0140987342e+01    0.2718514    0.1998008 -45.89 0.0009173274    1.735    0.424
       166 -10.6117      7.3741     34.0178   9.7719911663e+01   6.8248156836e+01    0.2155635    0.1530514  33.96  0.001393004    1.902    0.474
       167 -10.4624     18.2344     32.1996   9.1614988168e+01   6.7752002510e+01    0.4723007    0.2061976   0.32  0.001943236    3.698    0.730
       168 -10.6932    127.7703     30.7942   5.2232816788e+01   4.8862566103e+01    0.3523491    0.2742527  79.45 0.0008355976    1.475    0.322
       169  -9.1685    162.6638     31.6302   4.6002118282e+01   4.0359044600e+01     0.146651    0.0982895  31.63 0.0007027233    1.844    0.458
       170 -11.8000     10.0112     29.5756   9.4778539457e+01   6.8872431675e+01    0.4467118    0.2493653  41.43  0.002384343    2.931    0.659
       171 -10.3862    225.0991    247.7540   8.4034078591e+01  -8.4272562408e+00    0.2404231    0.1468867 -23.77  0.001478455    1.591    0.371
       172 -11.6534     68.6831     26.6821   6.7278145566e+01   6.1835317881e+01    0.3167109    0.2797533 -84.54   0.00190048    1.881    0.469
       173 -11.2733    113.8965     26.6401   5.3911913326e+01   5.2558855211e+01    0.2309974     0.215196 -12.40  0.000192263    1.150    0.131
       174  -9.7556     77.2150     27.0059   6.4452681743e+01   6.0226140016e+01    0.1859939    0.1496921  -4.97  0.000796066    1.169    0.144
       175  -9.1631    166.4823     31.4241   4.5340438551e+01   3.9455726427e+01    0.1362235    0.1236651  84.43 8.248744e-05    1.044    0.042
       176 -10.3667    101.1302     25.6340   5.6747824649e+01   5.5512868770e+01    0.2454773    0.2000162  35.89 0.0008959669    1.087    0.080
       177  -9.7931     59.7018     26.2994   7.0475668663e+01   6.3424330300e+01    0.1801212    0.1287054   1.23 0.0001590693    1.330    0.248
       178  -9.8426     59.0000     23.0109   6.9302090184e+01   6.3979305526e+01    0.2679437    0.1461765 -25.88 0.0007245778    1.791    0.441
       179  -9.8536     59.2862     19.7007   6.7708567992e+01   6.4353744856e+01    0.1857482     0.151449  45.13 0.0008100915    1.476    0.323
       180  -9.1387     19.2815     24.8044   8.8113767001e+01   6.8916913495e+01    0.2645901    0.1025414 -35.30   0.00127108    2.220    0.550
       181 -10.5145     14.4527     21.7175   8.9314350725e+01   6.9859160550e+01    0.3816161    0.1863075  21.36  0.001934346    2.091    0.522
       182  -9.2410     80.3034     24.2903   6.2308973323e+01   5.9969963085e+01    0.1356202   0.08889685  19.13 0.0002302162    1.569    0.363
       183 -10.3514     35.3211     22.4497   7.9201755604e+01   6.7519921194e+01    0.2571147    0.1671859 -28.94 0.0007266389    1.361    0.265
       184 -10.0672    229.7756    247.9061   8.3214653582e+01  -9.0573022740e+00    0.1737212    0.1247642   1.87 0.0004533179    1.125    0.111
       185  -9.7352     91.5036     22.4857   5.8170347468e+01   5.7921126128e+01     0.133394     0.115628  26.27 0.0008104796    1.013    0.013
       186 -11.0420     75.2586     20.7591   6.2464628591e+01   6.1360712534e+01    0.3737235    0.3131225 -45.01  0.001695937    1.583    0.368
       187 -10.0104     70.8003     17.3360   6.2477025765e+01   6.2592605591e+01    0.2074541    0.1647243 -26.85  0.001284492    1.383    0.277
       188 -10.4244     46.2341     21.4720   7.3841094407e+01   6.6174972687e+01    0.2086693    0.1719086 -19.62 0.0004036364    1.231    0.188
       189 -10.4906     30.2456     21.1917   8.1054031351e+01   6.8324351500e+01    0.2666357    0.1688294  22.47  0.001532337    1.518    0.341
       190  -9.9076    181.4177     20.8430   4.0326451485e+01   3.7059917296e+01    0.1699505     0.129239  -7.40 0.0009464373    1.701    0.412
       191  -9.5053    164.9958     21.4716   4.2705153596e+01   4.0943306756e+01    0.1979086    0.1204443  66.94 8.829162e-06    1.494    0.330
       192  -9.6585     83.9720     21.4474   5.9976922034e+01   5.9579212351e+01    0.1992907    0.1169066  48.00  0.001021482    1.573    0.364
       193  -9.2386    170.5426    246.9679   9.4291300208e+01  -5.7787137316e-01    0.1612491    0.0979509 -14.88 0.0007032928    2.337    0.572
       194 -10.2568     20.1751     17.8096   8.4580664990e+01   6.9936587596e+01    0.2891638    0.1381544 -30.59  0.001064588    1.811    0.448
       195 -10.7401    209.1950     18.3944   3.6633073002e+01   3.0862327816e+01    0.1779703    0.1074896  88.41 0.0005558199    1.643    0.391
       196 -10.1553    140.9514     18.0723   4.5472425280e+01   4.7111999860e+01    0.2028107     0.180594  77.84  0.001047472    1.109    0.098
       197  -9.7429    115.1020     17.6082   5.0361095156e+01   5.3251111477e+01    0.2015259    0.1619043  79.37 0.0006442564    1.428    0.300
       198 -10.2258    125.2844     17.1879   4.8083350655e+01   5.0927835970e+01    0.2148315    0.1570579  49.22 0.0003245088    1.209    0.173
       199  -9.3916    116.3967    246.5004   1.0507583741e+02   7.6256953345e+00     0.121821    0.1038141  45.73 0.0008013687    1.025    0.024
       200  -9.4545     39.6722    243.3596   1.1972265093e+02   1.8365612101e+01    0.1263788   0.06427456  64.04 0.0007042538    1.788    0.441
       201  -9.6091    202.3764    240.7326   8.7137657124e+01  -4.3428266744e+00     0.163851    0.1048764 -22.88  0.000841021    1.622    0.383
       202  -9.7950     35.9615    240.4847   1.2021551642e+02   1.9333062535e+01    0.1641314   0.09598707  40.59 0.0006252157    1.554    0.357
       203 -10.2363     31.5540     16.1686   7.8083297387e+01   6.8891149620e+01    0.2017836    0.1366042  10.90 0.0003607199    1.314    0.239
       204 -10.0016    117.4859    239.4990   1.0401734938e+02   8.7078056055e+00    0.1262681     0.108109  42.73  9.39521e-05    1.010    0.010
       205 -11.2454     14.1324    238.7234   1.2406670604e+02   2.1964451493e+01    0.1932975    0.1157229  79.69 0.0006700624    1.386    0.278
       206 -10.0655    154.4694     15.2749   4.2435877104e+01   4.4127908972e+01    0.2372932     0.151957 -85.90  0.001182594    1.826    0.452
       207  -9.9670     91.1060    237.2988   1.0916622552e+02   1.2960313035e+01    0.1820832    0.1628242 -56.90  0.000436387    1.327    0.246
       208  -9.3111     45.3013     15.3601   7.1393586504e+01   6.7117162312e+01    0.1308459   0.07974729   2.99 0.0007036894    1.719    0.418
       209 -10.3034    222.1365     13.8590   3.4415042699e+01   2.8489570578e+01    0.1519192    0.1397251  63.03 0.0003793712    1.305    0.234
       210 -11.6913     25.7343    236.1171   1.2182319921e+02   2.1287113243e+01    0.2524481    0.1721014  39.77  0.001008003    1.467    0.318
       211  -9.4974     89.4837     13.5369   5.5104966472e+01   5.9289172530e+01    0.1730686    0.1208474  62.00  0.000489264    1.570    0.363
       212  -9.8194    249.3197    233.9332   7.7439228691e+01  -9.7746514740e+00    0.1631821    0.1188955  -6.50 0.0004322894    1.075    0.070
       213 -11.9669      3.9657    232.6230   1.2555622480e+02   2.4112875077e+01     0.247072     0.162877  64.22   0.00177578    1.168    0.144
       214 -12.5390      9.8869    227.6687   1.2424042568e+02   2.4536847628e+01    0.4523291    0.3182451  74.70  0.002190652    1.091    0.084
       215  -9.0895    243.4712    230.4493   7.7856336741e+01  -8.5780631546e+00    0.1216137   0.09161051   0.23 0.0002403212    1.013    0.013
       216  -9.2110     47.9667    229.9953   1.1715408758e+02   2.0018385640e+01    0.1401371    0.1128445  66.15  0.000338618    1.014    0.014
       217 -10.2363      7.0205     20.9005   9.2962411734e+01   7.0590271734e+01    0.1732218    0.1475047   8.64 0.0004972309    1.398    0.285
       218 -10.7689    140.3663    228.4459   9.7770080890e+01   7.1758620833e+00    0.3173566    0.2118389 -59.80  0.001533373    1.846    0.458
       219  -9.6819    209.5030    229.5140   8.3924068939e+01  -3.7505546963e+00    0.1278851    0.1028355   7.51 -5.259661e-05    1.008    0.008
       220 -10.1792    223.2845    226.6291   8.0834452598e+01  -5.3163871624e+00    0.2101125    0.1285452 -12.35 0.0005506547    1.683    0.406
       221 -11.1653      1.4900    224.9458   1.2562415851e+02   2.5849454625e+01    0.2520282    0.1268351  82.68  0.001050502    1.677    0.404
       222 -11.3174      2.4249    220.6557   1.2523871188e+02   2.6628402835e+01    0.3432918    0.1244442 -89.28  0.001682861    2.598    0.615
       223  -9.1635    167.3358    221.6978   9.1057583861e+01   4.0402004024e+00    0.1281591    0.1017059  61.02 0.0005747552    1.662    0.398
       224  -9.0760    126.6609    220.7218   9.9592536608e+01   1.0799052463e+01     0.130141    0.1010269   3.64 0.0004603472    1.618    0.382
       225 -10.9964      8.6199    218.0040   1.2394150005e+02   2.6610551533e+01     0.253367    0.2013957  30.14  0.001842678    1.587    0.370
       226  -9.8559     15.4697    213.4550   1.2235117387e+02   2.6914160799e+01    0.1164768   0.08964305  75.85  2.43356e-05    1.012    0.012
       227  -9.8486    205.7480    212.2579   8.1625834934e+01  -5.2876235835e-01    0.1844767    0.1346214   0.18  0.000777472    1.335    0.251
       228  -9.4473    249.4728    211.4833   7.3431282200e+01  -6.7909921872e+00    0.1253988   0.09586301  -5.66 0.0001178976    1.021    0.021
       229 -10.3249     82.8976     15.9837   5.8019458499e+01   6.0393757227e+01    0.1917744    0.1637458  23.44 0.0003269627    1.023    0.023
       230  -9.9529     20.2098    209.8824   1.2117434653e+02   2.7211729260e+01    0.1875886    0.1228745  66.94 0.0005978503    1.297    0.229
       231 -10.7110      3.5872    206.1792   1.2423166755e+02   2.9526971109e+01    0.1588101   0.08501268 -69.97 0.0005384266    1.692    0.409
       232  -9.5013    193.4949    202.0580   8.2198489518e+01   3.1504727264e+00    0.1927087    0.1292504 -37.11 0.0004892249    1.509    0.337
       233 -10.2217     23.5929    196.7940   1.1950515480e+02   2.9732397515e+01    0.2711219    0.1754576 -48.21   0.00157617    1.945    0.486
       234 -10.9416     13.6546    192.3962   1.2128708427e+02   3.1642867103e+01     0.265178    0.1385796  60.19   0.00103515    1.786    0.440
       235 -10.7769      6.1443    191.8784   1.2283115741e+02   3.2407613110e+01    0.1872866    0.1264129  72.71  0.001211525    1.248    0.199
       236 -10.3405      1.3939    191.1788   1.2377143973e+02   3.2950805372e+01    0.2083128   0.09081437 -86.31 0.0007804963    1.969    0.492
