#   1 NUMBER                 Running object number                                     
#   2 MAG_AUTO               Kron-like elliptical aperture magnitude                    [mag]
#   3 X_IMAGE                Object position along x                                    [pixel]
#   4 Y_IMAGE                Object position along y                                    [pixel]
#   5 X_WORLD                Barycenter position along world x axis                     [deg]
#   6 Y_WORLD                Barycenter position along world y axis                     [deg]
#   7 A_WORLD                Profile RMS along major axis (world units)                 [deg]
#   8 B_WORLD                Profile RMS along minor axis (world units)                 [deg]
#   9 THETA_WORLD            Position angle (CCW/world-x)                               [deg]
#  10 FWHM_WORLD             FWHM assuming a gaussian core                              [deg]
#  11 ELONGATION             A_IMAGE/B_IMAGE                                           
#  12 ELLIPTICITY            1 - B_IMAGE/A_IMAGE                                       
         1 -13.1304    219.1205      3.3422   4.9944109876e+01   2.8412484846e+01     1.213108    0.7392429  56.65  0.003453695    1.591    0.371
         2 -13.9945    193.8339     28.2958   6.0468668287e+01   3.2639859545e+01     1.979704     1.273266   7.00  0.006109284    1.858    0.462
         3 -13.7543    200.5666     22.0355   5.7592513832e+01   3.1521147314e+01     1.820335    0.9892962 -20.87  0.006249014    1.849    0.459
         4 -13.0045    207.6400     15.1613   5.4623608719e+01   3.0335861995e+01    0.7598968    0.6080176  -2.98  0.001343795    1.313    0.238
         5 -12.3008      2.1587      7.5850   1.1063893702e+02   7.2435467493e+01     1.170214    0.1497211 -56.20  0.004051771    4.815    0.792
         6 -11.5070    189.8803     15.0625   5.6782658605e+01   3.5047398025e+01    0.3074382    0.2735204 -64.86 0.0007522946    1.215    0.177
         7 -10.7852    168.8376      2.3155   5.5321598655e+01   4.1826795370e+01    0.2984639    0.1354363  79.39  0.001094016    2.631    0.620
         8  -9.8915     65.5844    197.1443   1.2447783766e+02   2.9013512613e+01    0.1928421    0.1237577  48.25 0.0006169186    1.329    0.248
         9 -11.3348    177.7309    249.7757   1.1112488943e+02   6.0837717456e+00    0.3969845   0.09297203  39.03  0.001642711    3.700    0.730
        10 -11.9661    170.8040    246.3683   1.1181212327e+02   7.4561895389e+00    0.3780406    0.1229932  43.04  0.001990281    2.186    0.542
        11 -11.8017    163.1998    248.4873   1.1321705081e+02   8.3502722474e+00    0.3874284    0.1877387  34.99   0.00240458    1.831    0.454
        12 -11.8500    153.5289    249.9541   1.1485896792e+02   9.5956021034e+00    0.7659311    0.1024257  41.52  0.002374778    6.646    0.850
        13 -12.7620    141.0722    249.3525   1.1671780212e+02   1.1444733509e+01    0.7239168    0.1886058  46.95   0.00348722    2.807    0.644
        14 -12.7619    124.3381    248.3398   1.1920304887e+02   1.3902902870e+01     0.570577    0.2213278  45.30  0.003431428    1.830    0.453
        15 -12.9132     24.6833    233.0376   1.3333650408e+02   2.7840342097e+01    0.5318903    0.3354159  85.91  0.002049081    1.374    0.272
        16 -15.1750     35.0773    245.8339   1.3239461077e+02   2.4998912201e+01      7.51534     1.466311  35.59   0.02569131    9.342    0.893
        17 -11.8839     16.3670    198.2191   1.3301699325e+02   3.4015918689e+01    0.3165995    0.1506209  58.11 0.0008897203    1.607    0.378
        18 -16.1484      9.1547    205.2006   1.3450762755e+02   3.3522896659e+01     6.126825     1.319152 -75.79   0.02713326    3.961    0.748
        19 -11.8386     72.4907    182.7177   1.2189247181e+02   3.0612456386e+01    0.2260747    0.2041761 -58.55 0.0009806538    1.448    0.309
        20 -12.9446     58.3282    132.1751   1.1902973866e+02   4.1938493446e+01      2.80884     0.813552 -74.17   0.00682585    9.658    0.896
        21 -12.8978     87.7012    164.0963   1.1678745335e+02   3.1917415120e+01     2.069706    0.5772293  52.58 0.0009973896    4.655    0.785
        22 -10.9619    230.3901    167.5671   9.0126576108e+01   6.2951725672e+00    0.2497652    0.1214972 -27.72  0.001243817    2.200    0.545
        23 -13.5246     67.7258    144.1988   1.1848536133e+02   3.8383563930e+01     1.230571    0.6388415  89.40  0.003336413    2.735    0.634
        24 -10.3721     66.4367    224.9471   1.2646018582e+02   2.4552824936e+01     0.186851   0.09690396  56.11 0.0006346978    1.473    0.321
        25  -9.5350    133.8859    145.5300   1.0415209535e+02   2.7868723563e+01     0.500276   0.08436285 -49.87  0.001270354    7.299    0.863
        26 -10.1225    100.8862    147.6794   1.1165862357e+02   3.3036142859e+01    0.2645016     0.246594 -29.40 0.0008063081    1.336    0.251
        27  -9.3622    103.4815    143.9926   1.1049599789e+02   3.3330093617e+01     0.234095    0.1473111 -37.34   0.00101998    2.153    0.535
        28 -12.2013     89.3148    146.8836   1.1407715015e+02   3.4926792943e+01    0.2256684     0.215607 -64.09 0.0005036368    1.211    0.174
        29 -13.0973     42.6869    220.6444   1.2996882629e+02   2.7862606268e+01    0.3228509    0.3063668 -35.27  0.001221981    1.855    0.461
        30 -13.4044     68.9269    168.4967   1.2111758540e+02   3.3605209277e+01    0.3783697    0.2459181 -45.97    0.0014469    2.120    0.528
        31 -11.3631     81.4671    171.5701   1.1895581058e+02   3.1416080952e+01    0.2115408    0.1840454  86.05  0.001487995    1.111    0.100
        32  -9.7738    111.2836    134.3239   1.0706499967e+02   3.3907446882e+01    0.2551475    0.2073011  -5.69  0.001126733    1.755    0.430
        33 -10.8438     98.7136    131.1015   1.0937846095e+02   3.6586073917e+01    0.2574689     0.215689 -23.74 0.0009237497    1.566    0.361
        34  -8.9515    105.7673    131.0035   1.0772093789e+02   3.5468676793e+01    0.1697032    0.1054877 -55.04 0.0008789944    1.633    0.388
        35  -9.5188    160.7641    127.7352   9.4835906476e+01   2.5765510742e+01    0.2150835    0.1103408 -50.72 0.0008879374    2.400    0.583
        36 -15.6158     52.4400    208.8018   1.2763550863e+02   2.8645689157e+01     5.953377          nan  46.26   0.02118612    5.919    0.831
        37  -8.7914    117.3002    127.3467   1.0435244635e+02   3.4212155404e+01    0.1306929    0.1061141  -8.35 0.0006589191    1.683    0.406
        38  -9.5727    107.9072    121.9413   1.0547924751e+02   3.6890539477e+01    0.1835525     0.177695  72.79  0.000318322    1.041    0.039
        39 -11.2859    161.1142    225.8813   1.1099396788e+02   1.1230367385e+01    0.2494023    0.1364684  48.57  0.001561958    1.456    0.313
        40  -9.2390    135.0000    119.9854   9.8741944347e+01   3.2321546236e+01    0.2214981    0.0789562 -44.90 0.0007290523    2.916    0.657
        41 -11.7856     67.7060    189.0497   1.2338650924e+02   3.0116807332e+01    0.3006129    0.2183397 -42.99  0.002050814    2.139    0.532
        42 -11.8867    167.8313    112.5575   8.9823504913e+01   2.6828920469e+01     0.342513    0.3141711 -82.01  0.000605029    1.302    0.232
        43  -9.8528    205.1206    110.4028   8.2037211516e+01   1.8871281595e+01    0.3751458    0.1970151  39.58  0.001610415    1.862    0.463
        44 -11.0508     43.6826    108.8269   1.1933084860e+02   4.8396300519e+01    0.1793386    0.1703193   9.60 0.0009976579    1.354    0.261
        45 -11.0935      1.8999     89.0615   1.2801324790e+02   5.5896243663e+01    0.3552567    0.1038425 -73.34  0.001680357    2.595    0.615
        46 -10.4276     32.5666    222.8926   1.3167205459e+02   2.8566150439e+01    0.1516871    0.1395335  66.42  0.001461293    1.525    0.344
        47 -13.6777     53.6028    234.1636   1.2905669743e+02   2.4678040265e+01     1.365579    0.5778993  89.09    0.0082888    2.951    0.661
        48 -10.1179     77.4390    208.0163   1.2332432567e+02   2.5791747468e+01    0.2549384    0.1688797 -71.46  0.001866263    1.638    0.389
        49 -10.1029     60.4780    227.6361   1.2758792954e+02   2.4850604943e+01    0.1775878    0.1037759  67.66 0.0009139379    1.423    0.297
        50 -10.7187    192.9826    194.6910   1.0125854579e+02   9.7778491504e+00    0.6610284    0.3343816 -58.71   0.00228789    6.845    0.854
        51 -14.4575      9.6209    241.5322   1.3581639958e+02   2.8031163591e+01     1.809717     1.003808  47.16   0.01584938    1.459    0.314
