#   1 NUMBER                 Running object number                                     
#   2 MAG_AUTO               Kron-like elliptical aperture magnitude                    [mag]
#   3 X_IMAGE                Object position along x                                    [pixel]
#   4 Y_IMAGE                Object position along y                                    [pixel]
#   5 X_WORLD                Barycenter position along world x axis                     [deg]
#   6 Y_WORLD                Barycenter position along world y axis                     [deg]
#   7 A_WORLD                Profile RMS along major axis (world units)                 [deg]
#   8 B_WORLD                Profile RMS along minor axis (world units)                 [deg]
#   9 THETA_WORLD            Position angle (CCW/world-x)                               [deg]
#  10 FWHM_WORLD             FWHM assuming a gaussian core                              [deg]
#  11 ELONGATION             A_IMAGE/B_IMAGE                                           
#  12 ELLIPTICITY            1 - B_IMAGE/A_IMAGE                                       
         1 -11.6915     87.2028     40.0054   6.6176975600e+01   5.8169054244e+01    0.9258512    0.3936238 -35.07   0.00347564    2.386    0.581
         2 -11.6804     60.7004     27.0913   7.0357861623e+01   6.5873870080e+01    0.8196477    0.4827799  21.51  0.003498086    2.408    0.585
         3 -12.4979     78.4349     32.5296   6.5881737598e+01   6.1352396766e+01    0.8582593     0.648962  53.49  0.001640028    1.381    0.276
         4 -11.8274     71.0518     29.6557   6.7304726502e+01   6.3384771141e+01    0.8876323     0.380191 -25.67  0.003043996    3.319    0.699
         5 -12.1883    241.9576     24.4646   3.5859498271e+01   2.3255954341e+01    0.9152394    0.3116606 -61.26  0.003372876    4.018    0.751
         6 -12.2021    247.7117     19.4632   3.4328846416e+01   2.2658546941e+01     0.561667    0.3323883 -26.49  0.003252257    1.540    0.351
         7 -12.2541     92.6600     10.3608   5.0507328047e+01   6.1101220715e+01    0.9737873    0.5472561 -12.52  0.004349817    2.071    0.517
         8 -10.9838     90.4881     20.5640   5.6141200774e+01   6.0400435680e+01    0.6703054    0.3005015 -16.72  0.002378737    3.153    0.683
         9 -12.0485     30.4895     23.7601   8.4739441282e+01   7.1363485996e+01    0.5388659    0.3219741 -55.65  0.001134321    1.787    0.440
        10 -10.1279    203.6540     27.7726   3.9774228648e+01   3.1140601910e+01    0.4610113    0.1757879 -14.27  0.001393866    4.957    0.798
        11 -10.6439    123.5985     21.6319   4.8659033714e+01   5.1993372222e+01    0.6555507    0.3844575  11.16  0.002581913    2.704    0.630
        12 -10.8901    177.1941     21.5757   4.0689505305e+01   3.8213800212e+01    0.4900375    0.3318068  -0.58  0.001978333    1.967    0.492
        13 -10.5176    100.9249      5.3356   4.6108838688e+01   5.9551885443e+01    0.4169156    0.2691535  75.73  0.001792291    1.607    0.378
        14 -12.9226    116.7295     13.5928   4.6645178281e+01   5.4681875075e+01     1.336414    0.8182482  47.69  0.006306941    1.625    0.385
        15 -12.4406    104.7335      9.3368   4.7185912255e+01   5.8195832220e+01     1.011414    0.4531724  45.96  0.003390777    2.239    0.553
        16 -12.0702     18.9034     15.5817   8.8249158243e+01   7.4336990907e+01    0.7762144    0.3489199 -50.58     0.003705    1.991    0.498
        17 -12.2447     25.4400      7.2060   7.8310392865e+01   7.5065594509e+01    0.7224017    0.2787369 -42.86  0.003184543    2.418    0.586
        18 -12.9393      4.9371     10.3988   9.6638320027e+01   7.6623624465e+01     0.749226    0.4958995 -63.28  0.001189684    1.541    0.351
        19 -10.9818      2.1251      2.4157   9.4748007969e+01   7.8419114504e+01    0.3193725    0.2582034  39.20 0.0009970975    1.599    0.375
        20 -10.9584     84.7535     18.9731   5.7088831342e+01   6.1960141306e+01    0.5601331    0.3624829  23.04  0.002585985    1.911    0.477
        21 -10.3450     80.1174     18.8481   5.8518670750e+01   6.3044189190e+01    0.4185729    0.1877587 -40.16  0.001701012    2.322    0.569
        22 -10.9937    154.2536     17.3884   4.2102979563e+01   4.4512285932e+01    0.6593584    0.3537236  45.02  0.002851413    2.138    0.532
        23 -11.0345    149.2232     11.7079   4.0760812741e+01   4.6413143187e+01    0.7828158    0.3047355 -35.30  0.002365997    2.334    0.572
        24 -10.8597    160.5541     17.4278   4.1308461902e+01   4.2884513766e+01    0.5053933    0.3329971  55.61   0.00130647    1.558    0.358
        25 -11.1160    169.5757     14.7608   3.9380906018e+01   4.0869125211e+01    0.8324898    0.3748948  78.79  0.003430403    2.333    0.571
        26 -11.4111    105.0587      1.9029   4.3647363736e+01   5.8812515034e+01    0.7082728    0.2563461  67.79  0.002690371    2.548    0.607
        27 -12.7905     15.4956      5.4369   8.4716416148e+01   7.6615974077e+01    0.9156207    0.6713983  27.16  0.005751085    1.461    0.315
        28 -10.3176     55.1867     17.4712   6.7624304254e+01   6.8489698207e+01    0.3148269    0.2226217 -42.82  0.001076905    1.498    0.332
        29 -12.3304    241.7263     14.2169   3.3466917687e+01   2.4393463159e+01    0.7465788     0.345654  51.21  0.003610543    2.971    0.663
        30 -11.4490    249.3443      7.3389   3.1477940164e+01   2.3582191452e+01    0.7529395     0.163147 -37.11  0.003193271    2.709    0.631
        31 -11.3506    243.9825      3.7340   3.0918237600e+01   2.4990540792e+01    0.2531627    0.1863702  82.32   0.00110809    1.488    0.328
        32 -10.6333     62.0706     11.9025   6.1335254103e+01   6.7912773243e+01    0.4676554    0.3060352  84.80  0.002000999    2.966    0.663
        33 -11.4261    233.9760     10.5351   3.3045013232e+01   2.6352192580e+01    0.3192705    0.2037275  47.70  0.001798004    2.102    0.524
        34 -10.7526    233.6089      7.2205   3.2269930903e+01   2.6760126351e+01    0.2265294    0.1334664 -41.32 0.0004084499    1.343    0.256
        35 -10.3264     51.1611      6.3594   6.2667632665e+01   7.0846085632e+01    0.3851102    0.2033677  25.12  0.001655023    2.526    0.604
        36 -10.2037     53.8057     11.3591   6.4615583325e+01   6.9655213186e+01    0.2818051    0.1742344  36.85   0.00119684    1.614    0.380
        37 -10.3552     48.9643     11.2319   6.6870332961e+01   7.0596605626e+01    0.3103434    0.2616238 -86.79  0.001504746    1.788    0.441
        38 -10.7408     38.2035      9.9575   7.1890989380e+01   7.2682427520e+01    0.3586904    0.2190436 -20.62  0.001827482    1.769    0.435
        39  -9.8011     31.2314     11.9917   7.7522092665e+01   7.3435134448e+01    0.1879251    0.1719019 -50.27  0.001209496    1.336    0.252
        40 -10.8179    200.7850      7.4809   3.4416937960e+01   3.3988708008e+01    0.4304171    0.1789503 -38.24  0.001020388    1.969    0.492
        41  -9.5229    197.5186      3.0009   3.3406191601e+01   3.5184954197e+01     0.221514    0.1597327 -23.48 0.0009922647    1.429    0.300
        42 -10.2835     77.7686      9.1193   5.4081851035e+01   6.4791639718e+01    0.2252492    0.2158334  34.12 0.0003436357    1.049    0.046
        43  -9.2358    156.5481      1.4044   3.6320294098e+01   4.5482033426e+01    0.3320668    0.1751243 -88.66  0.001481352    1.986    0.497
        44 -10.1149    163.6236      8.5678   3.8001336789e+01   4.3008373322e+01    0.4079665    0.2421156  11.77  0.001772712    2.546    0.607
        45 -10.5003    162.5808      4.2853   3.6689649012e+01   4.3677947218e+01    0.3529684    0.2181446  50.78  0.001086404    1.748    0.428
        46 -10.2028    226.2807      7.1970   3.2680490105e+01   2.8307186022e+01    0.2879871    0.1397861 -20.84  0.001400715    2.150    0.535
        47 -10.5328    139.2252      4.4405   3.9378970662e+01   4.9713894952e+01    0.5855493    0.2965057 -10.12  0.002468951    2.436    0.589
        48  -9.6580     67.7062      6.3362   5.5856439049e+01   6.7386094370e+01    0.2028677    0.1557149 -40.35 0.0007100955    1.430    0.301
        49 -11.3005     71.4353      3.3367   5.2802565553e+01   6.6872148369e+01    0.4357398    0.3909944  29.14  0.002669512    1.027    0.027
        50  -9.1814     61.2010      6.1985   5.8223171098e+01   6.8813302919e+01    0.1689046    0.1587625 -86.03 0.0005437851    1.305    0.234
        51 -10.2753    208.1802      4.0425   3.2980077014e+01   3.2614293881e+01    0.4417913    0.2213437  53.61  0.002121748    2.389    0.581
        52  -8.5696    181.6934      4.2933   3.4971063799e+01   3.8878052624e+01    0.1428113   0.08513317 -58.18 0.0003568309    1.581    0.367
        53 -10.6901    132.2593      4.1784   4.0207704089e+01   5.1558834082e+01     0.370996    0.3229834  19.62  0.001382438    1.288    0.223
        54 -10.1283     41.6245      3.5682   6.5588955785e+01   7.3013788451e+01    0.2692562    0.1923513   3.81 0.0007342797    1.487    0.327
        55  -9.9023     56.5136      1.7891   5.7291826007e+01   7.0308582875e+01    0.2812361    0.1769283  51.23  0.001482367    1.531    0.347
        56  -8.9503    214.8060      1.3567   3.1873872737e+01   3.1375294944e+01     0.161645    0.1082512  71.22 0.0004693058    1.592    0.372
        57  -8.9992     85.2849      1.6736   4.7879619631e+01   6.3767498239e+01    0.1356313    0.1006187 -57.51 0.0003093069    1.605    0.377
        58 -10.1390    156.0714     96.8478   6.7016099445e+01   3.1598374539e+01    0.2650941    0.2115042 -31.06  0.001319787    1.249    0.199
        59 -10.2442     96.4862     96.3190   8.2656894659e+01   4.4373502413e+01    0.2406358    0.2369922  53.11 0.0003067567    1.053    0.050
        60  -9.6844     88.1081     97.1380   8.5565814487e+01   4.5739300976e+01    0.2305778    0.2069403 -29.11  0.000537686    1.212    0.175
        61 -10.8314     75.3593     95.1425   8.9361588619e+01   4.8433619382e+01    0.5079219    0.3721899 -40.77  0.001929545    1.438    0.305
        62  -9.5149     42.1689     87.6981   1.0009658273e+02   5.4983591243e+01    0.3486406    0.1772113 -61.38   0.00126488    1.732    0.423
        63  -9.7151     39.2317     96.4495   1.0299436484e+02   5.3044311112e+01    0.2647962    0.2241955 -33.06 0.0009841374    1.329    0.248
        64 -10.0228     39.6600     92.5742   1.0209153735e+02   5.4003761789e+01    0.2610641    0.2236027 -56.33 0.0005260783    1.117    0.105
        65 -10.2764     34.0103     91.8837   1.0419012097e+02   5.4771473240e+01    0.4250101     0.251316   4.57  0.001911388    2.368    0.578
        66 -10.2782    117.4203     94.3292   7.5880618880e+01   4.0591119558e+01    0.2967894    0.1947404  48.12 0.0007245535    1.566    0.362
        67 -10.7841     52.1256     92.2534   9.7186478968e+01   5.2598061727e+01    0.3267753    0.2314485 -61.58  0.001308772    1.291    0.226
        68 -10.7974     14.7081     86.5388   1.1114921152e+02   5.7768262862e+01    0.6122623    0.2689471  76.54  0.002331325    3.070    0.674
        69  -9.6234     24.5921     74.2316   1.0476258201e+02   6.0195060109e+01    0.2630754    0.1976399 -42.98 0.0003801702    1.322    0.244
        70 -11.3246     20.8872     72.5870   1.0612000119e+02   6.0916558108e+01    0.7346311    0.3290764 -46.96  0.003210362    2.125    0.529
        71  -9.8649     91.0129     87.4909   8.1944211369e+01   4.7485227352e+01    0.3897171    0.2537586  47.34   0.00104366    1.605    0.377
        72  -8.8478     62.0154     96.9660   9.4564004901e+01   5.0040759938e+01    0.1817908    0.1576894 -65.82 0.0005377888    1.076    0.070
        73 -10.5969    146.2851     83.9696   6.5534916071e+01   3.6281109954e+01    0.4606119    0.3027063 -22.34  0.001787355    1.862    0.463
        74 -10.3712     20.9024     80.3989   1.0756124017e+02   5.8909402433e+01    0.3922395     0.237311 -42.09  0.001965045    1.715    0.417
        75  -9.5590    119.0414     86.5940   7.3172787439e+01   4.1910976310e+01    0.3296386     0.151141  47.11  0.001209125    2.237    0.553
        76 -10.1657     25.4716     84.5352   1.0634456803e+02   5.7467934398e+01    0.2973517    0.2115676  66.59  0.001424955    1.536    0.349
        77  -9.5682    190.9733     84.8453   5.7110977213e+01   2.5975297491e+01    0.3266779    0.1041152  55.88  0.001099726    3.430    0.708
        78  -8.9271    134.0000     84.0128   6.8468329445e+01   3.9095717855e+01    0.2577369   0.08614368 -40.72 0.0007974308    2.908    0.656
        79 -10.8747    161.0504     81.8402   6.1742378460e+01   3.3253711707e+01    0.4100311    0.2523212  66.66  0.001739185    1.989    0.497
        80  -8.4691     53.6282     82.2996   9.4212795627e+01   5.4923712628e+01    0.1516818    0.1077247  68.58 0.0007029959    1.744    0.427
        81 -10.4480     39.6802     78.8280   9.9139104140e+01   5.7535581502e+01    0.5415155    0.2923664 -66.12  0.002441616    1.709    0.415
        82  -9.8713     36.1947     78.2146   1.0049398855e+02   5.8071616232e+01    0.2924269    0.2141142 -77.20 0.0006146362    1.335    0.251
        83  -9.9891    103.9665     80.7598   7.5780353593e+01   4.6407235081e+01    0.3209349    0.2720844  25.49 0.0004133708    1.322    0.244
        84 -10.5129    106.0002     77.9734   7.4280223497e+01   4.6579616060e+01    0.3818568    0.3201979  62.57  0.001152999    1.286    0.222
        85 -10.8802    177.0092     78.5607   5.7779366600e+01   3.0138852138e+01    0.2648378    0.2003461 -34.81  0.000133836    1.238    0.192
        86  -9.5932    188.5991     77.7863   5.5599807209e+01   2.7639775876e+01    0.4236058    0.1338804  47.93    0.0013992    3.542    0.718
        87 -10.3103    143.9608     78.2825   6.4356228017e+01   3.7899961276e+01    0.2839039    0.2139154 -37.10 0.0004121502    1.293    0.227
        88 -10.7108    146.7757     74.8865   6.2683257237e+01   3.7866457140e+01    0.2776918    0.2317143  52.91 0.0002776388    1.239    0.193
        89 -10.4702      5.3768     77.0942   1.1384078625e+02   6.0750681672e+01    0.3596767    0.2213783  25.77  0.001953487    1.847    0.459
        90 -10.0331      3.7659     72.5460   1.1396185155e+02   6.1990877118e+01    0.3184179    0.1472758 -62.07  0.001055476    1.740    0.425
        91 -11.4628    114.8292     71.3609   6.9536768229e+01   4.6008987511e+01    0.8074865    0.4445732 -38.76  0.001063434    1.810    0.448
        92  -9.9339     98.9555     75.8573   7.5786868769e+01   4.8526232635e+01    0.4843822    0.2446588 -39.35  0.001859967    2.058    0.514
        93  -9.2503     69.6687     76.6360   8.6317859406e+01   5.3880852512e+01    0.2324554    0.1741577 -20.76  0.001093972    1.681    0.405
        94 -11.3025     30.5970     72.0498   1.0156356118e+02   6.0205910391e+01    0.7927601    0.2687466 -53.20  0.002592661    2.454    0.592
        95  -9.3865    203.7167     75.9813   5.2810513909e+01   2.4599506532e+01    0.2852646    0.1591857  32.34  0.001173055    2.702    0.630
        96  -9.3966     93.6618     75.2189   7.7297819286e+01   4.9754441789e+01    0.2637378    0.2272215  41.30   0.00129502    1.205    0.170
        97 -10.8768    140.3577     70.2681   6.2676785767e+01   4.0241529102e+01    0.5674056    0.4248151 -48.34  0.002354083    1.321    0.243
        98 -10.8165     52.7012     71.3558   9.1602814449e+01   5.7762814170e+01    0.3518155    0.2718112 -41.51 0.0006493928    1.272    0.214
        99  -9.9301     57.0336     68.7753   8.8988856551e+01   5.7759926855e+01    0.3046582    0.2656143  26.49  0.001120749    1.243    0.196
       100 -11.6093     56.0725     63.1032   8.7581084065e+01   5.9246795697e+01     0.635336    0.3908277 -51.16  0.001354725    1.497    0.332
       101  -9.2186    169.8024     70.7170   5.6815063745e+01   3.3123395155e+01    0.2313507    0.1797851  35.33 0.0009981709    1.482    0.325
       102 -10.1755     66.7033     70.6474   8.5617927502e+01   5.5791929999e+01    0.3684606    0.2607912  10.13  0.001133342    1.924    0.480
       103 -10.4122     70.0377     69.2054   8.3837371159e+01   5.5564723476e+01    0.6439577    0.1926906  40.56  0.002049193    3.450    0.710
       104  -9.6520    126.5016     70.1592   6.5998577319e+01   4.3550351896e+01    0.5035148    0.2659841  71.37  0.001624811    3.414    0.707
       105  -9.9799    122.0680     65.9478   6.5739349654e+01   4.5397038123e+01    0.3477503    0.2044251 -40.91 0.0004401589    1.655    0.396
       106  -9.8532    101.5998     69.2858   7.2764649105e+01   4.9366536451e+01    0.3160842    0.2569473  12.32  0.001318008    1.523    0.344
       107 -10.7205     40.0344     67.0747   9.5980511285e+01   6.0443043908e+01    0.4425668    0.3725916  73.51  0.001892727    1.355    0.262
       108  -9.3349    164.9980     68.7368   5.7107775036e+01   3.4594332140e+01    0.2113159    0.2017402  89.37  0.001168603    1.083    0.076
       109 -10.7010    149.0576     65.9933   5.9407020831e+01   3.8904846320e+01    0.4766734    0.4074379 -33.07  0.002464412    1.155    0.134
       110 -10.0541     11.0194     63.9869   1.0916626047e+02   6.3779266802e+01     0.323728    0.1766017 -39.40  0.001205494    1.871    0.466
       111 -12.2236     32.2846     59.0952   9.7418951517e+01   6.3260496804e+01     1.441476    0.7706082  -8.56   0.00163648    3.237    0.691
       112 -11.4690     18.2705     60.7543   1.0487952494e+02   6.4105506370e+01     0.669998    0.3493173 -13.96  0.002923227    2.732    0.634
       113  -9.7627     23.9865     60.2272   1.0187197460e+02   6.3775995022e+01    0.2360253    0.1514978   3.27 0.0007385961    1.927    0.481
       114  -8.6028    131.6807     67.2715   6.3750724717e+01   4.2868771543e+01    0.1532219     0.119745 -78.32 0.0005121841    1.565    0.361
       115  -9.3296     70.8210     59.8619   8.0298730486e+01   5.7534769907e+01    0.2255296    0.1942998 -70.39  0.000267926    1.283    0.221
       116  -9.0646     73.9891     62.2202   7.9905124989e+01   5.6439251445e+01    0.2296316    0.1670409  11.93 0.0004953814    1.836    0.455
       117 -10.6015     77.9219     60.5360   7.7793601486e+01   5.6067887438e+01    0.5001069    0.2852005 -43.27  0.001539746    1.693    0.409
       118  -9.4684    106.4132     59.8607   6.7970054719e+01   5.0192807238e+01     0.218614    0.1889415 -34.02  0.001114129    1.154    0.133
       119 -11.3429     34.1795     41.1691   9.0385610017e+01   6.7241040271e+01     1.368889    0.5434655  15.19  0.004183109    5.280    0.811
       120 -10.2017      3.4981    246.5316   1.2355938350e+02   2.2796273796e+01    0.1023785    0.0725451  54.10 -3.87479e-06    1.038    0.037
       121 -10.7702     20.6659    244.1471   1.2033995388e+02   2.1660937463e+01    0.1903218    0.1349663  48.27 0.0004443441    1.072    0.067
       122 -12.0444     88.0341     57.1636   7.2872868687e+01   5.4747302441e+01    0.7036041    0.4646043  39.71  0.001110623    1.593    0.372
       123 -10.8302     86.5599     51.4024   7.1150109909e+01   5.6201868716e+01    0.5024735    0.3058358  45.74  0.001393352    1.683    0.406
       124 -12.0085     49.0117     39.6168   8.1922976713e+01   6.5527610834e+01    0.4040504    0.3257314   5.26 0.0001555027    1.371    0.271
       125 -11.8022     56.7150     37.6592   7.7328550532e+01   6.4657393608e+01    0.5911158    0.4213842  -8.38  0.002251185    1.793    0.442
       126  -8.8377     21.4743    232.5263   1.1977186702e+02   2.3609580885e+01    0.1106998   0.07895137  54.68 0.0001182405    1.021    0.020
       127  -9.2772     55.9874    216.6249   1.1184210100e+02   2.2968707426e+01    0.1650623     0.132545  82.60 0.0006953835    1.259    0.206
       128 -11.6965     65.1926     30.6244   7.0186613003e+01   6.4396891716e+01    0.6352466    0.2865273  43.63  0.002613944    2.257    0.557
       129  -9.4691    126.9721     59.0891   6.2124071946e+01   4.5490600099e+01    0.3895752    0.2216911  81.74  0.001276513    3.441    0.709
       130 -10.6884    149.0294     41.4054   5.1255169909e+01   4.2823904158e+01    0.5095651    0.2236148  51.58  0.001948158    2.314    0.568
       131 -12.2768    147.2879     53.8794   5.5819061205e+01   4.1364534167e+01    0.5011697    0.4389164 -12.32  0.000233477    1.257    0.205
       132 -10.7841    145.0000     45.9937   5.3590666695e+01   4.3169502236e+01    0.5992817    0.1954889 -35.46  0.002004928    2.797    0.642
       133 -10.0319    141.6444     45.0155   5.3909324130e+01   4.4166672038e+01    0.2826616    0.2273302  37.52 0.0004467177    1.379    0.275
       134 -11.3673    100.0031     55.8381   6.8428045572e+01   5.2414979969e+01    0.5691151     0.508314 -33.09  0.002488384    1.111    0.100
       135 -10.1895    107.3200     51.9402   6.4749889152e+01   5.1464407331e+01    0.6185967    0.2132269  49.99  0.002049945    2.876    0.652
       136  -9.5821    184.5040     56.2163   5.0162131419e+01   3.1903927396e+01    0.2633299    0.1388461 -26.18 0.0007154177    1.952    0.488
       137  -9.0945    174.4065     57.0704   5.1966974234e+01   3.4189772840e+01    0.2020474    0.1280156  -2.04 0.0005205463    2.504    0.601
       138 -10.5960      3.2182     56.5612   1.1179561371e+02   6.6046317793e+01    0.2880046     0.265173 -66.55  0.001258092    1.100    0.091
       139 -10.4819    166.1555     53.7406   5.2307007001e+01   3.6705357583e+01    0.4489366    0.2193304 -41.30  0.001692792    1.903    0.475
       140 -10.0772    161.5466     51.3318   5.2333972086e+01   3.8209225373e+01    0.4345337    0.1707688 -31.10  0.001560782    2.483    0.597
       141  -9.8674    133.3422     54.6166   5.9050033786e+01   4.4708250939e+01    0.3344063    0.2378209  -9.59  0.001475888    1.842    0.457
       142 -10.3176    121.2144     54.3122   6.1866774817e+01   4.7730254159e+01    0.3598915     0.293664 -38.30  0.001078791    1.205    0.170
       143 -11.0745     41.6135     53.8563   9.1150347937e+01   6.3427435014e+01    0.2305428    0.2173323 -13.07 0.0002846321    1.103    0.093
       144 -11.4410     58.1969     48.6007   8.1338739636e+01   6.2162964481e+01    0.7027028    0.6655563  50.43  0.004123876    1.167    0.143
       145 -10.0484    184.0241     51.5109   4.8860283228e+01   3.2698369233e+01    0.2650829     0.255413  61.45 0.0007500537    1.134    0.118
       146  -9.5033    140.6265     52.1601   5.6601850564e+01   4.3303864023e+01    0.2551362    0.2058023  78.21 0.0005659228    1.339    0.253
       147 -10.0230    189.5436     51.3818   4.8055193017e+01   3.1408844891e+01    0.4448628    0.1919018  46.17  0.001691102    2.874    0.652
       148  -9.8333     29.1634     49.4979   9.6100050039e+01   6.5887573513e+01    0.3046285    0.1928611 -70.42  0.000790438    1.664    0.399
       149 -10.2040    231.0430     57.4754   4.4752642575e+01   2.1487660096e+01    0.1780597    0.1297814  66.62  0.001032109    1.597    0.374
       150  -9.5447     44.4554     49.9886   8.8373011826e+01   6.3940708818e+01    0.2033818    0.1818693  22.76 0.0005677301    1.201    0.168
       151  -8.7080    171.9579     49.7536   5.0129967577e+01   3.5872003118e+01    0.1689414    0.1234427  64.21            0    1.422    0.297
       152  -9.2108    206.4730     46.0000   4.4456146106e+01   2.8238150623e+01    0.2754407   0.07813049  66.65 0.0009284794    3.884    0.743
       153 -10.6828    153.1337     44.5107   5.1575642699e+01   4.1332766047e+01    0.3383766     0.249093 -21.14  0.001307498    1.470    0.320
       154  -9.5377     76.3057     45.3383   7.2421824620e+01   5.9491292474e+01    0.2646774    0.1440718  40.35  0.001121233    1.927    0.481
       155 -10.6702     76.6898     41.5038   7.0622187108e+01   6.0138540324e+01    0.5040421     0.329308 -14.64  0.001627584    2.113    0.527
       156 -10.0050    104.7382     43.0883   6.2004746206e+01   5.3616094311e+01    0.4593337    0.2462557  40.86  0.001850888    2.071    0.517
       157 -10.9347    157.8380     41.2535   4.9682713896e+01   4.0609466336e+01    0.5462108    0.3009911 -51.61  0.001713118    1.923    0.480
       158  -9.7291    118.1606     42.1676   5.8067605703e+01   5.0507313885e+01    0.2652217    0.2591697  -3.68  0.001477038    1.055    0.052
       159  -9.2987    166.1260     42.1706   4.8656907132e+01   3.8395469555e+01    0.2191859    0.1962415  24.80 0.0006927162    1.290    0.225
       160 -10.3330    107.9028     29.4588   5.5450860061e+01   5.4953133079e+01    0.5382007     0.335258  84.21  0.002241993    2.257    0.557
       161 -10.5992     98.5338     41.2965   6.3091372204e+01   5.5376148713e+01     0.424591    0.3407715 -25.33  0.001477656    1.285    0.222
       162 -10.9755    103.8517     35.4504   5.9084090636e+01   5.5059252517e+01    0.8167596    0.4756719  17.34  0.002907032    3.197    0.687
       163  -9.4193     23.1190     41.3518   9.6757900846e+01   6.8383308496e+01    0.2344844    0.1552986 -48.63 0.0006769276    1.301    0.231
       164 -10.0981     13.4449     34.4570   1.0032571399e+02   7.0780685619e+01    0.3718667    0.2043502  33.00  0.001444798    2.066    0.516
       165 -10.4983     10.6917     41.8200   1.0431239034e+02   6.9247989601e+01    0.4917975    0.2155752  26.82  0.002280616    2.489    0.598
       166 -10.9846     17.7766     38.6093   9.9015482109e+01   6.9486665170e+01    0.4919321    0.2408111 -54.51  0.002013005    1.683    0.406
       167 -10.4405     12.9541     38.0079   1.0179802717e+02   6.9994877438e+01     0.273231    0.2491248 -29.07 0.0007027828    1.119    0.106
       168  -8.8938     66.5066     40.5307   7.4280017037e+01   6.2327495271e+01    0.1423323    0.1345478 -18.99 0.0001050341    1.004    0.004
       169  -9.8449    174.0569     39.1373   4.6536869156e+01   3.6833210176e+01     0.342417    0.1725917  55.30  0.001231792    2.046    0.511
       170  -9.9228    125.3010     36.3603   5.4144939523e+01   4.9598822837e+01    0.4194694    0.2392757  80.08  0.001641567    2.380    0.580
       171 -12.1957    244.5125     34.1418   3.7953014041e+01   2.1664458060e+01    0.4330349    0.3873462  76.01  0.002291986    1.328    0.247
       172 -12.0417    236.5178     31.7179   3.7981518318e+01   2.3539020002e+01    0.6532736    0.3647655  -1.74  0.002826918    3.231    0.691
       173  -9.2048    123.9983    205.9916   9.6021754927e+01   1.6069378737e+01    0.1679372    0.1346659   4.99  0.001038135    1.414    0.293
       174  -9.5325    220.9846     36.5084   4.0477048664e+01   2.6230575226e+01    0.1783497    0.1278913  76.97 0.0005203136    1.537    0.349
       175 -10.0390    155.3052     33.1379   4.7367369921e+01   4.2354264382e+01    0.7292418    0.1910022  49.63  0.001808374    4.305    0.768
       176  -9.9004    147.0136     35.0000   4.9383941435e+01   4.4233007267e+01     0.391908    0.1645755  56.49  0.001497577    2.287    0.563
       177  -9.0130    143.0433     35.0000   5.0088834091e+01   4.5252781173e+01    0.3152973    0.1878757  80.12  0.001000691    1.980    0.495
       178  -9.1721    134.9756     34.6976   5.1500224465e+01   4.7366243673e+01    0.2019043     0.192782  74.04 0.0003751519    1.040    0.038
       179  -9.2015    100.9517    175.9446   9.7203079924e+01   2.5266729774e+01    0.1715521    0.1617686  21.26            0    1.137    0.121
       180  -9.3944    219.7159     32.4324   3.9543358622e+01   2.6991540979e+01    0.2063254     0.154199  -1.64 0.0006618035    1.719    0.418
       181  -9.4913    193.6835     32.1942   4.2033854586e+01   3.2949109149e+01    0.2185256    0.1739338 -82.06 0.0006655254    1.273    0.214
       182  -9.1617    113.6206     32.0540   5.5124693114e+01   5.3162012335e+01    0.2056189    0.1400929 -10.62 0.0009024092    1.798    0.444
       183  -9.6163    181.1964     31.2308   4.3182820845e+01   3.6084370568e+01    0.2016855    0.1948217  42.41 0.0007477468    1.178    0.151
       184  -9.6621     93.9228     31.1719   6.0087370119e+01   5.8079716956e+01    0.3603606    0.2030184  73.03   0.00139632    2.605    0.616
       185  -8.4930     23.2875    166.3264   1.1605015842e+02   3.7050735834e+01    0.1177188   0.08989812 -50.28  0.000291399    1.610    0.379
       186 -10.0177     88.9532     28.4570   6.0377033348e+01   5.9647554646e+01    0.3300817     0.263607 -44.85  0.001107147    1.311    0.237
       187  -9.3274     39.2127    159.1591   1.1124260756e+02   3.7167495779e+01    0.1929164    0.1297823  58.85 0.0008408805    1.347    0.258
       188 -10.3151     36.6308     25.4354   8.1876135894e+01   7.0206503023e+01        0.279    0.2063892 -32.88 0.0006810921    1.244    0.196
       189 -10.5131     29.8168     30.2379   8.8296516182e+01   7.0127320930e+01     0.295288    0.2705778 -51.51 0.0009898242    1.162    0.140
       190  -8.8218     24.6379    154.5077   1.1484327858e+02   3.9715774208e+01    0.1281174    0.1054337  80.16 9.663162e-05    1.041    0.039
       191 -11.2015    167.3586     29.2401   4.4321213339e+01   3.9779828949e+01    0.2536312    0.2473603   5.88 0.0003580254    1.151    0.131
       192 -10.2455     23.1578     29.3954   9.2088660964e+01   7.1048430868e+01    0.3205832    0.2318943  69.04  0.001580714    2.163    0.538
       193 -11.5253      3.2211     27.3916   1.0490882866e+02   7.3036325248e+01    0.4619884     0.238374 -40.12  0.002063028    1.712    0.416
       194 -10.9700      4.2644    147.3161   1.2001778576e+02   4.3080750522e+01     0.215758    0.1762017  75.14 0.0002418915    1.018    0.018
       195  -9.5743    228.0199     27.3145   3.7558613287e+01   2.5802556420e+01    0.1690865    0.1487209 -72.01 0.0004193689    1.150    0.130
       196  -9.5133     40.9237    146.5038   1.0949720497e+02   4.0049277439e+01    0.1901979     0.126739  33.10 0.0006811614    1.524    0.344
       197 -10.9064    131.1121     19.8157   4.6538204142e+01   5.0260081927e+01    0.4706366    0.2958682  71.85  0.001414405    1.588    0.370
       198 -10.8294     50.1219     24.3072   7.3910891751e+01   6.8284576916e+01    0.3910888    0.2911503 -23.24  0.001439726    1.335    0.251
       199 -11.0622     12.5154     24.8791   9.7362861021e+01   7.2995718054e+01    0.2809882    0.2103838 -32.17  0.000441425    1.211    0.174
       200 -10.0199    179.8575     25.1021   4.1474518986e+01   3.7148690427e+01    0.2177608     0.188099 -79.93 0.0002745639    1.117    0.105
       201  -9.3696    115.3527    144.7927   8.8365562887e+01   2.9677942790e+01    0.2049902    0.1764452  46.94 0.0007559334    1.131    0.116
       202  -9.4841    160.8023     25.2820   4.3909460954e+01   4.1926830158e+01    0.2341125    0.1718984 -76.43  0.001067958    1.427    0.299
       203  -9.2844     42.0433     24.4845   7.8287269388e+01   6.9582012326e+01    0.2097997    0.1617081 -37.64 0.0005854514    1.209    0.173
       204  -8.7900    184.9885     23.9484   4.0560304829e+01   3.6021439513e+01    0.1649654    0.1430044 -46.30 0.0003354957    1.065    0.061
       205  -9.3455    147.6917     24.0692   4.5395600588e+01   4.5450247524e+01    0.1962356    0.1847499 -38.76 0.0005219713    1.082    0.076
       206  -8.6658    127.3742     24.3072   4.8996140483e+01   5.0691338095e+01    0.1570629    0.1044014  34.21  0.000703101    1.771    0.435
       207 -12.5550     12.1227    125.7534   1.1628082473e+02   4.7846241888e+01    0.4042966    0.3443295  79.95 0.0004348136    1.035    0.033
       208 -11.4497      6.6974    138.9903   1.1885893677e+02   4.4931595103e+01    0.8069793    0.2415948 -83.44  0.003124116    2.983    0.665
       209 -10.1993    110.8730     17.8425   4.9697821627e+01   5.5705522561e+01    0.3154203    0.2148513  60.62 0.0005072565    1.403    0.287
       210 -12.2819     13.2895    133.6762   1.1653604611e+02   4.5770611370e+01    0.6082195    0.4999568 -52.61  0.002461148    1.380    0.276
       211  -9.8265     68.6081     22.8120   6.4786990983e+01   6.4986791598e+01    0.2217344    0.1798981  30.36 0.0004851567    1.230    0.187
       212  -8.9999     29.6810    142.7208   1.1240205898e+02   4.2122982744e+01    0.1249572   0.09634987 -42.79 0.0004356101    1.579    0.367
       213  -9.5847     64.1909    131.2041   1.0045371359e+02   4.1039332067e+01    0.2043119    0.1571219  71.11  0.000555266    1.328    0.247
       214 -12.0079     42.6072    128.3594   1.0681475868e+02   4.4419301989e+01    0.5491617    0.4338343 -37.97  0.003040449    1.516    0.340
       215 -10.2195     55.8598    125.7957   1.0220221083e+02   4.3502955307e+01    0.2908623    0.2110612 -85.10 0.0005855299    1.367    0.269
       216  -9.5340    150.0802     29.1423   4.6815444535e+01   4.4209825171e+01    0.2253618     0.194024  34.21 0.0006170393    1.305    0.234
       217 -10.4645     66.7896    124.8272   9.8560774094e+01   4.2282269759e+01    0.2926216    0.1456104 -50.12  0.001209567    2.068    0.516
       218 -10.0856     90.5552    122.4214   9.0752493883e+01   3.9181573355e+01    0.3033302    0.2641205 -10.28 0.0007932368    1.399    0.285
       219 -11.2333     75.4384    120.0749   9.4933131411e+01   4.2201798430e+01    0.2480987     0.222756  49.63 0.0002344074    1.124    0.110
       220 -12.1342     39.1707    115.2401   1.0611789039e+02   4.8165414767e+01     0.752246    0.5431309  83.13  0.003504918    1.371    0.270
       221 -10.7292     27.9262    119.5752   1.1050858826e+02   4.8147088173e+01    0.2982682    0.2341513  64.36  0.001234731    1.219    0.180
       222 -10.4473     44.1392    120.6410   1.0523540263e+02   4.6227878671e+01    0.2395106    0.1734326 -86.76 0.0003345413    1.322    0.244
       223  -8.5414     61.2719    120.3339   9.9536957038e+01   4.4183451581e+01     0.144156    0.1056728 -38.69 0.0004185224    1.595    0.373
       224 -10.2673     64.0872     18.1257   6.4081272408e+01   6.6625608979e+01    0.3128448    0.2266264   6.97  0.001339858    1.612    0.380
       225 -10.4239     20.2210    118.2797   1.1294766516e+02   4.9137978891e+01    0.3190366       0.2218 -88.72  0.001765523    1.272    0.214
       226 -10.0734    116.2679    116.7220   8.2058202582e+01   3.5821796186e+01    0.2645422    0.2460547   7.16 0.0006393515    1.179    0.152
       227  -9.4386     69.9487     17.1867   6.1241816685e+01   6.5525304202e+01    0.2392872    0.1409746  30.02  0.001073335    1.991    0.498
       228 -10.9665     15.3777    100.7728   1.1272195719e+02   5.4029113885e+01    0.4356956    0.2149134 -75.93 0.0009200077    1.737    0.424
       229 -10.4851      7.1725    106.5303   1.1630992939e+02   5.3076406202e+01    0.3188066    0.2490173  89.94  0.001237305    1.083    0.076
       230 -11.4949      8.2811    112.8335   1.1647558475e+02   5.1392376305e+01    0.6019475    0.2519163 -70.38  0.002475251    1.979    0.495
       231 -10.4071      3.5256    113.1816   1.1811984519e+02   5.1591185875e+01    0.3058972    0.2219907  12.78  0.001151162    1.688    0.408
       232 -10.5366     16.7081    109.9143   1.1326842677e+02   5.1565276465e+01    0.5300374    0.3020839  -9.09   0.00246123    2.632    0.620
       233 -10.8948     12.8581    107.1857   1.1434719690e+02   5.2543330282e+01    0.3594011    0.3183301 -16.73  0.002271652    1.389    0.280
       234 -10.0296     17.8131    106.1646   1.1245581970e+02   5.2453850186e+01    0.2914254    0.1844684 -59.37  0.001026129    1.462    0.316
       235  -8.8294     97.6588    115.2975   8.7052833555e+01   3.9653402727e+01    0.1562322    0.1160967  74.53   0.00070336    1.664    0.399
       236  -8.8086     83.7113    113.6618   9.0971986056e+01   4.2471589352e+01    0.1508387    0.1150387 -27.68 0.0006833125    1.638    0.390
       237  -9.2636     59.2313    112.6184   9.8806321483e+01   4.6430121583e+01    0.1836149    0.1420289  15.93 0.0003099901    1.560    0.359
       238  -9.1781     47.4442    111.4600   1.0265581463e+02   4.8219053215e+01    0.1417253    0.1282128 -78.42 3.961182e-05    1.024    0.024
       239 -11.2998     33.1744    119.8784   1.0878899192e+02   4.7575427972e+01    0.4129553    0.3145424  32.86  0.001604374    1.409    0.290
       240  -8.9141    113.4654    107.5135   8.0553340058e+01   3.8461914539e+01    0.1515739    0.1478771 -34.48 7.277109e-05    1.052    0.049
       241 -12.2750    145.2028    100.2948   7.0415261840e+01   3.3320350187e+01    0.7218997     0.354448  33.32  0.002515817    2.878    0.652
       242  -9.5504     26.9779    102.8204   1.0866597122e+02   5.2579203169e+01    0.2089504    0.1724616 -48.43  0.001003066    1.273    0.214
       243  -9.6761    133.4779    102.0111   7.3739798295e+01   3.5511564235e+01    0.3188126    0.1870826 -45.17 0.0008526167    1.667    0.400
       244  -9.4928    132.5152     98.0496   7.2900004128e+01   3.6550865039e+01    0.2454425    0.2144314 -84.28 0.0006229831    1.300    0.231
       245 -10.1724    181.3873     15.7508   3.8462893236e+01   3.7811453149e+01    0.3430439    0.1678793  71.07  0.001341432    2.020    0.505
       246  -9.5472     62.6198    102.3332   9.5545887910e+01   4.8589426001e+01    0.2493925    0.1721859  48.42 0.0006325128    1.518    0.341
       247 -10.3632     48.8509    101.7239   1.0038641882e+02   5.0571337866e+01    0.2822122    0.1861577 -65.44 0.0007434755    1.384    0.277
       248  -9.4850     45.7377     98.9381   1.0100054073e+02   5.1665663993e+01    0.2575504    0.2084091  34.96  0.001405634    1.331    0.248
       249 -10.9714      4.1621    100.0093   1.1681398734e+02   5.4923392644e+01    0.4375587    0.2155781 -71.20  0.001165322    1.673    0.402
       250 -11.9966      4.1988     87.1752   1.1553338993e+02   5.8221778537e+01    0.9263581    0.4180038 -69.75  0.004382511    1.785    0.440
       251  -8.6215    108.6660    101.2310   8.0287739829e+01   4.0850496444e+01    0.1499409    0.1175826  72.93 0.0002392995    1.531    0.347
       252  -9.8608     53.8461    100.8525   9.8386241297e+01   5.0166688172e+01    0.1985724    0.1603654  78.45 0.0004396009    1.300    0.231
       253 -10.4334     10.6667     99.3462   1.1432544101e+02   5.4712993086e+01    0.2875887    0.1012859 -56.87  0.001174145    2.469    0.595
       254  -9.5202     33.5243     99.4877   1.0570001316e+02   5.2839860174e+01    0.2581543    0.1399725  23.75  0.001185459    2.079    0.519
       255 -11.1922     25.4897     96.7818   1.0834357226e+02   5.4282174895e+01    0.4907098    0.4204071  48.17   0.00216503    1.244    0.196
       256 -10.0721     21.3109     91.3352   1.0916524403e+02   5.6042559733e+01    0.2915116    0.1932225  65.70 0.0007676896    1.617    0.382
