#   1 NUMBER                 Running object number                                     
#   2 MAG_AUTO               Kron-like elliptical aperture magnitude                    [mag]
#   3 X_IMAGE                Object position along x                                    [pixel]
#   4 Y_IMAGE                Object position along y                                    [pixel]
#   5 X_WORLD                Barycenter position along world x axis                     [deg]
#   6 Y_WORLD                Barycenter position along world y axis                     [deg]
#   7 A_WORLD                Profile RMS along major axis (world units)                 [deg]
#   8 B_WORLD                Profile RMS along minor axis (world units)                 [deg]
#   9 THETA_WORLD            Position angle (CCW/world-x)                               [deg]
#  10 FWHM_WORLD             FWHM assuming a gaussian core                              [deg]
#  11 ELONGATION             A_IMAGE/B_IMAGE                                           
#  12 ELLIPTICITY            1 - B_IMAGE/A_IMAGE                                       
         1 -12.3348     20.8542     17.2433   6.0630542584e+01   7.2709474903e+01    0.4130418    0.3252068 -11.10  0.002678568    1.210    0.173
         2 -11.1683     49.5317     13.8199   4.2691073734e+01   6.9334200917e+01    0.2931917    0.2676025   0.10  0.001065193    1.135    0.119
         3 -10.8472     45.4864     12.0065   4.3576781926e+01   7.0280082762e+01     0.301006    0.1962769 -10.27  0.001404539    1.619    0.383
         4 -10.4926     35.1331     13.3566   4.9879872462e+01   7.1651354441e+01    0.2546675     0.191867  -7.88 0.0009152935    1.250    0.200
         5  -9.8642     32.4821     10.5066   4.9663462416e+01   7.2484577449e+01    0.1767864     0.110723 -43.77 3.225688e-06    1.637    0.389
         6 -11.2824    162.2597     11.1499   1.2687569532e+01   4.2917798360e+01    0.2802518    0.1738914 -44.76  0.000952632    1.592    0.372
         7 -11.2252     27.7666     11.4612   5.3056711308e+01   7.2952568771e+01    0.2345708    0.1519796 -35.62 0.0007329277    1.321    0.243
         8 -11.9339    183.7095      8.9708   9.6102821544e+00   3.7547831041e+01    0.4584164    0.2143558 -33.35   0.00200671    1.945    0.486
         9 -10.3399    104.1546     10.6922   2.2404487089e+01   5.8052431073e+01    0.4971188    0.2467379  65.40  0.002108719    2.062    0.515
        10 -10.3870     98.9681      8.4977   2.2584502211e+01   5.9542482692e+01    0.2357237    0.1896711 -35.30 0.0008514497    1.321    0.243
        11  -9.5467     96.4778      5.5441   2.1733012142e+01   6.0431422933e+01    0.2223447    0.1331993 -20.00 2.177686e-05    1.688    0.408
        12 -10.7975    119.9942      8.9898   1.8315518164e+01   5.4227298155e+01    0.2946083    0.2041712 -24.42 0.0003815439    1.474    0.321
        13 -11.4024    123.4705      6.2827   1.6527244095e+01   5.3581328175e+01     0.331662    0.2640154  81.10  0.001041849    1.300    0.231
        14 -10.4904     73.0476     10.0000   3.0881470179e+01   6.5310922022e+01    0.2854162    0.1804001  51.18 0.0009904278    1.575    0.365
        15 -10.8527     69.8563      8.5241   3.1163583256e+01   6.6156105857e+01    0.3421209    0.1885355 -12.17  0.001576712    1.982    0.495
        16 -10.7674     78.0334      7.9376   2.8092816510e+01   6.4463461255e+01    0.3195893    0.2060715  37.58 0.0004709808    1.481    0.325
        17 -10.2685     74.5142      6.5211   2.8436849579e+01   6.5386744581e+01    0.2215773    0.1736639 -28.91  0.001227947    1.317    0.241
        18 -11.6877     56.1957      8.9709   3.6767751644e+01   6.8815175765e+01    0.4106045    0.2972051  35.99  0.001478048    1.349    0.259
        19 -12.7220    177.5139      7.8398   9.8744796494e+00   3.9251717346e+01    0.4206368    0.3030311 -80.49  0.001732593    1.395    0.283
        20 -13.0824    175.0406      3.3649   8.6896223852e+00   4.0305623210e+01    0.8620759    0.3638304  81.47  0.003410249    2.485    0.598
        21  -9.3564    213.4639      8.4423   6.8955923479e+00   3.0231240008e+01    0.1289569    0.1198031 -59.67  0.000805318    1.085    0.078
        22 -11.8468     86.2834      7.1329   2.5200408933e+01   6.2685196190e+01    0.4299548    0.2544729  36.53 0.0008361951    1.666    0.400
        23  -9.1251     40.3354      8.3206   4.3929145353e+01   7.1652348260e+01    0.1352151   0.08840895   1.70 0.0007049845    1.705    0.414
        24 -11.9530    188.3713      5.1360   8.0019481798e+00   3.6726697014e+01    0.3844209    0.2384655  89.40  0.001334002    1.627    0.385
        25 -11.2350      3.4490      8.1670   6.7863800034e+01   7.5943341649e+01    0.2621959     0.174025 -51.19  0.001199007    1.299    0.230
        26  -9.9523    203.3875      4.7285   6.6386980942e+00   3.3025546898e+01    0.2203965    0.1427944  54.05 0.0005752236    1.710    0.415
        27 -11.7187     20.5193      3.6445   5.2725392787e+01   7.5131171309e+01    0.2698741    0.2512316   5.00  0.001185988    1.348    0.258
        28  -9.8748    134.6657      4.2920   1.3900551843e+01   5.0834574504e+01    0.2163555    0.1417597 -22.91 0.0004963957    1.575    0.365
        29 -10.7871    131.4725      3.5113   1.4070478948e+01   5.1738759246e+01    0.2499748    0.2107362  77.44 0.0005747364    1.162    0.140
        30 -11.0011     37.8993      2.3497   4.1275654408e+01   7.2870747049e+01    0.2678726    0.2007742  24.69  0.001102261    1.284    0.221
        31 -10.2295    143.1315      1.8333   1.1761457551e+01   4.8813379719e+01    0.2085264    0.1774379 -66.95 0.0002779406    1.203    0.169
        32 -11.3922    114.4365      1.8076   1.6192258361e+01   5.6289823475e+01    0.4593555    0.1884807  67.54  0.001188098    2.306    0.566
        33 -11.6942     84.9874    173.1937   7.5772392676e+01   2.8078733438e+01    0.2835934    0.2159005 -42.83  0.001592567    1.621    0.383
        34 -15.1816     27.3881    193.4552   9.0770621089e+01   3.0803180109e+01     2.022376     1.262629  89.34   0.01289217    1.410    0.291
        35 -12.4344      1.7222    248.3642   9.7764783034e+01   2.3112380371e+01    0.3679359     0.181047 -88.12  0.002521657    1.897    0.473
        36 -13.0516      2.3115    236.8200   9.7361187874e+01   2.4992398067e+01    0.6503685    0.2417278 -83.05  0.003921065    2.525    0.604
        37 -13.0744      6.4184    227.1642   9.6359431807e+01   2.6313981973e+01    0.4713721    0.2839723  49.44  0.001587843    1.269    0.212
        38 -13.3856      5.7466    220.5948   9.6263097224e+01   2.7565146946e+01    0.7222688     0.405506  47.97   0.00509396    1.372    0.271
        39 -13.7446     20.3558    214.8139   9.3314889645e+01   2.7275235559e+01     1.174549     0.521528  61.60  0.005161205    1.804    0.446
        40 -11.9632     63.4168    171.7855   8.0771380746e+01   3.1359886929e+01    0.2627314    0.1748505 -62.14  0.001363129    1.539    0.350
        41 -14.3130     31.4624    238.3945   9.2357907449e+01   2.1902543941e+01     1.508506    0.8410782 -70.64  0.008312886    2.012    0.503
        42 -11.4345     56.1600    169.3131   8.2251562466e+01   3.2829863280e+01    0.2148549    0.1586047 -68.21 0.0004858492    1.348    0.258
        43  -8.8793      6.2842    169.6647   9.4036395612e+01   3.7816738237e+01    0.1257879   0.06456129  65.46 0.0004756029    1.622    0.384
        44 -12.5536     32.1416    167.6158   8.7879728318e+01   3.5917062049e+01    0.3619231    0.1938788  57.50  0.001953436    1.678    0.404
        45 -11.9553     26.9104    162.3336   8.8715895313e+01   3.7640269128e+01    0.4059412    0.3163094  -8.71   0.00213351    2.007    0.502
        46 -12.0342     21.3773    160.8153   8.9945037969e+01   3.8508814602e+01    0.4442831    0.1415959  30.26  0.001948635    3.083    0.676
        47 -10.0837     71.6821    159.3130   7.7189579140e+01   3.3089910562e+01    0.1430226   0.09208692  68.08 0.0003934237    1.646    0.393
        48 -11.1621    249.3227    156.8704   3.9096498166e+01   2.7951078865e+00    0.3316806    0.1004993 -24.68  0.001102792    4.226    0.763
        49 -10.9659     55.8543    158.1564   8.1073814345e+01   3.5430644147e+01    0.1879349    0.1580927  86.15 0.0004804185    1.045    0.043
        50 -11.7141     52.8365    155.4482   8.1529351186e+01   3.6434386736e+01    0.3117195    0.2203324  -3.47  0.001578922    2.384    0.580
        51 -11.5304     18.1480    248.8993   9.5073030218e+01   2.1486881693e+01    0.4365729    0.1830656  58.39  0.002846009    1.711    0.415
        52 -10.7269     63.3403    155.0970   7.8769729155e+01   3.5195561723e+01    0.2137227    0.1847647  32.67 0.0004017882    1.317    0.241
        53 -11.4583    249.3886    147.4065   3.7128636873e+01   4.0478758576e+00    0.3333088    0.1411922 -18.39  0.001318029    3.005    0.667
        54 -11.5624    240.1603    147.1780   3.8491753148e+01   5.5869923032e+00    0.1734452    0.1494835 -36.50  0.001092642    1.359    0.264
        55 -10.6719    241.6512    132.6871   3.5119530089e+01   7.3857099030e+00    0.1379848   0.09173075   5.22 0.0007046348    1.719    0.418
        56  -9.3196     58.3270    129.2962   7.6431697741e+01   4.2101606973e+01    0.1359277    0.1035157 -36.18 0.0002825711    1.630    0.386
        57 -10.9493     19.7157    241.4799   9.4539196867e+01   2.2565792344e+01    0.1899263    0.1336953  52.11 0.0002925793    1.140    0.123
        58 -11.6537    247.2346    125.4980   3.2697601805e+01   7.4368070569e+00     0.307942    0.1707639 -54.27  0.001306477    3.077    0.675
        59  -9.7705    103.1412    119.9274   6.1570911241e+01   3.7399428105e+01    0.2150537    0.1927598  86.20 0.0002485061    1.158    0.137
        60  -9.2891     91.5001    116.4474   6.4129032128e+01   4.0298725181e+01    0.1479442    0.1406978 -59.76 0.0001428374    1.055    0.052
        61  -9.2133    153.2576    113.7018   4.7097628719e+01   2.8552330428e+01    0.1475754    0.1209247 -73.89 0.0002578189    1.503    0.335
        62 -10.5892      2.1224    111.5664   9.1275845464e+01   5.1776318245e+01    0.2305443    0.1595877 -80.22 0.0003393258    1.138    0.121
        63  -9.4533     79.7498    110.4112   6.6317437387e+01   4.3724920483e+01    0.1769797    0.1461129  19.83 0.0003378827    1.449    0.310
        64 -10.4672     18.0380    108.3229   8.5900820271e+01   5.1517749217e+01    0.2225321    0.1806189 -55.52 0.0005962832    1.264    0.209
        65 -11.2877    247.0009    106.7995   2.8462372432e+01   1.0132628228e+01    0.2043151    0.1289174 -44.91  0.001056895    1.622    0.383
        66  -9.0071     96.5553    111.4772   6.1480158986e+01   4.0605346175e+01    0.1505554    0.1423297 -58.84  0.000176384    1.032    0.031
        67 -13.7649      5.7442    201.6291   9.5578989877e+01   3.1180042158e+01     1.468911    0.5584689 -81.35  0.008000148    2.329    0.571
        68  -9.9227     27.7569     99.8540   8.1464311215e+01   5.2862339725e+01    0.3303103    0.1562115 -35.21  0.001337653    3.070    0.674
        69 -10.1954     63.7335     96.0879   6.8227773185e+01   4.9700907676e+01    0.2936474    0.1978941 -58.58  0.001135194    1.332    0.249
        70 -11.4994      4.0167     96.2656   8.9178184363e+01   5.5457398016e+01    0.2583836    0.2197087 -50.93  0.000491148    1.283    0.221
        71 -11.1769    132.3967     92.7281   4.6378924165e+01   3.7548838488e+01    0.2691476    0.2635407  36.84  0.000422203    1.056    0.053
        72  -9.4051     78.2084     88.1646   6.1238291849e+01   4.9407192109e+01    0.1956303    0.1707008  85.73 0.0004305348    1.278    0.218
        73  -9.0599     88.3483     85.7639   5.7167663246e+01   4.8200533671e+01     0.146846     0.116724  74.60 0.0002549136    1.564    0.361
        74  -9.1777     12.4342     85.5180   8.4780653051e+01   5.7640637701e+01    0.1317526    0.1039796 -68.99  0.000173418    1.041    0.040
        75 -11.6298     54.6861     78.9609   6.7161763648e+01   5.5171409388e+01    0.3036181    0.2404784 -77.33 0.0003637145    1.337    0.252
        76  -9.1236    216.2616     78.2933   2.5665698469e+01   2.0592097466e+01      0.13719     0.107765   4.50 0.0001686139    1.500    0.334
        77  -9.5039     78.0890     77.9239   5.8273961175e+01   5.1847498599e+01    0.2066175    0.1853822 -72.65            0    1.177    0.150
        78  -9.8722      2.0070     75.4974   8.7362195038e+01   6.0711546591e+01    0.1721379    0.0813431 -33.00 0.0008105158    2.555    0.609
        79  -9.5025      7.8440     68.7716   8.3910218536e+01   6.2069072061e+01    0.1660746    0.1309888  83.86 0.0003860007    1.303    0.233
        80  -8.9234     83.3303     68.2451   5.3276517732e+01   5.3099459179e+01    0.1449086    0.1153794  -2.70 0.0002133324    1.543    0.352
        81  -9.6483    151.9639     66.6810   3.3538779304e+01   3.7938880997e+01    0.2135293    0.2062684  61.86 0.0004769627    1.073    0.068
        82  -9.3591    204.4915     65.5221   2.3876236411e+01   2.5210540228e+01    0.1493074    0.1321617 -45.43  0.000721814    1.059    0.056
        83  -9.3474    192.2240     65.6634   2.5772637060e+01   2.8120221512e+01    0.1523939    0.1029884 -51.82 0.0003048185    1.527    0.345
        84  -9.3357    126.4292     64.7897   3.8938371320e+01   4.4535388575e+01    0.2012715    0.1493973 -25.11 0.0004256022    1.417    0.294
        85  -8.8181     75.4743     64.5605   5.4814805183e+01   5.5328365684e+01    0.1473113    0.1364052 -41.21 0.0001420164    1.024    0.023
        86  -9.9705      4.6465     64.1002   8.4468424685e+01   6.3378350305e+01    0.1856906    0.1268237 -65.00 0.0006892521    1.141    0.124
        87 -10.0240     43.4724     62.1937   6.6859450856e+01   6.0602615133e+01    0.2558611    0.1760258  52.09  0.001302577    1.842    0.457
        88 -10.0052    231.4071     60.7992   1.9114556844e+01   1.9789342765e+01    0.1991929    0.1232326 -18.86 0.0009482671    1.693    0.409
        89  -9.0541    114.9333     61.2858   4.0795446003e+01   4.7896161496e+01    0.2417701    0.1294923  72.64 0.0007021407    4.148    0.759
        90  -9.8134     98.6120     60.6152   4.5430503287e+01   5.1651328199e+01    0.2809777    0.1731874 -60.04   0.00101479    2.163    0.538
        91 -10.1148     34.9020     61.0367   7.0260542957e+01   6.1829857367e+01    0.2033666    0.1682836 -43.11 0.0004154128    1.097    0.088
        92  -9.8760     57.8648     59.7920   6.0003115082e+01   5.9236824429e+01    0.2040686    0.1789855 -20.70 0.0004282327    1.160    0.138
        93 -10.0842     22.2793     57.9862   7.5144914268e+01   6.3718118133e+01    0.1881532    0.1447231 -57.14 0.0003755268    1.065    0.061
        94  -9.0826    169.4675     56.4520   2.6777772843e+01   3.5216153754e+01     0.151329    0.1461831 -36.49 9.790972e-05    1.021    0.020
        95  -9.7384     78.0136     55.7337   5.0634846344e+01   5.6753005718e+01     0.199936    0.1932168   4.06 0.0004057023    1.084    0.077
        96  -9.2783     96.6225     55.4721   4.4120497403e+01   5.3085314422e+01    0.1509829    0.1389291 -29.71 0.0001885653    1.030    0.029
        97  -9.0916     72.2553     52.6052   5.1586350442e+01   5.8443880484e+01    0.1449562      0.11177 -69.54 0.0006959944    1.694    0.410
        98 -10.7551      3.1224     59.4575   8.4311725378e+01   6.4577361722e+01    0.2642267    0.2106112 -41.35  0.000934286    1.258    0.205
        99  -9.0642     23.6680     50.3168   7.2319344065e+01   6.5408387034e+01    0.1258654   0.09765474  76.02 0.0007047207    1.688    0.407
       100 -11.0341     93.9898     48.6850   4.2283025142e+01   5.4928814723e+01    0.2532072    0.2035892 -33.27 0.0002139183    1.185    0.156
       101  -9.9630      7.0307     45.7603   7.9438574984e+01   6.7635774628e+01     0.236848    0.1144096 -53.05 0.0005740473    1.576    0.365
       102  -9.7094     20.7715     44.7810   7.2051154181e+01   6.6923963887e+01    0.1616116    0.1405588 -78.48 0.0003618473    1.290    0.225
       103  -9.8247     39.5003     43.9832   6.2382080029e+01   6.5195283571e+01    0.2782623    0.1405812 -41.49  0.001285398    1.764    0.433
       104 -10.8585     36.4925     43.4108   6.3629143542e+01   6.5675724741e+01     0.222084    0.1932144   7.80 0.0006308216    1.260    0.206
       105  -9.7687    119.3093     41.9592   3.2250935314e+01   5.0218032315e+01    0.3560696    0.1355659 -31.86  0.001221743    2.577    0.612
       106  -8.9140     71.2895     42.3880   4.7734062508e+01   6.0637993888e+01    0.1519651    0.1063546  -9.91 0.0007010325    1.760    0.432
       107  -9.6570     45.0526     42.4738   5.9126469063e+01   6.4807941905e+01    0.1854137    0.1342504  22.44 0.0007275031    1.542    0.352
       108  -9.4244     96.0918     38.0331   3.7128733542e+01   5.6318314875e+01    0.1707064    0.1610654   3.52 0.0004059824    1.019    0.019
       109 -10.8031     39.4516     36.6875   5.9428507381e+01   6.6738941686e+01    0.4324966    0.2643372   7.07  0.002077708    2.217    0.549
       110  -9.4106     81.9859     35.9438   4.0869476448e+01   5.9703764277e+01    0.1743218    0.1509578 -23.58 0.0003472288    1.083    0.077
       111  -9.3628     58.1455     34.6355   4.9684585723e+01   6.4394406823e+01    0.1916769    0.1251623  25.14 0.0009423264    1.730    0.422
       112 -10.2252     51.2416     32.8395   5.1964692834e+01   6.5837931823e+01    0.2571537    0.1901926  47.12   0.00139702    1.656    0.396
       113  -9.8864    154.0867     31.9271   2.1181078197e+01   4.2718226957e+01    0.2190099    0.2134218  49.85 0.0004239012    1.050    0.048
       114 -10.2978     17.5721     31.4243   6.9075312313e+01   7.0142249457e+01     0.219887    0.1723041 -44.10 0.0005180195    1.028    0.027
       115  -9.8304     83.3988     31.3928   3.8272125310e+01   6.0153435853e+01    0.3713522    0.1149037  44.13   0.00120247    3.341    0.701
       116 -10.6102      3.7215     31.2144   7.7151380248e+01   7.1123691527e+01    0.2017867    0.1678496  14.46 0.0003860601    1.458    0.314
       117  -9.4301     64.9521     30.1841   4.4648918489e+01   6.3998821572e+01    0.1946362    0.1481338 -52.34  0.001019902    1.563    0.360
       118  -9.1935    180.9613     29.7977   1.6464707284e+01   3.5969335089e+01    0.1829886    0.1132646  68.65 0.0002380856    1.637    0.389
       119  -8.9884    104.2663     28.2726   3.0444595783e+01   5.5898152646e+01    0.1434913    0.1075109  20.44 0.0001865844    1.473    0.321
       120  -9.9271    160.7998     27.1367   1.8420826565e+01   4.1550658978e+01    0.2229513    0.1866035 -55.63  0.000510527    1.196    0.164
       121  -9.9336    153.0803     27.5383   1.9782067311e+01   4.3535060726e+01    0.2145055    0.1445568  69.88 0.0004178341    1.502    0.334
       122  -9.9217    119.8121     26.1108   2.5650642002e+01   5.2357608191e+01    0.2909397    0.1668076  35.67  0.000829504    1.988    0.497
       123  -9.5694    202.9268     25.5240   1.2619790730e+01   3.0941402393e+01    0.1873472      0.13484  73.41 0.0002827443    1.435    0.303
       124 -10.0453    110.8276     24.5677   2.7110188209e+01   5.4800045872e+01     0.273982    0.2154677 -79.63  0.001286613    1.611    0.379
       125  -9.0216     49.6391     24.2446   4.8443219504e+01   6.7640822962e+01    0.1183288    0.1077484  82.09 0.0003086588    1.602    0.376
       126 -11.3037    138.8853     22.1576   2.0212684670e+01   4.7914198564e+01    0.4863177    0.1892047  57.87  0.001627534    2.338    0.572
       127 -12.2958     96.4716     21.9730   2.9718930620e+01   5.8590467616e+01    0.3553053    0.2925431  70.11 0.0004731942    1.386    0.279
       128 -10.2557     86.0129     21.5957   3.2677548726e+01   6.1027327743e+01    0.3677924     0.227845 -63.32  0.001484853    2.877    0.652
       129 -10.9254     38.3103     22.5763   5.3299623230e+01   6.9618817365e+01    0.2397605    0.1995017 -20.63 0.0004616423    1.021    0.020
       130  -9.2348     35.4893     19.4843   5.3176507837e+01   7.0555866657e+01     0.130881    0.1089953 -21.62 -1.337275e-05    1.008    0.008
       131 -10.1844    196.0242     22.5047   1.2457878656e+01   3.2998781891e+01    0.2081305    0.1354176  73.26 0.0005264566    1.567    0.362
       132  -9.3570     72.5598     22.4585   3.7758279694e+01   6.3762208259e+01     0.140147    0.1243246  -0.76 6.672638e-05    1.021    0.021
       133  -9.4636     41.2385    249.2221   9.1158660481e+01   1.9062187075e+01    0.1447628   0.08040587  55.76 0.0002433908    1.313    0.238
       134 -10.8594     31.4658     20.3616   5.5909100914e+01   7.0919180112e+01    0.2765728    0.1135484  37.63  0.001228171    2.789    0.641
       135  -9.3574     48.5356     19.4898   4.6413124172e+01   6.8615998878e+01    0.1337041    0.1148708 -14.39 0.0002063976    1.020    0.019
       136 -11.4557     11.9862     17.7182   6.6615753060e+01   7.3433655310e+01    0.3503422     0.197486  -6.38  0.001857287    2.174    0.540
       137 -10.5092      5.5669     19.6001   7.1742339541e+01   7.3514440615e+01     0.251157    0.1029282  24.76  0.001242197    2.776    0.640
       138  -9.6949    147.5954     18.1742   1.7247005808e+01   4.6067301353e+01    0.1991091    0.1401404  -3.45 0.0007722962    1.655    0.396
       139  -9.5713     70.2626     18.3782   3.6475088820e+01   6.4811778072e+01    0.1767548    0.1321352  58.37 0.0004277532    1.591    0.372
       140 -10.2313     66.1280     16.1227   3.6835579086e+01   6.5949858297e+01    0.2085931    0.1676131   8.91 0.0003590919    1.195    0.163
       141 -11.0367    183.4749     14.8314   1.1456978353e+01   3.7016729506e+01    0.2534831    0.1921988  77.02 0.0005359166    1.304    0.233
       142  -9.6775     84.8611     15.6725   3.0057860290e+01   6.2049157567e+01    0.3636605    0.1339072  59.55  0.001310199    3.017    0.669
       143 -10.6904     52.4607    247.0569   8.9083664418e+01   1.8173044528e+01    0.2849362    0.1435702  29.77  0.001705085    2.140    0.533
       144 -10.2547     46.6922    241.4530   8.9797551070e+01   1.9744779173e+01    0.2897289   0.09218213  49.59  0.001528069    2.240    0.553
       145 -11.0522      6.1804     14.9294   6.9247225581e+01   7.4426433325e+01    0.1782199    0.1534303 -60.39  0.001237722    1.317    0.241
       146  -9.7721    127.8815     14.1475   1.9018766951e+01   5.1672974821e+01    0.2056415    0.1582956  39.08 0.0003443439    1.311    0.237
       147 -10.7945     81.8900    238.4200   8.3147498460e+01   1.6049543480e+01    0.3450643    0.1787056  28.19   0.00191996    2.155    0.536
       148 -11.3232     50.6050    233.6670   8.8636116628e+01   2.0631377795e+01    0.3695742    0.1841995  61.06  0.002219719    1.721    0.419
       149  -9.5953    204.1792     13.2537   8.9865740620e+00   3.1982331588e+01     0.188639    0.1359728 -56.83 0.0004237848    1.281    0.220
       150 -11.4736    169.6581     12.7499   1.2335795364e+01   4.0815065588e+01    0.2810597    0.1553178  59.06  0.001230259    1.755    0.430
       151  -9.3325     93.9504     14.0000   2.6573077124e+01   6.0155714402e+01     0.226363   0.07779516  59.63 0.0004419801    2.883    0.653
       152  -9.6330     63.5308    234.3218   8.6273342291e+01   1.9006150560e+01     0.129562    0.1002079 -67.51 0.0009446682    1.572    0.364
       153  -9.2946     74.2717    232.6705   8.4129237371e+01   1.7970758131e+01     0.115428    0.0672094  62.09 0.0002656957    1.586    0.370
       154 -11.7767     94.7429    228.0464   7.9800126700e+01   1.6092153623e+01     0.353247    0.2434267  39.48  0.002324043    1.227    0.185
       155 -10.3850     75.4774    227.4256   8.3482326821e+01   1.8722552015e+01    0.2306519    0.1553007  27.67  0.001462679    1.662    0.398
       156 -11.7913     61.6511    226.5841   8.6084239742e+01   2.0581181240e+01    0.2304908    0.1962432 -76.95  0.001746803    1.380    0.275
       157  -9.2904     50.3114    225.6390   8.8191185110e+01   2.2083026163e+01    0.1229479   0.06167733  61.77 0.0001832252    1.747    0.428
       158 -10.6229     53.4822    223.5098   8.7443176054e+01   2.2101258118e+01    0.1139143   0.08691844  59.37 -1.544576e-05    1.004    0.004
       159  -9.5333    238.6686    220.6873   5.2437588712e+01  -3.4000796460e+00    0.1180766   0.06782632   7.81 0.0007044245    1.676    0.403
       160 -12.5877     45.6993    215.0947   8.8403421175e+01   2.4553552503e+01    0.5510538    0.2134925 -82.11  0.002705268    2.863    0.651
       161 -12.8409     57.1415    211.7292   8.5873586113e+01   2.3861170290e+01    0.5236139    0.2620929  85.02  0.002755817    2.312    0.568
       162 -10.9543     66.4666    213.4617   8.4120980842e+01   2.2389959632e+01    0.1195545   0.09291962  59.44 3.139469e-05    1.029    0.029
       163 -11.3350     51.4296    209.3341   8.6854447718e+01   2.4997600366e+01    0.3036371    0.1333886 -75.32  0.001594629    2.348    0.574
       164 -10.2816     78.1556    212.7498   8.1677584067e+01   2.1022756783e+01    0.2086135   0.09423665  63.39 0.0009393423    2.748    0.636
       165 -10.2806     74.2174    209.6383   8.2201107233e+01   2.2123400855e+01    0.1626899    0.1031646  31.20 0.0009446277    1.636    0.389
       166 -10.6257     94.5026    207.9611   7.7817923756e+01   1.9685112591e+01    0.1670119     0.119083 -68.20 0.0005978144    1.567    0.362
       167  -9.7844     88.3249    206.3326   7.8936807055e+01   2.0854416078e+01    0.1129451   0.09579261 -10.78 0.0007050903    1.709    0.415
       168  -9.8346    249.6926    201.6708   4.7510091209e+01  -2.7543149231e+00    0.1207357   0.07064305   4.01   0.00048764    1.659    0.397
       169 -12.2783     45.2672    190.2561   8.6701045113e+01   2.9554778023e+01    0.4006007    0.2340069  44.21  0.002351085    1.490    0.329
       170 -12.3190     86.3735    185.4295   7.7002589026e+01   2.5276287912e+01    0.4117769    0.2048191 -54.47  0.001991431    2.198    0.545
       171 -12.7031      9.0132    238.5100   9.6271209975e+01   2.4092589719e+01    0.5929243    0.2701652  84.90  0.003222934    1.968    0.492
       172 -11.1294      6.9736    181.6762   9.4475123077e+01   3.5163052328e+01    0.3558241    0.1905388  37.21   0.00182451    1.777    0.437
       173 -12.0216     10.6600    179.0414   9.3548041581e+01   3.5411126172e+01    0.5146787    0.1791208  56.19  0.002497842    2.400    0.583
       174 -11.9746    244.7055    180.9132   4.4533599069e+01   4.0138799406e-01     0.306835    0.2707416 -67.28   0.00198309    2.169    0.539
       175 -11.5182     57.9599    174.6819   8.2386960390e+01   3.1406857510e+01     0.183372    0.1501594  62.52  0.001110746    1.067    0.063
       176 -13.2126     16.1322    231.2914   9.4781333301e+01   2.4672904479e+01     0.873493    0.4410454 -73.02  0.005774376    2.093    0.522
       177 -12.5156      9.3425    247.9841   9.6506205161e+01   2.2476693547e+01    0.6222329    0.1920163  48.40  0.003759419    2.000    0.500
