#   1 NUMBER                 Running object number                                     
#   2 MAG_AUTO               Kron-like elliptical aperture magnitude                    [mag]
#   3 X_IMAGE                Object position along x                                    [pixel]
#   4 Y_IMAGE                Object position along y                                    [pixel]
#   5 X_WORLD                Barycenter position along world x axis                     [deg]
#   6 Y_WORLD                Barycenter position along world y axis                     [deg]
#   7 A_WORLD                Profile RMS along major axis (world units)                 [deg]
#   8 B_WORLD                Profile RMS along minor axis (world units)                 [deg]
#   9 THETA_WORLD            Position angle (CCW/world-x)                               [deg]
#  10 FWHM_WORLD             FWHM assuming a gaussian core                              [deg]
#  11 ELONGATION             A_IMAGE/B_IMAGE                                           
#  12 ELLIPTICITY            1 - B_IMAGE/A_IMAGE                                       
         1 -14.3523    200.4980     15.5158   6.5327143788e+01   3.2878732633e+01     2.821208      1.70654  28.43   0.01111828    2.410    0.585
         2 -13.5150    205.4052      9.2091   6.3092874610e+01   3.2306861627e+01     1.377315      0.66529  49.59  0.001457293    2.269    0.559
         3 -13.6277      5.8323     11.3610   1.1883159987e+02   7.2180287780e+01     1.853742    0.6073753 -44.37  0.009564662    2.204    0.546
         4 -11.9390    120.2998    238.8339   1.3132289528e+02   1.0992116220e+01    0.4515195    0.2569427  85.71  0.002222024    3.038    0.671
         5 -12.1286    138.0032    248.6367   1.2924842475e+02   6.7561189152e+00    0.4240533    0.3153067  23.56  0.002806856    1.616    0.381
         6 -11.1459    111.3939    249.2147   1.3397623658e+02   1.0705364843e+01    0.2586235    0.1697926  74.42  0.001662785    1.677    0.404
         7 -11.9847    106.3031    246.9207   1.3464219799e+02   1.1812859500e+01    0.3570758    0.2270834  37.42  0.001593098    1.531    0.347
         8 -11.7216     98.9901    248.9906   1.3610591157e+02   1.2545914874e+01    0.4508322    0.2053492  51.67  0.002115838    1.741    0.426
         9 -11.5388    101.1502    246.1201   1.3546645237e+02   1.2691001316e+01    0.2921794    0.1801753  56.52 0.0007849315    1.310    0.237
        10 -12.8722     81.3308    247.9796   1.3904631019e+02   1.5174920107e+01    0.7697151    0.2683105  42.16  0.003938315    2.293    0.564
        11 -11.8540     75.6533    242.8130   1.3960047256e+02   1.6794885533e+01    0.3183244    0.1776623  86.88  0.001117578    1.991    0.498
        12 -11.2763     41.3959    206.4993   1.4288301568e+02   2.7726456365e+01     0.321967    0.2811592   7.56  0.000315774    1.920    0.479
        13 -14.9602     33.2302    246.9694   1.4689938645e+02   2.1307242874e+01     8.192692     2.782105  30.90   0.03269712    5.938    0.832
        14  -8.9993    180.4233    232.4838   1.1955882101e+02   2.2497131151e+00    0.1213168   0.09887961  34.14 8.676545e-05    1.013    0.012
        15  -9.0122    229.7158    230.3259   1.1055455162e+02  -5.3493147494e+00   0.09925406   0.09159701  53.20 0.0003037945    1.602    0.376
        16 -11.2488    156.6649    228.4178   1.2335112098e+02   6.7784495851e+00    0.3613221    0.1545663  31.80  0.001531743    2.797    0.642
        17 -10.4593     33.1710    228.8668   1.4587566395e+02   2.4458818730e+01     0.189794    0.1476472  79.29 0.0004395745    1.153    0.133
        18 -10.9355     35.1986    225.2043   1.4530275443e+02   2.4896066676e+01    0.2651041    0.1667785  62.05  0.001044972    1.210    0.173
        19 -15.3560      3.2117    231.0650   1.5088173164e+02   2.7134038183e+01     9.400917    0.1980553 -73.91   0.03058214    8.414    0.881
        20  -9.4126     94.6792    216.9660   1.3371449569e+02   1.8649393769e+01    0.2137157    0.1336269  63.35 0.0005682797    1.487    0.327
        21  -8.9064    152.6625    212.9740   1.2192470465e+02   9.9182835064e+00    0.1621303    0.1509549  53.26 0.0004580538    1.103    0.093
        22 -10.5244    193.4957    195.9811   1.1123919224e+02   5.3799155126e+00    0.5991836    0.3228482 -63.37  0.001990192    5.463    0.817
        23 -11.5436     68.4282    195.9001   1.3664662257e+02   2.6471917458e+01    0.3513024    0.2370962 -46.72  0.001484355    2.045    0.511
        24 -11.6829     73.5406    188.6872   1.3480023972e+02   2.7252829394e+01    0.2656532    0.2313772 -59.33 0.0008511188    1.378    0.274
        25  -9.4045    120.4484    188.1946   1.2477691250e+02   2.0025600033e+01    0.2565011    0.1680109  26.01   0.00125932    1.989    0.497
        26  -9.1332    125.5313    186.0191   1.2335927736e+02   1.9572926116e+01     0.287369    0.1603538  27.88  0.001183531    2.452    0.592
        27 -10.9163     82.4249    176.4236   1.3136347561e+02   2.8569731126e+01    0.2344368    0.2066219  82.76 0.0004462041    1.048    0.045
        28 -13.2653     69.9137    173.9711   1.3382052117e+02   3.0876540948e+01     0.477246    0.2725421 -45.72  0.001827139    2.328    0.570
        29 -10.8046    126.2648    174.4844   1.2132120476e+02   2.1758046778e+01    0.3764809    0.1313637  39.56  0.001358994    2.845    0.649
        30  -9.1102    114.6602    174.6959   1.2393055631e+02   2.3763783841e+01     0.130354    0.1101568  -3.61 0.0007039904    1.676    0.403
        31 -12.2276     88.9057    167.4182   1.2863064314e+02   2.9543583418e+01    0.8900914    0.5460815  57.75  0.004532531    1.638    0.390
        32 -13.0134     67.5261    144.7407   1.3030865508e+02   3.7749290023e+01     1.206005    0.6518632  86.48  0.005035878    2.728    0.633
        33 -12.3424     58.1307    132.5390   1.3078956488e+02   4.1791287285e+01     1.846734    0.5941436 -74.64  0.004310106    8.095    0.876
        34 -10.0697    100.8590    151.2803   1.2316481359e+02   3.1191470776e+01    0.3068018     0.273742 -45.56 0.0009165598    1.252    0.202
        35  -9.2765    103.9415    146.7889   1.2158930839e+02   3.1672071317e+01    0.3133107    0.1816805 -35.70  0.001305964    2.457    0.593
        36 -11.9673     89.9161    150.5489   1.2570571308e+02   3.3140607977e+01    0.2623295    0.2437485 -43.95 0.0005193141    1.253    0.202
        37 -11.8518     43.5830    149.4151   1.3684677733e+02   3.9613877603e+01    0.3463647    0.2462998  14.47  0.001996422    2.090    0.522
        38  -9.6550    134.2784    147.6251   1.1444961248e+02   2.5869613325e+01    0.3752952     0.129546 -53.91  0.001210278    3.327    0.699
        39  -8.7030    192.3215    144.2199   1.0100945344e+02   1.4436138405e+01    0.1960592    0.1314854 -46.02 0.0004069199    1.578    0.366
        40  -9.8704    111.4360    136.5224   1.1769538929e+02   3.2645947121e+01    0.3427717    0.2326206 -23.60   0.00131117    2.292    0.564
        41 -10.5854     99.0953    133.6963   1.2026043085e+02   3.5466437590e+01    0.2658432    0.2267606 -26.85 0.0005693918    1.427    0.299
        42 -14.1191     10.0145    207.0867   1.4861145730e+02   3.0889129805e+01     1.218557    0.9239197  47.86  0.009595838    1.436    0.304
        43 -11.3547     50.1994    129.8897   1.3246710297e+02   4.3357236606e+01    0.2685976    0.1998895  48.97 0.0006612631    1.433    0.302
        44 -13.4909     45.4017    230.1427   1.4387028999e+02   2.2826975445e+01    0.8234669    0.2965128  47.12  0.001523338    2.130    0.531
        45  -9.5293    108.0533    123.5740   1.1576044191e+02   3.6178439622e+01    0.2056489    0.1877021 -58.89  0.000310161    1.059    0.055
        46 -14.8375     50.6526    219.8365   1.4220349211e+02   2.4081681308e+01     1.631802     1.411021  62.88  0.008474849    1.274    0.215
        47 -11.1450    168.2626    113.4204   9.8601130556e+01   2.5637507279e+01    0.3864833    0.3254366 -72.11 0.0008115849    1.384    0.277
        48  -9.0827    203.6491    111.6826   9.1006820521e+01   1.7786402720e+01    0.1575718     0.116008  13.90 0.0007047458    1.736    0.424
        49 -12.1484     33.2191    156.3393   1.4006884415e+02   3.9156887144e+01    0.5298129    0.1798146 -72.96   0.00230927    2.592    0.614
        50 -10.6024     42.6212    109.1662   1.3113802777e+02   4.9004477336e+01    0.2511884    0.1410766 -57.28  0.001314268    1.500    0.333
        51 -12.4759    126.2753    244.3112   1.3084797910e+02   9.2151578493e+00    0.4178581    0.2617177  39.00  0.002603853    1.401    0.286
        52 -15.2205     22.0068    175.6333   1.4426883790e+02   3.6078943434e+01     5.815433     1.950226  83.62   0.01964363    5.283    0.811
