#   1 NUMBER                 Running object number                                     
#   2 MAG_AUTO               Kron-like elliptical aperture magnitude                    [mag]
#   3 X_IMAGE                Object position along x                                    [pixel]
#   4 Y_IMAGE                Object position along y                                    [pixel]
#   5 X_WORLD                Barycenter position along world x axis                     [deg]
#   6 Y_WORLD                Barycenter position along world y axis                     [deg]
#   7 A_WORLD                Profile RMS along major axis (world units)                 [deg]
#   8 B_WORLD                Profile RMS along minor axis (world units)                 [deg]
#   9 THETA_WORLD            Position angle (CCW/world-x)                               [deg]
#  10 FWHM_WORLD             FWHM assuming a gaussian core                              [deg]
#  11 ELONGATION             A_IMAGE/B_IMAGE                                           
#  12 ELLIPTICITY            1 - B_IMAGE/A_IMAGE                                       
         1 -14.3739    137.1751    117.1376   3.6225364081e+01   3.1049341276e+01     5.165606     2.004942 -42.91   0.01710248    2.532    0.605
         2 -15.4008    242.5288     17.0481   3.5537434220e+02   2.3977321357e+01     4.147639     1.728458 -87.99   0.02076661    2.677    0.626
         3 -17.9605    235.9350     94.8361   1.2877280568e+01   1.4701842246e+01     8.371546     5.470111 -35.08   0.04749374    1.278    0.218
         4 -11.1937    220.9164     16.3935   3.5648575491e+02   2.8384433786e+01    0.2115063    0.1723467 -30.24 0.0003449116    1.405    0.288
         5 -10.5023    246.3346      4.5418   3.5263041093e+02   2.4603668293e+01    0.2520801    0.1813214 -14.70   0.00123873    2.007    0.502
         6 -10.5128    206.9812      5.8086   3.5487869839e+02   3.2498094196e+01    0.1894959    0.1752004 -28.86 0.0006241268    1.381    0.276
         7 -15.9475    247.4888     59.5081   4.0111017868e+00   1.7757043690e+01      3.90801     1.758225 -59.29   0.01160048    2.385    0.581
         8 -10.6621    216.1321      1.9635   3.5348512037e+02   3.0910199454e+01    0.1772597     0.139845 -62.15 0.0004144366    1.050    0.048
         9 -13.5413    160.6335     99.4290   2.6022009399e+01   2.9508696553e+01     1.156722    0.5007793 -40.36  0.003180323    2.177    0.541
        10 -11.9227    249.3554    247.2774   3.9691890953e+01  -8.9485719128e+00    0.3234468    0.1317662 -31.10    0.0019344    2.140    0.533
        11 -10.8452    194.4484    225.6367   4.5787026102e+01   1.7492596313e-02    0.2348855    0.1821133  37.14  0.001347531    1.549    0.354
        12 -14.1400    200.9561     99.4861   1.8743161079e+01   2.0681188093e+01     1.539852    0.3112794  50.05  0.004401879    5.343    0.813
        13 -11.4868    218.3134    210.4035   3.8901755596e+01  -8.3232668012e-01    0.2056138    0.1834598  -4.93 0.0004042012    1.318    0.241
        14 -10.9063    187.2050    210.2285   4.4650087971e+01   3.3717506492e+00    0.1587913    0.1484241  24.64 0.0005462765    1.351    0.260
        15 -10.5839      2.3131    162.6535   8.5183175202e+01   3.9532731109e+01    0.1465915   0.07759506  61.66 0.0007046728    1.714    0.417
        16 -12.1809    168.1873    156.1951   3.8249110276e+01   1.6343345866e+01    0.2701246    0.2191301  40.31 0.0005049538    1.296    0.228
        17 -13.8228    249.6021     77.9945   7.7512412466e+00   1.4794517144e+01    0.5435715    0.3084231 -36.87  0.001291158    1.398    0.285
        18 -11.6609    248.0281    185.7825   2.9659034411e+01  -1.0421069412e+00    0.2108813    0.1449842 -40.82 0.0008948089    1.598    0.374
        19 -12.2335     69.7999    145.6117   6.2564897957e+01   3.6698329296e+01    0.7313806    0.3834366  40.68  0.002975922    1.870    0.465
        20 -12.7266     66.3171    143.6703   6.3331684536e+01   3.7736212508e+01    0.6187875     0.433847  66.18  0.002426949    1.594    0.373
        21 -11.5763    143.3521    145.3651   4.1578275742e+01   2.3417924772e+01    0.5918011    0.3149305 -67.09  0.001837089    3.762    0.734
        22 -14.0765     11.4209    137.2461   8.0531620182e+01   4.5571939788e+01     1.084342    0.6194195  71.88  0.005141882    1.749    0.428
        23 -11.7922    218.9810    141.7988   2.5540361602e+01   9.9814813310e+00    0.2438364    0.2277762 -83.00 0.0004484172    1.416    0.294
        24 -12.1890      1.6443    138.4629   8.3799409745e+01   4.5911370946e+01    0.6146999    0.1388676 -78.33  0.001969994    3.647    0.726
        25 -13.3630    233.5940    184.8266   3.1742259226e+01   9.3396715083e-01    0.5272961    0.3109868  38.22  0.002985975    1.979    0.495
        26 -13.3265     57.9810    125.0960   6.2686523936e+01   4.3973694459e+01     1.891618     1.208169  38.24  0.008492817    1.600    0.375
        27 -13.5463     44.7818    129.9039   6.8194913647e+01   4.4374113739e+01     0.781278    0.4666136 -67.25  0.002099382    1.542    0.352
        28 -14.2279     37.5251    129.3919   7.0658829760e+01   4.5346389524e+01    0.9675676    0.7910793 -67.78   0.00294447    1.123    0.109
        29 -13.9641     29.7041    130.8531   7.3607296941e+01   4.5753110732e+01    0.6789057    0.5443069  11.95  0.001304286    1.472    0.321
        30 -11.2444    149.1200    177.2943   4.6847487615e+01   1.5444679348e+01    0.4000754    0.2751589 -71.20  0.001780478    2.236    0.553
        31 -11.7089    212.0061    130.3505   2.4177303932e+01   1.3153026341e+01    0.4473566    0.3011173 -19.71  0.001821844    1.612    0.380
        32 -13.0404    126.0714    104.7884   3.5757908203e+01   3.6281849242e+01    0.7698408    0.6210989  78.01  0.003086702    1.484    0.326
        33 -12.5206    150.4244    109.0115   3.0859951815e+01   2.9872620995e+01    0.3850282     0.374641 -51.13   0.00077885    1.020    0.019
        34 -14.1829    179.2803     93.6298   2.0866864195e+01   2.6383106636e+01     1.087788    0.6911359 -20.15  0.001612884    2.073    0.518
        35 -11.4465    112.7152    104.3469   3.9392011670e+01   3.9337002357e+01     0.319067    0.2907311  -6.85  0.001458141    1.230    0.187
        36 -11.9799    144.1805    100.0538   2.9846513946e+01   3.3171151344e+01    0.3624387    0.3200609 -88.12 0.0009755699    1.239    0.193
        37  -9.8267    113.4564     95.1024   3.6465707353e+01   4.1290782889e+01    0.2334085    0.1559561 -44.69  0.000362325    1.472    0.320
        38 -10.6504    187.1794    174.9919   3.8187515169e+01   9.4248261122e+00    0.2551219     0.179419 -46.80  0.001069278    1.531    0.347
        39 -12.3545    186.2887    170.0920   3.7385446967e+01   1.0466621148e+01    0.3513126    0.3138561 -13.63  0.001325209    1.028    0.027
        40 -12.5943    199.2296    163.9025   3.3626279672e+01   9.4302666257e+00    0.4692017    0.4001291 -42.36 0.0008886814    1.260    0.207
        41 -13.8823    191.1379    162.7303   3.4924054293e+01   1.0998619848e+01     1.039281    0.6089413 -48.55  0.003007107    1.841    0.457
        42 -10.0139    177.4235     84.5025   1.8757033535e+01   2.8444150072e+01    0.1490177    0.1345826 -51.14 7.358003e-05    1.014    0.014
        43 -10.8061    201.3044     76.9843   1.3109779169e+01   2.4381368036e+01    0.2039141    0.1865516 -73.12  0.000407053    1.108    0.097
        44 -11.2675    193.5265     67.0206   1.1622139334e+01   2.7680464599e+01    0.2914783    0.2424038  57.59  0.001102332    1.353    0.261
        45 -13.3944    191.0026    153.9128   3.3090549725e+01   1.2649456684e+01    0.6802729    0.5668781 -38.72   0.00273997    1.158    0.137
        46 -10.3047    106.0000     63.4573   2.8162466526e+01   4.9575939533e+01    0.5204362   0.08767819 -38.62  0.001163414    6.006    0.833
        47 -11.5058    217.2391     62.5960   7.6245052234e+00   2.3208059250e+01    0.3706952    0.2214806  67.09  0.001012578    1.875    0.467
        48 -11.2947    184.3114     57.0572   1.0220971718e+01   3.1330271256e+01    0.6042643    0.2494694 -25.42  0.002120976    3.226    0.690
        49 -10.8807    199.5033     49.5397   6.3588957398e+00   2.8918379914e+01     0.278538    0.2020621 -24.07  0.001384193    1.570    0.363
        50  -9.8670    141.2861     51.3509   1.5474459670e+01   4.2823310501e+01    0.1478866    0.1164879  21.67 0.0007021647    1.661    0.398
        51 -11.2797    206.4292     47.6814   5.1440476580e+00   2.7633913980e+01    0.2309314    0.2008612 -72.18 0.0004232539    1.090    0.083
        52 -13.2595    139.4984     41.3444   1.2471751044e+01   4.4741973440e+01     1.123347    0.3817915  69.88  0.003525941    3.526    0.716
        53 -10.2040    190.1593     37.1079   4.1391286660e+00   3.2738719607e+01    0.2194978    0.1578084 -59.91 0.0004873915    1.233    0.189
        54 -10.5526    192.9496     33.6646   2.9436012984e+00   3.2527568127e+01    0.2134129    0.1771396 -20.49 0.0003563415    1.453    0.312
        55 -11.1113    168.8675     36.1801   6.3669314539e+00   3.7990284265e+01    0.2385404    0.2034557 -67.31 0.0003943052    1.049    0.046
        56 -11.8203    183.8077     32.3364   3.5327684882e+00   3.4844063525e+01     0.280019    0.2133053 -25.77 0.0005820902    1.475    0.322
        57 -11.3354    192.6219    148.8073   3.1677286728e+01   1.3309745201e+01    0.3179905    0.2187295 -50.64  0.001048686    1.571    0.363
        58 -11.7121    221.0812     21.1922   3.5756866677e+02   2.7808349223e+01    0.2132568    0.1558291 -46.51 0.0002866364    1.164    0.141
        59 -12.2156    232.0332    207.0413   3.5982677343e+01  -2.0600907744e+00    0.3078751     0.251601   9.16  0.001751884    1.239    0.193
        60 -13.2078    177.6683    169.4045   3.8999517455e+01   1.2058813033e+01    0.6985377    0.4977163 -43.43  0.003632911    1.401    0.286
        61 -10.9057    239.0425    204.4667   3.4391437492e+01  -2.5474897190e+00    0.1618591    0.1019336  22.72 0.0004429735    1.571    0.364
        62 -12.8495    204.5162    198.8300   3.9353900141e+01   2.7526740581e+00    0.5532753    0.3392628  11.17  0.002955816    1.769    0.435
        63 -12.5019    192.3199    194.5324   4.0888464830e+01   5.2122737826e+00    0.9020324    0.4783133 -60.31  0.003003628    5.488    0.818
