#   1 NUMBER                 Running object number                                     
#   2 MAG_AUTO               Kron-like elliptical aperture magnitude                    [mag]
#   3 X_IMAGE                Object position along x                                    [pixel]
#   4 Y_IMAGE                Object position along y                                    [pixel]
#   5 X_WORLD                Barycenter position along world x axis                     [deg]
#   6 Y_WORLD                Barycenter position along world y axis                     [deg]
#   7 A_WORLD                Profile RMS along major axis (world units)                 [deg]
#   8 B_WORLD                Profile RMS along minor axis (world units)                 [deg]
#   9 THETA_WORLD            Position angle (CCW/world-x)                               [deg]
#  10 FWHM_WORLD             FWHM assuming a gaussian core                              [deg]
#  11 ELONGATION             A_IMAGE/B_IMAGE                                           
#  12 ELLIPTICITY            1 - B_IMAGE/A_IMAGE                                       
         1 -12.7086     42.6168     45.7528   7.7709307929e+01   6.3374112763e+01     1.140548     0.831192  54.23  0.002991987    2.110    0.526
         2 -12.1045    125.3112     27.7703   4.5106597879e+01   4.9576512752e+01      0.53925    0.4369559  52.37  0.002018371    1.127    0.113
         3 -12.5185    119.7540     37.2760   4.9304674625e+01   4.9729939362e+01    0.7982239    0.5378166 -67.57  0.002517757    2.030    0.507
         4 -11.3025    165.5057     17.5770   3.5871544097e+01   4.1256740543e+01    0.7974252    0.5247473  29.10  0.003963631    2.351    0.575
         5 -12.6923    163.9509     27.7065   3.8699992601e+01   4.0501282042e+01    0.5802528    0.3567058  52.03  0.002954021    1.665    0.399
         6 -11.3844     79.5082     35.4109   5.9487623849e+01   5.8687944658e+01    0.7186984     0.489028 -28.87  0.003091328    1.574    0.365
         7 -11.1232     61.0495     35.8615   6.6179315288e+01   6.2061379573e+01    0.4658826    0.3041549 -16.13  0.001344378    1.678    0.404
         8 -10.6559    147.6804     16.7119   3.8026103193e+01   4.5505192290e+01    0.5946946    0.2734285  40.93  0.002537489    2.939    0.660
         9 -11.1633    153.3679     25.2008   3.9543413705e+01   4.3268717265e+01     1.417057    0.4112954  47.70  0.004647527    4.365    0.771
        10 -11.2628    136.0925     23.0811   4.1688381776e+01   4.7566702235e+01    0.7735717     0.351963  53.24  0.003589414    1.945    0.486
        11 -10.3714    121.3072     11.7422   4.0775863202e+01   5.2132083467e+01    0.7354581    0.2868984  63.07  0.002392837    2.108    0.526
        12 -11.4066    134.6469     15.3324   3.9618889889e+01   4.8694866114e+01     1.006127     0.388239  67.47  0.004332703    2.286    0.563
        13 -11.3922    105.9712     20.4369   4.6760388257e+01   5.4794492269e+01    0.4393523    0.3545912 -68.48  0.002259568    1.527    0.345
        14 -12.5684    114.1811     25.2725   4.6592156413e+01   5.2422904970e+01     1.030245    0.2845017  49.53  0.002252061    3.073    0.675
        15 -10.3470     47.2028     19.2269   6.4679096574e+01   6.6571531719e+01    0.3077233    0.2037501 -15.65  0.001251942    1.531    0.347
        16 -11.8823     27.3719     27.9986   7.7789029123e+01   6.8187651050e+01    0.5379788    0.4196152  -0.98  0.002156731    1.046    0.044
        17 -11.8377     36.2130     17.8818   6.8944875184e+01   6.8425812950e+01     0.698564    0.4165205 -28.91  0.004157718    1.671    0.402
        18 -12.9567     16.9460     13.1500   7.6565402811e+01   7.1529619608e+01     0.890075    0.5135658  -3.86 0.0008654827    1.795    0.443
        19 -11.1696    188.9270     27.4910   3.5540073775e+01   3.4791242138e+01    0.3518989    0.2981039 -57.81  0.001170852    1.174    0.148
        20 -11.9312     48.3748     12.9662   6.1331301708e+01   6.7097952583e+01    0.6494462    0.2868995  46.93  0.003241061    2.142    0.533
        21 -12.0745     20.1568     21.7125   7.8790919969e+01   6.9962015786e+01    0.6688085    0.2373352 -38.49  0.002906591    2.623    0.619
        22 -10.9601     90.9736     21.3624   5.0776029239e+01   5.7990337836e+01    0.4358622    0.3036512 -20.15  0.001914395    1.627    0.385
        23 -11.6037     86.0732     14.3862   4.9430254660e+01   5.9733791067e+01    0.6588621    0.4011276 -20.36  0.002877323    1.888    0.470
        24  -9.8813     78.2257      7.4059   4.8799313986e+01   6.2003467936e+01    0.3100881    0.1383495  60.65  0.001044225    2.152    0.535
        25 -10.9951     74.7368      3.5576   4.8189475683e+01   6.3038307701e+01    0.8145887    0.3317344  64.85  0.003511127    2.875    0.652
        26 -10.2398     84.7016      8.4557   4.7486003409e+01   6.0562799184e+01    0.2874784    0.1828559  50.35 0.0008645226    1.289    0.224
        27 -10.2405     88.5487      7.5151   4.6153764118e+01   5.9824981560e+01    0.2425069    0.2024556  19.22 0.0007743818    1.242    0.195
        28 -10.9795    178.7608     21.0211   3.5150893373e+01   3.7836113136e+01    0.5157743    0.2341554  48.68  0.001844918    2.704    0.630
        29 -11.8422     68.2158     18.1159   5.6285712909e+01   6.2965071461e+01    0.4342549     0.353488  26.63  0.001440729    1.050    0.047
        30 -12.1837    237.8929     15.9536   2.8790200212e+01   2.5865746066e+01    0.4621428    0.2222135  73.30  0.002690973    1.973    0.493
        31 -10.7845    183.9089      5.5410   3.0962217836e+01   3.8283074831e+01    0.4281396    0.3535841  58.50  0.002560124    1.386    0.279
        32 -11.8411    192.0299      8.6120   3.0912608365e+01   3.6180728576e+01    0.7578124    0.5132526 -18.31  0.003789148    2.123    0.529
        33 -11.6981    227.9200     15.5307   2.9422860563e+01   2.7876913189e+01    0.4202376    0.2466146 -81.17  0.001239942    1.506    0.336
        34 -12.2515    104.8014     12.8376   4.4371829279e+01   5.5792549230e+01    0.4564794    0.3325507 -26.25  0.001416832    1.591    0.371
        35 -11.4835    211.4289     10.4601   2.9669797729e+01   3.1818199657e+01    0.4454144    0.3234798   0.76  0.002610497    2.651    0.623
        36 -10.1458      6.2646     12.6245   8.2530453821e+01   7.2689611080e+01    0.3773894    0.1488488  24.13  0.001833069    2.384    0.581
        37  -9.1619      5.4386      9.4693   8.1521483356e+01   7.3213947946e+01    0.1971082    0.1281163 -27.37 0.0007575381    1.311    0.237
        38  -9.4916     98.2592     11.5085   4.5345021326e+01   5.7367100673e+01    0.2511356    0.1448236  41.53   0.00134543    1.602    0.376
        39 -10.2636    163.1741      8.2410   3.3762916095e+01   4.2726434307e+01     0.436321    0.2060246 -21.06  0.002083804    2.908    0.656
        40  -9.8603     65.8534     10.4530   5.3805473365e+01   6.4194513366e+01    0.2570006    0.1675226  50.67  0.001342413    1.386    0.278
        41  -9.8635    168.4635     10.0028   3.3607921737e+01   4.1341698930e+01    0.2414475     0.141148  58.34  0.001098936    1.624    0.384
        42  -9.6331    145.3436      9.5800   3.6362078388e+01   4.6738019499e+01    0.1826619    0.1409935  28.87 0.0006223838    1.647    0.393
        43 -11.6208    247.7192      5.6434   2.6294136436e+01   2.5152517985e+01    0.4015687    0.3164277  21.24  0.002660552    2.740    0.635
        44 -10.4869    232.6096      7.3767   2.7539099158e+01   2.7850718034e+01    0.2614434    0.1675387 -81.63  0.001036547    1.275    0.216
        45 -11.4046    236.1880      4.5237   2.6781707034e+01   2.7460172590e+01     0.439218    0.1779346 -71.67  0.002220918    2.490    0.598
        46 -10.7963    241.6930      3.5551   2.6273851880e+01   2.6509139515e+01    0.2468577    0.1559326  73.92  0.001255936    1.576    0.365
        47  -9.4450      1.1337      7.4148   8.3212845072e+01   7.3883147752e+01    0.1821251   0.05911384 -41.81 0.0006076969    2.721    0.633
        48  -9.5087    157.8824      6.8586   3.4024186705e+01   4.4075880472e+01    0.1777728     0.144955  58.71   0.00035723    1.251    0.201
        49 -10.1264    157.0841      2.0756   3.2871399387e+01   4.4686613508e+01    0.2746502    0.2331068 -80.26   0.00127934    1.111    0.100
        50  -9.7269     62.7040      6.9285   5.3303428918e+01   6.5123349199e+01    0.2324295    0.1323136  32.16  0.001300605    1.599    0.374
        51 -10.8769    176.9393      5.8809   3.1711775872e+01   3.9812275854e+01    0.3383581    0.1681656  83.37   0.00101924    1.848    0.459
        52 -11.3390    225.0648      2.5330   2.7115273552e+01   2.9858130553e+01    0.4616323    0.2048834  88.61   0.00151079    2.101    0.524
        53 -10.4686    218.7185      3.3219   2.7694673080e+01   3.1059408712e+01    0.2668855    0.2061215 -49.49  0.001270926    1.320    0.243
        54  -9.9182    142.5939      3.6458   3.5070020264e+01   4.7900867572e+01    0.4545211    0.1657642  68.33  0.001281251    2.229    0.551
        55 -10.4162    137.6953      4.3327   3.5931917812e+01   4.8979178892e+01    0.1952233    0.1718366 -47.03 0.0004712031    1.297    0.229
        56 -11.4196    134.0352      2.3119   3.5859554714e+01   4.9994134226e+01    0.3709955    0.2204922  61.14  0.001626785    1.393    0.282
        57  -9.7206    121.8804      5.3719   3.8657506923e+01   5.2550800059e+01    0.1817458     0.090964  57.30 0.0004025068    1.625    0.385
        58 -10.3633    116.6587      2.4023   3.8587136144e+01   5.3985510511e+01    0.2293571    0.2088349  83.69  0.001596182    1.140    0.123
        59 -10.8829    106.6950      1.9210   4.0211974541e+01   5.6279811547e+01    0.7624604    0.2667462  69.65  0.002886997    2.825    0.646
        60 -10.1235     41.5885      3.8865   5.9794810532e+01   6.9157812715e+01    0.3465954    0.1906899   7.15  0.001857981    2.200    0.546
        61 -12.2073     23.0867     11.3421   7.2341587945e+01   7.1032079464e+01    0.4814751    0.2866054  21.61  0.002071525    1.470    0.320
        62 -11.2435    205.2080      2.1849   2.8441061697e+01   3.3983433980e+01    0.3976484    0.2019646  87.33  0.002238818    1.743    0.426
        63 -11.1202      2.6427      1.9765   7.9472337592e+01   7.4484987405e+01    0.3089646    0.1582344  10.92  0.001816015    1.846    0.458
        64 -10.0467     13.2448      1.8713   7.2915334075e+01   7.3381693068e+01    0.3112275    0.1287104  25.96  0.001657586    2.239    0.553
        65  -9.4148    152.4553      1.3049   3.3202488125e+01   4.5818199651e+01    0.2116183    0.0944066  73.31 0.0006144443    1.887    0.470
        66  -9.5209    122.6008      1.4379   3.7306669775e+01   5.2700054408e+01    0.2735576     0.100538  66.91  0.001064702    2.216    0.549
        67 -10.2094     82.1024      1.3229   4.5336576465e+01   6.1688382640e+01    0.1752001   0.09439784  58.23 0.0003761758    1.551    0.355
        68 -10.7477    198.8250     28.9165   3.4794850444e+01   3.2421762659e+01    0.3640853    0.3019656  52.66  0.001698014    1.483    0.326
        69 -10.3943    142.9612    249.7463   9.2458630860e+01   1.6804829263e+00    0.1905916    0.1510761  29.59  0.001161726    1.084    0.077
        70  -9.3778    234.1541    143.7342   5.4953843836e+01   6.9137816786e+00    0.2118652    0.1353951 -71.12 0.0008098449    2.736    0.634
        71  -9.3331     58.9799    142.6467   9.7141473261e+01   3.9281966452e+01    0.1913717     0.186169  53.35   0.00049646    1.091    0.083
        72 -11.7812     13.0069    138.5533   1.1081925471e+02   4.5085271255e+01    0.7348676    0.4695977 -89.64  0.003842003    1.549    0.354
        73  -8.6577    104.7038    142.3125   8.3264867858e+01   3.2080071005e+01    0.1576852    0.1235637  79.26   0.00039037    1.599    0.375
        74  -9.5498    132.7075    140.5766   7.5182501854e+01   2.7093042138e+01    0.2821382    0.1980123 -70.34  0.001190014    1.810    0.447
        75  -9.5647     32.6115    137.8064   1.0461955004e+02   4.3587822793e+01    0.2511695    0.2226116  61.74 0.0009976127    1.206    0.171
        76 -11.6104     22.7427    135.8967   1.0745155455e+02   4.4988137376e+01    0.6538813    0.5306119  44.86  0.003820464    1.359    0.264
        77 -11.6758     30.0053    133.0029   1.0471104823e+02   4.5080178561e+01    0.5096275    0.3692447 -78.29 0.0004704513    1.321    0.243
        78 -10.5134    217.2325    138.5501   5.6642106132e+01   1.0781956932e+01    0.3038429    0.2580639 -63.49 0.0009598297    1.280    0.219
        79  -8.7494     53.3249    139.6655   9.8378064584e+01   4.0787240728e+01    0.1531682    0.1082076  70.30 0.0007051169    1.713    0.416
        80  -9.9549     80.0815    137.6447   8.9602586748e+01   3.7492250060e+01    0.3443706    0.2267875 -28.18  0.001453162    1.948    0.487
        81  -9.9361     40.0229    137.9935   1.0230335720e+02   4.2774664394e+01    0.3261137     0.180767  43.18   0.00136595    1.961    0.490
        82  -9.2310     47.4859    134.9954   9.9407728659e+01   4.2710308414e+01    0.2156198    0.1736193 -64.60  0.000819559    1.137    0.120
        83  -9.5340     44.2139    133.4653   1.0019415787e+02   4.3484880714e+01    0.2423845    0.2024185  56.73 0.0003845145    1.308    0.235
        84 -10.7374     74.0608    132.5913   9.0417670638e+01   3.9724124267e+01    0.4013405      0.22317 -37.61  0.001594329    2.092    0.522
        85  -9.8603     38.5886    133.3166   1.0199001186e+02   4.4139993660e+01    0.2406944     0.220059  62.84 0.0006704771    1.176    0.150
        86  -9.8969     61.1073    132.3642   9.4516490585e+01   4.1659404623e+01    0.4155396    0.2772237   4.14  0.001808026    2.030    0.507
        87  -9.5015    103.8531    130.9194   8.0913096356e+01   3.5049166128e+01      0.22949    0.2076032 -19.23 0.0003853378    1.183    0.155
        88  -9.5889     93.0047    129.4760   8.3823155563e+01   3.7378434543e+01    0.2828203    0.2158452  71.09  0.001283585    1.656    0.396
        89 -10.7657      9.4835    128.4410   1.1065056243e+02   4.7905255301e+01    0.4494773     0.296938 -57.38  0.002494856    1.293    0.227
        90 -10.3090     22.8390    127.0407   1.0612533026e+02   4.7249551756e+01    0.1999484    0.1874402 -52.68 0.0003260857    1.098    0.089
        91  -9.9297    239.0000    125.9743   5.0626248116e+01   9.2377939445e+00    0.2264736   0.06382345 -41.19 0.0008043865    2.956    0.662
        92  -9.5502     53.4237    125.3001   9.5628074163e+01   4.4481105312e+01    0.3167209    0.1794438 -68.12  0.001361179    1.822    0.451
        93 -10.2619     48.6672    112.4098   9.4571320454e+01   4.8318541184e+01    0.4567703    0.2394749 -49.23  0.002007135    1.717    0.417
        94 -10.0950     49.6654    123.0575   9.6441515913e+01   4.5518807647e+01    0.3064917    0.2201113  22.92  0.000920425    1.535    0.349
        95 -10.1654     45.0525    120.0262   9.7408887193e+01   4.6833842148e+01    0.3243141    0.2427161  50.30 0.0009210637    1.525    0.344
        96 -10.2016     43.5277    116.4978   9.7229953259e+01   4.7898197556e+01    0.3096588     0.260825  33.91  0.001054283    1.300    0.231
        97  -9.7598      2.1089    125.8066   1.1267203416e+02   4.9031344572e+01     0.235232    0.1532928 -86.49 0.0009896172    1.450    0.310
        98 -12.8910    104.0203    122.3285   7.8789476671e+01   3.7096782668e+01    0.4022938    0.3698758   5.12 0.0004670529    1.163    0.140
        99 -10.0316     82.7207    124.6695   8.5907677456e+01   4.0337220127e+01    0.4696781    0.2736935  -7.06  0.001454321    4.023    0.751
       100  -8.9512     77.4648    123.4483   8.7308070081e+01   4.1499045365e+01    0.1503061    0.1450168 -57.95 -1.828991e-05    1.031    0.030
       101  -9.3479     19.0685    122.4571   1.0667669102e+02   4.8721454866e+01    0.2043456     0.156876 -68.89 0.0003036534    1.139    0.122
       102  -9.3674     56.5009    122.4865   9.4019974117e+01   4.4800005333e+01    0.1473404     0.135745 -49.77 0.0004644519    1.012    0.012
       103  -9.3608     71.2366    120.8007   8.8733819983e+01   4.3132771176e+01    0.2071391    0.1686847 -26.50 0.0004751133    1.320    0.242
       104  -9.1905    221.4685    120.4967   5.2114697697e+01   1.3335615927e+01    0.1384193    0.1188868 -49.53 0.0001983607    1.030    0.029
       105  -8.9736     13.9536    118.9538   1.0786881309e+02   4.9987505910e+01    0.1578576    0.1290321 -63.42  0.000304755    1.035    0.034
       106 -12.4542      2.6560    111.8816   1.1070315709e+02   5.2459559633e+01     0.560502    0.3781554  68.51   0.00112827    1.764    0.433
       107 -11.1917      3.9982    104.9562   1.0923140917e+02   5.4080984074e+01     0.409406    0.3356693  21.19  0.001853826    1.441    0.306
       108  -9.5051     79.0020    114.4913   8.4676523335e+01   4.3454849354e+01    0.3084113    0.1953619 -39.90  0.001353794    1.612    0.380
       109  -9.4629     67.2128    114.4179   8.8598890763e+01   4.5319762684e+01    0.3382043    0.2235628  69.99  0.001400133    2.347    0.574
       110  -9.9550     66.2581    110.8711   8.8079391362e+01   4.6329387070e+01    0.3744736    0.2183515  25.59  0.001624105    1.899    0.473
       111 -11.8322     42.9788     94.7270   9.2585484158e+01   5.3268323679e+01     1.545122    0.4316815 -43.04  0.004838426    3.754    0.734
       112 -12.0374      7.2590     89.0780   1.0532974684e+02   5.7692514632e+01    0.5803805    0.4045965  18.14  0.001648403    1.641    0.391
       113 -11.9853      9.1187     97.1648   1.0607664517e+02   5.5664245915e+01    0.6037286    0.4778506  10.93  0.001312549    1.448    0.309
       114 -11.7528     35.9817     93.3712   9.4950094734e+01   5.4354598857e+01    0.6651843    0.4972807 -23.17  0.002244462    1.364    0.267
       115 -11.9730     42.0539     85.6489   9.0637081730e+01   5.5466679316e+01    0.9933603    0.5112833  15.28   0.00431595    2.359    0.576
       116 -11.5720     27.0735     86.1511   9.6765840542e+01   5.6900672711e+01    0.8241612    0.5275087  23.47  0.003222994    1.695    0.410
       117 -11.8913     17.1308    100.7563   1.0371186923e+02   5.4256344267e+01    0.3648506    0.2679658 -49.43 0.0005935102    1.159    0.137
       118 -12.5538     24.7305    106.6336   1.0200438156e+02   5.2217329094e+01     1.244563    0.8710169 -33.79   0.00676643    1.427    0.299
       119 -11.3951     22.7789     94.9214   1.0041451352e+02   5.5218009716e+01    0.4833374    0.3171074 -13.56  0.001440374    1.738    0.425
       120 -11.5204     18.1327     90.6038   1.0133239128e+02   5.6606118743e+01    0.4575035    0.3030508 -58.24  0.001212328    1.300    0.231
       121 -11.0934     21.7452    114.3546   1.0445493196e+02   5.0548254139e+01    0.6201997    0.2877803   4.65  0.002218967    3.080    0.675
       122 -11.3038     28.2834    113.1748   1.0194548386e+02   5.0282466577e+01    0.5370775    0.3029654   6.47  0.002039081    2.261    0.558
       123 -10.6257    108.1521    112.4103   7.5041628910e+01   3.8619890454e+01    0.3884347    0.3443542  80.46  0.001962629    1.292    0.226
       124 -10.8861    102.9921    108.2249   7.5471904458e+01   4.0595194074e+01     0.610185    0.4436052  13.20  0.002126952    1.777    0.437
       125  -9.6231     94.0294    112.5460   7.9361723969e+01   4.1295459830e+01    0.2937807    0.2205729 -68.82   0.00109439    1.566    0.361
       126 -10.3657    170.5630    110.6091   5.9000256002e+01   2.5611494764e+01    0.3832697    0.2733405 -38.04  0.001785405    1.398    0.285
       127 -10.1008    121.1181    109.0512   7.0461599011e+01   3.6722265825e+01    0.4532304     0.257943  32.00  0.001295329    2.095    0.523
       128 -11.7367     79.4189    108.0829   8.2926103877e+01   4.4922936167e+01    0.7448986    0.3517394  30.28  0.002822256    2.356    0.575
       129 -10.8560     89.0091    104.6956   7.8890855591e+01   4.4041684305e+01    0.4107996    0.2927856  23.66 0.0004176458    1.565    0.361
       130 -10.1254     85.5089    103.5328   7.9716547122e+01   4.4936704416e+01    0.2735584     0.223368 -40.63 0.0007425444    1.193    0.162
       131 -10.6748     15.3429    109.2362   1.0585539714e+02   5.2310213358e+01    0.3523919    0.2005891  52.09  0.001682541    2.266    0.559
       132 -10.1661    175.3468    108.1485   5.7428072367e+01   2.5055687608e+01    0.3429215    0.1793331 -32.47  0.001335445    2.242    0.554
       133 -11.1912    142.5237    106.2345   6.4170386421e+01   3.2695798101e+01    0.5547764    0.2620246  38.76  0.002003585    2.445    0.591
       134 -11.2109    145.4314    100.5098   6.1963108166e+01   3.3226623289e+01    0.4596888    0.3231319 -30.81 0.0005488874    1.594    0.372
       135 -11.1124     48.9476     90.8894   8.9332769088e+01   5.3438202188e+01    0.4495502    0.3513938  60.88  0.001884716    1.693    0.409
       136 -10.7123     49.8595    102.1216   9.1800006098e+01   5.0685823837e+01    0.5089678    0.3534054 -22.60  0.001784843    1.629    0.386
       137  -9.6063    181.4043    104.1696   5.5286312268e+01   2.4507436236e+01    0.2208269    0.1279741 -51.65  0.000727704    1.720    0.419
       138 -10.0334     57.1131    102.6496   8.9291537412e+01   4.9612424230e+01     0.254625    0.1996715 -65.41  0.001287489    1.350    0.259
       139  -9.4137    120.5839    101.2411   6.8496590137e+01   3.8532733936e+01    0.2180396    0.1457566 -33.74 0.0007913743    1.633    0.388
       140 -10.0998    209.8446     98.5832   4.9128383431e+01   1.9531792091e+01    0.3552048    0.2520244 -21.49  0.001776782    1.846    0.458
       141 -11.5466     89.5286     89.7708   7.4535047793e+01   4.7256136734e+01    0.5378634     0.332681 -34.20  0.001922162    1.742    0.426
       142 -10.7220     79.9363     98.1322   8.0103038983e+01   4.7143382694e+01    0.4578783    0.3030841  51.89  0.002064618    1.789    0.441
       143 -11.2586     80.8691     92.9690   7.8340643254e+01   4.8135598186e+01    0.8593104    0.3792914  40.36  0.002842072    2.300    0.565
       144 -11.2621     68.5150     95.9114   8.3454830026e+01   4.9521926751e+01    0.5355424    0.3842835  14.03  0.001744529    1.589    0.371
       145 -10.5544     52.5014     96.0019   8.9312721485e+01   5.1798152004e+01     0.311388    0.2054648 -59.71  0.001512662    1.532    0.347
       146  -8.8907      1.3267     98.2482   1.0917201829e+02   5.5843002237e+01     0.129234   0.07766329 -39.29  0.000217489    1.541    0.351
       147 -11.1923    124.4968     93.8374   6.5379834366e+01   3.9231912461e+01    0.6041045    0.3485232  46.73  0.002346516    1.722    0.419
       148 -11.1577    121.4661     88.5618   6.4688951763e+01   4.0956510224e+01    0.3579763    0.2800858 -13.10 0.0009708937    1.590    0.371
       149 -10.6624    152.9703     91.8990   5.7957264507e+01   3.3216453815e+01    0.4502476    0.3199852  35.18  0.002095003    1.646    0.392
       150 -11.1127     98.4155     91.0119   7.2072198440e+01   4.5278769686e+01    0.3042639     0.265727  39.12 0.0002898274    1.143    0.125
       151 -10.0731     66.5430     88.7802   8.2178685623e+01   5.1431280936e+01    0.3405572    0.2338813  -3.51  0.001256652    1.886    0.470
       152 -10.4017    183.6841     86.0603   5.0461755732e+01   2.7329849331e+01    0.6186765    0.2199853 -47.01  0.002203888    2.756    0.637
       153 -11.7328    112.6431     83.0667   6.5508546059e+01   4.3951153549e+01    0.7239254    0.4456802  61.68  0.003038405    2.032    0.508
       154 -11.4748     75.4973     79.9197   7.6336948505e+01   5.1851376736e+01    0.7258223    0.5311617  62.36  0.003033948    1.894    0.472
       155  -9.8214     75.5212     75.4889   7.4947019928e+01   5.2744425723e+01    0.2491415    0.2109743  37.60 0.0009219683    1.208    0.172
       156 -10.7368    143.2858     84.4622   5.8105923520e+01   3.6835375512e+01    0.2775966    0.2574776  58.20 0.0005658562    1.064    0.060
       157 -10.4716    104.5021     87.1360   6.9080780868e+01   4.4852875724e+01     0.295617    0.2352449  10.34 0.0008958845    1.493    0.330
       158 -10.1097    165.5917     83.6259   5.3168100504e+01   3.1856044829e+01    0.2912204    0.2448803 -66.87  0.001024827    1.196    0.164
       159 -10.2630     67.0326     82.0684   8.0039758086e+01   5.2807728335e+01    0.3852182    0.3116162 -21.02  0.002073955    1.240    0.194
       160 -10.0112     60.5256     83.5002   8.2883283466e+01   5.3499991502e+01    0.2746707    0.2363296 -55.36 0.0006084386    1.249    0.199
       161 -11.6846     53.3256     76.2210   8.3499324820e+01   5.6087193996e+01    0.6413344     0.402223 -53.63  0.003157405    1.651    0.394
       162 -10.9212     58.3232     77.7003   8.1999422101e+01   5.5062131132e+01    0.3579952    0.2627026 -43.22 0.0009063362    1.298    0.230
       163  -9.3198    127.7416     83.3979   6.1558053514e+01   4.0567959035e+01    0.2124186    0.1377067  40.38 0.0009242863    1.598    0.374
       164 -10.6184     80.2978     83.6681   7.5807408021e+01   5.0232408297e+01    0.4482687    0.3085341 -33.42  0.002157859    1.493    0.330
       165 -11.8355      2.1051     71.5027   1.0394559075e+02   6.1974192438e+01    0.9065425     0.167879 -63.67  0.003054681    4.077    0.755
       166 -12.6702      4.4819     62.1267   1.0071039023e+02   6.3870258126e+01    0.6363629    0.3706231 -20.79   0.00102488    1.688    0.407
       167 -11.6493     10.2996     62.4288   9.8092297862e+01   6.3444184850e+01    0.3100733     0.213748 -29.34 0.0005203981    1.262    0.207
       168  -9.9397    103.2633     79.9550   6.7292619406e+01   4.6536188753e+01    0.2963822    0.1974419 -33.37 0.0007136404    1.600    0.375
       169 -10.3597    103.7503     74.9174   6.5594141878e+01   4.7394320611e+01    0.3516957    0.3107051  77.03  0.001891211    1.327    0.246
       170 -11.6848     13.9200     74.5394   9.9501643488e+01   6.0582017857e+01    0.5928576    0.3824666 -69.76   0.00325007    1.671    0.401
       171  -9.4383     13.5225     67.5569   9.7954948456e+01   6.2132164026e+01     0.500932    0.2172125   9.86  0.002280982    2.689    0.628
       172 -10.0382    233.1613     77.5587   4.1442208260e+01   1.8404204717e+01    0.2682164    0.1903124 -51.26  0.001354593    1.179    0.152
       173  -9.9948     94.2924     75.1441   6.8552953864e+01   4.9288365666e+01    0.6033028    0.5278898 -74.20  0.002967551    1.408    0.290
       174 -11.7346     85.5204     73.1258   7.0755421236e+01   5.1382465562e+01    0.6164578    0.5054704  52.82  0.002075242    1.348    0.258
       175 -10.6986     79.6749     68.2813   7.1164437021e+01   5.3390950581e+01    0.5219749    0.3121981  50.80  0.002374034    1.912    0.477
       176 -10.4745     75.9618     63.6755   7.0922821652e+01   5.4915817927e+01    0.4050646    0.3074267 -25.28  0.001004747    1.345    0.257
       177 -12.6116     74.9186     53.9492   6.7908898530e+01   5.6795815825e+01    0.9116849    0.7215743  -2.69  0.001738986    1.326    0.246
       178 -11.0474     72.7768     47.1379   6.6191210466e+01   5.8285882299e+01     0.311143    0.2670727 -59.74  0.001819431    1.551    0.355
       179  -9.2552    135.0028     77.5397   5.8081777414e+01   4.0004017992e+01    0.2305514     0.142722  55.64  0.001024637    1.606    0.377
       180 -10.0103    126.9194     76.9750   5.9892986868e+01   4.1947125792e+01    0.2211874    0.2126402  50.56 0.0003195381    1.015    0.015
       181 -12.1788    186.1199     70.1238   4.6160781934e+01   2.9467341748e+01      1.02655     0.534655 -45.05  0.004340318    1.811    0.448
       182  -9.4274     24.7002     74.6353   9.4887433888e+01   5.9699492771e+01    0.4931006    0.2502242 -14.59  0.002124544    2.678    0.627
       183 -11.9457     41.0223     71.7167   8.7142678514e+01   5.8623157321e+01    0.4649237    0.3226559 -57.78   0.00128944    1.562    0.360
       184 -11.3613     35.0066     72.0073   8.9762971845e+01   5.9247501737e+01    0.6927413    0.2301288  29.64  0.002722538    3.033    0.670
       185  -9.9849    154.0954     72.2875   5.2421672609e+01   3.6491609496e+01    0.2868042    0.1804971  46.54 0.0007995137    1.648    0.393
       186 -11.7376    122.9412     69.2299   5.8581396457e+01   4.4219152868e+01    0.4886812    0.4310548  36.77  0.001701689    1.139    0.122
       187  -9.4303    162.2158     71.0868   5.0515630822e+01   3.4798757101e+01      0.27827    0.1816427 -89.22  0.001223483    2.067    0.516
       188  -9.5572    171.9154     68.8476   4.8178637982e+01   3.2915102425e+01    0.2745177    0.1978249 -42.36 0.0009851031    1.382    0.276
       189 -10.1006    170.0342     63.6950   4.7170331293e+01   3.4171117404e+01    0.4716347    0.2806441  82.54  0.002064965    2.154    0.536
       190 -11.2560    219.9405     66.7944   4.0746034720e+01   2.2697523070e+01    0.4767247    0.2683551  65.56  0.002153586    1.867    0.464
       191  -9.6926    192.5039     65.7956   4.4152558369e+01   2.8722988371e+01    0.2610737    0.1674094  87.54 0.0009375373    1.812    0.448
       192 -11.7993     21.1932     64.8650   9.3774618629e+01   6.2097405799e+01    0.2571839    0.2290174 -21.82 0.0005535585    1.097    0.088
       193  -9.7330    201.5239     64.5407   4.2593171884e+01   2.6932228168e+01    0.2750761     0.191927  67.81 0.0007652144    1.441    0.306
       194  -9.5345    198.3392     62.6553   4.2589657278e+01   2.7916146109e+01    0.2395806    0.1556708 -86.13 0.0007504052    1.744    0.426
       195 -11.6604     92.2812     63.0994   6.5282851640e+01   5.1886880561e+01    0.9359163    0.4164723  49.69  0.003377106    2.301    0.565
       196 -10.3355     91.8829     57.1782   6.3411494425e+01   5.2966950748e+01     0.319752    0.3016431  85.28  0.001284669    1.264    0.209
       197 -10.1144    106.2011     63.8523   6.1376831907e+01   4.8845064051e+01    0.2924713    0.2473948  49.69  0.001599376    1.146    0.127
       198 -10.5517     59.0941     63.1084   7.7026556562e+01   5.7858295232e+01     0.337428    0.2963303 -29.75   0.00117402    1.128    0.113
       199  -9.9487     64.8658     61.6442   7.4297329484e+01   5.7206912321e+01    0.3637167    0.2056356 -45.63  0.001256771    1.837    0.456
       200 -10.9393     20.7712     46.1656   8.8124150380e+01   6.5824736002e+01    0.3851817    0.2397314 -29.70  0.001123174    1.413    0.292
       201 -10.4467     24.6605     38.9927   8.3590744264e+01   6.6713996900e+01    0.7924901    0.5672039  67.12  0.003765737    3.514    0.715
       202  -9.0082    188.3317    249.6762   8.3038713140e+01  -4.7192953492e+00    0.1138487   0.09606288  52.62 0.0007050384    1.704    0.413
       203 -11.3948     60.9358     47.8572   7.0870375754e+01   6.0248052148e+01     0.820776     0.453954 -31.97  0.004018087    1.863    0.463
       204 -10.0997     55.3510     50.9719   7.4248327552e+01   6.0624966322e+01    0.1791744    0.1519055 -13.07   0.00108587    1.081    0.075
       205 -10.8623     51.9981     48.4685   7.4700032343e+01   6.1564922784e+01    0.3981805    0.2994083   5.44  0.002306991    1.298    0.230
       206 -11.4509     40.4846     57.0522   8.2697338716e+01   6.1617308631e+01    0.6445319    0.2532019  32.30  0.002768248    2.544    0.607
       207 -11.2088     52.0617     61.8113   7.9408378716e+01   5.9154459268e+01    0.3902573    0.2863896  44.28  0.002133009    1.607    0.378
       208 -11.9842     43.5478     62.2635   8.3115081438e+01   6.0225672442e+01    0.2909214    0.2446481 -23.41 0.0004083512    1.055    0.052
       209 -11.2049     46.5993     58.7921   8.0657318574e+01   6.0489629368e+01    0.3162982    0.2413643 -53.44 0.0006426857    1.524    0.344
       210 -11.4968    234.7301     60.9681   3.7869381919e+01   2.0613271898e+01    0.3669207    0.3131745 -69.80  0.001458551    1.084    0.077
       211 -12.1602    119.5105     57.6373   5.5860379750e+01   4.6905008683e+01     1.556216    0.9427534 -81.02  0.005497229    3.760    0.734
       212  -9.9268    175.0999    247.2760   8.5350038471e+01  -2.5155148779e+00    0.2313101    0.1924656 -39.00  0.001482851    1.375    0.273
       213 -10.5858    109.1105     43.0996   5.3753938832e+01   5.1383380415e+01     0.580932    0.2955438 -29.32  0.002598247    2.237    0.553
       214 -10.8874    113.9343     38.1124   5.0911252328e+01   5.0955910875e+01    0.2581125    0.2306542 -29.28 0.0003396624    1.237    0.191
       215 -12.4398    117.7298     44.0339   5.1951729386e+01   4.9305992950e+01    0.9224534     0.634055  57.26  0.003599663    1.342    0.255
       216 -11.3990    127.1209    242.1862   9.4868316788e+01   5.4134129340e+00    0.3408238    0.2988268  86.78  0.001435091    1.392    0.282
       217 -10.6808     87.6698     56.6116   6.4548753742e+01   5.3909590703e+01    0.5583412    0.2310537 -33.83  0.002163501    2.702    0.630
       218  -9.4219    150.8082     61.1799   5.0003703747e+01   3.9068535457e+01      0.21184    0.1851369 -83.28 0.0004621794    1.150    0.130
       219  -9.2951    147.0319     61.0000   5.0702542670e+01   3.9985312164e+01    0.2940838    0.1127087  57.50  0.001008086    2.491    0.599
       220  -9.4523    113.6075     60.6348   5.8321106714e+01   4.7754683842e+01    0.2734512    0.1410071 -31.62  0.001140727    2.198    0.545
       221 -11.2326     26.0882     47.9919   8.6172748577e+01   6.4960833632e+01    0.3036911    0.1638964 -39.73 0.0004133456    1.633    0.388
       222 -10.9932     33.0202     52.4353   8.4462226171e+01   6.3380891266e+01     1.436985    0.7049637  10.54  0.006297472    2.684    0.627
       223 -10.5962     24.4829     59.5034   9.0696757881e+01   6.2899609194e+01    0.6316899     0.230779  30.90  0.002417707    2.835    0.647
       224 -10.6293     25.4088     55.8036   8.9108299680e+01   6.3544335040e+01    0.3243453    0.2404369 -26.35  0.001058507    1.163    0.140
       225 -11.0002    106.7093     58.5608   5.9517712507e+01   4.9610232384e+01     0.355984    0.2727878  73.27  0.001049888    1.604    0.377
       226 -11.1812    145.7951     48.1871   4.7288645676e+01   4.2175685875e+01    0.7537683    0.3771352 -21.29  0.002797608    3.051    0.672
       227 -10.3236    163.0775     43.6295   4.3037017623e+01   3.8718085642e+01    0.6194223    0.3178666  54.64  0.002893038    1.862    0.463
       228  -9.2054    163.4960    243.5014   8.7193934476e+01  -2.2107693476e-01     0.130338    0.1114545  15.98  0.000810665    1.010    0.009
       229 -11.0889    156.6020     52.8383   4.6612909471e+01   3.8958692053e+01     0.905131    0.5403514 -43.11  0.004409844    1.704    0.413
       230 -10.7669    155.6538     42.3320   4.3891921181e+01   4.0640799893e+01    0.6268195     0.457508  -5.66  0.003241603    2.013    0.503
       231 -11.5233    153.2942     36.1454   4.2573588975e+01   4.1993635807e+01    0.4312985     0.327552   7.90  0.000367067    1.926    0.481
       232 -11.4271    159.7203     29.6706   3.9820254934e+01   4.1263363392e+01    0.3332593     0.260197  45.81 0.0005456101    1.431    0.301
       233  -9.9753     67.8113    240.6917   1.0781591459e+02   1.4203764581e+01    0.1904433    0.1569688  20.56  0.001036618    1.418    0.295
       234  -9.1349    238.4528     55.5212   3.6398811562e+01   2.0676824401e+01    0.1225019   0.09905353 -63.40 5.080031e-05    1.034    0.032
       235  -9.3274     46.4561     76.0883   8.6204277192e+01   5.7029824327e+01    0.3011534    0.1431735 -39.10  0.001296045    2.051    0.512
       236  -9.8222     66.8880     54.5814   7.1056765274e+01   5.8118590291e+01    0.2962666    0.1962141 -48.38  0.001513128    1.746    0.427
       237  -9.7019      7.1158     54.3235   9.7398677279e+01   6.5323624473e+01    0.2283833    0.1257993 -44.59  0.001274023    1.450    0.310
       238  -8.8239     13.6768     54.2533   9.4198860636e+01   6.4875156120e+01    0.1065623   0.09410343  45.81 0.0001557722    1.542    0.352
       239  -9.1687    211.8036     52.7917   3.8663637632e+01   2.6460029106e+01    0.2288975    0.1213993 -67.63  0.001068805    2.152    0.535
       240  -9.8438    201.4612     53.0127   3.9956619272e+01   2.8655612110e+01    0.2333775    0.2097703 -56.39 0.0009851564    1.162    0.140
       241 -10.3664    201.5091     48.9805   3.9031048473e+01   2.9215321689e+01    0.5081944    0.3174039 -14.99  0.002339285    2.882    0.653
       242 -10.4641    200.6887     45.3614   3.8305747735e+01   2.9894329819e+01    0.4238143    0.1911064  81.00  0.001760338    2.806    0.644
       243 -11.1458    136.2680     57.4135   5.1907942760e+01   4.3067989641e+01    0.6752987    0.4139386  12.70  0.002485071    3.545    0.718
       244 -10.3796    240.3573     50.7311   3.5270286683e+01   2.0982756127e+01    0.2411417    0.1923005 -44.02  0.001151181    1.300    0.231
       245 -10.1122    159.1727     62.5141   4.8782459795e+01   3.6893351729e+01    0.5129685    0.1893441  46.76  0.001807333    3.067    0.674
       246 -10.2132    244.8935     51.1978   3.4944342236e+01   2.0057242104e+01     0.190684    0.1313494 -66.01 0.0006802052    1.216    0.178
       247 -10.9611    174.7106     48.4175   4.2497625508e+01   3.5345634206e+01    0.5640133    0.2479952  63.13  0.002239391    2.140    0.533
       248  -9.5600     90.3649     47.7497   6.0603081200e+01   5.4755733050e+01    0.2820418    0.2095382 -60.94 0.0009070846    1.864    0.463
       249 -10.7526     12.5985     47.9964   9.2795136193e+01   6.6182288331e+01    0.3711298    0.1826115 -29.61  0.001480149    1.922    0.480
       250  -9.6912      2.5368     49.0501   9.8169392134e+01   6.6658316928e+01    0.2063466    0.1522915  25.53  0.001293598    1.604    0.377
       251 -11.3081    137.4696     44.7548   4.7898849594e+01   4.4614567549e+01     0.679463    0.2442815  46.05  0.002449072    3.014    0.668
       252  -9.5530    234.4932     44.5442   3.4590849981e+01   2.2965955775e+01    0.1203143    0.0982382 -67.88 2.951381e-05    1.053    0.050
       253  -9.5442      7.9607     30.7351   8.9224657492e+01   6.9681304733e+01    0.6367934    0.2837132   3.21   0.00304603    2.731    0.634
       254 -10.5842      4.1310     39.3576   9.4365834340e+01   6.8418660469e+01    0.3817037    0.2584204 -65.64  0.002320051    1.889    0.471
       255 -10.5175      5.5854     36.1872   9.2510286122e+01   6.8899633125e+01    0.3747688    0.1655754  23.41  0.001986841    2.311    0.567
       256  -9.3972    176.7471     43.5801   4.0980680361e+01   3.5536435982e+01    0.1922528    0.1174052  81.17 0.0009511963    1.692    0.409
       257 -10.6533     94.1068     41.2281   5.7171780401e+01   5.4909189883e+01    0.6582962    0.2329052  51.46  0.002531077    2.583    0.613
       258 -10.2736     57.2356     41.7752   7.0010320919e+01   6.1825201654e+01    0.3069659    0.2014818  41.11  0.001677754    1.532    0.347
       259  -9.5583     17.4866     41.8948   8.8271835777e+01   6.6909703377e+01    0.2473727    0.1386024  -5.85  0.001301614    1.967    0.491
       260 -10.2876    189.0622     39.6261   3.8383814815e+01   3.3247406510e+01     0.336152    0.1944557 -27.08  0.001279343    2.174    0.540
       261 -10.8428    168.0844    237.8694   8.5363350314e+01   8.8580166106e-02    0.2423746    0.1749911  47.81 0.0009983478    1.627    0.385
       262  -9.2261    231.3514     38.8622   3.3743980961e+01   2.4341433118e+01    0.2555913   0.07573356 -44.40  0.001106404    2.658    0.624
       263  -9.4765    217.3916     39.2239   3.5140616157e+01   2.7139050901e+01    0.1818841   0.09416798 -49.01 0.0007020884    1.680    0.405
       264 -10.9557    176.6973     36.5775   3.9234644633e+01   3.6462029569e+01    0.3686982    0.2390701 -45.47  0.002022004    1.526    0.345
       265 -10.0945     59.9491     23.5700   6.1521487316e+01   6.3874335191e+01    0.2432433    0.1718127 -21.58 0.0006324899    1.471    0.320
       266 -11.3373    147.1402    237.5604   8.9816629472e+01   3.2705310726e+00    0.5973957    0.2962472  41.00  0.002779813    1.889    0.471
       267 -10.1678     67.6853     32.2901   6.2287967094e+01   6.1364864494e+01    0.3614751    0.3002885  41.66  0.001916841    1.207    0.171
       268 -12.2398     58.1344     30.0839   6.4951550675e+01   6.3362135373e+01    0.3815553    0.2597792   7.28  0.001508062    1.583    0.368
       269 -11.9475     49.4122     30.1707   6.8521345089e+01   6.4791765231e+01    0.6018338    0.2650555  35.97  0.001575578    2.097    0.523
       270  -9.5722    183.7335     38.0902   3.8686611296e+01   3.4654866997e+01    0.1973008    0.1491266 -71.45  0.001156555    1.235    0.190
       271  -9.2188    206.5004     37.1100   3.5805808364e+01   2.9725042474e+01    0.1752744    0.1140785 -41.63 0.0007148187    1.504    0.335
       272  -9.8073    132.8714     36.7966   4.6413414361e+01   4.6734779503e+01    0.3075627    0.1921535 -79.93  0.001391446    2.311    0.567
       273  -9.4061     12.6432     36.8609   8.8970728642e+01   6.8233277471e+01     0.154461    0.1055863 -55.84 0.0008150714    1.724    0.420
       274  -9.2470     94.1746     35.8860   5.5237792479e+01   5.5605118081e+01    0.1908784    0.1747863  82.90  0.000618846    1.294    0.227
       275  -9.6739    148.4166     33.4988   4.2634824541e+01   4.3471801639e+01    0.2906705    0.1347522 -28.83  0.001241477    2.522    0.604
       276 -10.3026    157.5253     20.4999   3.7676901653e+01   4.2806111654e+01    0.3100413     0.197512  65.26  0.001729059    1.370    0.270
       277  -9.3184    233.1657    236.1540   7.2348471492e+01  -8.3862025937e+00    0.1499589    0.1319149 -17.15 0.0007432467    1.334    0.251
       278 -10.8282    197.4975    232.4761   7.8456865151e+01  -3.2088088980e+00    0.2573247    0.2125538  13.15  0.001116227    1.095    0.087
       279 -10.7119    139.9441     28.4479   4.2614349821e+01   4.6066954222e+01    0.5562408    0.3018585 -15.28  0.002165223    2.769    0.639
       280 -10.3696    242.9203    231.8596   6.9917778011e+01  -8.9084120423e+00    0.2062562    0.1491596  20.52  0.001384646    1.377    0.274
       281 -10.1637    247.3486    231.2294   6.9053891973e+01  -9.3251253821e+00    0.1636282    0.1194368  -5.83 0.0006879026    1.110    0.099
       282 -10.5899    143.9687     25.0319   4.0950769921e+01   4.5501286731e+01     0.481354     0.246245  56.68  0.001749897    1.718    0.418
       283 -10.3363    149.1622     22.1534   3.9327412312e+01   4.4591470291e+01    0.2789099    0.2400461  62.23  0.001425626    1.126    0.112
       284  -9.5410     23.4925    231.5556   1.1658482554e+02   2.1482567667e+01     0.124108   0.09806182  68.01 0.0002311073    1.019    0.019
       285 -10.3341    127.3990     16.5343   4.1204292900e+01   5.0269426772e+01    0.2883913    0.1861315  48.80 0.0009277888    1.450    0.310
       286 -10.3207    240.0845     33.1437   3.1881571312e+01   2.3367764494e+01    0.3101704    0.1809978  89.83  0.001774174    1.665    0.399
       287  -9.3717     15.3140    233.9918   1.1842967224e+02   2.1803365435e+01    0.1706377    0.1299432  86.23  0.001137607    1.152    0.132
       288 -11.8544    106.4355     32.4245   5.0795921479e+01   5.3354686324e+01    0.5302176    0.3186171  28.44  0.002530246    2.061    0.515
       289  -8.9299    209.2232    223.9582   7.4717245147e+01  -3.4270447361e+00    0.1596338   0.09592821 -38.24 0.0003453313    1.604    0.376
       290 -10.3509     86.6419     30.2724   5.5337780721e+01   5.7892260276e+01    0.3711261    0.2318223  17.84  0.001280484    2.039    0.510
       291  -9.5561    234.0391    223.4999   7.0046222549e+01  -6.6022906332e+00    0.1714083    0.1095402  25.82 0.0006770362    1.564    0.361
       292 -10.2498    164.6597    212.2059   8.1876837988e+01   5.3829399026e+00    0.2531069    0.2097379  20.96 0.0006458069    1.130    0.115
       293  -8.8584    199.4961    210.5152   7.4252967747e+01   2.6581766435e-01    0.1344251    0.1154448  -6.86 7.560174e-05    1.002    0.002
       294  -9.9121    153.2900    207.6412   8.3631059942e+01   8.1592828644e+00    0.2933559    0.2351792  73.48  0.001050508    1.737    0.424
       295 -10.5244    176.0535     30.6437   3.7840855569e+01   3.7344082522e+01    0.5341021    0.1396302  55.21  0.001913077    3.574    0.720
       296  -9.3127     61.2969    206.5590   1.0573499715e+02   2.2728505995e+01     0.173851    0.1330744  21.40 0.0009342087    1.515    0.340
       297 -11.2060    182.6516     25.6534   3.5819244492e+01   3.6424547012e+01     0.410523    0.3408442  49.98  0.002239545    1.438    0.305
       298 -11.0596    238.0943    204.6103   6.5998444985e+01  -4.1531924468e+00    0.3188001    0.2917319  82.14   0.00209356    1.858    0.462
       299 -10.0696    230.3955     27.8805   3.1646982778e+01   2.5923929053e+01    0.3192738    0.1373653 -44.70  0.001683883    1.946    0.486
       300 -10.3934    234.0452    196.8098   6.5276508103e+01  -2.3344080425e+00    0.3565232    0.2142849 -40.98  0.001610808    1.527    0.345
       301 -10.2797    240.8250     26.5336   3.0566956694e+01   2.4047523007e+01    0.2233673    0.1320016 -52.35 0.0006118451    1.367    0.268
       302  -9.5934     97.5862     26.3354   5.0872250694e+01   5.6019184167e+01    0.2428153    0.1854245  84.37  0.001235262    1.676    0.403
       303  -9.9824    214.2197     24.3756   3.2320776964e+01   2.9659667685e+01    0.2776828    0.2065118 -51.87  0.001825083    1.247    0.198
       304  -9.2959    216.5147     20.5329   3.1325069360e+01   2.9631256755e+01    0.1582567    0.1422756  53.25 0.0008821044    1.524    0.344
       305  -9.5963     85.9912     23.9548   5.3131274953e+01   5.8762478537e+01    0.1886792    0.1536605  38.38            0    1.060    0.057
       306 -11.0989      6.0356    198.9262   1.1819391056e+02   3.0609378003e+01    0.3786246    0.1598366 -67.39  0.001826509    2.078    0.519
       307 -10.4195    245.8498    200.9158   6.4016585417e+01  -4.5649287340e+00    0.1972192    0.1408902 -13.73 0.0007426868    1.258    0.205
       308  -9.1217     83.5288    195.9480   9.8787559706e+01   2.2159408727e+01    0.2089905    0.1395431 -64.31 0.0005904228    1.514    0.339
       309 -10.8945    246.5453    193.7582   6.2600288299e+01  -3.5082867068e+00    0.3138843    0.1033578 -42.26  0.001312145    2.665    0.625
       310  -9.8007    169.8503    191.2352   7.6905197645e+01   8.7369078641e+00    0.3523116     0.189069  15.40  0.001254808    3.154    0.683
       311 -12.0602      4.6237    184.4345   1.1749645617e+02   3.4203400056e+01    0.6302961     0.455689  74.78  0.003548812    1.211    0.175
       312 -10.4578     13.9239     23.5722   8.3010770299e+01   7.0329172232e+01    0.1955863    0.1416066 -27.04 0.0003017901    1.192    0.161
       313 -10.0380    239.7336    184.7083   6.2051213692e+01  -1.0947011036e+00    0.2332791    0.1704628  -7.89 0.0007326218    1.402    0.287
       314  -9.2506    223.7384     22.0394   3.1031324458e+01   2.7968316299e+01      0.16542    0.1273629 -73.90 0.0005479946    1.016    0.016
       315 -10.3242    125.4339     21.2766   4.3039825763e+01   5.0249914064e+01    0.4116175    0.1853381  61.05  0.001899285    1.879    0.468
       316  -9.4794     74.4142     19.4908   5.4843125087e+01   6.1607999411e+01    0.2297827    0.1541187  46.89 0.0006713747    1.297    0.229
       317  -9.0602    194.5250     19.4508   3.3105051268e+01   3.4472611730e+01    0.1237292    0.1005797 -82.44 8.057029e-05    1.005    0.005
       318 -10.0116    212.7394    184.0041   6.6705645904e+01   3.0369350768e+00    0.2179466    0.1527336  78.45 0.0009011355    3.499    0.714
       319  -9.9797    250.5747    177.6571   5.8971939800e+01  -1.4142937739e+00    0.2541035   0.09923879 -36.35  0.001137713    2.165    0.538
       320 -10.4627     52.0607    173.6090   1.0403042710e+02   3.2113076878e+01    0.5705314     0.280807 -88.13  0.002113022    2.835    0.647
       321 -10.0517    187.2481     15.2934   3.2884433789e+01   3.6543530554e+01     0.331621    0.1986895  88.73  0.001257792    1.531    0.347
       322  -9.4354     28.0242    175.7375   1.1078882690e+02   3.4258387188e+01    0.1854788    0.1698265  75.01 0.0007603631    1.092    0.084
       323 -10.1326    247.5555    174.0513   5.8769597462e+01  -3.9773871598e-01    0.4111391    0.1940283  21.07  0.001588036    4.203    0.762
       324  -9.2876    230.2875    175.4456   6.1884250088e+01   1.8733464170e+00    0.1512895     0.129022  44.98  0.000467453    1.461    0.315
       325  -9.8109     39.2197    173.4209   1.0752163233e+02   3.3669367857e+01    0.3003809    0.1853588  52.83  0.001471924    1.659    0.397
       326  -9.6044     74.5336     13.5242   5.2367437215e+01   6.2194041807e+01    0.2172453    0.1145474  65.06  0.001021008    2.385    0.581
       327 -10.7185     35.4299    170.2778   1.0817816754e+02   3.4886846045e+01    0.4206574    0.2206978 -76.72  0.001827091    1.818    0.450
       328  -9.0561    170.6126    171.8104   7.2884156436e+01   1.2671632430e+01     0.199961    0.1383833 -53.26 0.0006533735    1.532    0.347
       329 -11.8825      9.8656    166.5420   1.1468801680e+02   3.8212593252e+01    0.5612431    0.4020569 -64.26  0.002798249    1.273    0.214
       330 -10.9602     13.7933    158.5275   1.1283909787e+02   3.9925108255e+01    0.4232319    0.2102358 -67.30  0.002034701    1.681    0.405
       331  -9.3714    198.2564    168.0025   6.6299693426e+01   8.4815847261e+00    0.2037482    0.1735155 -32.35 0.0006985116    1.067    0.063
       332  -9.4871    187.4758    167.5183   6.8377507733e+01   1.0492001334e+01     0.146712    0.1324367 -19.79 8.668572e-05    1.044    0.042
       333  -8.8285    152.4194    166.5338   7.5978176456e+01   1.7229330053e+01    0.1507417    0.1450892 -25.13 0.0001217461    1.011    0.011
       334 -10.5591     19.0451    164.8860   1.1205630673e+02   3.7861602095e+01    0.3182836    0.2694249 -26.94  0.001878525    1.455    0.313
       335 -10.5053     39.9412    162.0809   1.0588013965e+02   3.6513794147e+01    0.4019909     0.247364  63.59  0.001399243    1.836    0.455
       336 -10.5618     28.1941    162.4129   1.0924878582e+02   3.7646333018e+01    0.4231043    0.2319284 -58.49   0.00203348    1.650    0.394
       337 -10.2948    204.9782    162.9724   6.3963010246e+01   8.2916448504e+00    0.2498188    0.2192423  -0.54 0.0005504474    1.177    0.150
       338 -10.6362    246.6910    159.2034   5.6066243291e+01   2.2432681828e+00    0.3827618    0.1477552 -39.98  0.001683022    2.132    0.531
       339  -9.4924     78.8215    160.0797   9.4328412846e+01   3.1909579103e+01    0.2412424    0.1974059  78.05  0.001206118    1.333    0.250
       340  -9.4036    224.2598    157.7074   5.9405401470e+01   6.0168362926e+00    0.3486334    0.1547807 -51.49  0.001395771    2.573    0.611
       341  -9.4505    215.4087    157.7868   6.0970944440e+01   7.4851520744e+00    0.2072862    0.1169494 -32.56 0.0009517989    1.729    0.422
       342 -10.4576      9.6053    155.5631   1.1370136312e+02   4.1006654151e+01    0.2666858    0.1442477 -77.71  0.001182388    1.592    0.372
       343 -10.5425    104.9331    154.1206   8.5718692508e+01   2.9090175358e+01     0.408724    0.3337928 -33.88  0.001987539    1.320    0.243
       344 -10.7273     31.5524    152.8599   1.0708551703e+02   3.9786022680e+01    0.4425887    0.2839241  78.31  0.002147502    1.742    0.426
       345 -12.1364     22.7070    149.1894   1.0922143987e+02   4.1565316127e+01    0.6850314    0.3348862 -36.89  0.001567843    2.660    0.624
       346 -10.7633     15.8597    147.9592   1.1108832699e+02   4.2458461972e+01    0.3141356     0.277539  73.04 0.0008579988    1.151    0.131
       347 -10.5171      3.2112    152.8150   1.1521289519e+02   4.2161979763e+01     0.398521    0.2172236  78.25  0.001951355    1.916    0.478
       348 -10.3754      3.4775    147.4857   1.1462123246e+02   4.3487662969e+01    0.2326432    0.1726511 -51.74 0.0006592573    1.332    0.250
       349 -12.3311      2.3249    142.1854   1.1441863367e+02   4.4899920161e+01    0.6409619    0.4120172  67.87 0.0008012781    1.651    0.394
       350 -10.1183     73.2121    148.1215   9.3790022167e+01   3.5852577631e+01    0.7728761     0.245354 -43.77  0.002169646    4.142    0.759
       351 -10.6217     63.5165    150.3813   9.7129037455e+01   3.6653826657e+01    0.4478359    0.2820452   7.51  0.001677337    2.275    0.561
       352  -9.7760    234.3174    150.3813   5.6265928402e+01   5.7007097038e+00     0.207483    0.1512342  -9.71  0.001125425    1.685    0.406
       353 -10.6232     41.8970    149.1037   1.0346449412e+02   3.9675901818e+01    0.3992543    0.2347606  25.75 0.0008289395    1.891    0.471
       354 -10.8148     46.4899    146.3566   1.0163786645e+02   3.9869735626e+01    0.5207737    0.2385631 -68.77  0.002029199    2.110    0.526
       355 -10.7545     49.7311    146.0098   1.0058589042e+02   3.9575563641e+01    0.2867674    0.2593566  73.71 0.0001883722    1.134    0.118
       356 -10.3931    239.6760    146.8557   5.4722452621e+01   5.4645426008e+00    0.1996639    0.1753993   2.45 0.0007155234    1.290    0.225
       357 -11.2073    249.0088    142.1717   5.2409935349e+01   4.8087971009e+00    0.5059991    0.2306173 -35.59   0.00236547    1.956    0.489
       358 -10.9881     33.4956    144.4330   1.0533128104e+02   4.1780741194e+01    0.4424227    0.2874663  51.04  0.001655025    1.689    0.408
