#   1 NUMBER                 Running object number                                     
#   2 MAG_AUTO               Kron-like elliptical aperture magnitude                    [mag]
#   3 X_IMAGE                Object position along x                                    [pixel]
#   4 Y_IMAGE                Object position along y                                    [pixel]
#   5 X_WORLD                Barycenter position along world x axis                     [deg]
#   6 Y_WORLD                Barycenter position along world y axis                     [deg]
#   7 A_WORLD                Profile RMS along major axis (world units)                 [deg]
#   8 B_WORLD                Profile RMS along minor axis (world units)                 [deg]
#   9 THETA_WORLD            Position angle (CCW/world-x)                               [deg]
#  10 FWHM_WORLD             FWHM assuming a gaussian core                              [deg]
#  11 ELONGATION             A_IMAGE/B_IMAGE                                           
#  12 ELLIPTICITY            1 - B_IMAGE/A_IMAGE                                       
         1 -11.1285      2.2744     20.8658   8.1984246510e+01   6.9303601666e+01    0.3292224    0.1604903 -57.45  0.001029767    1.626    0.385
         2  -9.8239     39.4082     15.2210   6.3654682196e+01   6.7269122835e+01    0.2897159    0.1012741 -44.79  0.001049681    2.613    0.617
         3  -9.2092     34.9781     23.1765   6.8749587499e+01   6.6435555947e+01     0.649886    0.3214509  -5.92  0.002237013    4.235    0.764
         4 -11.7964     14.3690     16.2327   7.4998612038e+01   6.9380740751e+01    0.5085459    0.3251588 -79.91   0.00251178    4.038    0.752
         5 -11.2757    125.0917     17.1297   3.6757910950e+01   5.1954982086e+01    0.2755552    0.2143763  29.47  0.000323616    1.242    0.195
         6 -11.6278    235.1068     14.8186   1.8862375093e+01   2.3976725494e+01    0.3312661     0.246722  54.80 0.0007963114    1.434    0.303
         7 -11.2367     85.5700     11.8132   4.5208250987e+01   6.0872835083e+01    0.2893676    0.2025165  -0.34   0.00101632    1.424    0.298
         8 -11.9640    192.4058     11.2965   2.2821413468e+01   3.5440631174e+01    0.5157875    0.3475496 -47.91  0.001096763    1.539    0.350
         9 -11.6563    207.8270     12.5620   2.1252600196e+01   3.1233011992e+01    0.3156513    0.3051899 -71.60 0.0005971521    1.075    0.070
        10 -10.7228    176.7825     13.5556   2.5729341846e+01   3.9335458833e+01    0.3731413    0.2220423 -77.11  0.001545979    2.278    0.561
        11 -11.8493    125.7871     10.5242   3.4039023594e+01   5.2535472988e+01    0.4706488    0.2719535 -45.75 -0.0001512417    2.135    0.532
        12 -10.7148     34.6190     12.1208   6.4342803136e+01   6.8270046128e+01    0.2390683    0.1910384  34.27 0.0009605209    1.646    0.393
        13 -11.9414     29.4775      8.2933   6.4901676127e+01   6.9384159978e+01    0.3802777    0.2451528 -18.53 0.0008653797    1.369    0.269
        14  -9.4759    135.0134     11.0043   3.2245279125e+01   5.0285618198e+01    0.1669949    0.1515083  37.64            0    1.010    0.009
        15 -13.0938    116.7159      8.4779   3.5307711687e+01   5.4836212935e+01    0.3068627    0.2866186 -11.93 0.0005975423    1.141    0.123
        16 -10.6696    182.4989      9.8307   2.3723450529e+01   3.8221747929e+01    0.2664187    0.1877832  66.65 0.0006526437    1.309    0.236
        17 -10.4986     45.3673      9.8592   5.8796591109e+01   6.7372907075e+01    0.1930289    0.1472963   7.30 0.0004535332    1.248    0.198
        18 -10.3822      3.3461      7.5695   7.6847617560e+01   7.1561275808e+01     0.352585    0.1416208 -38.65  0.002070451    1.839    0.456
        19 -10.0165     21.9924      9.3944   6.8778972052e+01   6.9910541377e+01    0.1968959   0.09841376  13.72  0.001113009    2.486    0.598
        20  -9.6523     15.4599      8.8171   7.1566209948e+01   7.0537096156e+01    0.1555359     0.114332  12.13  0.001154336    1.526    0.345
        21 -10.3419    149.7526      7.6378   2.8182363536e+01   4.6974256106e+01    0.3024593    0.1381727  20.91 0.0009625356    4.062    0.754
        22 -10.7270    241.4619      6.9425   1.6277717149e+01   2.3298880674e+01    0.2305706    0.1763492  74.14   0.00131012    1.267    0.211
        23 -10.6083    104.9957      3.5757   3.6145575045e+01   5.7911004458e+01    0.3189147    0.2036767   1.92 0.0009329526    1.682    0.405
        24  -9.5015     43.5739      4.1777   5.6860973743e+01   6.8390244370e+01    0.1553332   0.09062862 -23.03 0.0003757989    1.472    0.321
        25  -9.6696     38.9068      4.4402   5.8964988020e+01   6.8921515678e+01    0.1475219    0.1039163  23.30 0.0002929929    1.484    0.326
        26 -12.0256     19.6864      2.4550   6.6757647223e+01   7.1182525053e+01    0.3164145    0.1941392   5.06  0.001106263    1.753    0.430
        27  -9.7234     12.4570      2.0039   7.0057059959e+01   7.1843703696e+01    0.1874236    0.1447423 -64.69  0.001304396    2.124    0.529
        28 -10.9863    163.5272      2.8731   2.4262679703e+01   4.3898011986e+01    0.2982656    0.1811935  89.91  0.001301765    2.000    0.500
        29 -10.1646     59.8552      3.0514   4.9888000236e+01   6.6275637018e+01     0.194432    0.1555706  19.34 0.0004224633    1.191    0.160
        30  -9.5557     53.8069      2.8502   5.2087765703e+01   6.7191376010e+01    0.1508178    0.1307325 -24.47  0.000704241    1.336    0.252
        31  -9.7235    150.3119      2.3218   2.6203346179e+01   4.7343781696e+01    0.1501461   0.09423515  34.87 0.0003448232    1.652    0.395
        32 -11.0756    122.9865      1.9428   3.1275866632e+01   5.4047612585e+01    0.2585631    0.1824295  53.74 0.0004227353    1.304    0.233
        33 -11.0533    116.5415      1.4502   3.2494097071e+01   5.5574328410e+01    0.4682506    0.1324626  61.87  0.001567339    3.666    0.727
        34  -9.5277     80.9483      1.4222   4.1934674178e+01   6.2915704574e+01    0.1671809    0.1161332  46.72 0.0003212894    1.478    0.324
        35  -9.6109     29.0111      1.2860   6.1832816062e+01   7.0459729953e+01     0.225883   0.09361643  30.84  0.001216592    2.677    0.626
        36  -9.1597     46.5033    202.4900   9.7606843342e+01   2.7898822349e+01    0.1138631   0.08046667  75.23 0.0008102154    1.044    0.042
        37 -10.2453    110.0378    250.5755   9.1087199178e+01   1.1069897586e+01    0.1686353   0.08163138  47.39 0.0005944853    1.574    0.364
        38 -11.0615     28.8704    250.5047   1.0327929189e+02   2.1667645858e+01    0.2314556     0.072268  43.40  0.001348564    2.672    0.626
        39 -11.9013     18.4034    248.6068   1.0464924372e+02   2.3091269606e+01     0.231283    0.1839693 -82.65   0.00211083    1.631    0.387
        40 -11.8360      2.7229    246.8566   1.0671414710e+02   2.4948289666e+01    0.5666338    0.2329962  60.58  0.004063048    1.615    0.381
        41 -12.8908     10.8583    243.3095   1.0546941722e+02   2.4706493234e+01    0.5473939    0.2310063  88.65  0.003780051    1.932    0.482
        42 -12.7783      5.3799    240.0376   1.0609585729e+02   2.5774499452e+01    0.4533153    0.3461264  32.26  0.003814584    2.306    0.566
        43  -9.6995     18.6406    195.3175   1.0186818230e+02   3.2280711024e+01    0.1398127   0.07550349 -74.79 0.0007106383    1.601    0.375
        44  -9.2837     14.6638    193.2497   1.0241158529e+02   3.3057754758e+01    0.1075181   0.05473671  66.87 0.0001773368    1.561    0.359
        45  -9.9307      6.4766    191.9671   1.0370513197e+02   3.4061097286e+01    0.1517413   0.07543638 -84.70  0.001012673    1.536    0.349
        46  -9.5113      1.2602    191.1797   1.0452382424e+02   3.4670562571e+01    0.1460858   0.06285938  89.91 0.0006415432    1.801    0.445
        47  -8.9041     18.2895    182.3725   1.0109395809e+02   3.4798015799e+01   0.09952327    0.0694269 -61.80 0.0007022019    1.721    0.419
        48  -9.0756     14.0000    181.9523   1.0182393237e+02   3.5285358843e+01    0.1700641   0.04689124 -76.41 0.0007985332    2.915    0.657
        49  -9.1611     68.2796    179.8663   9.1506571886e+01   2.9569205411e+01    0.1999839   0.08186304 -87.80 0.0004613664    4.427    0.774
        50  -9.8905      6.9981    168.4791   1.0220234188e+02   3.8560592338e+01    0.1387974   0.09223275  48.72 0.0004895278    1.572    0.364
        51 -10.9397      5.7987    154.7843   1.0148124434e+02   4.1422670218e+01    0.2845678     0.131188  65.20  0.001684653    2.028    0.507
        52  -9.0913     45.2331    148.9821   9.2807078711e+01   3.8908538994e+01    0.1473738   0.08338998 -73.44 -0.000430966    1.477    0.323
        53 -10.5479      6.2013    145.1836   1.0067299135e+02   4.3369726291e+01    0.1580913    0.1182118 -78.96 0.0005912617    1.163    0.140
        54 -10.9484     29.0012    143.0565   9.5680256605e+01   4.1861015170e+01    0.1713373     0.130329 -88.06            0    1.009    0.009
        55  -9.8762     53.0703    141.8460   9.0190607242e+01   3.9569796745e+01    0.1834847    0.1363725  83.64            0    1.197    0.165
        56  -9.7396    235.9766    138.2930   4.9977431548e+01   5.4076377491e+00    0.1984555    0.1752103  30.17 0.0005663012    1.102    0.092
        57  -9.7177     96.0112    133.7697   7.8825354137e+01   3.5364214597e+01     0.191217    0.1712372  87.74  0.000750072    1.027    0.027
        58 -11.9154     28.4799    127.9877   9.4124043668e+01   4.5180745139e+01     0.202972    0.1658474 -88.82  0.001451705    1.082    0.076
        59 -10.2561     41.4691    127.5185   9.0994294454e+01   4.4021913258e+01    0.1227589   0.09782777 -79.80 0.0001413879    1.013    0.013
        60  -9.3692    226.4934    124.5245   4.8445674253e+01   9.6633824747e+00    0.1451333    0.1390596  -2.80 5.779959e-05    1.030    0.029
        61 -10.8563     26.0290    122.2779   9.4017127270e+01   4.6650139511e+01    0.2173588    0.1656536 -80.01  0.001507497    1.009    0.009
        62 -11.6225     10.0257    120.8130   9.7630525372e+01   4.8243052548e+01    0.3202422    0.1980513  73.68   0.00109303    1.569    0.363
        63  -9.6778     86.4842    118.5346   7.8275076073e+01   4.0291649602e+01    0.1369865    0.1222764 -74.20 7.836794e-06    1.013    0.013
        64 -10.7824     69.0706    116.6657   8.2395755799e+01   4.3210175527e+01    0.2494276    0.1704209 -65.65 0.0005284002    1.281    0.219
        65  -9.4101      4.2977    117.3061   9.8609935401e+01   4.9391792176e+01    0.1077236   0.06593445 -55.82 0.0003165244    1.589    0.371
        66 -10.3132      1.7694    113.9967   9.8873947587e+01   5.0261680171e+01    0.1586845    0.1047443 -77.47  0.001112215    1.102    0.093
        67 -10.3740     24.7874    111.5954   9.2960663289e+01   4.9103555283e+01    0.1416042    0.1011174  54.20  0.000382911    1.556    0.357
        68 -11.7359     13.6674    109.3126   9.5464575960e+01   5.0466023960e+01    0.3732504    0.1512566 -82.60   0.00179254    2.420    0.587
        69 -10.1910     35.3810    109.8633   9.0002652904e+01   4.8549688083e+01    0.1853992   0.08422706 -58.27 0.0009485669    1.787    0.440
        70  -9.0671     69.6460    108.2351   8.0644514361e+01   4.5038464096e+01    0.1283936    0.0937843  72.68 0.0003217875    1.574    0.365
        71 -10.9725      5.6594    108.1685   9.7320303439e+01   5.1260191530e+01    0.2134077    0.1667123 -16.69  0.001560067    1.901    0.474
        72  -9.3407     42.2756    107.3122   8.7793687314e+01   4.8447830457e+01     0.121044    0.0806923 -46.83 0.0002452367    1.559    0.358
        73  -9.3939     44.9613    104.9475   8.6680411037e+01   4.8702241663e+01    0.1492986    0.1198984 -69.74 0.0003611311    1.015    0.015
        74  -9.6214     39.2847    105.3369   8.8267691504e+01   4.9185279577e+01    0.1235484   0.07863986 -46.56 0.0004119434    1.627    0.385
        75 -11.0067     22.0423    105.0902   9.2781367753e+01   5.0756224195e+01    0.1887657    0.1180763  78.62  0.001129164    1.719    0.418
        76 -10.2725      1.4107    104.1810   9.7934159375e+01   5.2378425779e+01    0.2125959   0.07354878 -68.71 0.0008367359    2.006    0.502
        77  -9.7027     16.9789    104.7649   9.4050165662e+01   5.1214451289e+01    0.1139942   0.09838184  34.39 0.0001974981    1.505    0.336
        78 -10.0285    246.9892    101.5153   3.9445787114e+01   8.7922481554e+00    0.2072913    0.1420871  51.43 0.0006053621    1.539    0.350
        79 -12.0999    197.1242     97.6835   4.7147645469e+01   2.1222918706e+01    0.2694985    0.2597314 -42.27 0.0003248982    1.040    0.038
        80 -10.1327     17.6130     85.6213   9.1084206176e+01   5.5335224232e+01     0.274051    0.1529478  89.78  0.001230403    2.061    0.515
        81 -12.4448     20.0817     92.6024   9.1486628188e+01   5.3640342803e+01    0.4696051    0.2973916 -46.08 0.0007375345    1.588    0.370
        82 -12.0444     11.1289     93.0599   9.4021198407e+01   5.4164103612e+01    0.4304229    0.1993191 -51.82 0.0004371755    1.894    0.472
        83 -10.2541    132.7468     96.0174   6.1045007831e+01   3.6726547613e+01    0.2126472    0.1920847 -49.01 0.0003936198    1.080    0.074
        84 -10.7745      3.0327     95.5542   9.6517975045e+01   5.4127598481e+01    0.2374787    0.1497577 -85.03  0.001088795    1.329    0.247
        85 -11.5011    125.1346     93.0662   6.2180420159e+01   3.8943193638e+01    0.2399873    0.2359265  24.84            0    1.072    0.067
        86  -9.9301     43.6194     92.8345   8.4865279575e+01   5.1539845713e+01    0.1857204    0.1023197 -72.87 0.0009504942    1.759    0.431
        87  -9.8817    160.9800     92.5406   5.3339171672e+01   3.1016352704e+01    0.2230472    0.1531609  50.16  3.54837e-05    1.455    0.313
        88  -9.2841     29.5450     91.5442   8.8650996000e+01   5.3124080417e+01    0.1209188   0.09463263 -66.08 0.0007091492    1.016    0.016
        89  -9.7730     83.5216     90.4121   7.2837707588e+01   4.7032892388e+01    0.1364247    0.1234786 -50.31 3.512845e-05    1.047    0.045
        90  -9.7154     91.9743     92.0000   7.0844307144e+01   4.5341842149e+01    0.2181391   0.08119851  40.20 0.0008023221    2.942    0.660
        91 -11.7160     58.1662     91.1355   8.0322667114e+01   5.0320706122e+01    0.3120232    0.2190424 -43.89 0.0009438179    1.394    0.282
        92  -9.1465     65.2707     89.6975   7.7937969068e+01   4.9760466855e+01     0.126366   0.09619004 -88.49 0.0001769513    1.532    0.347
        93 -10.9740      7.1219     90.6634   9.4787349991e+01   5.4932717227e+01    0.2375725    0.1483827 -69.53 0.0004506542    1.179    0.152
        94  -9.4970     30.3861     84.7757   8.7201499491e+01   5.4535831046e+01    0.1639364   0.08720247 -57.06 0.0003447516    1.467    0.318
        95 -11.3193      7.7091     83.2198   9.3564597912e+01   5.6492760918e+01    0.3434813    0.1781872 -61.96  0.001596774    1.410    0.291
        96 -10.1473      2.7557     83.7758   9.5056638759e+01   5.6657193021e+01    0.2047786    0.1236656 -71.74  0.001356587    1.225    0.184
        97  -9.9865     23.8652     81.4010   8.8523514719e+01   5.5791856968e+01    0.1953075    0.1276417 -72.12 0.0004613932    1.294    0.227
        98 -10.5111     66.2273     80.3401   7.5421008458e+01   5.1685090897e+01    0.3318689    0.2149206 -19.16  0.001367355    2.331    0.571
        99  -9.8938     42.9942     80.7755   8.2609754793e+01   5.4254435682e+01    0.1575751    0.1375534 -57.04            0    1.077    0.072
       100  -9.6568    250.4650     80.5168   3.3740016423e+01   1.1238955916e+01    0.1434172    0.1329278 -32.55 0.0002461687    1.010    0.010
       101  -9.8206     86.2133     78.4318   6.8918174745e+01   4.9198037108e+01    0.2279995    0.1805232  53.78 0.0006955493    1.455    0.313
       102  -9.7445     87.5172     75.4294   6.7689196973e+01   4.9620336752e+01    0.2152966    0.1661448 -18.70 2.306983e-05    1.533    0.348
       103  -9.2719    124.6229     79.2624   5.8391685125e+01   4.1888363129e+01    0.1501308    0.1184719  87.18 0.0006981291    1.669    0.401
       104  -9.1182     80.4788     79.5349   7.0921995073e+01   4.9853058589e+01    0.1368797     0.122404 -52.17 8.985824e-05    1.024    0.023
       105 -10.8263     48.1821     78.9719   8.0619789142e+01   5.4114303282e+01    0.1926264    0.1730624 -30.50 0.0003067692    1.225    0.184
       106 -11.0465     55.2487     75.7257   7.7658126012e+01   5.4032424779e+01    0.5359949    0.2665492  26.53  0.002577467    2.592    0.614
       107 -11.0326     12.0169     77.5122   9.1400312655e+01   5.7449387035e+01    0.1914348    0.1187801 -67.31  0.001237792    1.217    0.178
       108 -10.0636     22.2237     76.6307   8.8142917373e+01   5.6943164713e+01    0.1961063     0.129259 -73.74 0.0005337934    1.339    0.253
       109 -10.2560    176.9794     76.0938   4.5155222903e+01   3.0142454342e+01    0.3247615    0.2194995  54.76  0.001426975    1.476    0.322
       110 -10.3622     69.0834     74.4176   7.3013337701e+01   5.2575344549e+01    0.2683941    0.2119789  53.53  0.001519763    1.520    0.342
       111  -9.6579      3.2930     78.6249   9.4162593980e+01   5.7721303041e+01    0.1120638   0.07090262  82.08 0.0007023469    1.736    0.424
       112  -9.4304    143.4992     74.3936   5.2149909893e+01   3.8645656829e+01    0.1502046    0.1483772  35.72 -0.0004316784    1.023    0.023
       113  -9.6417     42.6715     73.9657   8.1196563240e+01   5.5758900379e+01    0.1811246    0.1391945 -60.16  0.001152868    1.092    0.085
       114 -10.1545     35.2936     73.7545   8.3483330444e+01   5.6497769576e+01    0.2647842    0.1433343  47.47  0.001411531    2.422    0.587
       115 -10.5354      5.8057     74.2297   9.2735305097e+01   5.8513579074e+01    0.1591903   0.09942172 -51.91 0.0006601883    1.348    0.258
       116  -9.7305    117.9446     71.0957   5.7701269894e+01   4.4897726904e+01    0.2109269     0.170467   3.79            0    1.495    0.331
       117  -9.5403    105.8330     71.6872   6.1247711498e+01   4.7170794291e+01     0.195192    0.1316659  53.63 0.0006793268    1.695    0.410
       118  -9.6936     93.2278     71.6521   6.4893945586e+01   4.9449971198e+01    0.2865729    0.1250129  50.34  0.001093322    2.888    0.654
       119  -9.6127    181.9557     70.4821   4.2501650503e+01   2.9853522136e+01    0.2280195    0.1532684  55.57 -0.0001378664    1.478    0.324
       120  -9.3285    158.0192     70.2448   4.7485657558e+01   3.5931952994e+01    0.2020597    0.1314245  52.81 0.0004045593    1.535    0.349
       121 -10.0859    100.2719     70.0172   6.2335006067e+01   4.8537304973e+01    0.1972061    0.1650824 -43.02            0    1.113    0.101
       122  -9.4395     39.3197     70.6349   8.1496188342e+01   5.6794727856e+01    0.1220065   0.08863824  86.96 0.0007039653    1.781    0.438
       123  -9.6225     12.9700     70.0344   8.9798204349e+01   5.8977659132e+01    0.1356373    0.1038897 -62.19 0.0009662246    1.020    0.019
       124 -10.9909      6.1031     69.8683   9.1922122694e+01   5.9416088833e+01     0.193614    0.1463761  84.30 0.0003256491    1.452    0.311
       125 -10.8088      2.9798     59.1003   9.1007756395e+01   6.1819478259e+01    0.2298988    0.1657625 -84.27 0.0008164128    1.420    0.296
       126 -12.0451      7.2299     64.8392   9.0676736915e+01   6.0406394904e+01    0.4602382    0.2533861 -62.36  0.002918581    1.318    0.241
       127 -10.1509     10.1583     59.0087   8.8583796409e+01   6.1449464768e+01    0.3138771     0.126809 -47.50  0.001588811    1.967    0.492
       128 -12.0300     80.6720     67.1901   6.7368492040e+01   5.2404159114e+01    0.2808525    0.2386556 -32.95 0.0001827174    1.104    0.094
       129  -9.6257     45.0095     68.8408   7.9225006524e+01   5.6616236817e+01    0.2389194    0.1340894 -65.16  0.001246355    1.736    0.424
       130  -9.8891     58.8598     66.5479   7.4121835161e+01   5.5546751057e+01    0.2629254    0.1526434 -51.64  0.001383212    1.457    0.314
       131 -10.6684     51.8393     65.7332   7.6194953195e+01   5.6538176643e+01    0.2401445    0.1692141 -49.46 0.0008212761    1.174    0.148
       132 -10.6985     40.0689     65.3226   7.9976262522e+01   5.7846200368e+01    0.2016286    0.1675017 -72.54  0.000173906    1.258    0.205
       133  -9.9634     38.9658     61.2930   7.9329457984e+01   5.8791057150e+01    0.2050565    0.1331399 -54.01 0.0008524435    1.238    0.192
       134 -10.2550    104.6196     64.3152   5.9292825528e+01   4.8853023498e+01    0.2791013    0.1652009 -39.13 0.0007896647    1.598    0.374
       135 -13.8818     20.4064     58.4026   8.4964560096e+01   6.0916532866e+01    0.4736425    0.2901064 -47.23  0.001026692    1.321    0.243
       136  -9.8601     63.0405     61.7472   7.1391758232e+01   5.6010221756e+01    0.1845072    0.1542505 -43.71 0.0007731847    1.023    0.022
       137  -9.4945     33.9270     62.7911   8.1405155805e+01   5.8938666732e+01     0.131933   0.09858304  18.40 0.0008511894    1.667    0.400
       138  -9.1086    169.2825     60.3258   4.1992684182e+01   3.4821400076e+01    0.1574907    0.1208498  16.91 0.0002115127    1.599    0.375
       139 -10.6553    145.4212     59.0919   4.6870003916e+01   4.0966653858e+01    0.2832916    0.2410404  45.03 0.0005247782    1.172    0.147
       140 -10.0071     90.8580     59.0726   6.1687240083e+01   5.2354644829e+01    0.1962645    0.1781767 -58.14 0.0002649917    1.209    0.173
       141 -12.5445     86.1763     54.3286   6.1571035595e+01   5.4050024226e+01    0.3991297    0.3254465 -10.00   0.00039094    1.298    0.230
       142  -9.6914     57.7707     58.9730   7.2328441359e+01   5.7234318721e+01    0.1741768    0.1482499 -41.41 0.0003936393    1.014    0.014
       143  -9.9046     48.9453     59.2143   7.5381517320e+01   5.8203922900e+01    0.1828839    0.1605913 -71.93  0.001211632    1.285    0.222
       144  -9.0648    130.6662     57.2584   4.9884861865e+01   4.4726639454e+01    0.1444732    0.1189812 -83.60  0.000265238    1.571    0.363
       145 -10.8456     71.4606     56.3612   6.6972331867e+01   5.5939175303e+01    0.3237732    0.2302823  39.79   0.00182053    1.607    0.378
       146 -11.9431     66.7946     52.4944   6.7281928175e+01   5.7346181231e+01    0.4047447     0.235007  32.50  0.001725204    1.967    0.492
       147 -13.4289    114.5108     53.2132   5.2805926297e+01   4.8942597363e+01    0.3537627    0.3272678  10.51 0.0006562504    1.073    0.068
       148 -12.8105    106.0317     50.3384   5.4204293326e+01   5.1164411385e+01    0.3875957    0.3387702  56.29 0.0005013049    1.306    0.235
       149  -9.6006     36.4887     53.9629   7.8241421202e+01   6.0522027958e+01    0.2890851    0.1395357 -56.97 0.0009001288    1.738    0.425
       150 -10.7822     38.7377     48.9605   7.6016313157e+01   6.1309577711e+01    0.3695379    0.1612395 -49.92 0.0008555513    1.793    0.442
       151  -9.1759    127.9635     54.9737   4.9812250757e+01   4.5733052582e+01    0.1744213    0.1672153  -5.78            0    1.003    0.003
       152 -10.0065     32.8716     55.7362   7.9987733428e+01   6.0485630408e+01    0.1831507     0.124097 -39.70  0.001149378    1.301    0.231
       153  -9.3380    181.9516     52.0561   3.6957307426e+01   3.2863075201e+01    0.1818813    0.1796326 -81.89 0.0004476052    1.013    0.013
       154  -9.8804    149.0984     52.4969   4.3858259998e+01   4.1183794175e+01    0.2251176     0.149716  56.25 0.0006782896    1.515    0.340
       155  -9.8600    232.4817     50.6275   2.8539216929e+01   1.9979383633e+01    0.3020988    0.1468923 -24.60  0.001122579    2.267    0.559
       156  -9.6697     46.0679     51.4156   7.4121189660e+01   6.0081898802e+01    0.1612221   0.09758766 -10.00 0.0004158923    2.440    0.590
       157  -9.6617     13.4283     50.9861   8.5699256025e+01   6.2892228278e+01    0.1677045   0.08568472 -60.19 1.811741e-05    1.482    0.325
       158  -9.0321      4.2411     51.6417   8.9102343110e+01   6.3277511145e+01    0.1042454   0.07250356 -84.85 0.0002769183    1.591    0.371
       159 -10.0738    140.7216     46.2824   4.3704836152e+01   4.4216692676e+01     0.210512    0.1825154  39.09            0    1.136    0.120
       160 -10.3668    137.2227     46.4271   4.4586039611e+01   4.5026811925e+01    0.5931171    0.3268559 -48.47  0.002260544    2.118    0.528
       161 -11.0098    119.5689     48.0285   4.9627604112e+01   4.8763758691e+01     0.423266    0.2313864 -50.38  0.001733141    2.232    0.552
       162  -9.2004    189.3097     49.2903   3.4791671623e+01   3.1349899801e+01    0.1556819    0.1162625  28.40  0.000203908    1.581    0.368
       163 -10.3771     74.8737     47.9220   6.3042674554e+01   5.7043565612e+01    0.2943485    0.2205362  75.00  0.001506677    2.309    0.567
       164 -10.9934      9.1545     47.3985   8.6405714611e+01   6.3866785893e+01    0.2624334    0.1928885 -55.91  0.001910925    1.033    0.032
       165 -10.2561    155.3793     46.7710   4.0575750181e+01   4.0534042948e+01    0.3179736    0.2448812  29.86 0.0009482641    1.412    0.292
       166 -10.6187     68.7518     46.3510   6.4561084622e+01   5.8234818084e+01    0.2083232    0.1841633  -6.86   0.00051471    1.130    0.115
       167 -10.2414     51.7468     47.3835   7.0849503820e+01   6.0237896136e+01    0.4271526    0.1120144  35.45  0.001608034    4.304    0.768
       168 -10.1368      3.5487     46.5429   8.8253318541e+01   6.4336972239e+01    0.2035488   0.09079531 -75.06  0.001029718    2.510    0.602
       169 -10.8020     79.2188     45.3411   6.0702607289e+01   5.6838875928e+01    0.2205708    0.2024174 -34.58 0.0003488135    1.129    0.114
       170  -9.8694     30.8061     44.1534   7.7517907753e+01   6.2974234890e+01    0.3592625     0.108368 -47.06  0.001593022    2.463    0.594
       171 -10.0037     26.0044     44.7534   7.9487210377e+01   6.3252623396e+01    0.2689319    0.1787296 -53.51  0.001743577    1.204    0.170
       172 -11.0779     16.4187     42.5722   8.2496515631e+01   6.4376796529e+01    0.4538107    0.1838446 -54.67  0.001791339    1.783    0.439
       173  -9.9915     93.3159     43.9936   5.5731109111e+01   5.4674603399e+01    0.2938478     0.168284  17.90  0.001186123    2.796    0.642
       174 -11.0359    184.3992     40.9155   3.3090985268e+01   3.3869777404e+01    0.3719155    0.3074509 -63.34  0.001525312    1.300    0.231
       175 -10.5463    140.3504     40.3882   4.1753666124e+01   4.5214414754e+01    0.4480268    0.3011934 -76.34  0.001844204    2.438    0.590
       176 -10.3442     36.9587     41.4781   7.4387609827e+01   6.2932339246e+01    0.2700363    0.2457283 -67.64  0.001317297    1.350    0.259
       177 -11.0319      5.5880     40.1406   8.5994105713e+01   6.5497177312e+01    0.3424354     0.150677 -39.78  0.001972988    1.963    0.491
       178  -9.8322    170.6949     40.0801   3.5301507963e+01   3.7595060842e+01     0.199794    0.1863696 -32.20            0    1.100    0.091
       179 -10.2288    133.7991     39.8382   4.3106263957e+01   4.6856959020e+01    0.2144396    0.1888349  15.08 0.0003176769    1.145    0.126
       180  -9.8527     44.1692     40.1643   7.1250013288e+01   6.2451303139e+01    0.1789638    0.1378096 -27.57 0.0005233966    1.160    0.138
       181 -12.8675    121.6522     37.2168   4.5192979254e+01   5.0031262996e+01    0.5021193    0.3596363 -49.83  0.001386725    1.624    0.384
       182 -10.0455     21.4622     37.3961   7.9089091650e+01   6.5024892249e+01    0.1749326     0.134436  19.48  0.001179958    1.599    0.375
       183 -10.1308     49.7177     33.6401   6.6870584703e+01   6.3016167412e+01    0.2694733    0.1540744 -34.49  0.001492277    1.515    0.340
       184 -11.1483    205.9748     32.4355   2.7172484392e+01   2.9312420730e+01     0.303636    0.2383764 -47.78 8.532263e-05    1.267    0.211
       185  -9.9295     40.7858     34.5779   7.0625219346e+01   6.3837657396e+01    0.1734028    0.1147798  19.54 0.0005397781    1.753    0.430
       186 -10.3094     28.2659     33.4278   7.5152564978e+01   6.5229965172e+01    0.2170413    0.1219385 -35.79 0.0007525741    1.517    0.341
       187 -10.0443    187.8002     31.7385   2.9700750764e+01   3.4221284150e+01    0.3541659    0.2084539  -4.72  0.001387743    2.485    0.598
       188 -11.7526    135.9557     29.3240   3.8821869956e+01   4.7848780032e+01    0.3882579    0.2716425 -45.17 0.0003816072    1.588    0.370
       189  -9.4845     79.0032     33.0390   5.6188257181e+01   5.8980607424e+01    0.1593727    0.1310774 -23.44            0    1.074    0.069
       190 -10.7671      2.2023     32.4116   8.5344722070e+01   6.7161400331e+01    0.2243496    0.1155881 -43.13 0.0009745187    1.487    0.327
       191 -11.1268    144.4033     30.8352   3.7488778884e+01   4.5587744519e+01    0.3948096    0.2463522 -26.57 0.0008695903    1.648    0.393
       192  -9.7794    128.2925     31.1779   4.1303421681e+01   4.9401615127e+01    0.3351878    0.2359165  66.96  0.001621242    1.659    0.397
       193  -9.7438     94.2996     27.3294   4.9052554609e+01   5.7148077797e+01    0.2481954    0.1970558  -5.40 0.0006805155    1.212    0.175
       194 -10.6366     91.1435     26.8818   4.9837364766e+01   5.7806184216e+01    0.2143877    0.1765049 -20.04  0.000306886    1.116    0.104
       195  -9.7586     44.2169     30.8559   6.7954125054e+01   6.4135929489e+01    0.1764202    0.1177802 -24.63  0.001066318    1.393    0.282
       196 -11.7224     38.8444     30.5874   6.9963240978e+01   6.4755281328e+01    0.2150174     0.168155 -27.95  0.000293691    1.065    0.061
       197 -12.3231      9.1454     29.2088   8.1605349915e+01   6.7389827584e+01    0.4030541    0.2205441  42.43  0.001826403    2.816    0.645
       198 -12.0730      4.3452    233.0377   1.0596262901e+02   2.7015729748e+01    0.2939758    0.1796742  70.44  0.001273695    1.063    0.060
       199 -10.3475      6.3444     20.2722   8.0000874415e+01   6.9187717376e+01    0.2213755    0.1344918 -27.06  0.001073563    1.517    0.341
       200  -9.2712     54.4496     29.4579   6.3503917526e+01   6.3159271153e+01    0.1237749    0.1024782 -26.11  4.51945e-05    1.040    0.038
       201 -10.1278     99.9815     28.3125   4.7754725586e+01   5.5904121251e+01    0.1873524    0.1640405  24.53 0.0003660811    1.107    0.097
       202 -10.1341    102.5534     22.4671   4.4674530054e+01   5.6204943383e+01    0.2047793    0.1783586  51.09 0.0007757028    1.279    0.218
       203 -10.0285    104.0164     19.0124   4.2860662238e+01   5.6357339790e+01    0.3160532    0.1785477  18.20 0.0007606074    2.382    0.580
       204 -10.7232     69.3533     26.1321   5.6734918098e+01   6.1611461075e+01    0.3871885     0.198102 -38.81  0.001938466    1.787    0.440
       205 -10.2305     80.9668     26.5485   5.2948099320e+01   5.9668783141e+01    0.2211632    0.1715541 -42.08 0.0003948222    1.407    0.290
       206  -9.9275    216.7730     25.6030   2.3801931164e+01   2.7357340565e+01    0.1955353    0.1330846  84.82 0.0002809068    1.535    0.348
       207 -10.0920    156.3587     25.0640   3.3040102942e+01   4.3326409654e+01    0.2278382    0.1831655  48.12 0.0005083133    1.180    0.152
       208 -10.2714    190.2300     23.9023   2.6931978837e+01   3.4568256730e+01    0.4068101    0.2303206 -79.01  0.001559854    2.555    0.609
       209  -9.5370     51.5265     24.5114   6.2659202783e+01   6.4351024962e+01    0.1243492   0.09897401 -21.49 0.0008098223    1.028    0.027
       210 -10.3133    188.5259    248.4771   7.8071201297e+01  -1.1409053576e+00    0.1156589   0.08655399  43.09 0.0001671999    1.033    0.032
       211  -9.7406    229.9920    247.4680   7.1181995956e+01  -7.6724465048e+00    0.1651853   0.08474499  40.79 0.0005308785    1.484    0.326
       212  -9.5687     37.4926     18.4734   6.5824942330e+01   6.6958984092e+01    0.1826851    0.1402881  -0.84 0.0001815893    1.286    0.222
       213 -10.0240    108.9655     22.1312   4.2770100983e+01   5.4917653559e+01    0.2023991     0.179266  22.91 0.0004319856    1.052    0.050
       214 -10.2189     74.5287     21.5255   5.3021860950e+01   6.1489589297e+01    0.2096295    0.1778834 -60.77 0.0006739378    1.715    0.417
       215 -10.8589     75.5847     17.7088   5.1029390944e+01   6.1858738684e+01    0.3120905    0.2194588  43.96 0.0008400221    1.571    0.364
       216  -9.6435     21.9750     21.6564   7.3661607738e+01   6.7866828436e+01    0.2188293    0.1119031 -17.55  0.001028209    2.508    0.601
       217 -11.4387     15.6452     20.6669   7.6048679510e+01   6.8519135705e+01    0.3616961    0.2274951  24.55  0.002462018    1.946    0.486
       218  -9.5775    224.5956    247.2550   7.2020112702e+01  -6.8081065394e+00    0.1351245   0.09785674  -3.82 0.0007193252    1.588    0.370
       219  -9.3030     84.3591     21.2894   4.9668592830e+01   5.9843455917e+01    0.1376164    0.0918555  11.52 0.0007026134    1.688    0.407
       220  -9.5123     31.1286     20.8403   6.9448374785e+01   6.7206245435e+01    0.1594196    0.1058726 -26.07  0.000321431    1.291    0.226
       221 -10.1531    214.6022     19.8175   2.2466932976e+01   2.8626452427e+01    0.2026978    0.1221786 -41.64 0.0005886627    1.614    0.380
       222  -9.4419    131.9972     20.3207   3.6394030424e+01   4.9949619262e+01    0.2004106    0.1706643  40.21 0.0004406377    1.099    0.090
       223  -9.8801     62.5283     19.8647   5.6569987565e+01   6.3589138094e+01    0.1998666    0.1637553 -80.14  0.001037612    2.329    0.571
       224  -9.0160    119.6980     19.2672   3.8876851976e+01   5.2931870731e+01    0.1288449    0.1097645 -69.43 0.0002492371    1.525    0.344
       225  -9.8311     88.8863     18.8251   4.7205933125e+01   5.9356468690e+01    0.1926531    0.1547037   8.77 0.0002872866    1.161    0.139
       226 -10.5020     69.7045     18.2862   5.3308387230e+01   6.2732214909e+01    0.2996514    0.1885151  48.92  0.001635848    1.974    0.493
       227 -10.0041    170.9765    246.7722   8.0754276123e+01   1.9453297778e+00     0.179758     0.128233  34.00   0.00121813    1.331    0.249
       228 -10.7091    238.2797     16.7036   1.9022422351e+01   2.2967538003e+01    0.2353835     0.201021 -41.61  0.000176915    1.156    0.135
       229  -9.6929    116.1874    246.5549   8.9733289983e+01   1.0734342649e+01    0.1447156   0.08688197  43.31 0.0009246524    1.487    0.327
       230 -10.7528    203.0849     16.6415   2.3003436278e+01   3.2019469474e+01    0.2473049    0.1887038 -47.43 0.0006028384    1.315    0.239
       231  -9.8776    159.9553     15.9535   2.9264620134e+01   4.3478884864e+01     0.173285    0.1613812  51.49 0.0004016848    1.006    0.006
       232 -10.4354     82.8728     15.8975   4.7843889828e+01   6.0842915639e+01    0.1999754    0.1687597   1.02 0.0003050145    1.022    0.022
       233  -9.3637     52.1750    244.6232   9.9585836201e+01   1.9888320812e+01    0.1316877   0.08248723  42.75 0.0009429466    1.757    0.431
       234  -9.5775     30.5451     15.9489   6.7732691205e+01   6.8073693046e+01     0.170547   0.09134816 -42.48 0.0005285277    1.521    0.342
       235 -10.2943     35.6621    239.9445   1.0176710543e+02   2.2594354223e+01    0.1541491    0.0979252  61.88 0.0004531537    1.152    0.132
       236  -9.2872    163.2939     15.2993   2.8466298494e+01   4.2685308213e+01    0.1492846      0.10283  33.48 0.0002347606    1.568    0.362
       237  -9.5311     61.2142    240.6496   9.7959060626e+01   1.9397965687e+01    0.1339867   0.08250391  44.02 0.0004600924    1.661    0.398
       238 -10.9827     30.2138    240.8484   1.0261190523e+02   2.3058364552e+01    0.2235465   0.06354429  39.12  0.001025605    3.792    0.736
       239 -11.2627      4.2158    201.4566   1.0456745404e+02   3.2511090785e+01    0.1852924    0.1045265 -88.66   0.00072477    1.320    0.242
       240  -9.9336    146.9930    244.0206   8.4413661017e+01   6.2367083440e+00    0.1687496      0.12905  25.48   0.00113555    1.695    0.410
       241 -10.4374    174.0004    235.9450   7.8882212916e+01   2.8448176629e+00    0.1409519    0.1156399  45.63 0.0004735265    1.062    0.059
       242 -10.1218    220.3073     11.3241   1.9493156341e+01   2.8127593129e+01    0.1406553    0.1031582  36.91 0.0003517352    1.647    0.393
       243 -11.1476     24.9782    235.7270   1.0311634531e+02   2.4469080465e+01    0.1442089   0.09090558  65.80 0.0004496138    1.105    0.095
       244  -9.3567    204.0401    235.2577   7.3693547037e+01  -2.1446965941e+00    0.1509483   0.08047307  41.88 0.0004267246    1.452    0.311
       245  -8.9682    238.7032    234.2910   6.7804165976e+01  -7.6986949456e+00   0.09941481   0.08391953  51.64 0.0002616429    1.557    0.358
       246  -9.4064     57.5009     10.5957   5.4339030594e+01   6.5645615176e+01    0.1212514   0.09868198  -7.79 -0.0005108336    1.022    0.022
       247  -9.5294    193.9746    201.5065   7.0239919839e+01   4.1044777853e+00    0.2006025    0.1100783  43.89 0.0005744576    1.539    0.350
       248  -9.3681    249.4848    233.4294   6.5927426633e+01  -9.2925278917e+00    0.1151868   0.08506595  24.70 0.0001323156    1.010    0.010
       249  -9.8553     32.2286    233.3620   1.0191878442e+02   2.4067818442e+01    0.1370028   0.06520309  54.77 0.0004378166    1.559    0.358
       250 -10.0179    245.2866    229.7608   6.6020848016e+01  -8.2685445951e+00    0.3264302   0.06683064  40.33   0.00120557    3.852    0.740
       251 -10.0132    209.9585    229.4902   7.1847694147e+01  -2.4531144189e+00     0.183688   0.09495559  43.07 0.0005370585    1.536    0.349
       252 -10.9325    140.0929    227.9068   8.3725974492e+01   9.7232862552e+00    0.2648643    0.1679943 -74.50  0.001551652    2.109    0.526
       253  -9.8120     60.3628     15.5001   5.5473187768e+01   6.4544486865e+01    0.3126529    0.1721521   0.74  0.001403189    2.845    0.648
       254 -11.5943      2.4316    225.1246   1.0591273584e+02   2.8519141597e+01    0.3276716    0.1295023  73.42  0.001813151    1.960    0.490
       255 -10.3649      2.1300    219.1319   1.0570407711e+02   2.9570044984e+01    0.2079952   0.08595746  81.80 0.0009132811    1.901    0.474
       256  -9.9004    223.4281    226.5093   6.9116721264e+01  -4.3678165737e+00    0.1197342   0.09326224  29.11  5.94607e-05    1.017    0.016
       257 -11.2407     11.5846    226.3201   1.0462998573e+02   2.7431523389e+01    0.2396753    0.0452639  44.64  0.001230764    3.376    0.704
       258  -9.3846     22.4946    200.5445   1.0154634448e+02   3.0914490287e+01    0.1078788   0.07359843  76.94 1.423493e-05    1.028    0.027
       259  -9.2606    167.3126    221.3072   7.8079017332e+01   6.0385161218e+00    0.1183053   0.08796029  23.06 0.0003881544    1.622    0.383
       260 -10.9701      8.4138    218.8353   1.0475524142e+02   2.9025905171e+01    0.2436872    0.1132765 -64.32  0.001561542    2.479    0.597
       261  -9.0439     85.6947    215.2498   9.1884012593e+01   2.0387371004e+01    0.1169946   0.06817009  66.59 0.0001598902    1.504    0.335
       262  -9.8970     29.9937    214.5116   1.0117925462e+02   2.7573966072e+01    0.1413148   0.08284517  50.80 0.0003750056    1.505    0.336
       263  -9.4248    205.3897    211.8458   6.9888491678e+01   5.7316648437e-01    0.1596263    0.1150819 -15.85  0.000944238    1.707    0.414
       264  -9.4949     20.2640    209.4332   1.0243632914e+02   2.9513281996e+01    0.1406096    0.0681807  56.35 0.0008826506    1.614    0.380
       265  -9.4273     39.4914    206.4977   9.9097941617e+01   2.7970003117e+01    0.1090057   0.07912485  76.87 0.0002238888    1.033    0.032
