#   1 NUMBER                 Running object number                                     
#   2 MAG_AUTO               Kron-like elliptical aperture magnitude                    [mag]
#   3 X_IMAGE                Object position along x                                    [pixel]
#   4 Y_IMAGE                Object position along y                                    [pixel]
#   5 X_WORLD                Barycenter position along world x axis                     [deg]
#   6 Y_WORLD                Barycenter position along world y axis                     [deg]
#   7 A_WORLD                Profile RMS along major axis (world units)                 [deg]
#   8 B_WORLD                Profile RMS along minor axis (world units)                 [deg]
#   9 THETA_WORLD            Position angle (CCW/world-x)                               [deg]
#  10 FWHM_WORLD             FWHM assuming a gaussian core                              [deg]
#  11 ELONGATION             A_IMAGE/B_IMAGE                                           
#  12 ELLIPTICITY            1 - B_IMAGE/A_IMAGE                                       
         1 -13.5652      3.7778     43.5737   9.9555936303e+01   6.7517915964e+01     1.441085    0.4342277 -58.75  0.006197989    2.910    0.656
         2 -13.7891     10.4491     36.3667   9.3757950817e+01   6.8446367581e+01     1.397128    0.4736762 -47.41   0.00658136    2.287    0.563
         3 -14.0396    233.1237     28.1010   3.3924999343e+01   2.5195764435e+01    0.9261603    0.8577611  28.18  0.002008551    1.611    0.379
         4 -13.0138     33.6741     20.4260   7.5195253125e+01   6.8658498509e+01    0.8430492     0.530541  14.00  0.005031718    1.513    0.339
         5 -11.2199     49.4038     18.6129   6.7220139446e+01   6.6602712287e+01    0.3456091    0.2876164   7.78  0.002321361    1.047    0.045
         6 -11.7565    103.2685     17.9562   4.9651526429e+01   5.6154630341e+01    0.6110122     0.322245  70.17  0.002793242    2.245    0.555
         7 -11.3566    249.3211     11.3419   2.9426039886e+01   2.3952351533e+01    0.2914813    0.1088262 -47.47  0.001536673    2.052    0.513
         8 -12.9244    122.0061      3.4370   4.0738441985e+01   5.3179553347e+01    0.9710997    0.4555314  74.18  0.004511564    2.138    0.532
         9 -12.7162    204.6407      5.1183   3.1389089062e+01   3.3871515684e+01    0.5586125    0.3959185 -81.43  0.003593345    1.184    0.155
        10 -11.7261    240.2191      3.0944   2.8436012665e+01   2.6635494393e+01    0.4969244    0.2284339 -77.53  0.002679404    2.104    0.525
        11 -11.1909    215.4331      3.2637   3.0146311208e+01   3.1721059198e+01    0.3734635    0.1688544 -82.71   0.00183493    2.293    0.564
        12 -13.2990    102.6032    220.3501   1.0112499973e+02   1.3968830666e+01     0.927249    0.6276777  73.01  0.003669225    1.812    0.448
        13  -9.7508     60.8357    250.5907   1.1326901612e+02   1.3613087840e+01    0.1744095     0.087524  46.76 0.0006397667    1.617    0.382
        14 -11.8732     43.5452    248.9955   1.1655173859e+02   1.6049873061e+01    0.4413152    0.2478319  50.80  0.001512239    1.437    0.304
        15 -12.7556     17.2302    249.8457   1.2157765509e+02   1.8808112322e+01     1.932917          nan  36.27  0.006547304    5.495    0.818
        16 -13.2501     13.3415    103.0127   1.0882311266e+02   5.3732418819e+01     1.232058    0.6721106   9.69  0.006247197    2.272    0.560
        17 -11.5960     42.9906    180.7320   1.1058976497e+02   3.1429693774e+01    0.3305654    0.2792119 -27.67 0.0005623266    1.541    0.351
        18 -16.0101     13.5010    202.8824   1.1950622328e+02   2.9178918431e+01      3.71531     1.386789 -77.62   0.01154772    2.340    0.573
        19 -11.8992    112.9860    217.2452   9.8327550728e+01   1.3016624458e+01    0.5844131     0.360472  54.86   0.00282331    1.731    0.422
        20 -10.8456     57.8089    206.6290   1.0983341948e+02   2.3399833590e+01    0.4259988     0.297007  -5.85  0.002078018    2.494    0.599
        21 -10.7811     81.3268    207.2631   1.0438164564e+02   2.0041360599e+01    0.3881398    0.2957743  54.69  0.002158128    1.220    0.180
        22 -10.9743     66.7572    205.6189   1.0762648231e+02   2.2458034162e+01    0.5165916    0.2239235  37.46  0.002255413    2.129    0.530
        23 -12.2753     52.2995    198.5073   1.1026243720e+02   2.6001215887e+01    0.4724984    0.4662406  55.23  0.001591246    1.231    0.188
        24 -11.9128     48.9832    194.0061   1.1057336598e+02   2.7482971322e+01    0.4497097     0.373906  36.67  0.001615649    1.302    0.232
        25  -9.3443     87.1115    194.1420   1.0121917498e+02   2.2249710606e+01    0.2043598     0.158062  68.45 0.0008639515    1.328    0.247
        26 -11.5611     50.9700    174.0405   1.0772917607e+02   3.2162013165e+01    0.2642672    0.2465718 -72.28 0.0004042668    1.124    0.111
        27 -11.3169     58.6227    226.1878   1.1160052174e+02   1.8911348752e+01    0.5548034    0.2966487  70.96  0.002097179    2.113    0.527
        28 -10.6094     63.8841    163.8876   1.0282678886e+02   3.3090908699e+01    0.2277759    0.2088886 -74.26    0.0003399    1.044    0.042
        29 -12.8941     49.0554    160.4148   1.0642505617e+02   3.5853482670e+01    0.5377482    0.3067653 -39.01  0.001623106    2.226    0.551
        30  -9.8738    133.6671    160.6058   8.3393912074e+01   2.2287089068e+01    0.2431976    0.1836974 -74.35 0.0005461251    1.627    0.385
        31 -11.7107     72.7183    157.1411   9.9265710287e+01   3.3589044190e+01    0.4948805    0.4031382 -25.14  0.001639456    1.494    0.331
        32 -11.6041     28.6189    150.4666   1.1083397981e+02   4.0571040162e+01    0.3982571    0.1969312  48.04  0.001817142    2.191    0.544
        33 -12.1451     68.0222    143.3952   9.8196369990e+01   3.7795666922e+01    0.7163014    0.4139924  63.07  0.002877467    2.391    0.582
        34 -13.3865     29.1167    142.0721   1.0959653814e+02   4.2669238715e+01    0.9227827    0.6060463  31.01  0.003509455    1.704    0.413
        35  -9.7517     89.1745    143.8455   9.2034397719e+01   3.4449049820e+01    0.2130966    0.1795413 -29.90 0.0006043186    1.315    0.240
        36 -11.5898     76.8069    141.9599   9.5302529839e+01   3.6884298066e+01    0.2925349    0.2582659 -53.74  0.000326777    1.087    0.080
        37 -10.2683    105.3876    131.1815   8.4532032716e+01   3.4776496690e+01    0.2974946    0.2683517  26.41 0.0008503362    1.172    0.147
        38 -10.1515     90.2805    128.0363   8.8281797226e+01   3.8247111115e+01    0.2428995    0.2217712  29.91 0.0004356718    1.156    0.135
        39 -12.1696     25.1856    138.1922   1.1023754612e+02   4.4014337857e+01    0.3534349    0.3348942  -1.26  0.001392935    1.267    0.211
        40 -11.7934     77.6790    111.8813   8.8414889381e+01   4.4312665267e+01    0.3760341    0.1907715 -48.05  0.001524335    1.838    0.456
        41 -12.3582     73.9900    119.4873   9.1418769365e+01   4.3011748894e+01    0.5785354    0.2963415 -57.31  0.002360808    1.854    0.461
        42 -11.1433     52.5119    120.1869   9.8592310119e+01   4.5778616599e+01     0.373946    0.2612683  67.88  0.001786099    1.843    0.457
        43  -9.2375    102.9413    119.9823   8.2542070754e+01   3.7954475416e+01     0.179028    0.1750589 -39.70            0    1.014    0.014
        44 -10.6174     62.0301    115.8790   9.4522641781e+01   4.5635512342e+01    0.3832872    0.2171068 -61.69  0.001676928    1.704    0.413
        45 -11.3330     78.8069    104.0144   8.6045952572e+01   4.6019772162e+01    0.4544072    0.2235511 -58.97  0.001741421    2.228    0.551
        46 -11.3732     68.0170    104.5904   8.9834457523e+01   4.7557107099e+01    0.3306425    0.2502415  25.24  0.001675929    1.430    0.301
        47 -14.5550      4.3168    124.3175   1.1479343018e+02   4.9042659262e+01     3.774637    0.7546708 -75.96    0.0105792    5.342    0.813
        48 -11.1502     26.2219     97.9672   1.0326084031e+02   5.3994631937e+01    0.4745762    0.3458896 -88.19  0.002589897    1.613    0.380
        49 -10.5543     38.5377     98.6418   9.8887106857e+01   5.2682612629e+01     0.256918    0.1739561  27.07  0.001347426    1.642    0.391
        50 -12.4552     53.3936     93.2034   9.2124915003e+01   5.2268051926e+01    0.8152876    0.3235669 -57.74  0.003108559    2.443    0.591
        51 -12.7905      8.6921     89.7413   1.0821938420e+02   5.7202754568e+01    0.9068274    0.4764023 -56.23  0.004371779    1.479    0.324
        52 -11.8609     16.9465     96.1385   1.0631699377e+02   5.5150202797e+01    0.4716912    0.2746524  17.02  0.002486019    2.008    0.502
        53 -12.0809     20.3852     89.9596   1.0381613563e+02   5.6371753262e+01     0.679502    0.4360414 -28.63  0.003690094    1.612    0.380
        54 -11.1690     22.3352     84.8454   1.0196465541e+02   5.7418794787e+01    0.4497307    0.2845344  34.23  0.002441262    1.852    0.460
        55 -11.3079     39.8231     92.1857   9.6923505072e+01   5.4088876198e+01    0.3833017    0.2863317 -12.35  0.001525268    1.485    0.327
        56 -12.0474     38.7923     87.2751   9.6120038254e+01   5.5345162832e+01    0.6154584    0.4453396  37.39  0.003245534    1.591    0.372
        57 -12.7464     72.7126     81.5937   8.1827508199e+01   5.2077820490e+01     1.004588    0.9288577 -83.44  0.005708029    1.323    0.244
        58 -12.5918     55.4547     82.2576   8.8384605396e+01   5.4493264646e+01    0.7201845    0.4251382 -20.03  0.003116586    2.267    0.559
        59 -11.4984     42.0384     80.6942   9.3145519950e+01   5.6493434916e+01    0.5356581    0.2860559  19.36  0.002490284    2.141    0.533
        60 -12.1149      3.2429     75.1764   1.0759226671e+02   6.0858403903e+01    0.5739791     0.364031 -77.75  0.002807497    1.669    0.401
        61 -12.3293      2.7685     64.6358   1.0555022858e+02   6.3216071084e+01    0.7458357    0.3569985 -58.63  0.003962887    1.644    0.392
        62 -13.9587     19.4319     72.7220   1.0030338720e+02   6.0394307420e+01     1.503153    0.9965873 -22.85  0.007272541    1.515    0.340
        63 -13.0991     16.8913     59.5520   9.7939270836e+01   6.3421037451e+01    0.7543255    0.6198052  37.61  0.004460373    1.552    0.356
        64 -12.0110     62.0187     70.4839   8.2302065073e+01   5.6068953403e+01    0.4711735    0.3514564  -1.98   0.00242565    1.476    0.322
        65 -11.2140     58.0010     72.5001   8.4486212725e+01   5.6240364713e+01    0.3957863    0.2649949  34.21  0.001927557    1.575    0.365
        66 -11.8663    118.3067     54.2178   5.8649602422e+01   4.8105767890e+01    0.8035668    0.2966439 -39.26   0.00295859    2.782    0.641
        67 -11.3428    124.3354     54.8580   5.7352445777e+01   4.6627644243e+01    0.2576112    0.1969375  64.74 0.0009663724    1.362    0.266
        68 -12.4519     30.3314    245.7355   1.1888636893e+02   1.8213559585e+01    0.5400367    0.2105092  65.05  0.002505018    2.673    0.626
        69 -12.4878     25.4187    241.2682   1.1955431041e+02   1.9651328175e+01    0.4358008    0.2948224 -49.62  0.002227085    2.094    0.522
        70 -11.3100     98.3116     45.0929   6.0958666130e+01   5.3880411618e+01    0.2415389    0.2372751   1.64  0.001489189    1.114    0.103
        71 -12.0475    114.8011     43.9955   5.6102237923e+01   5.0415747175e+01    0.4528376     0.309831  75.97    0.0021682    1.895    0.472
        72 -12.1304     28.7152     39.8871   8.5857408386e+01   6.6160558601e+01     0.652391    0.3799637  23.75  0.002881136    1.733    0.423
        73 -11.9065     84.7822     40.5599   6.3428980523e+01   5.7316852394e+01    0.7751532    0.5087164  -9.80  0.003859638    1.851    0.460
        74 -12.1183    157.0466    243.9171   9.2520364010e+01   1.0482955701e+00    0.3935208     0.227563  54.82  0.001868439    2.415    0.586
        75 -11.2627     43.7314     25.8386   7.2969219844e+01   6.6507963543e+01    0.3772375    0.3065529  30.99  0.002478196    1.323    0.244
        76 -10.6621    236.5063    244.4940   7.7204819964e+01  -9.9716666275e+00    0.1187235   0.08962587  -1.54 1.686398e-06    1.010    0.010
        77 -10.3072     62.0292     28.4816   6.6546732232e+01   6.3227350205e+01    0.1982693    0.1142623  39.97  0.001039106    1.612    0.380
        78 -14.7624     28.7552    188.5533   1.1488747051e+02   3.1057467433e+01     2.626811     1.297846  75.73   0.01188222    2.264    0.558
        79 -11.3193     34.9112    230.6785   1.1696569114e+02   2.0803417031e+01    0.5466234     0.291765  71.94  0.002934369    1.814    0.449
        80 -12.0173     59.0294    218.8930   1.1081092033e+02   2.0457987267e+01    0.5074345    0.3019346 -69.98   0.00233755    1.668    0.401
        81 -12.4451     61.4503    214.1221   1.0978402341e+02   2.1213430305e+01    0.8575886    0.2800157  51.95  0.003086967    3.353    0.702
        82 -12.5980     73.0318    219.3857   1.0772514950e+02   1.8484837543e+01    0.9299855    0.4561677  57.98  0.004143837    2.215    0.549
        83 -14.4738     89.7781    222.5633   1.0431187389e+02   1.5413672883e+01     1.852424     1.002785  45.02  0.007241279    1.651    0.394
