#   1 NUMBER                 Running object number                                     
#   2 MAG_AUTO               Kron-like elliptical aperture magnitude                    [mag]
#   3 X_IMAGE                Object position along x                                    [pixel]
#   4 Y_IMAGE                Object position along y                                    [pixel]
#   5 X_WORLD                Barycenter position along world x axis                     [deg]
#   6 Y_WORLD                Barycenter position along world y axis                     [deg]
#   7 A_WORLD                Profile RMS along major axis (world units)                 [deg]
#   8 B_WORLD                Profile RMS along minor axis (world units)                 [deg]
#   9 THETA_WORLD            Position angle (CCW/world-x)                               [deg]
#  10 FWHM_WORLD             FWHM assuming a gaussian core                              [deg]
#  11 ELONGATION             A_IMAGE/B_IMAGE                                           
#  12 ELLIPTICITY            1 - B_IMAGE/A_IMAGE                                       
         1 -13.3955    227.6933      6.9297   3.5266792957e+01   2.8129734562e+01     1.700375    0.8434923  54.56  0.009380902    2.536    0.606
         2 -12.9542    183.9199     50.9716   4.9743502878e+01   3.2497660478e+01    0.9540846    0.8821619 -65.18 0.0009191763    1.024    0.023
         3 -13.1714    195.6887     41.5049   4.5839629807e+01   3.1062365457e+01     1.001493    0.8650442 -56.94  0.003200306    1.067    0.063
         4 -13.4899    203.9680     33.1436   4.2925353807e+01   3.0251338909e+01    0.9827603    0.7841192 -30.61  0.001351938    1.349    0.258
         5 -12.7033     43.7772      5.0643   6.7438782899e+01   7.0146421640e+01    0.9115163    0.3997438  31.19  0.004148034    2.253    0.556
         6  -9.1015     93.7018    205.4395   1.0640481613e+02   1.9185679230e+01    0.2575412    0.1917305   3.14 0.0008923441    1.572    0.364
         7 -11.4868    139.9289    248.4102   1.0131355934e+02   4.6271564219e+00    0.4714477    0.3453194 -40.93  0.002958442    1.604    0.377
         8 -15.4063     71.3392    148.1355   1.0388113729e+02   3.6017965360e+01     13.00136      6.47385  72.74   0.01162239    7.739    0.871
         9  -8.1291     70.6127    202.2978   1.1187890475e+02   2.2985228653e+01    0.1493094   0.08949984  55.47 0.0002873264    1.781    0.438
        10 -10.9628    203.7234    198.9293   8.0015248529e+01   3.7966585548e+00    0.3163302    0.1695547  17.03  0.001501119    2.059    0.514
        11  -8.3622    223.2834    198.3275   7.6231425010e+01   1.1891498858e+00    0.1310279   0.08082591  -8.01 0.0003411532    1.604    0.377
        12  -9.1615     81.7484    195.2348   1.0811853571e+02   2.3111362055e+01    0.3255732    0.2322439  -9.55  0.001595806    1.858    0.462
        13 -18.3510     15.7758    206.5107   1.2574648509e+02   2.7916496135e+01     14.18033     4.849617 -81.91   0.06030566    2.983    0.665
        14 -11.5729    163.5636    213.3878   9.0954987173e+01   7.2335136710e+00    0.5011966    0.2472613  30.06  0.002330614    1.816    0.449
        15  -9.3292     91.6916    183.5534   1.0379378562e+02   2.4389289510e+01     0.240898    0.2225042 -33.84 0.0006398238    1.142    0.125
        16  -9.6923     89.8123    212.7163   1.0831126666e+02   1.8170712685e+01    0.2720525    0.2153877  74.65  0.000818679    1.489    0.329
        17 -10.2511    149.2173    187.3686   8.9677240720e+01   1.4373483540e+01    0.3130502    0.2406599  52.78  0.001190384    1.631    0.387
        18 -10.4336     99.4555    180.8846   1.0126563205e+02   2.3839945312e+01    0.2747021      0.25444  12.32 0.0006023971    1.057    0.054
        19  -9.3592     41.9618    178.9273   1.1688036759e+02   3.1850218475e+01    0.1952425    0.1864865  81.54 0.0003070461    1.048    0.046
        20  -9.8536    187.9693    176.3521   7.8863323696e+01   1.0062423430e+01    0.3127144    0.3022287 -19.85  0.001429885    1.296    0.228
        21  -9.8937    147.0267    172.9410   8.7440994334e+01   1.7693425238e+01    0.5125553    0.3239597 -72.00  0.001924449    3.199    0.687
        22 -10.7038     48.8083    171.3898   1.1411072742e+02   3.2963172197e+01     0.645162    0.2873309 -37.54  0.002313721    3.405    0.706
        23 -10.3594     45.4953    169.8335   1.1487383339e+02   3.3716397886e+01    0.5609551    0.3496297 -76.65   0.00107621    1.625    0.384
        24 -11.3712    107.8974    203.9359   1.0262593370e+02   1.7457126226e+01    0.2982166    0.2807989  60.82 0.0006998749    1.178    0.151
        25  -8.7117    193.9956    171.4834   7.6649012350e+01   9.9489981906e+00    0.1999653    0.1309172  33.45  0.001017395    1.547    0.353
        26  -9.3313    185.4807    169.4790   7.7991014427e+01   1.1726817542e+01    0.2732927    0.1310335 -40.64 0.0007666524    2.010    0.502
        27  -9.7488    240.3970    169.2492   6.7818230132e+01   3.2794922544e+00    0.1704064    0.1009086 -39.38 0.0004522877    1.578    0.366
        28  -9.5432    137.4405    167.7696   8.8799598488e+01   2.0473784764e+01    0.3392292    0.2069273  42.80  0.001263997    1.682    0.405
        29  -9.1175    230.3143    166.6813   6.8973716887e+01   5.1104058230e+00    0.1161159   0.09942555 -54.50 0.0007038127    1.651    0.394
        30 -10.4190     50.8405    163.8531   1.1257117978e+02   3.4621574096e+01    0.4530225    0.2469683 -38.54  0.001927069    2.258    0.557
        31 -11.5171     91.6913    151.8946   9.8328348388e+01   3.2010272684e+01    0.7461695    0.4884458 -28.63  0.003204924    1.873    0.466
        32 -10.5717    134.3607    147.8846   8.5386639692e+01   2.5408576421e+01     0.846159    0.2841227 -52.20  0.002537094    3.553    0.719
        33 -10.2275    133.0000    141.0199   8.4189837355e+01   2.7197682199e+01    0.5238568    0.2269607 -52.89   0.00179468    2.676    0.626
        34  -8.9508    112.8746    150.9376   9.1941207998e+01   2.8656414901e+01    0.2376155    0.1898296  70.53 0.0006903196    1.631    0.387
        35  -9.3152    174.7460    149.1548   7.5946495396e+01   1.7485729167e+01    0.2435382    0.2035083  45.46 0.0006783032    1.345    0.256
        36  -9.5033    143.6821    146.1692   8.2591454629e+01   2.4008109916e+01     0.306725    0.1401442 -52.63  0.001079582    2.585    0.613
        37 -10.2999    104.5644    138.2133   9.1607517035e+01   3.3169421319e+01    0.5771477    0.3452043 -22.19  0.002127805    2.506    0.601
        38 -10.2733    107.6946    250.0628   1.0851116958e+02   8.6065235162e+00    0.2494504     0.166899  47.55  0.000787474    1.485    0.327
        39 -11.6148     92.2087    137.7875   9.5292662966e+01   3.5411749702e+01    0.3070425    0.2743285 -18.30 0.0004233271    1.149    0.129
        40 -10.7224    183.9940    212.6725   8.6452961781e+01   4.3772871801e+00    0.2903034    0.1868408 -35.13  0.001361362    1.562    0.360
        41 -10.7547    135.6280    130.1088   8.0897377320e+01   2.9094038476e+01    0.9176649    0.1511399 -46.82  0.001973861    6.392    0.844
        42 -10.1707    105.8984    130.8328   8.9512777026e+01   3.4696494881e+01    0.3645278    0.3429346 -67.13   0.00119589    1.168    0.144
        43 -10.2316    113.1718    129.1145   8.6932118683e+01   3.3739344696e+01    0.4291987    0.3252113  -4.29  0.001251076    1.609    0.379
        44 -11.2408    119.5521    123.2903   8.3638486072e+01   3.3839763424e+01    0.6245472    0.4426431   2.58  0.002626336    1.893    0.472
        45  -9.1882    161.0045    128.0150   7.4109855626e+01   2.4367085191e+01    0.2369418    0.1961841 -85.88  0.001140127    1.693    0.409
        46 -10.3437    100.2444    125.0812   8.9879646101e+01   3.7108005249e+01    0.3290091    0.2615631 -12.15  0.000692902    1.430    0.301
        47  -9.7665    143.2882    210.2398   9.5034040903e+01   1.0851652734e+01    0.2474027    0.1804927 -81.19  0.001177594    2.510    0.602
        48  -9.4369    108.8938    118.2791   8.5515835308e+01   3.7085659155e+01    0.2490858    0.2214574 -38.43 0.0003947303    1.120    0.107
        49  -9.9825    231.3249    113.6957   5.7845156408e+01   1.3388806627e+01    0.2459713    0.2148425 -35.95 0.0007752878    1.055    0.052
        50  -8.7801    167.9621    112.9282   6.8814541124e+01   2.5880366351e+01    0.2467589    0.1899606 -77.33  0.001141111    1.852    0.460
        51 -11.6068    117.2617    108.5403   8.0435655140e+01   3.7610218493e+01    0.7727571    0.6870282  82.26  0.003849237    1.383    0.277
        52  -9.4053    205.3986    110.1272   6.1041263416e+01   1.8733965544e+01     0.233008     0.206516  62.41 0.0007565575    1.306    0.235
        53 -11.1074    189.1656    208.7626   8.4703233991e+01   4.2799454505e+00    0.2929072    0.1961385  19.56  0.001584163    1.338    0.252
        54  -9.6374    134.8464    102.2318   7.3820873732e+01   3.5192418546e+01    0.3364311    0.2293357 -57.55  0.001446106    1.777    0.437
        55  -9.7348     60.1622     97.3753   9.6905982816e+01   5.0439661448e+01    0.2730061    0.2168789  60.19 0.0008218021    1.591    0.372
        56  -8.6579    223.5664    206.5539   7.7665408300e+01  -7.4765689573e-02    0.1255566   0.09699302  -6.71 3.318183e-05    1.020    0.019
        57 -14.0124     52.6055    201.8712   1.1641206407e+02   2.5262398214e+01     3.022877     1.173524  54.36   0.01146696    3.093    0.677
        58 -10.7137    120.3589    194.7594   9.8071116454e+01   1.7506354702e+01    0.3223225    0.2535589  86.65  0.000891824    1.828    0.453
        59 -11.6307    111.8480    205.0015   1.0179720199e+02   1.6647210249e+01    0.3716925    0.3034728 -83.33  0.001134947    1.588    0.370
        60 -10.1983     39.0808     88.1061   1.0315914627e+02   5.5330399864e+01    0.3494351    0.2007438   5.14  0.001529275    2.094    0.522
        61  -8.6339    157.4566     82.5082   6.2945727462e+01   3.3797054480e+01     0.145648    0.1435065  -4.30 7.776796e-05    1.023    0.022
        62  -8.6548    184.6043     77.1666   5.6439740583e+01   2.8504113467e+01      0.19945    0.1318396 -23.04 0.0009455077    1.726    0.421
        63  -9.3474     61.5902     68.7691   8.7807007162e+01   5.6771732348e+01     0.270898    0.2264748  43.88  0.000829169    1.370    0.270
        64  -8.1576    166.3125    232.3268   9.3382013589e+01   3.6500533545e+00    0.1349449    0.1105489  15.89 0.0003421588    1.089    0.081
        65  -8.0668    168.3121    248.2389   9.5307748806e+01   9.1531693105e-01    0.1225804    0.0779103   6.28 0.0001808826    1.501    0.334
        66 -10.7264    157.4419    219.3503   9.3281762311e+01   7.0869600994e+00    0.2490699    0.1779572 -12.65  0.001102264    1.452    0.311
        67 -11.1606    193.2496    195.5504   8.1477973694e+01   5.8839049434e+00    0.8372318    0.4458524 -58.43  0.002917557    4.833    0.793
        68  -9.0735    189.6849     15.0202   3.9940027269e+01   3.5389788290e+01     0.171964    0.1476164 -58.45 0.0005650155    1.112    0.101
