#   1 NUMBER                 Running object number                                     
#   2 MAG_AUTO               Kron-like elliptical aperture magnitude                    [mag]
#   3 X_IMAGE                Object position along x                                    [pixel]
#   4 Y_IMAGE                Object position along y                                    [pixel]
#   5 X_WORLD                Barycenter position along world x axis                     [deg]
#   6 Y_WORLD                Barycenter position along world y axis                     [deg]
#   7 A_WORLD                Profile RMS along major axis (world units)                 [deg]
#   8 B_WORLD                Profile RMS along minor axis (world units)                 [deg]
#   9 THETA_WORLD            Position angle (CCW/world-x)                               [deg]
#  10 FWHM_WORLD             FWHM assuming a gaussian core                              [deg]
#  11 ELONGATION             A_IMAGE/B_IMAGE                                           
#  12 ELLIPTICITY            1 - B_IMAGE/A_IMAGE                                       
         1 -14.2863     68.5609    144.6973   9.8998262245e+01   3.7415896029e+01     4.947273     2.600933  76.70  0.005569646    3.880    0.742
         2 -13.7880    225.5098     23.5422   3.5239003918e+01   2.7153135539e+01    0.8603779    0.8124354  89.94  0.002642543    1.316    0.240
         3 -14.1153    209.4227     38.5514   4.0153205959e+01   2.8757780995e+01     1.647292     1.457066  -0.94  0.007522969    1.625    0.385
         4 -11.8858    249.7494      5.0102   2.9776118245e+01   2.4353623950e+01     0.440138    0.1831418 -33.75  0.002310395    2.498    0.600
         5 -12.2116    245.7239      3.1541   2.9673221223e+01   2.5348410527e+01    0.4337025    0.2863817 -63.19  0.002043415    1.162    0.139
         6  -9.3720    149.3274    187.4256   8.5859752590e+01   1.3340126090e+01    0.2418893      0.18312 -78.72 0.0009024456    1.751    0.429
         7 -14.5665      4.6360    181.8681   1.2033272960e+02   3.5235047072e+01     4.848921    0.8245448 -79.02   0.01367245    6.040    0.834
         8 -13.9085     45.0660    217.3821   1.1412993372e+02   2.2911637466e+01     2.064189     1.397549  14.18  0.007403875    2.240    0.554
         9 -12.9130     84.7599    219.4116   1.0558833411e+02   1.7121269379e+01    0.8306768    0.5172589  81.98 0.0008885321    1.937    0.484
        10 -16.5005     40.4581    192.4624   1.1287448925e+02   2.9163653302e+01     13.48408     5.501217  59.45   0.05366258    2.808    0.644
        11 -10.8738     81.0062    182.1158   1.0163314081e+02   2.6240498889e+01    0.3253509    0.2922083 -86.48 0.0009867231    1.057    0.054
        12  -9.5377     99.5633    180.8490   9.6742669296e+01   2.3603512900e+01    0.2261636    0.2000166  25.23 0.0006285015    1.256    0.204
        13  -9.3037    188.5376    176.4606   7.5201152517e+01   8.4178763964e+00    0.3153212    0.1351653 -44.20  0.001241389    2.285    0.562
        14 -12.1130     60.6660    175.3733   1.0590062555e+02   3.0790930735e+01    0.5084087    0.3350431 -30.46  0.001153084    2.304    0.566
        15 -12.0190     65.8267    170.2957   1.0384987443e+02   3.1348385877e+01    0.3089994    0.2617122 -39.51  0.001212017    1.397    0.284
        16  -8.7898    148.3221    174.6806   8.3687721212e+01   1.6283580721e+01    0.1511382    0.1176673  78.29  0.000704427    1.670    0.401
        17 -13.6048     62.9676    156.7827   1.0260237829e+02   3.5133891673e+01     0.542025    0.3817527 -46.67  0.001453562    1.526    0.345
        18 -12.5006     83.1196    154.5561   9.6619302645e+01   3.2732285623e+01     1.122804    0.5547517 -51.34  0.001782773    1.989    0.497
        19 -12.2898     75.9393    160.7734   9.9665371035e+01   3.2274469566e+01    0.5134005    0.4773396 -56.93 0.0005384422    1.135    0.119
        20  -9.8131    172.6481    239.1258   8.9415004086e+01  -3.2414607784e-01    0.2470799    0.1566175 -58.62  0.001302872    2.222    0.550
        21  -9.4524     44.9782    165.9581   1.0878659515e+02   3.5099681955e+01     0.222023    0.1424988  69.01  0.000633138    1.641    0.391
        22  -8.5794    102.9583    165.0000   9.3144354903e+01   2.6853847271e+01     0.223049    0.0843004  36.97 0.0007592319    2.651    0.623
        23 -14.4507     15.5059    214.3449   1.2014846551e+02   2.6856598368e+01     1.139059    0.7918521 -86.64  0.002302188    1.239    0.193
        24  -9.4784    235.3010    155.3073   6.2247661140e+01   4.1284739357e+00    0.1322567   0.09694473  -9.12 0.0002903394    1.598    0.374
        25  -9.6466    174.7928    148.9122   7.2324507913e+01   1.6656317797e+01    0.2751202    0.2080881 -63.55 0.0008016214    1.523    0.343
        26  -9.7314    134.0000    147.9831   8.1672140430e+01   2.5131409029e+01     0.389631    0.1927081 -55.16  0.001460465    2.140    0.533
        27 -10.3286    134.0000    144.0136   8.0798785516e+01   2.6055300524e+01    0.9234709    0.2739643 -57.26  0.002123804    5.864    0.829
        28 -14.8781     10.0863    206.6018   1.2078393932e+02   2.9093308957e+01    0.9172979    0.7769985 -13.47   0.00335986    1.848    0.459
        29 -10.8863     29.9516    143.8160   1.1008443482e+02   4.2274417382e+01     0.387049    0.3116608   8.08  0.001522457    1.578    0.366
        30 -10.6853     98.8147    139.9308   8.9356537735e+01   3.3750686999e+01    0.5887128    0.3934184 -18.70  0.002350934    2.433    0.589
        31 -12.3956     85.7160    139.7069   9.3062287124e+01   3.6041837930e+01    0.3336391    0.3040111 -83.53 0.0004948256    1.076    0.071
        32  -8.6982    200.4250    143.4762   6.5926775351e+01   1.2647318164e+01    0.1443014    0.1328945 -43.69 0.0001220596    1.042    0.040
        33 -10.8118    107.3473    130.6621   8.4905765637e+01   3.4452485943e+01     0.533917    0.3402208  32.63  0.001983547    1.727    0.421
        34 -13.2980     32.5359    201.6787   1.1554354878e+02   2.7909273894e+01    0.7398591    0.5037654 -38.37  0.001357544    2.193    0.544
        35 -10.4005     17.9327    130.6730   1.1189965886e+02   4.6625836606e+01    0.2679025    0.1486083 -72.47 0.0009642858    1.531    0.347
        36 -10.0329    135.0910    127.5596   7.6710507937e+01   2.9627901291e+01    0.4348174     0.307399 -55.99  0.001961027    1.449    0.310
        37 -11.1978     66.8764    127.2403   9.6200660198e+01   4.2063351791e+01    0.5210935    0.3307874 -69.14  0.002403074    1.610    0.379
        38  -9.8177     96.5872    125.9442   8.6916734899e+01   3.7578600523e+01    0.2778718    0.2186486   7.82 0.0009656346    1.635    0.389
        39  -9.0541    115.5107    124.5362   8.1185887942e+01   3.4333534592e+01    0.1551744    0.1493829 -23.42 0.0001545874    1.098    0.089
        40 -11.1310    193.2180    195.1613   7.7849312710e+01   4.0597730870e+00    0.8674629    0.4375989 -63.13  0.002607706    5.697    0.824
        41 -13.6748     56.8712    238.7946   1.1346916842e+02   1.6895809776e+01     0.649158    0.4819311  66.11 0.0005386298    1.127    0.112
        42  -9.8863    106.2322    119.0588   8.2473567402e+01   3.7437520022e+01     0.231422    0.2131749  38.74 0.0003300542    1.120    0.107
        43 -10.4578    248.8079    113.5990   5.1665966946e+01   8.9695544384e+00    0.1664747     0.124748  75.90 0.0009537192    1.694    0.410
        44 -10.1379    205.4824    110.1453   5.7492304191e+01   1.8002263980e+01    0.2914856    0.2111316  43.37 0.0009894952    1.566    0.362
        45  -9.4817    134.7548    105.9928   7.1342507655e+01   3.4491945465e+01    0.2145153    0.1304574 -45.16 0.0007975104    1.628    0.386
        46 -11.4715    248.3666    102.8997   4.9516309411e+01   1.0828001336e+01    0.2346444    0.2025572  49.42  0.001493819    1.408    0.290
        47 -10.6148     52.9978     91.1281   9.2700942329e+01   5.2671904640e+01    0.2594041    0.1890588 -52.75 0.0007211433    1.258    0.205
        48 -10.1999    230.2316    166.9573   6.5435558505e+01   2.9373310685e+00    0.1856568   0.09931643 -39.95 0.0008868047    1.669    0.401
        49  -9.3695    160.7951     82.8126   5.9053335486e+01   3.3160889376e+01    0.2058624    0.1709668 -76.34 0.0004862337    1.285    0.222
        50 -11.3440    243.6501     77.7658   4.4857775322e+01   1.5772222762e+01    0.2140829     0.187417 -37.59 0.0006533245    1.252    0.201
        51  -8.9893     26.1902     68.3785   9.7216211262e+01   6.0643253471e+01    0.1599982    0.1132016  34.02  0.000406585    1.634    0.388
        52 -11.3138     13.2488     59.6923   1.0049524611e+02   6.3508104118e+01    0.2731722     0.231467 -78.21 0.0005672441    1.433    0.302
        53 -15.0522     30.8790    249.3832   1.1930698732e+02   1.7934203943e+01     3.022094    0.9143096  26.61  0.009872519    6.500    0.846
        54 -12.4265    217.7809     30.9008   3.7548209418e+01   2.7905372507e+01    0.4212083    0.3682648  65.86  0.001131962    1.339    0.253
        55 -13.5793    200.7957     44.3421   4.2534097778e+01   2.9923411215e+01     1.278873    0.8465153  34.87  0.003088068    2.371    0.578
        56 -10.9462    156.9833    219.5262   8.9635716127e+01   5.5851913760e+00    0.3374058     0.214321  20.56  0.001562709    1.780    0.438
        57 -10.4551     43.2582     59.9084   8.7584040657e+01   6.0575784966e+01    0.2637921    0.1904062  36.77  0.000750074    1.549    0.354
        58 -10.2276    133.7066     40.4344   5.2324529952e+01   4.6441679072e+01    0.2735075    0.2104137 -73.28 0.0008977777    1.521    0.342
        59  -9.3700    133.2948     32.1122   4.9780466026e+01   4.7618200954e+01    0.1763526    0.1657013 -83.73 0.0004029197    1.097    0.088
        60  -9.4492     24.3452     57.5715   9.4983823720e+01   6.3053705657e+01    0.2065635     0.112033  28.64  0.000943279    2.003    0.501
        61  -9.3933    189.4810     15.0050   3.6754040902e+01   3.6191356655e+01     0.176236    0.1209569 -36.75   0.00076453    1.559    0.358
        62 -15.5508      7.2962    247.5145   1.2352871680e+02   2.0823840139e+01     1.975875     1.717443 -82.13   0.01562484    1.420    0.296
