#   1 NUMBER                 Running object number                                     
#   2 MAG_AUTO               Kron-like elliptical aperture magnitude                    [mag]
#   3 X_IMAGE                Object position along x                                    [pixel]
#   4 Y_IMAGE                Object position along y                                    [pixel]
#   5 X_WORLD                Barycenter position along world x axis                     [deg]
#   6 Y_WORLD                Barycenter position along world y axis                     [deg]
#   7 A_WORLD                Profile RMS along major axis (world units)                 [deg]
#   8 B_WORLD                Profile RMS along minor axis (world units)                 [deg]
#   9 THETA_WORLD            Position angle (CCW/world-x)                               [deg]
#  10 FWHM_WORLD             FWHM assuming a gaussian core                              [deg]
#  11 ELONGATION             A_IMAGE/B_IMAGE                                           
#  12 ELLIPTICITY            1 - B_IMAGE/A_IMAGE                                       
         1 -12.4868     37.7122     51.1354   1.0742329603e+02   6.2077409583e+01    0.7107255    0.4938957 -36.93   0.00429099    1.428    0.300
         2 -10.9274     10.2501     16.0613   1.0793063865e+02   7.1544587402e+01    0.3071441     0.196759 -55.71  0.002019368    1.272    0.214
         3 -11.5344      3.9333     18.4690   1.1206846386e+02   7.1477288798e+01    0.3530064     0.328685   2.31  0.002875102    1.369    0.269
         4 -11.9698     61.2717     23.6887   8.7987512682e+01   6.4431772281e+01    0.9013339    0.3348499 -46.66  0.003599436    2.773    0.639
         5 -10.7100     88.7794      6.8716   7.0434382537e+01   6.1853239457e+01    0.5220488    0.2934869  77.26  0.001259628    3.564    0.719
         6 -12.1454     81.1234      6.7818   7.2710547536e+01   6.3412018093e+01    0.4749505    0.2799685 -21.99  0.001135198    1.585    0.369
         7 -11.3668     74.4393      6.5799   7.4784124054e+01   6.4722207225e+01    0.3510851    0.2195932 -20.09 0.0006037746    1.484    0.326
         8 -12.8580     70.4227     14.9726   8.0440885575e+01   6.4303189883e+01    0.4441551    0.3561272  47.02 0.0007001405    1.444    0.308
         9 -11.4373     75.9049     15.7346   7.8892524552e+01   6.3209781220e+01    0.4946843     0.288814 -16.48  0.001413697    1.875    0.467
        10 -11.9019     21.3143     18.3854   1.0326257952e+02   7.0230489450e+01    0.5189376    0.4067259  78.46  0.003000901    2.101    0.524
        11 -10.3823     34.9330     16.1775   9.5735119051e+01   6.9261026007e+01    0.4023788    0.1828692 -36.64  0.001140638    1.931    0.482
        12 -11.3817    108.0068     17.1277   6.9977671633e+01   5.6427172484e+01    0.2938324    0.2334068  41.86 0.0003954194    1.247    0.198
        13 -10.9304     55.2414     13.3405   8.5436134468e+01   6.7032952032e+01    0.2766064    0.2474569 -62.50  0.001066718    1.531    0.347
        14 -10.3491     26.4761     13.8300   9.8717972349e+01   7.0583048525e+01    0.2019189    0.1369044 -26.23 0.0002779623    1.365    0.267
        15 -10.1148     30.6425     12.9278   9.6247704230e+01   7.0307547221e+01    0.2119993     0.133947 -36.05  0.001047122    1.278    0.217
        16 -10.0899    118.4578     11.5285   6.4995533133e+01   5.4668961913e+01    0.2497892    0.2056456 -30.17 0.0007504303    1.225    0.184
        17 -10.4679    117.3369      8.2955   6.3828594213e+01   5.5293221334e+01    0.2468952    0.1905936  -2.41 0.0007934007    1.302    0.232
        18 -11.1102    115.8749      3.5460   6.2032589631e+01   5.6132667731e+01    0.3974617    0.2209321 -10.50 0.0006652144    1.919    0.479
        19  -9.6634    185.8389     10.8738   5.3441084998e+01   3.7233395405e+01    0.1969898    0.1595682 -54.82  0.000312563    1.257    0.205
        20 -10.1323     85.9453     10.5237   7.3086405656e+01   6.1985128098e+01    0.1920851    0.1643096 -13.18 0.0003243552    1.063    0.059
        21 -10.3897     59.5351     10.2757   8.2148832396e+01   6.6822216495e+01    0.4208491    0.1816577  45.68  0.001940144    2.602    0.616
        22 -10.0189    107.6365     10.0425   6.6883610939e+01   5.7370202898e+01    0.4058715    0.2040981  67.02  0.001685033    2.446    0.591
        23 -12.8578     12.6919      2.5681   1.0058532718e+02   7.3830021608e+01     1.024719    0.6688063  40.82  0.005227741    2.204    0.546
        24 -11.7066     26.5040      3.5472   9.3547481431e+01   7.2336189674e+01    0.3192697    0.1963442 -20.98  0.001279173    1.599    0.375
        25 -10.0380    127.4773      8.0528   6.1585573549e+01   5.2845262159e+01    0.2115531    0.1373303 -20.32 0.0003911406    1.533    0.348
        26  -9.7389      2.8493      8.1511   1.0878225315e+02   7.3529626668e+01    0.1467975   0.09817746 -35.28 0.0002593544    1.261    0.207
        27 -10.2398    146.0204      6.7853   5.7679020101e+01   4.8244416508e+01    0.2717084    0.1703715 -37.95 0.0006922045    1.640    0.390
        28 -10.2539    229.0125      5.8832   4.7527007433e+01   2.6476880637e+01    0.2069173    0.1814057 -57.12 0.0003299986    1.057    0.054
        29  -9.3264    172.1499      5.6160   5.3393943473e+01   4.1420539186e+01    0.2035411    0.1208762  55.51 0.0003011558    1.602    0.376
        30  -9.9838     59.8043      5.5379   7.9526134100e+01   6.7445060777e+01    0.2240572    0.1169169  40.55  0.001137996    2.033    0.508
        31  -9.0562    139.3214      1.7032   5.6778481238e+01   5.0459829210e+01    0.1450519    0.1055415 -59.56 0.0005416701    1.619    0.382
        32 -13.0814     31.7989      2.0661   9.0015539763e+01   7.1963633282e+01    0.2965066    0.2237458  12.23 0.0005896181    1.401    0.286
        33 -11.1370    153.4768    234.1741   1.1105783358e+02   9.5521627519e+00     0.192641     0.169469   8.53   0.00152641    1.478    0.323
        34 -10.3565    247.3379    250.0708   9.8595598231e+01  -5.8298630705e+00    0.1867178   0.09778389  31.53  0.001119427    1.370    0.270
        35 -12.2999    232.7851    246.9186   1.0028673870e+02  -3.5720241171e+00    0.3628042    0.2475039  16.17  0.002699452    1.306    0.234
        36 -10.0470     72.6006    250.1288   1.2527134374e+02   1.8578003422e+01    0.1471208    0.1208101  38.33  0.001255765    1.639    0.390
        37 -10.1433      5.3442    235.3962   1.3461199494e+02   2.8004188628e+01    0.1620795     0.116172  52.30  0.001001156    1.391    0.281
        38 -13.0102     15.9759    238.2108   1.3315328371e+02   2.6568153378e+01     0.844695     0.309912  37.30  0.005343636    2.690    0.628
        39 -12.3060      5.8125    244.8569   1.3483316529e+02   2.6535874014e+01    0.5181088     0.232619  62.67   0.00302201    1.450    0.310
        40 -10.8801      1.4512    245.0300   1.3545021531e+02   2.6910377982e+01    0.1664434   0.06734496 -83.68 0.0005537278    2.217    0.549
        41 -10.1240    115.9566    225.4953   1.1637164837e+02   1.6334468754e+01    0.1603063   0.06798904  57.85 0.0006536419    2.418    0.587
        42  -9.1770     80.6505    223.3353   1.2211869876e+02   2.1544664743e+01    0.1163899   0.05983352  64.95 0.0007047139    1.781    0.439
        43 -10.7923    123.0885    221.4128   1.1474838327e+02   1.5882683262e+01    0.3059359    0.1653305  53.88  0.001870615    1.533    0.348
        44  -9.7952     13.3730    221.7532   1.3292828034e+02   2.9403004115e+01    0.1170125   0.07102725 -82.09 0.0006115918    1.562    0.360
        45 -10.0725    141.8400    220.8737   1.1148974128e+02   1.3105360738e+01    0.1727505    0.1326692  37.05 0.0008248264    1.261    0.207
        46  -9.5027    250.4885    219.4504   9.3733078288e+01  -3.7098954372e+00    0.1110922   0.07973117  21.83 0.0001843419    1.035    0.034
        47 -11.3085    235.0104    216.5215   9.5621815786e+01  -1.1232094716e+00    0.2802936    0.1594452 -14.55   0.00172738    2.063    0.515
        48  -9.6291    174.0426    220.0000   1.0594319017e+02   8.1323544841e+00    0.1928585   0.05196239  43.95  0.000796914    2.904    0.656
        49 -10.2410    191.5171    217.0364   1.0264012572e+02   5.6853647974e+00    0.1894285    0.1665745  10.81  0.001360579    1.227    0.185
        50 -10.9848      9.8121    217.0671   1.3330287795e+02   3.0503067303e+01    0.2410759    0.1124751  60.52  0.000863005    1.492    0.330
        51 -10.3095     31.2903    215.7758   1.2980700541e+02   2.8595936804e+01    0.1711446    0.1143492  56.97  0.001363752    1.184    0.156
        52  -9.7014    201.5375    215.5236   1.0078089898e+02   4.2475705996e+00     0.116703   0.08900448  30.08 0.0001705625    1.078    0.073
        53  -9.3980    136.9314    216.0000   1.1176937614e+02   1.4562212971e+01    0.1898618   0.05261229  43.35 0.0007923631    2.873    0.652
        54  -9.7510    170.3118    213.3265   1.0568674047e+02   9.5938734795e+00    0.1135535   0.08123364  19.82 0.0004541335    1.663    0.399
        55 -11.0196     21.0155    212.1926   1.3130631754e+02   3.0240779097e+01    0.2759655    0.1107335  62.11  0.001748882    1.892    0.472
        56 -10.6098    241.3012    211.5272   9.3878815142e+01  -1.5962327736e+00    0.2178705    0.1797208  63.25  0.001515116    1.975    0.494
        57 -10.1037    208.9608    212.0708   9.9063668770e+01   3.4437221424e+00    0.1748771    0.1359697  30.43 0.0004550603    1.017    0.016
        58  -9.2555      2.2953    212.3195   1.3431076819e+02   3.1971428609e+01   0.07972804   0.06470071 -77.83 0.0005270115    1.611    0.379
        59 -11.7163      5.4072    208.0381   1.3365926329e+02   3.2413573371e+01    0.3433251    0.1298385 -85.62  0.002167515    2.231    0.552
        60 -10.9578      2.6059    203.8046   1.3395353366e+02   3.3383992643e+01     0.262475   0.09144138 -78.87  0.001604119    2.441    0.590
        61 -11.2611     18.6973    202.8078   1.3124582581e+02   3.2073997662e+01    0.2804225    0.1855248 -81.70 0.0006779474    1.429    0.300
        62  -9.4615    223.5849    201.7637   9.5090648871e+01   2.2208718418e+00    0.1357428    0.1088185 -38.10 0.0005509736    1.623    0.384
        63 -10.3106    175.2672    202.6693   1.0334027282e+02   1.0197815543e+01    0.1962765    0.1565844  54.75 0.0005482635    1.240    0.194
        64  -9.6680     34.6482    201.0529   1.2842264750e+02   3.0763377508e+01    0.1404537    0.1014777  77.42 0.0004484892    1.080    0.074
        65  -9.5678    227.1343    196.8847   9.3718092550e+01   2.1813036032e+00    0.1676897    0.1156312  18.60 0.0007022968    1.345    0.256
        66  -9.4566    203.0170    195.9664   9.7541338689e+01   6.3455415332e+00    0.1472466    0.1205817  31.23 0.0006516742    1.002    0.002
        67 -10.4728    215.4736    194.5018   9.5219962196e+01   4.4039089456e+00    0.1860909    0.1093126 -16.64 0.0006299014    2.132    0.531
        68  -8.9120     67.7122    203.6917   1.2278026609e+02   2.6452763316e+01   0.08814795   0.08558448 -67.72 0.0003017533    1.574    0.365
        69  -9.3934      1.5321    188.4378   1.3353072001e+02   3.6181459912e+01     0.100671    0.0688724  74.14 0.0001559034    1.013    0.013
        70  -9.4796     61.7741    184.9960   1.2228200939e+02   3.0560525326e+01    0.1420768   0.08198934 -75.47  0.000875952    1.656    0.396
        71 -11.2796     15.8577    182.5856   1.3070890657e+02   3.5985812228e+01    0.3356722    0.1511658  78.42  0.002045464    1.891    0.471
        72  -9.8920      1.9900    180.2840   1.3310136129e+02   3.7633106668e+01    0.1419367   0.09743437  69.37 0.0005470043    1.082    0.076
        73 -10.3216    244.4155    178.2719   8.7704738132e+01   1.3819656907e+00    0.2115691    0.1088869 -20.84  0.001111588    2.063    0.515
        74 -10.8762    224.3106    178.3368   9.0945515380e+01   4.8312779052e+00    0.2387874    0.1929647  36.71 0.0005604401    1.159    0.137
        75  -9.0814     36.3979    178.4883   1.2661190810e+02   3.4718725145e+01    0.1095102   0.08125004  77.71  0.000214285    1.023    0.023
        76 -10.2615    200.1526    176.8281   9.4786674568e+01   9.3597128867e+00    0.1756443    0.1354376  16.46  0.000548053    1.325    0.245
        77  -9.7081     70.1734    177.6021   1.1994085739e+02   3.0885319690e+01     0.140976    0.1048097  36.86 0.0005294246    1.576    0.365
        78 -10.2172    166.8194    183.5883   1.0194654773e+02   1.4414150685e+01    0.1839648    0.1046392  52.74 0.0009490248    1.680    0.405
        79  -9.5674     74.7755    171.2021   1.1833520999e+02   3.1508012647e+01    0.1440118    0.1358238 -78.76 0.0006367606    1.344    0.256
        80  -9.8244      4.6806    168.6918   1.3205296061e+02   3.9596065392e+01    0.0919508   0.06974919 -64.24 0.0003054671    1.639    0.390
        81  -9.5736    209.8492    166.1837   9.1129565951e+01   9.0282040849e+00     0.183561     0.136729  19.13 0.0006199457    1.340    0.254
        82 -11.2383     36.9741    157.9598   1.2485692179e+02   3.8707207647e+01    0.2003887    0.1328433 -83.80 0.0002947222    1.257    0.204
        83 -11.4065     36.1909    166.1602   1.2570692780e+02   3.7141253233e+01    0.2535895    0.1668019  86.21 0.0008213166    1.233    0.189
        84  -9.7551     67.1507    165.1555   1.1924119616e+02   3.3710363394e+01    0.1738244    0.1153247  69.39 0.0008084102    1.350    0.259
        85 -10.8137     51.5358    164.1609   1.2238789699e+02   3.5836448751e+01    0.2562223    0.1648151 -51.71  0.001560598    2.018    0.504
        86 -10.3434     47.7555    159.9865   1.2277557766e+02   3.7115612238e+01     0.212415     0.184893  56.39  0.001069521    1.297    0.229
        87  -9.5852    246.3442    162.6738   8.4431853543e+01   2.8374396440e+00    0.1117448    0.1010865 -70.12 0.0007050686    1.742    0.426
        88  -9.4586    200.4654    162.5669   9.2089810015e+01   1.1309872942e+01    0.1302855    0.1159969  31.24 0.0001773106    1.036    0.035
        89 -11.4580     44.5059    162.0156   1.2364591014e+02   3.7071027710e+01    0.2815067    0.1628499 -72.25  0.001693063    1.555    0.357
        90  -9.8600    238.6446    158.6477   8.4847760504e+01   4.6934211395e+00     0.139995   0.08571558  14.95  0.000702965    1.850    0.459
        91 -11.3474     22.4200    156.1910   1.2775326643e+02   4.0506796324e+01    0.3305201    0.2797213  58.42  0.002600119    1.312    0.238
        92  -8.9331    151.6923    153.3463   9.9674913215e+01   2.2226548369e+01    0.1368565    0.1034632  83.91 0.0004773702    1.700    0.412
        93 -10.1713     11.4668    153.4707   1.2982995742e+02   4.2027273176e+01    0.1933048   0.09824415  34.59  0.001185166    2.180    0.541
        94 -10.3458    178.3279    151.5609   9.4043851409e+01   1.7326233728e+01    0.2231616    0.2114203 -47.30 0.0005580363    1.166    0.142
        95  -9.8265    205.6595    151.6904   8.9004876939e+01   1.1883563681e+01    0.1408661   0.09658793  16.88 0.0007044534    1.691    0.409
        96  -9.1128      5.2707    149.9736   1.3089077036e+02   4.3237921969e+01    0.1274202   0.07164587 -86.39 0.0002369315    1.361    0.265
        97 -11.0312     18.3692    146.5564   1.2788277975e+02   4.2844888070e+01    0.2111966    0.1752444   5.48  0.001149063    1.966    0.491
        98 -10.2420    207.0233    146.0349   8.7589434614e+01   1.2443622156e+01    0.2093151    0.1873477  23.54 0.0006143749    1.014    0.014
        99  -9.6859     30.5974    144.5274   1.2503173236e+02   4.2131552221e+01    0.1154957   0.08738414  85.88 7.104577e-05    1.019    0.019
       100 -10.0254      2.9421    144.0361   1.3101475377e+02   4.4623214791e+01    0.1595318    0.1076493 -59.15  0.001131757    1.715    0.417
       101 -10.0615     55.4557    136.4382   1.1843504504e+02   4.1155651894e+01    0.1731893    0.1011651 -82.92 -5.019498e-05    1.622    0.384
       102 -10.4253     15.8292    139.8182   1.2791475499e+02   4.4465699588e+01    0.1944786   0.09230389  19.82  0.001007923    3.455    0.711
       103  -9.9169    236.7849    138.5928   8.0963623185e+01   7.6030523234e+00    0.1656412    0.1257511  53.78 0.0004526222    1.503    0.335
       104 -10.7532      2.7839    136.9288   1.3059420784e+02   4.6097105905e+01    0.2786945     0.111064 -75.86  0.001163135    1.929    0.482
       105 -10.6954      9.1686    136.7122   1.2916269319e+02   4.5657946559e+01    0.1897981    0.1328992 -77.78 0.0003077452    1.219    0.180
       106 -10.9102     21.8269    136.0021   1.2623990088e+02   4.4750772082e+01     0.264309    0.1533297  52.94  0.001350191    1.632    0.387
       107  -9.3893    138.3230    135.3321   9.9004099334e+01   2.8169823678e+01    0.1375678    0.1120973   2.09 0.0007050188    1.703    0.413
       108  -9.8635    122.7659    134.9988   1.0240979923e+02   3.1175529688e+01    0.1808118    0.1125929 -53.32 0.0008814007    1.635    0.388
       109 -10.2974    106.8756    133.2379   1.0573780471e+02   3.4354035325e+01    0.2325004    0.2104312  89.22 0.0009166619    1.019    0.019
       110  -9.2572    227.0388    132.0166   8.1098781910e+01   1.0424457057e+01    0.1639438    0.1459469  17.06 0.0004296189    1.036    0.034
       111 -11.1276     36.8314    130.6467   1.2217819295e+02   4.4475540524e+01    0.3891435    0.2190932 -71.25  0.002286783    1.489    0.328
       112 -10.6637     32.0033    125.5483   1.2277712597e+02   4.6063744056e+01    0.3602625    0.1371969  46.18  0.001175909    2.566    0.610
       113 -10.3699     74.1580    129.6323   1.1295965796e+02   4.0211374824e+01    0.2360505    0.1945591 -74.22 0.0008718727    1.106    0.096
       114  -9.3367    243.4050    128.5019   7.7696496241e+01   7.6401288019e+00    0.1332517     0.116593  -2.38 0.0001131339    1.026    0.026
       115 -11.2873      2.2338    124.5738   1.2985443915e+02   4.8726748161e+01    0.3802191    0.1280624 -71.85  0.001973411    2.217    0.549
       116 -10.3295     82.0253    125.3101   1.1030672097e+02   4.0023814234e+01    0.2143199     0.167805 -67.25   0.00126544    1.181    0.153
       117  -9.6727     47.2092    124.8329   1.1892430225e+02   4.4644151152e+01    0.1554294     0.132699 -58.28 0.0005415266    1.327    0.247
       118 -10.0748    226.0368    124.2313   7.9494539891e+01   1.1727319906e+01    0.1808303    0.1108965  47.71 0.0008743476    1.626    0.385
       119  -9.6440    219.5434    124.5020   8.0642718716e+01   1.3043685640e+01    0.1392814    0.1274985   6.01 0.0003174031    1.006    0.006
       120 -11.2567     10.4716    122.5382   1.2772730211e+02   4.8564353831e+01    0.2424613    0.1510516  73.01  0.001073487    1.406    0.289
       121 -11.3000     21.7494    121.1196   1.2483011049e+02   4.7962964316e+01    0.1866421     0.178485   1.98            0    1.506    0.336
       122 -11.9903     17.6760    116.3451   1.2535870145e+02   4.9345021153e+01    0.4235355    0.2419973 -61.13  0.002606978    1.602    0.376
       123  -9.9832    249.8159    118.5960   7.4478844030e+01   7.6699943019e+00    0.1722993    0.1315352  63.66  0.000945511    1.681    0.405
       124  -9.6249    220.4762    117.0077   7.8724342643e+01   1.3944777310e+01    0.1954069    0.1113946 -51.86 0.0006376542    2.418    0.586
       125 -10.4793     86.1098    116.3717   1.0764352627e+02   4.1365662526e+01    0.2188158    0.1670332 -56.20 0.0003387858    1.268    0.211
       126 -11.3768     51.0906    116.6533   1.1678165693e+02   4.6019937768e+01    0.2564361    0.1588347 -67.98            0    1.381    0.276
       127  -9.1120    166.3350    115.7106   8.8586738894e+01   2.6075791336e+01    0.1464231    0.1162592 -88.04 0.0003131622    1.632    0.387
       128  -9.9386     35.0000    113.9738   1.2061350684e+02   4.8327867807e+01    0.2373671    0.1384367 -76.50  0.001368414    1.429    0.300
       129 -11.6803     35.8357    109.3068   1.1976231991e+02   4.9288428712e+01    0.3658373    0.2205218  63.03 0.0003360024    1.757    0.431
       130 -10.7042    249.0180    111.9700   7.3057179335e+01   8.6927540686e+00    0.2102454    0.1846031 -13.28 0.0005620474    1.050    0.048
       131  -8.9847    212.5194    112.5134   7.8993203249e+01   1.6346829340e+01    0.1438319    0.1330711   5.58  0.000130635    1.018    0.018
       132 -10.1388      6.4992    107.0324   1.2731083935e+02   5.2212459093e+01     0.224128    0.1477957  82.93  0.001063507    1.271    0.213
       133 -10.7691      2.5703    105.4608   1.2819421910e+02   5.2813876506e+01    0.2305052    0.1508695 -83.70 0.0005203532    1.142    0.124
       134 -11.9990     16.6195    109.1232   1.2486457723e+02   5.1015695129e+01    0.4293222    0.2807043  57.31  0.002277139    1.551    0.355
       135 -10.0310     10.7184    109.4085   1.2644135657e+02   5.1396726795e+01    0.1793167    0.1575026 -89.63 0.0007739892    1.199    0.166
       136 -10.7171     55.9484    109.3632   1.1433558769e+02   4.7082031269e+01    0.2356793     0.180025 -35.28  0.001262408    1.724    0.420
       137 -11.6224     23.5293    107.7940   1.2287287556e+02   5.0748433413e+01    0.3336938      0.19614  76.12  0.001066725    1.707    0.414
       138 -10.1159     91.3721    107.9979   1.0457769503e+02   4.2374017862e+01    0.1924315    0.1589758 -64.38 0.0005630439    1.118    0.105
       139 -11.1449    243.7790    104.4526   7.2035375532e+01   1.0767256039e+01    0.2493697    0.1598903 -13.92 0.0008471193    1.596    0.373
       140 -11.0079    247.6521    102.1452   7.0915935712e+01   1.0268822778e+01    0.2467183    0.1961577  47.09 0.0008560262    1.342    0.255
       141 -10.2670    223.2491    104.0002   7.5094628754e+01   1.5250807646e+01    0.2287937    0.2055682  40.82 0.0004531268    1.145    0.126
       142 -10.9802     74.1868    102.3747   1.0803417677e+02   4.6251708960e+01    0.3119766    0.2224672  81.62  0.001079657    1.611    0.379
       143 -10.2321    119.6164    101.6969   9.5837187125e+01   3.8659017084e+01    0.2203742     0.176536  -9.52  0.001092892    1.723    0.420
       144 -10.1520     35.9831    101.7163   1.1862188760e+02   5.0979389054e+01    0.2945081    0.1332542  37.31  0.001507721    2.418    0.586
       145 -11.7653     29.4224     98.7427   1.2003642780e+02   5.2261060619e+01    0.3945153    0.2044233 -56.07  0.001394265    1.730    0.422
       146 -11.4990      3.3243    100.3468   1.2750643887e+02   5.3882628254e+01    0.2396864    0.1879569  85.30 0.0004808929    1.115    0.103
       147 -10.6603     63.3705     98.8891   1.1036180771e+02   4.8513652061e+01     0.405166    0.2312913  28.73  0.002011898    2.263    0.558
       148 -11.1808     20.4306     96.9645   1.2235115052e+02   5.3418395477e+01    0.2892087    0.1573627 -77.35  0.001075168    1.491    0.329
       149 -10.3560      1.7316     94.0712   1.2731324487e+02   5.5356286442e+01    0.2959131   0.08783852 -65.55  0.001301327    2.368    0.578
       150  -9.1215     50.6863     99.3146   1.1405697993e+02   4.9968095283e+01    0.1296243   0.08745744  78.62 0.0004372595    1.640    0.390
       151 -10.0882     31.4756     92.5651   1.1849877794e+02   5.3467709637e+01    0.3082388   0.09138074 -65.09  0.001293029    2.570    0.611
       152  -9.4788     98.7881     93.4189   9.9209078631e+01   4.4303305052e+01    0.1696516    0.1385343  32.32 0.0004241666    1.417    0.294
       153 -11.7731     25.6794     91.7197   1.2008284583e+02   5.4166175329e+01    0.2277544     0.185263 -71.54 0.0003246828    1.077    0.071
       154 -10.4441     22.9018     87.0434   1.2020265433e+02   5.5446353286e+01    0.2055236    0.1378459 -71.48 0.0004170616    1.171    0.146
       155 -10.9335     95.4233     90.8626   9.9488729292e+01   4.5444095840e+01    0.3812874    0.2705304  11.53  0.001346213    2.288    0.563
       156 -10.6550      4.7013     86.4853   1.2561027454e+02   5.6849485112e+01    0.3353384    0.1815812  64.39  0.001965445    2.022    0.506
       157  -9.8246    113.9396     90.9835   9.4529392223e+01   4.2008865663e+01    0.2635257    0.1582756  70.30  0.001031586    2.636    0.621
       158 -10.2717    171.3303     90.6718   8.1046030782e+01   2.9451524759e+01    0.1570567    0.1194903 -73.35 0.0007051365    1.711    0.416
       159 -10.2370    158.1689     89.8197   8.3587539085e+01   3.2693157270e+01     0.213585    0.1842508   9.51  0.001079614    1.326    0.246
       160 -11.5164     48.0436     85.8940   1.1228302718e+02   5.3302385662e+01    0.5220733    0.3361997  88.76  0.001851566    1.822    0.451
       161 -12.0287     11.1598     90.9615   1.2425295916e+02   5.5441251645e+01    0.3054544    0.1935246  26.45  0.001976866    2.021    0.505
       162 -10.6553    112.3050     85.9278   9.3584821977e+01   4.3382482098e+01     0.328858    0.2492083  83.69  0.001597839    1.706    0.414
       163 -10.7389     67.2557     84.6934   1.0614609565e+02   5.1183615781e+01    0.2789684    0.1886228 -39.13  0.001472087    1.640    0.390
       164  -9.6246     88.0481     83.6795   9.9720784324e+01   4.8252876162e+01    0.1835216    0.1721893 -83.09 0.0006235802    1.078    0.072
       165  -9.1284    173.3453     83.3158   7.8562992055e+01   3.0254514001e+01    0.1604691    0.1181723  18.08 0.0007048066    1.718    0.418
       166 -10.1125    117.8632     83.3842   9.1403113484e+01   4.2799553768e+01    0.2013617     0.192684  35.48  0.001069044    1.117    0.105
       167  -9.7062     15.1379     83.7245   1.2208286654e+02   5.6777969688e+01    0.2027269   0.08793973  34.62  0.001080207    2.625    0.619
       168 -10.6053     74.6358     81.1488   1.0303938361e+02   5.0915370621e+01    0.2323552     0.217705  77.72 0.0004448521    1.141    0.124
       169  -9.8968     71.2944     79.3052   1.0358846031e+02   5.1810576203e+01     0.191093    0.1418473  34.07 0.0005296215    1.572    0.364
       170  -9.8087     29.8975     81.8377   1.1716781229e+02   5.6028502935e+01    0.1801396    0.1420818 -55.32 0.0009022342    1.209    0.173
       171 -10.5657     39.6218     80.9649   1.1392196374e+02   5.5307564267e+01     0.229399    0.1814057  69.72 0.0009259119    1.390    0.281
       172 -10.9528     18.5093     79.5133   1.2038453236e+02   5.7475152595e+01    0.3113035    0.2058495  72.03  0.001921957    1.659    0.397
       173 -10.4405     23.0150     79.9819   1.1902760378e+02   5.7023455511e+01    0.2486437    0.1413585 -52.25            0    1.595    0.373
       174 -10.5422     21.3331     76.7431   1.1901612571e+02   5.7881530354e+01    0.2429766    0.1547049  46.91 0.0009140227    1.832    0.454
       175 -11.2752     11.5613     79.6839   1.2261116791e+02   5.7925037766e+01     0.296203    0.2211608 -42.54 0.0001136894    1.517    0.341
       176 -11.0227      3.0929     78.4796   1.2510842891e+02   5.8713267923e+01    0.2736789    0.2419453  76.01   0.00136224    1.260    0.206
       177 -11.3144      7.2410     73.8725   1.2314805828e+02   5.9489722075e+01    0.3742246    0.2415289  20.25  0.002458085    2.064    0.515
       178 -10.5823     91.6469     78.3172   9.7213755485e+01   4.8797784871e+01    0.3009383    0.2067855 -36.33  0.001495221    1.548    0.354
       179 -10.4910    150.8202     77.5194   8.1645125927e+01   3.6672582257e+01    0.3640541    0.2578873  46.23  0.001695455    1.443    0.307
       180 -11.7707     58.0195     74.3046   1.0651131504e+02   5.4714126977e+01    0.4112419    0.2837057  80.18 0.0004740552    1.953    0.488
       181 -11.6562     62.1445     71.9619   1.0457342122e+02   5.4695479737e+01    0.4521064    0.3187361 -54.53  0.001541449    1.220    0.180
       182  -9.7444    121.9967     76.4752   8.8296914190e+01   4.3333975508e+01     0.219453    0.1476245  50.30 0.0008195009    1.557    0.358
       183 -11.9173     44.7847     75.2550   1.1104783742e+02   5.6052593994e+01    0.2165364    0.1928212 -76.34 0.0002597176    1.098    0.089
       184 -11.2764     38.0445     69.3376   1.1196418035e+02   5.8070190176e+01    0.5374008    0.3548352  81.30  0.002946005    1.952    0.488
       185  -9.8987     16.7092     72.8032   1.1985942608e+02   5.9105182226e+01    0.2428325    0.1300266 -66.10  0.001402776    1.421    0.296
       186 -11.3749    102.4185     72.8875   9.2524391768e+01   4.7984457756e+01    0.2520667    0.2389515  51.51 0.0005493634    1.130    0.115
       187  -9.4241    174.5013     72.0091   7.5012499631e+01   3.1886682784e+01    0.2073294    0.1221352 -55.77 0.0007995252    2.152    0.535
       188 -11.7765     76.3307     71.0037   9.9776748503e+01   5.2868192095e+01     0.451406    0.3041113  65.53  0.001811182    2.027    0.507
       189 -11.3462     94.5355     67.8560   9.3267240391e+01   5.0478327874e+01    0.5049564    0.2862085 -43.21  0.001857393    1.640    0.390
       190 -10.7142     99.2434     65.4996   9.1137125758e+01   5.0086508033e+01    0.2902478    0.1929145 -37.90  0.001403551    1.456    0.313
       191 -10.8509     27.2258     70.1303   1.1582189298e+02   5.8884583587e+01     0.253145    0.1671635 -58.43 0.0009205404    1.226    0.184
       192 -10.8643     31.0174     66.0957   1.1366180349e+02   5.9452768500e+01    0.3276215    0.1481854 -63.80  0.001108048    1.784    0.439
       193 -10.0981    160.9581     69.7094   7.7054127412e+01   3.5620035988e+01    0.2076288    0.1959299  44.53 0.0003108091    1.076    0.071
       194  -9.9066    144.4870     70.0302   8.0784606424e+01   3.9525816704e+01    0.2260202    0.1479235 -35.46 0.0003143847    1.500    0.333
       195 -11.1997     68.7856     68.0838   1.0135357525e+02   5.4620236341e+01    0.4426822    0.1827817 -50.99  0.001044664    2.092    0.522
       196 -11.7475     49.6844     68.9403   1.0791898700e+02   5.6909987073e+01    0.3937387    0.2814969 -18.84  0.002188616    1.932    0.482
       197 -10.9545     18.7626     61.0124   1.1693077558e+02   6.1572604319e+01    0.5004761    0.3240039  75.43  0.002949134    1.923    0.480
       198 -11.2106     16.5613     67.8454   1.1903410100e+02   6.0218737012e+01    0.2320662    0.1777152 -78.45 0.0002125005    1.129    0.114
       199 -10.4952     21.5798     65.6174   1.1686455763e+02   6.0343473156e+01    0.2832912    0.1849901 -10.38  0.001658976    2.280    0.561
       200 -10.0446      6.4967     67.5992   1.2244091866e+02   6.0921446745e+01    0.1762246    0.1434918 -61.25 0.0006553506    1.159    0.137
       201 -11.5034      3.4050     64.2617   1.2297841211e+02   6.1830577371e+01    0.3317293      0.21537 -89.17  0.001326589    1.427    0.299
       202 -10.8767     81.3797     67.1507   9.7061059929e+01   5.2888044977e+01    0.2399791    0.1660089 -63.06 0.0007578046    1.531    0.347
       203 -11.3817     76.9550     63.2904   9.7284278132e+01   5.4406968722e+01    0.3323201    0.2207164 -51.44 0.0004808614    1.354    0.261
       204 -10.2925    139.1119     65.7013   8.0660457955e+01   4.1567493013e+01    0.2100576    0.1941535  43.06 0.0005083611    1.112    0.101
       205  -9.6244    215.5028     65.3191   6.6023797522e+01   2.2696849673e+01    0.2030537    0.1411928 -12.08 0.0006589264    1.573    0.364
       206  -9.3904    135.4452     65.4664   8.1461934120e+01   4.2459933460e+01    0.1500561    0.1447716 -29.03 3.692751e-05    1.012    0.012
       207  -9.7931    120.3249     65.0153   8.5129544120e+01   4.5915584580e+01    0.2115874    0.1862584 -37.52  0.000428805    1.086    0.079
       208 -11.4081     58.0759     61.6721   1.0309234940e+02   5.7465755790e+01    0.3941242    0.1658097 -45.20  0.001096435    2.175    0.540
       209 -11.5339     63.4209     60.0399   1.0077629009e+02   5.7096927271e+01    0.4713299    0.2016277  35.29  0.002038582    2.759    0.638
       210 -10.4176     51.4918     62.7351   1.0566966592e+02   5.8056946804e+01     0.294525    0.1725161 -35.09  0.001472721    1.976    0.494
       211 -10.4477      1.4833     44.7992   1.2019578678e+02   6.6158513102e+01    0.1956036   0.08054192 -64.44 0.0006298897    1.718    0.418
       212 -10.9428     11.0020     62.5254   1.2001018717e+02   6.1767199674e+01    0.2108607    0.1433259 -70.05 0.0003816979    1.133    0.117
       213 -10.5993      7.7746     59.7631   1.2066813951e+02   6.2571419326e+01    0.3623393    0.1853242  87.41  0.001810325    2.351    0.575
       214 -12.0527      5.1870     51.6873   1.2011597662e+02   6.4480146103e+01    0.6640117    0.2196486 -65.46  0.003240517    2.123    0.529
       215  -9.2473    201.2437     62.0024   6.7275518420e+01   2.6723586897e+01    0.1916743    0.1243935 -28.84 0.0003696064    1.487    0.328
       216 -10.9846     83.9729     61.7883   9.4575497515e+01   5.3572093439e+01    0.3881027    0.2583225  39.36  0.001525208    1.678    0.404
       217 -10.3540     86.1241     57.4743   9.2480143906e+01   5.4076956653e+01    0.3179026    0.1987977 -46.07  0.001557559    1.452    0.311
       218  -9.1332    166.3379     61.2627   7.3298627934e+01   3.5693465655e+01    0.1567789    0.1161765  26.34 0.0003134734    1.587    0.370
       219  -9.4429    134.6400     61.2967   8.0284898227e+01   4.3398285888e+01    0.1552929    0.1190065 -76.38 0.0007033354    1.707    0.414
       220 -11.4885     29.8586     60.8233   1.1287170749e+02   6.0720184245e+01    0.5525732    0.2645865  13.54  0.002581548    3.403    0.706
       221 -11.8203    224.8030    247.0741   1.0148567345e+02  -2.4588232193e+00    0.3815829    0.1864279 -12.53  0.002140511    3.378    0.704
       222 -11.0411    123.1530     56.4861   8.1520608839e+01   4.6873397149e+01    0.3676443    0.2380667 -52.88  0.001050071    1.717    0.418
       223 -12.1591    128.2708     50.6723   7.8183494851e+01   4.6728689335e+01    0.6303896    0.3918342  -8.36   0.00171193    2.413    0.586
       224 -10.7917     47.0835     57.3027   1.0571241353e+02   5.9746166497e+01    0.3153692    0.2387171  88.49  0.001192473    1.678    0.404
       225  -9.7386     43.7217     57.3247   1.0693691409e+02   6.0116972828e+01    0.2171662    0.1327102 -62.45  0.000668717    1.457    0.314
       226 -10.5373     45.0291     51.3426   1.0471674152e+02   6.1249519489e+01    0.3504765    0.1600945 -44.83 0.0007548543    1.931    0.482
       227 -10.2084    114.7471     57.3525   8.4043383201e+01   4.8546886037e+01    0.2659023    0.2134074  38.25 0.0003494263    1.327    0.247
       228 -11.0011    117.7343     54.9751   8.2413876461e+01   4.8339202874e+01     0.557292    0.3285245  15.99  0.001912868    3.514    0.715
       229 -11.0736    101.5284     56.0223   8.7303597731e+01   5.1504417022e+01    0.5135608    0.2119532  48.38  0.001806621    2.631    0.620
       230 -10.8813     75.2173     56.0357   9.5527239510e+01   5.6179491906e+01    0.1977863    0.1926701 -40.25 0.0003152736    1.102    0.093
       231  -9.8816     62.4488     54.4635   9.9370797675e+01   5.8401423210e+01    0.2359679    0.1829906  89.94  0.001301914    1.753    0.429
       232 -11.1960     87.2489     52.3661   9.0364200545e+01   5.4885255911e+01    0.2888798    0.2141158 -45.33 0.0008064015    1.240    0.193
       233 -10.8381     12.6336     51.7385   1.1725414792e+02   6.4023199625e+01    0.2635708    0.1619335 -69.99 0.0008431207    1.324    0.245
       234 -10.0483     77.0711     50.8074   9.3124100807e+01   5.6929849110e+01    0.1931075    0.1775814 -65.29 0.0004196581    1.186    0.157
       235 -10.4918     70.0103     50.7094   9.5486981995e+01   5.8065569266e+01    0.3184977    0.2267291 -66.72  0.001667595    1.694    0.410
       236 -10.3461     82.4943     50.3013   9.1156554025e+01   5.6118649446e+01      0.23266    0.1273502  42.56  0.001071189    2.026    0.506
       237 -11.4300    152.8905     48.0103   7.1647023148e+01   4.1190959652e+01    0.4436743    0.3193502  70.98  0.001427854    1.576    0.365
       238 -10.2924    113.7170     48.2407   8.1076724109e+01   5.0409054114e+01     0.263806    0.2222587 -81.39 0.0006215073    1.486    0.327
       239 -10.5362     95.2286     48.6011   8.6528257432e+01   5.4123132615e+01    0.3207788    0.2107812  -2.06  0.001354816    2.487    0.598
       240 -10.8513     61.3301     46.7311   9.7175664747e+01   6.0136596858e+01    0.2982726     0.244476 -43.06 0.0009678467    1.047    0.045
       241 -10.4278    103.8372     46.4738   8.3186498965e+01   5.2802002657e+01    0.2747122    0.1973105 -35.96 0.0009118735    1.302    0.232
       242 -11.2150     11.5650     44.2018   1.1594829750e+02   6.5714514184e+01    0.3775974      0.17979 -48.91  0.001490638    1.697    0.411
       243 -10.7453    142.6794     45.6931   7.3026694241e+01   4.4097775521e+01    0.3464723    0.2574069 -74.78  0.001110404    1.782    0.439
       244  -9.0560     18.6599     46.2717   1.1357852803e+02   6.4784542966e+01    0.1094263   0.08387667  78.90 0.0006991761    1.608    0.378
       245  -9.2018    233.3035     45.3027   5.8047913503e+01   2.1010833215e+01    0.1433078    0.1069546  23.25 0.0003357013    1.594    0.372
       246 -10.3334    163.9213     45.2915   6.8522342621e+01   3.8786191281e+01    0.2082725    0.1942308  40.03 0.0002183716    1.084    0.077
       247 -10.4866    122.1622     43.1832   7.6978120526e+01   4.9384415388e+01    0.4235075    0.2667418 -41.47  0.001932977    1.561    0.360
       248  -9.9402     86.2260     44.6859   8.7883533364e+01   5.6525540812e+01    0.2505734    0.1608367 -23.90 0.0007650101    1.771    0.435
       249 -10.1310     51.2549     45.0134   1.0032503731e+02   6.1822385262e+01    0.1830364    0.1419721 -44.98 0.0003044207    1.081    0.075
       250 -11.2084     52.7702     41.5950   9.8550110702e+01   6.2317618892e+01    0.2797027    0.2421263 -80.93 0.0009502509    1.437    0.304
       251 -10.5102      7.0423     41.3082   1.1712985332e+02   6.6605055827e+01    0.2746126    0.1247078 -65.31 0.0007561417    1.671    0.401
       252 -10.0726    110.7091     41.9729   7.9543812721e+01   5.2133698059e+01    0.2388503    0.2023089 -83.36 0.0004373787    1.500    0.333
       253 -11.4361     67.3090     40.7934   9.2843052112e+01   6.0420101870e+01    0.4455903    0.2451383 -23.79  0.001639274    2.584    0.613
       254 -11.3508     10.7376     34.1876   1.1368724106e+02   6.7877704925e+01    0.5388998    0.2318457  20.47  0.002889367    2.975    0.664
       255 -10.8651      6.9651     30.0135   1.1420852893e+02   6.8972492353e+01     0.309119    0.1333108 -47.63   0.00156766    1.782    0.439
       256 -10.6467      9.9261     25.3337   1.1138154259e+02   6.9741077190e+01     0.304594    0.1594682 -37.07  0.001059453    1.781    0.439
       257 -11.2185     17.8541     33.0367   1.1017192719e+02   6.7619654188e+01    0.4756189    0.2136941 -54.30  0.002235436    1.650    0.394
       258 -12.0636     20.7302     37.7048   1.1034255895e+02   6.6434630869e+01    0.3757241    0.2336131 -66.45  0.001821115    1.471    0.320
       259 -12.6467     26.0164     36.4037   1.0766892165e+02   6.6264618443e+01    0.5839395    0.3584331 -52.44  0.002178302    1.270    0.213
       260 -10.3194    225.8386     40.2339   5.7523373522e+01   2.3469330056e+01    0.2886809    0.1982742 -51.29  0.001403671    1.482    0.325
       261  -9.4100    220.4383     41.5381   5.8558153669e+01   2.4655280878e+01    0.1445826    0.1366067 -33.86  9.04772e-05    1.010    0.010
       262 -11.2462    101.0760     28.2981   7.6723287535e+01   5.6380496825e+01    0.2979936    0.2388163 -47.98 0.0001980154    1.363    0.266
       263 -11.3709     97.4981     40.8761   8.2910916106e+01   5.5066361941e+01    0.4399199    0.3120316  48.70  0.001359857    1.525    0.344
       264 -10.5923    105.1580     34.3714   7.8086502875e+01   5.4569578845e+01    0.3586711    0.2367723 -53.60  0.001150532    1.837    0.456
       265 -11.0551     97.9900     31.9795   7.9170801638e+01   5.6449970756e+01    0.3505243    0.2940844  19.76 0.0008685088    1.244    0.196
       266 -11.4992    101.4790     36.9577   8.0182976417e+01   5.4922243337e+01    0.2868459    0.2696037   2.29 0.0006084192    1.055    0.052
       267 -12.0728     97.0691     36.9713   8.1490316496e+01   5.5819130128e+01    0.2896238    0.2714677 -68.61 0.0003512172    1.242    0.195
       268 -11.3570     89.3675     39.4533   8.4855484757e+01   5.6891332627e+01    0.3351142    0.2106822 -46.29  0.000836581    1.575    0.365
       269  -9.9833     73.9394     31.2681   8.6643850775e+01   6.1084202616e+01    0.1807303    0.1616949 -14.24 0.0001815213    1.059    0.056
       270 -11.8972     80.3805     36.4905   8.6596451719e+01   5.9054839637e+01    0.4732624    0.3519178 -43.76  0.002605461    1.277    0.217
       271 -10.6662     77.5231     33.4607   8.6321328828e+01   6.0087792510e+01    0.4047756    0.2241351 -23.75  0.001750691    2.156    0.536
       272 -10.5331    129.3050     56.5995   8.0002636552e+01   4.5462497981e+01    0.3789711    0.1817217 -27.03  0.001368922    2.486    0.598
       273  -9.7540    182.5203     37.5538   6.2700304694e+01   3.4999281375e+01    0.1506805    0.1444855 -56.78 4.310077e-05    1.049    0.047
       274 -10.4676    162.7969     36.8796   6.5845578740e+01   4.0276847780e+01    0.2396605    0.1988281  31.89 0.0007522532    1.269    0.212
       275  -9.4382    127.4869     36.4580   7.3109370845e+01   4.9201542640e+01     0.146893    0.1411363  -9.18 0.0001010697    1.009    0.009
       276 -10.3925    139.9833     34.0561   6.9358621400e+01   4.6508869137e+01    0.2181783    0.2132391 -12.03 0.0003347112    1.023    0.022
       277 -10.0923    206.8150     33.4409   5.7908980520e+01   2.9142488370e+01    0.3419164    0.1029921  55.80  0.001125204    3.056    0.673
       278 -10.0231    129.9134     32.6490   7.1067318795e+01   4.9183288689e+01    0.2015943    0.1934405  43.25 0.0006745699    1.070    0.066
       279  -9.7813     90.0653     31.6490   8.1445734723e+01   5.8084822623e+01    0.1840873     0.166452  26.91 0.0003889343    1.154    0.134
       280  -9.7727    177.8676     31.5992   6.1471034659e+01   3.7002670998e+01    0.2211441    0.1445166  84.58 0.0009492583    1.840    0.456
       281 -10.4436     56.1946     30.4957   9.2924932495e+01   6.3980398229e+01    0.2664971    0.1284945 -29.99  0.001153043    2.420    0.587
       282  -9.3667     42.6732     31.7198   9.8911684474e+01   6.5496637909e+01    0.1249678   0.08480946 -23.38 0.0006997945    1.597    0.374
       283 -10.0469    139.8975     29.4224   6.7622822615e+01   4.7173513918e+01    0.3418627    0.1744582  -8.99  0.001203346    2.862    0.651
       284 -10.3633     81.5475     28.3069   8.2766204893e+01   6.0239017383e+01    0.4964981    0.2379294 -56.28  0.001645216    4.340    0.770
       285 -10.5775     50.1564     28.6074   9.4558814960e+01   6.5151202356e+01     0.313404    0.1804334 -28.81    0.0015345    1.820    0.451
       286  -9.5530    162.8541     28.8015   6.2999370828e+01   4.1331874634e+01    0.2067661    0.1716665 -62.84 0.0003349017    1.321    0.243
       287  -9.8342    124.3415     28.2811   7.0646927220e+01   5.1140658321e+01    0.3028202    0.1623885  10.09 0.0009716012    3.765    0.734
       288 -11.0454    214.9477     26.9616   5.4973998830e+01   2.7810730521e+01    0.3781632    0.2635254  12.80 0.0008941083    1.808    0.447
       289 -11.1478     70.8920     25.8542   8.5374431389e+01   6.2517666585e+01    0.4656782    0.3051802  32.07  0.002072957    1.700    0.412
       290  -9.1948     21.4786     28.5227   1.0703780586e+02   6.8246505562e+01    0.1191327   0.09386937 -49.19 0.0007577511    1.036    0.035
       291 -10.3556    181.2044    248.2128   1.0824258321e+02   3.7699133688e+00    0.1848153   0.08153073 -33.31  0.001037989    3.531    0.717
       292 -10.8646      2.1486     24.1453   1.1477343834e+02   7.0440227480e+01    0.4483363    0.1510501 -56.10  0.002314104    1.974    0.493
       293 -10.7161    250.3993    245.5759   9.7548804171e+01  -5.8926588597e+00    0.2644376     0.114466 -23.31  0.001657782    2.730    0.634
       294 -11.0227     87.5806     25.2607   7.9467209771e+01   5.9583281504e+01    0.4034654    0.2799763 -52.28  0.002048662    1.743    0.426
       295 -11.5042     82.9887     20.3387   7.8710911765e+01   6.1212021533e+01    0.4076207    0.2785122  59.55 0.0007569506    1.853    0.460
       296  -9.6107     16.5107     26.8875   1.0877599130e+02   6.8966732897e+01    0.1718927   0.09057915 -55.31 0.0003368664    1.459    0.314
       297 -11.6599    129.3409     23.9946   6.7776578603e+01   5.0513562147e+01    0.4390011    0.3128586 -50.49  0.001380929    1.592    0.372
       298 -10.4427    129.2862     19.3455   6.5905046471e+01   5.1116794328e+01    0.2259196    0.1476027 -19.34 0.0005229408    1.546    0.353
       299  -9.8177    137.0089    247.4984   1.1507317209e+02   1.0312013845e+01    0.1609895   0.07729316  44.33 0.0004104796    1.525    0.344
       300 -10.4663    147.6217    245.2203   1.1317474719e+02   9.0548951219e+00    0.1199361   0.09983732 -30.77 0.0009553134    1.752    0.429
       301  -9.4514    115.5094    244.4988   1.1819431382e+02   1.3739381051e+01    0.1050419   0.07660878  52.70 0.0008104193    1.031    0.030
       302 -10.1657    109.8593    243.2175   1.1898053463e+02   1.4693702492e+01    0.1672648    0.1197145  74.25 0.0007293091    1.384    0.278
       303 -11.9903     74.2159    238.3791   1.2426248024e+02   2.0072115335e+01    0.3347282    0.2439187  83.36  0.002578069    1.306    0.234
       304 -11.2274     74.0037    232.9884   1.2392580472e+02   2.0905761226e+01    0.1864597    0.1317404  61.74 0.0006817899    1.007    0.007
       305  -9.1506     36.2970     26.6880   9.9663560576e+01   6.7181917320e+01    0.1119662   0.09234484 -75.41 0.0004273513    1.599    0.375
       306 -10.5278    112.1554     24.8462   7.2245504801e+01   5.4455167678e+01    0.1990774     0.161164   7.91 0.0005296674    1.290    0.225
       307 -10.5401     94.7125     24.1897   7.6802360474e+01   5.8320720566e+01    0.3991987    0.2091464  46.04  0.001807788    1.966    0.491
       308 -10.2295    173.8867     24.1885   5.9581982156e+01   3.8972352748e+01    0.2207982    0.1958798 -70.30 0.0003195278    1.188    0.158
       309 -12.1793     35.8929    241.6053   1.3034172097e+02   2.4025055166e+01    0.3137138    0.1931667  55.66  0.002595452    1.169    0.144
       310  -9.9950    134.7798     22.4329   6.5978424395e+01   4.9369658637e+01     0.209947    0.1290993  47.68 0.0008184875    1.596    0.373
       311  -9.7204    120.4314     21.2921   6.8707958753e+01   5.3012931340e+01    0.1974868    0.1301019 -35.48 0.0008264828    1.501    0.334
       312 -10.4773     47.1486     20.5376   9.2289164696e+01   6.6994724517e+01    0.3462508    0.1439915  40.68     0.001602    2.853    0.650
       313  -9.6084    162.1150     20.1137   6.0019824257e+01   4.2581718812e+01    0.1989114    0.1695195 -62.46  0.001029522    1.265    0.209
       314 -10.8132    156.4931    241.0478   1.1132689025e+02   8.2503469980e+00    0.1294217    0.1083317 -55.11  0.001037571    1.606    0.377
       315 -10.3239     88.8944    241.2210   1.2214460943e+02   1.7785009222e+01     0.154713    0.1308936 -35.98  0.001225744    2.133    0.531
       316 -10.0597    217.5147     16.4950   5.1619675412e+01   2.8310471191e+01    0.2536275    0.1132175  57.25 0.0009635525    2.212    0.548
       317  -9.3881    191.6248     15.5086   5.4236667124e+01   3.5206287776e+01    0.1429719    0.1369592 -43.47  0.000796948    1.033    0.032
       318  -9.4026     50.3147    240.3250   1.2809724062e+02   2.2629854133e+01   0.07795754   0.07364552  63.52 0.0004413593    1.666    0.400
       319 -10.3629    195.7101    238.3163   1.0479742623e+02   2.6520715392e+00    0.2151677    0.1442643  29.85  0.001538365    1.266    0.210
       320 -10.9794     31.5078    237.4424   1.3081206554e+02   2.5117878969e+01     0.226218    0.1248029  74.32  0.001095765    1.401    0.286
       321 -10.2596    100.1043     12.9843   7.0185900189e+01   5.8703641952e+01    0.2220823     0.188868   5.49  0.001273188    1.114    0.102
       322  -9.3209    138.0468     12.5205   6.1367824047e+01   4.9709528439e+01    0.2117816    0.1244858 -80.71 0.0008094007    2.715    0.632
       323 -10.8097     29.1899    232.8913   1.3096062754e+02   2.6060324683e+01    0.1981351    0.0855319  55.40  0.001199618    1.596    0.373
       324  -9.3683    243.4859    237.4910   9.7428967234e+01  -4.2780299560e+00    0.1059631   0.07560544  25.90 4.750426e-05    1.013    0.013
       325 -10.2453    159.9165    235.8582   1.1020174513e+02   8.3660726136e+00    0.1667867    0.1224712  33.90 0.0006723022    1.265    0.210
       326  -9.4431      4.6634     12.2916   1.0943369074e+02   7.2634270164e+01    0.0982024     0.082123  88.85 0.0006627134    1.641    0.391
       327  -9.7037    231.4442    235.4731   9.8934597607e+01  -2.3778103692e+00    0.1076906   0.07752642  27.27 0.0001209578    1.016    0.016
       328  -9.7095    176.2992     11.3688   5.4834422250e+01   3.9741524218e+01    0.1579262    0.1045179  30.38 0.0007031563    1.735    0.424
       329 -10.3291    177.6207    234.8186   1.0722806382e+02   5.7882694451e+00    0.2060567    0.1386768  28.17  0.000925886    1.448    0.309
       330 -10.1123    167.0218    233.7105   1.0880332996e+02   7.5433905842e+00    0.1576404    0.1148663  43.24 0.0008486771    1.035    0.034
       331  -9.9483     85.9602    233.1497   1.2200579165e+02   1.9347641307e+01    0.1525665   0.09110279  71.67 0.0008153868    1.570    0.363
       332 -13.0145     20.4424    248.5405   1.3287984422e+02   2.4589237340e+01    0.9116961     0.146902  47.55  0.005042014    2.945    0.660
       333  -9.8656     79.9274    231.3387   1.2284905095e+02   2.0403079206e+01    0.1505717   0.09861843  54.25 0.0004783848    1.134    0.118
       334  -9.4007     58.3216    230.3045   1.2626507849e+02   2.3231434430e+01    0.0816346   0.07699164  50.63  0.000427356    1.635    0.389
       335 -10.1911    190.5121    227.2618   1.0419574688e+02   4.6569346599e+00    0.2771318    0.1115321 -39.52  0.001476872    3.196    0.687
       336  -9.4775    249.3069    227.3069   9.5098398145e+01  -4.2322798356e+00    0.1103005   0.06246528  18.95 0.0004051894    1.609    0.378
       337 -10.1303    129.7831    226.9384   1.1419362571e+02   1.4089866834e+01    0.2801869    0.1109243  54.54  0.001394142    2.450    0.592
       338 -10.0729     87.6083    227.1881   1.2126667219e+02   2.0030621051e+01    0.1257358   0.09379132 -63.59 0.0009513685    1.695    0.410
       339 -10.3715     66.4765    226.5607   1.2470149396e+02   2.2833327137e+01    0.2552758   0.09375728  50.27  0.001049785    1.989    0.497
       340 -10.6537      5.3367    226.2463   1.3431762298e+02   2.9432393497e+01    0.2619272   0.04994937  57.99  0.001330984    3.329    0.700
