#   1 NUMBER                 Running object number                                     
#   2 MAG_AUTO               Kron-like elliptical aperture magnitude                    [mag]
#   3 X_IMAGE                Object position along x                                    [pixel]
#   4 Y_IMAGE                Object position along y                                    [pixel]
#   5 X_WORLD                Barycenter position along world x axis                     [deg]
#   6 Y_WORLD                Barycenter position along world y axis                     [deg]
#   7 A_WORLD                Profile RMS along major axis (world units)                 [deg]
#   8 B_WORLD                Profile RMS along minor axis (world units)                 [deg]
#   9 THETA_WORLD            Position angle (CCW/world-x)                               [deg]
#  10 FWHM_WORLD             FWHM assuming a gaussian core                              [deg]
#  11 ELONGATION             A_IMAGE/B_IMAGE                                           
#  12 ELLIPTICITY            1 - B_IMAGE/A_IMAGE                                       
         1  -7.4342    156.4644     15.9524   7.5110782473e+01   4.4070384626e+01    0.2102104    0.1409612 -20.01 0.0003328707    1.470    0.320
         2  -7.6158     12.8312    250.6484   1.5341437443e+02   2.3090762568e+01    0.1304493   0.05144941  42.96 0.0003968759    1.660    0.398
         3  -7.7056    193.4966    249.5207   1.2284182495e+02   3.2285845791e+00    0.1064882   0.07269007  20.87 0.0002171611    1.054    0.051
         4  -9.0544     71.3596    243.4245   1.4335346194e+02   1.8607892759e+01    0.1719415    0.1369693  44.09 0.0007649038    1.105    0.095
         5  -7.8540    180.9685    238.2790   1.2356578853e+02   5.9791644801e+00    0.1561904    0.1040334  26.83 0.0004761443    1.101    0.091
         6  -8.5278    240.1535    233.7519   1.1327317624e+02  -9.6412830439e-01    0.2064994    0.1033091   1.34  0.001250803    2.119    0.528
         7  -8.2469      6.1156    233.7491   1.5407075878e+02   2.6153735970e+01    0.1543796    0.1088008  57.04 0.0006017469    1.016    0.016
         8  -7.1993    137.7586    228.9566   1.3014146479e+02   1.2733514781e+01    0.1118436   0.09367277 -41.76 0.0004336534    1.518    0.341
         9  -7.1375     63.6949    228.2870   1.4376821750e+02   2.1686062275e+01     0.106391   0.05828267  55.39 0.0001927285    1.566    0.361
        10  -7.9603    142.8606    223.9548   1.2863526643e+02   1.2737107355e+01    0.2529616    0.1196993 -49.84  0.001133904    2.710    0.631
        11  -7.3238    224.3319    225.7139   1.1461067946e+02   1.7319677442e+00   0.09380988   0.07617279  33.08 0.0007012903    1.619    0.382
        12  -8.2755     48.9154    222.6842   1.4614267871e+02   2.4093807649e+01    0.1406732     0.128052  83.12 0.0005474465    1.282    0.220
        13  -6.9650     46.2292    209.9965   1.4591638857e+02   2.6474611069e+01    0.1182125   0.07969064 -84.60 0.0008454065    1.532    0.347
        14  -7.4002      4.5027    206.0179   1.5360399847e+02   3.0821767099e+01    0.1285839   0.06424864 -58.53  0.000810324    2.631    0.620
        15  -7.1886    157.7817    200.3928   1.2274660225e+02   1.3954855909e+01    0.1633672   0.09535427  27.13 0.0002721255    1.531    0.347
        16  -7.4598     67.5051    199.1568   1.4091851675e+02   2.6124922235e+01    0.1407465    0.1047225 -80.02 0.0002937273    1.441    0.306
        17  -6.8251    231.6291    193.2930   1.0826476218e+02   4.1348088610e+00    0.0990805   0.08989098  34.07  0.000702594    1.725    0.420
        18 -10.0281    191.0060    188.7105   1.1459496744e+02   1.0618660560e+01    0.2161058     0.180863   6.37 0.0005784988    1.097    0.088
        19  -7.0427    221.5105    185.4243   1.0858865017e+02   6.4733332889e+00    0.1200955   0.09374425  10.98 0.0001591787    1.066    0.062
        20  -7.1869      6.4399    181.5293   1.5241912265e+02   3.5133706640e+01    0.1034768   0.08178025  70.13 0.0001310654    1.046    0.044
        21  -7.7965    191.1745    173.9622   1.1198814008e+02   1.2608782568e+01    0.1759803    0.1608968  24.43 0.0003431055    1.293    0.227
        22  -7.3240     66.0059    158.2907   1.3729124328e+02   3.4226616396e+01    0.1641513    0.1434987  52.78 0.0003166531    1.072    0.067
        23  -8.2184     18.7987    151.1055   1.4816706038e+02   4.0366913458e+01    0.1705189    0.1267602  70.87 0.0003134273    1.137    0.121
        24  -7.0444     20.3990    145.1884   1.4737744790e+02   4.1523851974e+01    0.1514102   0.09375452  85.39 0.0005079941    1.431    0.301
        25  -7.7209    204.4910    136.9905   1.0202493902e+02   1.5666321212e+01    0.1998882    0.1232639 -28.37 0.0004503607    1.537    0.350
        26  -9.1997    135.1204    136.1151   1.1658064246e+02   2.8547262253e+01    0.2089635    0.1957433   7.74 0.0002611239    1.022    0.021
        27  -7.1685    146.2135    126.9493   1.1195331902e+02   2.8284058625e+01    0.1881898    0.1143684 -42.36 0.0004146689    1.675    0.403
        28  -8.3780    199.7142    124.7169   1.0011788078e+02   1.8379498379e+01    0.2358553    0.1947113 -12.14 0.0004488281    1.087    0.080
        29  -8.2618    132.0927    121.1798   1.1407084742e+02   3.2050450581e+01    0.2154996    0.2029389 -47.91 0.0002649327    1.131    0.116
        30 -10.2213    245.3869    115.5075   9.0374533223e+01   1.1272335467e+01    0.2598693    0.2094947   9.99 0.0002721987    1.139    0.122
        31  -7.5049     55.7498    110.2348   1.3349314235e+02   4.6273374700e+01     0.173319    0.1427623 -42.15 0.0002991314    1.295    0.228
        32  -7.1885    173.8725    109.2026   1.0144628181e+02   2.6018551601e+01    0.1979926    0.1589989   2.54 0.0005069818    1.257    0.205
        33  -7.2520     33.5320    107.0420   1.3996997773e+02   4.9259937462e+01     0.187599    0.1113023 -72.75 0.0003579976    1.472    0.321
        34  -7.8313    191.2238    102.1868   9.6150163573e+01   2.3565929635e+01    0.2171794    0.1791417   4.18 0.0003567228    1.157    0.136
        35  -7.7601    195.0280     97.0652   9.4091041417e+01   2.3565568953e+01    0.2085184    0.1746458 -59.22 0.0003396657    1.572    0.364
        36  -7.4402    248.1096     96.1763   8.5463427932e+01   1.3182098010e+01     0.166688    0.1443784 -37.06 0.0006687294    1.341    0.254
        37  -7.0859    210.6606     88.6870   8.9146825666e+01   2.1513355461e+01    0.1510586     0.101681  13.30 9.486845e-05    1.696    0.411
        38  -7.6743    214.9508     75.3261   8.4885461171e+01   2.2454464091e+01    0.1877563    0.1688885  16.44 0.0003767438    1.122    0.109
        39  -6.8880    189.6992     73.3119   8.8451285029e+01   2.8343776727e+01    0.1466138    0.1129698 -56.61 0.0001808719    1.607    0.378
        40  -7.3152     20.7922     70.1583   1.3888214183e+02   5.9254229217e+01    0.1761186     0.124856 -48.19 0.0002792785    1.305    0.234
        41  -6.6872     46.3312     65.3057   1.2741811209e+02   5.8182584528e+01    0.1438405   0.09371881 -32.46  0.000390834    1.660    0.397
        42  -7.0818    177.5188     63.4759   8.7703015152e+01   3.2645504180e+01    0.1526278    0.1391148  -3.11 0.0002292674    1.031    0.030
        43  -8.0264    159.9969     59.0662   8.9724935880e+01   3.7519334079e+01    0.2248772    0.2101997 -18.88 0.0003185284    1.046    0.044
        44  -8.7507    197.2440     53.9957   8.1489281933e+01   2.9298829758e+01    0.2252747    0.2054829  31.91 0.0002913593    1.135    0.119
        45  -6.9463    157.3284     50.3462   8.7337399168e+01   3.9497376608e+01    0.1653451    0.1131295  18.32 0.0007050095    1.753    0.430
        46  -8.4372    137.0835     45.0065   8.9847054741e+01   4.5278600777e+01    0.2244728    0.2087899   0.69 -0.001320134    1.013    0.013
        47  -8.0527    250.6154     39.3374   7.1076106250e+01   1.9277111252e+01    0.2334593   0.09993285 -27.96  0.001068898    1.872    0.466
        48  -7.5524    183.8414     40.6107   7.9386987756e+01   3.4253711062e+01    0.2065054    0.1446144  81.12  0.000957423    1.776    0.437
        49  -7.6074    192.8058     27.6515   7.4007994306e+01   3.3558401675e+01    0.1872809     0.176479  71.66  0.001081618    1.133    0.117
        50  -6.9858     83.3208     23.6390   9.6263024732e+01   6.0932934728e+01    0.1442545    0.1136664 -61.14 0.0007042653    1.773    0.436
        51  -7.8220    235.4100     21.8374   6.7891823424e+01   2.4237151384e+01    0.1986481    0.1542823  60.00  0.001177358    1.439    0.305
        52  -8.3616    164.4765     21.0315   7.5726862622e+01   4.1455053931e+01    0.4064402     0.216581  12.72 0.0006096292    2.719    0.632
        53 -10.3951    145.9528     21.0303   7.8814968089e+01   4.6253411495e+01    0.2635303    0.2350996  -9.85  0.001421304    1.094    0.086
