#   1 NUMBER                 Running object number                                     
#   2 MAG_AUTO               Kron-like elliptical aperture magnitude                    [mag]
#   3 X_IMAGE                Object position along x                                    [pixel]
#   4 Y_IMAGE                Object position along y                                    [pixel]
#   5 X_WORLD                Barycenter position along world x axis                     [deg]
#   6 Y_WORLD                Barycenter position along world y axis                     [deg]
#   7 A_WORLD                Profile RMS along major axis (world units)                 [deg]
#   8 B_WORLD                Profile RMS along minor axis (world units)                 [deg]
#   9 THETA_WORLD            Position angle (CCW/world-x)                               [deg]
#  10 FWHM_WORLD             FWHM assuming a gaussian core                              [deg]
#  11 ELONGATION             A_IMAGE/B_IMAGE                                           
#  12 ELLIPTICITY            1 - B_IMAGE/A_IMAGE                                       
         1 -13.9650    225.4958      4.2387   3.7410113679e+01   2.8224108268e+01     2.111464     1.052494  55.96  0.007127186    2.162    0.537
         2 -13.9916    182.5780     48.0746   5.4249917970e+01   3.3449684478e+01     1.935657     1.265227  25.65 0.0008529545    2.179    0.541
         3 -14.0086    193.6757     38.9400   4.9910845113e+01   3.1904413260e+01     1.352613      1.11386 -33.94  0.003456981    1.254    0.202
         4 -14.5791    202.0830     29.6580   4.6226882532e+01   3.0993426520e+01     1.646583      1.31738  31.79  0.001359823    1.551    0.355
         5 -12.1667     33.3967     12.2044   8.3626003100e+01   6.9645436787e+01    0.2577723    0.1791521 -17.26  0.001369203    1.181    0.153
         6 -10.3938    189.9052     14.9997   4.3714006410e+01   3.5756301296e+01    0.2101941    0.1922746 -86.77 0.0007306355    1.027    0.026
         7 -16.5952     71.2236    147.9449   1.0823473532e+02   3.6009873520e+01     17.39429     8.608806  84.34   0.05544161    4.427    0.774
         8 -18.8533      4.7690    173.1207   1.2670741957e+02   3.7303734919e+01     16.99728     1.742987 -77.65   0.04055122    9.766    0.898
         9 -12.0004    113.8287    208.0193   1.0702131802e+02   1.6091266353e+01    0.3966815    0.2427056  70.25  0.001440873    2.046    0.511
        10 -10.7308     99.1984    181.0714   1.0646918320e+02   2.4094148601e+01    0.2901294    0.2521276  19.10  0.001051366    1.434    0.303
        11  -8.8134    161.6429    200.3225   9.5752042291e+01   9.2563295238e+00    0.1395198    0.1038012  69.44 0.0007045141    1.767    0.434
        12 -11.0722    146.3299    182.7673   9.6013130218e+01   1.5436365954e+01    0.3006921    0.2414112  37.03 0.0006969543    1.185    0.156
        13 -11.6829    141.3591    174.4867   9.5632355888e+01   1.8071611091e+01    0.7460804    0.4801091  82.38  0.002552586    2.788    0.641
        14 -11.2904    132.8937    171.9206   9.7113869893e+01   2.0207658497e+01    0.4150234    0.1996985  34.14  0.001626324    2.288    0.563
        15 -11.5905     46.5059    173.7129   1.1766326699e+02   3.3097767289e+01    0.5221472    0.3304263  72.94  0.002471332    1.516    0.340
        16 -10.5354    204.5483    175.9619   8.2383180142e+01   5.5916622110e+00     0.359381    0.2846635 -53.30  0.001697355    1.564    0.361
        17 -10.1101    197.1283    176.5596   8.3984288610e+01   6.8930397798e+00    0.2908844    0.2525184  33.49  0.001101119    1.115    0.104
        18 -10.0102    188.9082    175.1800   8.5383226307e+01   8.7178168426e+00     0.244429    0.2049583 -35.00 0.0006499388    1.236    0.191
        19 -12.2560     78.8198    169.4724   1.0957883470e+02   2.9850976910e+01    0.3557656    0.2854281 -49.64   0.00138491    1.414    0.293
        20 -10.6573     54.4318    173.6911   1.1585046326e+02   3.2156802071e+01    0.3170873    0.2103545  61.86  0.001081933    1.424    0.298
        21 -11.6075     57.5739    166.3226   1.1423938859e+02   3.3462823361e+01    0.4387526    0.2439937 -45.23  0.001820328    2.321    0.569
        22 -10.5132    230.0097    166.5131   7.5600637754e+01   2.4499634616e+00    0.2896966    0.1591201 -49.98  0.001249835    2.443    0.591
        23 -12.2783     74.7697    174.1860   1.1118662465e+02   2.9352025616e+01    0.4004928    0.2740563 -41.29  0.002077767    1.931    0.482
        24 -10.1053    159.9000    163.4170   8.9251540193e+01   1.6742154942e+01    0.2481458    0.2082128 -60.36 0.0005605292    1.321    0.243
        25 -13.0231    195.8774    199.2631   8.8588583976e+01   3.2724249924e+00     1.318265     1.173273 -37.95   0.00814796    1.291    0.225
        26 -12.1579     92.8055    153.6449   1.0362032127e+02   3.1403747238e+01    0.6573731    0.4639229 -27.25  0.003079681    2.083    0.520
        27 -11.5292    133.8487    144.9725   9.1521751178e+01   2.5962685735e+01     1.175947    0.3252985 -55.25  0.002933722    5.223    0.809
        28 -11.1655    174.3359    148.9466   8.2910207031e+01   1.6710935898e+01    0.3836404    0.3074521 -54.89  0.001285139    1.371    0.270
        29  -9.0835    139.3034    150.6781   9.1407076850e+01   2.3601256250e+01    0.1534437    0.1192904  83.45 0.0004004496    1.634    0.388
        30  -9.5261    109.2142    147.5023   9.8275564397e+01   3.0056147752e+01    0.2207549    0.1855652  83.70 0.0003744577    1.264    0.209
        31 -10.9225     87.4833    146.2181   1.0368454618e+02   3.4016183574e+01     0.306392     0.233594 -88.62  0.001582796    1.397    0.284
        32 -10.6529    143.8754    145.7606   8.9239767326e+01   2.3757775650e+01    0.3052505    0.2069715 -76.06   0.00125218    2.166    0.538
        33 -11.2584    105.5740    138.8625   9.7485047043e+01   3.2737743128e+01    0.5683561    0.3400176 -32.76   0.00229557    2.343    0.573
        34 -12.3124     93.0868    139.2149   1.0088781809e+02   3.4792156724e+01    0.2838957    0.2536387 -43.34 0.0003802989    1.201    0.168
        35 -10.9415    105.9361    130.8086   9.5676786725e+01   3.4578612191e+01    0.3561365    0.3172083 -77.05   0.00118571    1.127    0.113
        36 -11.2636    135.6569    127.4500   8.7061275687e+01   2.9536781238e+01    0.8419036    0.1889915 -48.53  0.002131575    4.583    0.782
        37 -10.7867    113.6009    129.9501   9.3418627726e+01   3.3363966943e+01    0.3531776    0.2929359 -14.57 0.0007055656    1.506    0.336
        38  -9.9673    160.8085    128.0720   8.1072533307e+01   2.3963934014e+01    0.3452131    0.2175329 -55.13  0.001430256    1.790    0.441
        39 -11.0598    101.0264    125.8600   9.5931512079e+01   3.6629585732e+01    0.3083912    0.2530665 -19.32 0.0008584828    1.507    0.337
        40 -11.4775    119.8597    123.5086   9.0240987087e+01   3.3652151841e+01    0.5702651    0.4142637  -8.58  0.002432406    2.089    0.521
        41 -10.0592    109.1118    118.9899   9.2091640315e+01   3.6775360664e+01    0.2192129    0.2102107 -68.82 0.0003356386    1.019    0.018
        42  -9.9168    167.5535    112.3649   7.5521155277e+01   2.5702510029e+01    0.3457685      0.24875 -75.77  0.001434864    2.005    0.501
        43 -11.8487    118.4546    110.0664   8.7264220888e+01   3.7011203408e+01    0.6249737    0.4707183  66.11  0.002782821    1.607    0.378
        44 -10.2218    205.4711    110.1792   6.7137301618e+01   1.7358569711e+01    0.3133866    0.2170143  41.62 0.0008468884    1.536    0.349
        45 -10.5002    134.6281    105.3578   8.1658104048e+01   3.4652678517e+01     0.591743    0.1476738 -44.91  0.001581603    3.947    0.747
        46 -15.2714     47.7724    220.6855   1.2160966425e+02   2.2981641231e+01     1.971751      1.57802  59.95   0.01425432    1.156    0.135
        47 -10.4699    151.8386    196.6264   9.7204544263e+01   1.1715995179e+01    0.2168314    0.1938206 -27.59  0.001281306    1.263    0.208
        48 -10.3512     81.7936    195.0972   1.1224251576e+02   2.3718355171e+01    0.2556808    0.2151445  65.68 0.0005802459    1.036    0.035
        49  -9.9830     93.8950    249.7237   1.1552813325e+02   1.1545822164e+01    0.1596746    0.1488293  68.62 0.0004557626    1.287    0.223
        50 -10.1054     32.6023    196.0978   1.2267217805e+02   2.9730971651e+01    0.1969117    0.1229868  60.44 0.0004506403    1.366    0.268
        51 -17.0550     33.9244    249.2800   1.2588503216e+02   1.9311989798e+01     4.204099      1.28333  32.01   0.01730956    4.913    0.796
        52  -9.4686    156.4736     81.4744   6.9408097886e+01   3.4444954585e+01    0.1543913    0.1534559 -10.88 0.0001003069    1.005    0.005
        53  -9.5275    184.4957     77.0388   6.2251465823e+01   2.8332815135e+01    0.2313512    0.1502065 -34.22 0.0005542829    1.534    0.348
        54  -9.5586     63.8620     69.8503   9.3097726142e+01   5.5379408687e+01    0.2040855    0.1681281 -24.92 0.0003728946    1.160    0.138
        55 -10.5446     56.6111    224.4816   1.2024522719e+02   2.1154454913e+01    0.1893716     0.133633  76.14  0.001261944    1.191    0.160
        56  -9.6627    169.1660    236.8409   9.9885742862e+01   1.9333671243e+00    0.1766829    0.1472999  44.35 0.0004898489    1.148    0.129
        57  -9.9873     72.0950    231.1096   1.1789009120e+02   1.7873807393e+01    0.1870651    0.1196414  68.21 0.0005465696    1.386    0.279
        58 -10.1736     95.3719    188.7574   1.0843185913e+02   2.3026452234e+01    0.2840148    0.2451541  62.53  0.001415885    1.041    0.039
        59 -11.7343    153.8567     56.6681   6.2342132174e+01   3.9432734537e+01    0.4199293    0.3066784 -80.37 0.0008058707    1.835    0.455
        60 -11.0893    156.5644     50.9555   5.9951484254e+01   3.9646231072e+01    0.3148432    0.2694922 -68.12 0.0007152741    1.288    0.224
        61 -11.7954    207.6845    194.7702   8.5449939029e+01   1.9065146054e+00    0.4612235    0.2364877 -39.91  0.002171045    2.074    0.518
        62 -15.8467     53.6084    203.0299   1.1900797317e+02   2.5838613577e+01      4.88827     2.251418  66.37   0.02329087    2.359    0.576
