#   1 NUMBER                 Running object number                                     
#   2 MAG_AUTO               Kron-like elliptical aperture magnitude                    [mag]
#   3 X_IMAGE                Object position along x                                    [pixel]
#   4 Y_IMAGE                Object position along y                                    [pixel]
#   5 X_WORLD                Barycenter position along world x axis                     [deg]
#   6 Y_WORLD                Barycenter position along world y axis                     [deg]
#   7 A_WORLD                Profile RMS along major axis (world units)                 [deg]
#   8 B_WORLD                Profile RMS along minor axis (world units)                 [deg]
#   9 THETA_WORLD            Position angle (CCW/world-x)                               [deg]
#  10 FWHM_WORLD             FWHM assuming a gaussian core                              [deg]
#  11 ELONGATION             A_IMAGE/B_IMAGE                                           
#  12 ELLIPTICITY            1 - B_IMAGE/A_IMAGE                                       
         1 -12.3753    199.0154     38.5106   4.6161102735e+01   3.0513752763e+01    0.9838459    0.9492381  68.83  0.003968508    1.118    0.106
         2 -12.4710    209.7953     26.9172   4.1822338334e+01   2.9335049630e+01    0.8842444    0.7493232  28.67  0.002951655    1.508    0.337
         3 -10.0411     32.5257     29.0321   8.8340959085e+01   6.7219737812e+01    0.2950439    0.1068512 -46.28  0.001301416    2.595    0.615
         4  -8.5000     22.6716      9.3412   8.4210297627e+01   7.1346416796e+01   0.09723204   0.09290808 -36.37 0.0007051436    1.740    0.425
         5  -9.4569     33.0000      6.5087   7.7422835091e+01   7.0513020381e+01    0.3953168   0.06875822 -33.13  0.001215662    5.943    0.832
         6 -10.6774    235.5093      3.5071   3.3980389249e+01   2.5995822225e+01    0.5835238    0.3056136  60.63  0.003120844    2.001    0.500
         7 -10.2312    231.1942      2.4095   3.4054119157e+01   2.7066850198e+01     0.380905    0.2174612  75.29  0.001779833    1.619    0.382
         8  -8.5943     22.3447      1.6660   8.0317907182e+01   7.2424028184e+01   0.09565089   0.09087951 -22.88 0.0007049883    1.764    0.433
         9  -9.1333     48.6866    224.6981   1.1993208933e+02   2.1854101077e+01    0.1948441    0.1866006  31.20 0.0004653026    1.478    0.324
        10  -9.0777    117.4833    250.4057   1.0912804815e+02   7.6247804572e+00    0.2666777     0.116001  40.52  0.001162238    1.832    0.454
        11 -11.9974     86.0441    224.9953   1.1258233173e+02   1.6837648597e+01     1.641348    0.8231378  51.12 0.0008705403    1.739    0.425
        12 -11.8883     44.1955    203.0068   1.1904827473e+02   2.6840039322e+01    0.6814815    0.5349929 -76.44  0.001647829    1.252    0.201
        13 -12.3891     54.8500    191.1217   1.1563166580e+02   2.8144446596e+01     2.297629     1.482867 -84.83   0.01053037    1.463    0.317
        14 -15.4008      6.4102    205.1121   1.2667545419e+02   3.0282382886e+01     12.71517    0.9748678 -75.68  0.008877482    8.274    0.879
        15 -10.3621     45.6361    221.1826   1.2024714895e+02   2.2917202401e+01    0.4877858    0.2205696  64.07  0.001076884    2.186    0.543
        16  -9.5417     64.1767    202.1324   1.1474718615e+02   2.4544277330e+01     0.290389     0.190815 -57.48 0.0004947813    1.670    0.401
        17  -7.9690     60.6101    220.5068   1.1725421190e+02   2.1198994536e+01     0.119715   0.09730945  71.46 8.543123e-05    1.030    0.030
        18  -8.4765    190.2295    190.1986   8.5147771720e+01   5.7350696837e+00    0.3027332    0.1747141 -64.50  0.001055927    4.171    0.760
        19  -7.5987     71.2809    185.6862   1.1128807286e+02   2.7206375981e+01    0.1365155   0.09008849  71.57 0.0004239258    1.572    0.364
        20  -8.6016     99.2774    180.9344   1.0403193758e+02   2.4070519753e+01    0.1932831    0.1780573  79.71 0.0009102998    1.028    0.027
        21 -10.1074     68.7711    176.4424   1.1069914652e+02   2.9665728295e+01    0.2645381    0.2467658 -58.09 0.0006409773    1.235    0.190
        22 -10.7691     73.2371    171.4644   1.0894113249e+02   3.0206736652e+01    0.5061858    0.3058816 -37.33  0.002299307    2.396    0.583
        23 -14.5491     45.2943    247.1753   1.2214706912e+02   1.8026454735e+01     7.940322     2.374687  28.65   0.01144173   11.414    0.912
        24  -9.0855    104.0071    171.9925   1.0144628783e+02   2.5318250496e+01    0.2452019     0.169881  73.22  0.001154469    1.752    0.429
        25 -10.9488     82.3423    161.8347   1.0520952542e+02   3.1157442322e+01    0.6782469    0.4100453  66.27 0.0004983891    2.043    0.511
        26 -11.7148     58.6809    132.1910   1.0666001310e+02   4.1648010256e+01     1.049287    0.4032529 -72.42  0.003515616    3.446    0.710
        27 -11.9814     70.4951    157.0078   1.0750376776e+02   3.4028010869e+01    0.6042602    0.4441076 -43.46  0.001304632    1.546    0.353
        28 -11.8773     68.4999    144.0683   1.0594442569e+02   3.7447111824e+01    0.8853928    0.5834621  74.70  0.003424347    1.861    0.463
        29  -8.4205    158.8591    162.0610   8.6302877833e+01   1.7219676238e+01    0.2303862    0.2061082  89.63 0.0005801831    1.334    0.250
        30 -10.3468     88.6809    155.1551   1.0244464595e+02   3.1776694831e+01    0.5538628    0.4094258 -22.33  0.001505911    1.924    0.480
        31  -9.7209     32.6116    156.5001   1.1710530689e+02   3.8637337358e+01    0.2994027    0.1521968 -65.80  0.001525221    1.671    0.401
        32  -9.0086     54.3178    148.4787   1.1047703311e+02   3.8193512122e+01    0.2526359    0.1119396 -65.72   0.00108508    2.016    0.504
        33  -9.4510    134.0000    143.9859   8.8381467782e+01   2.6200615145e+01    0.7082297    0.2122755 -55.75  0.001735037    5.250    0.810
        34  -9.0161     39.2527    146.4772   1.1419564245e+02   4.0367431971e+01    0.2971934     0.116441  33.48  0.001298183    2.673    0.626
        35  -9.1788    102.7396    140.0238   9.5763256794e+01   3.3063201660e+01    0.4800471    0.2965105 -26.83   0.00188569    2.489    0.598
        36 -10.5701     90.1756    139.9511   9.9202204248e+01   3.5209365962e+01    0.2895197    0.2675388 -41.56 0.0004316485    1.141    0.123
        37  -8.9995     32.8941    165.0522   1.1795789762e+02   3.6594189288e+01    0.2067712    0.1659192  59.06 0.0009238672    1.226    0.184
        38  -9.3512    112.0251    130.4089   9.1095360361e+01   3.3655174980e+01    0.3441132    0.2600196   4.24  0.001336623    1.818    0.450
        39  -8.6350    106.0710    130.7072   9.2812274141e+01   3.4691394660e+01    0.2959493    0.2593874 -77.73  0.001208245    1.207    0.172
        40 -10.0661     32.1534    130.3329   1.1394889264e+02   4.4980884810e+01    0.3570243    0.1532066 -62.46  0.001642788    1.880    0.468
        41  -9.6032     44.1305    129.8219   1.1045570000e+02   4.3913612338e+01    0.2098939    0.1703259  83.61 0.0008443128    1.241    0.194
        42  -9.3098     99.1078    126.5079   9.3821160152e+01   3.6944554355e+01    0.2991325    0.2446491 -18.05  0.000758713    1.471    0.320
        43  -9.6161    120.3888    121.7734   8.6719090656e+01   3.4040140936e+01    0.3561777    0.1838772 -30.67  0.000938105    2.860    0.650
        44  -8.9158    135.0000    120.0046   8.2355837282e+01   3.1408607505e+01     0.266284    0.0891951 -45.50 0.0008036459    2.951    0.661
        45  -8.1007    108.0211    119.3188   8.9568460157e+01   3.7022890511e+01    0.2078067     0.191461  37.79    0.0002502    1.123    0.109
        46  -8.0096    168.6701    113.3316   7.2382989607e+01   2.5281565640e+01    0.1624694    0.1269058 -79.62 0.0007051887    1.719    0.418
        47  -7.9532    205.5169    110.4271   6.4073767710e+01   1.7386176814e+01    0.1493369    0.1420277 -23.37 0.0001725755    1.019    0.018
        48 -10.1404     32.2953    107.7832   1.1036239163e+02   5.0434195525e+01    0.3918327    0.1498217 -64.63  0.001659968    2.167    0.539
        49 -10.5559     48.6644    107.6419   1.0509038922e+02   4.8832078851e+01      0.34095     0.255081  49.27  0.001868116    1.544    0.352
        50  -9.2837    134.5848    106.5010   7.8867914142e+01   3.4469283816e+01    0.4043203    0.1503425 -38.93  0.001264939    2.869    0.651
        51 -10.5338     32.5026     98.2411   1.0853326311e+02   5.2698274764e+01    0.6063654    0.1949657 -68.56   0.00214311    3.292    0.696
        52 -11.7943     14.8038    192.0838   1.2423701652e+02   3.2257649312e+01     1.021205    0.2426432 -58.83  0.001871178    4.279    0.766
        53  -8.4010     41.6831     91.9928   1.0408931470e+02   5.3302204196e+01    0.1934474    0.1538671 -53.23 0.0006188913    1.066    0.062
        54  -8.1843     74.7505     84.9945   9.0787639367e+01   5.0679672651e+01    0.2006304    0.1763337 -38.85 0.0004593548    1.039    0.038
        55 -11.9212    189.2948     45.3384   4.9412742810e+01   3.2015645085e+01     0.740161    0.6482832  20.81  0.002195501    1.356    0.263
        56  -8.0594    139.3143    249.6467   1.0486359451e+02   4.4071564598e+00    0.1229941   0.08342458  62.76 0.0007045758    1.734    0.423
        57  -9.7777    124.5047    243.5517   1.0700145964e+02   7.6878531882e+00     0.299664    0.1267364 -61.19  0.001378369    3.168    0.684
        58  -9.6610    145.2068     49.8260   5.8829387058e+01   4.2499766405e+01    0.4512909    0.3100035 -81.29  0.001554801    2.161    0.537
        59  -8.6499     92.9529    217.9121   1.1038398391e+02   1.7212252259e+01    0.1938085    0.1605442  64.43 0.0007009306    1.056    0.053
        60  -8.6318    147.2119     43.7979   5.6422955742e+01   4.2868916375e+01    0.2170264    0.1978852 -82.91 0.0005900009    1.191    0.160
        61  -9.4842     60.4482    232.8573   1.1833753448e+02   1.8807640394e+01    0.2348961    0.1688165  73.79 0.0005506537    1.197    0.165
        62  -9.1000     66.0939    207.4003   1.1488229353e+02   2.3171624803e+01    0.2314351    0.1808923  85.20 0.0004633415    1.160    0.138
        63  -8.7804     53.6917    230.4236   1.1942424093e+02   2.0125347859e+01    0.2331952    0.1353924 -78.81  0.001090181    1.698    0.411
        64 -15.4169      8.4336    242.1042   1.2813888840e+02   2.2936836301e+01     16.96397     1.466355 -77.80   0.04582479   11.069    0.910
        65  -9.4879     54.3451    222.1949   1.1863512987e+02   2.1655548433e+01     0.395232    0.2358532  49.62  0.001383774    1.410    0.291
        66  -9.1035     49.1927    216.4073   1.1916980698e+02   2.3453555504e+01    0.2848603    0.2450659  62.49  0.001255715    1.169    0.144
