#   1 NUMBER                 Running object number                                     
#   2 MAG_AUTO               Kron-like elliptical aperture magnitude                    [mag]
#   3 X_IMAGE                Object position along x                                    [pixel]
#   4 Y_IMAGE                Object position along y                                    [pixel]
#   5 X_WORLD                Barycenter position along world x axis                     [deg]
#   6 Y_WORLD                Barycenter position along world y axis                     [deg]
#   7 A_WORLD                Profile RMS along major axis (world units)                 [deg]
#   8 B_WORLD                Profile RMS along minor axis (world units)                 [deg]
#   9 THETA_WORLD            Position angle (CCW/world-x)                               [deg]
#  10 FWHM_WORLD             FWHM assuming a gaussian core                              [deg]
#  11 ELONGATION             A_IMAGE/B_IMAGE                                           
#  12 ELLIPTICITY            1 - B_IMAGE/A_IMAGE                                       
         1 -13.5882    230.3151     25.1377   5.7494830104e+00   2.5697019652e+01    0.8586826    0.7008172 -74.10  0.003993614    1.066    0.062
         2 -10.9182    250.0224     10.9713   1.4917067128e+00   2.3329589618e+01    0.1951048    0.1464343 -44.91 0.0006096818    1.414    0.293
         3  -7.9571     46.6101    229.4192   8.5784913729e+01   2.0564863272e+01    0.3000115    0.2103656  18.34  0.001692064    2.069    0.517
         4  -9.0866    164.4843    249.8958   6.3332956088e+01  -1.1162034807e+00     0.161895    0.1261432 -41.55 0.0004039404    1.497    0.332
         5 -13.1768    119.7806    233.6829   7.0502835999e+01   8.9451516641e+00      6.08274      4.36192  81.64   0.03268905    1.767    0.434
         6 -12.5794     34.7704    244.1527   8.9258154603e+01   1.8958004275e+01    0.3233167    0.2386987 -42.36  0.001880626    2.193    0.544
         7 -10.0579     37.3035    199.6184   8.5208989856e+01   2.8358211605e+01    0.2279385    0.1517183  73.03 0.0006120545    1.363    0.266
         8  -9.7277    211.0086    198.6932   4.5473791744e+01   1.1922916235e-01    0.2160603    0.1790799 -27.82 0.0004651472    1.152    0.132
         9 -10.1667     69.2496    195.0097   7.7139377555e+01   2.5300687756e+01    0.3262023    0.2303734 -63.27  0.001738159    1.422    0.297
        10 -10.0944    192.4361    193.7575   4.8236341151e+01   4.1696122354e+00    0.4933973    0.2490531 -64.69  0.001332478    6.665    0.850
        11 -11.4159     39.2604    192.9055   8.4108823703e+01   2.9707513871e+01    0.6543252    0.4238994 -87.22  0.003589679    1.416    0.294
        12  -9.4879     36.4085    185.4773   8.4043317236e+01   3.1808408845e+01      0.19911    0.1578527  80.22 5.821457e-05    1.086    0.079
        13  -9.1620     46.1815    190.0824   8.2162009304e+01   2.9550901539e+01    0.2011804    0.1278523  72.47 0.0004496661    1.556    0.358
        14  -8.8932    207.5304    189.5209   4.4412404542e+01   2.3300474742e+00      0.13668    0.1235666  -6.55 0.0003175586    1.011    0.011
        15 -13.3042     49.2045    183.0502   8.0629102595e+01   3.0873993272e+01    0.6705092    0.4149268  74.95  0.002110626    1.695    0.410
        16 -15.3229     66.3872    143.3447   7.0144682314e+01   3.8510379169e+01     3.918792     2.672308 -87.29   0.01848518    1.692    0.409
        17 -12.1227     43.6414    173.2174   8.0876339578e+01   3.3959010101e+01    0.5018306     0.345694  41.52  0.000682344    1.471    0.320
        18 -11.0793     34.3286    171.0784   8.3024420610e+01   3.5539056263e+01    0.6626876    0.3717461  34.09  0.003365593    1.875    0.467
        19 -12.3738     27.0536    178.6054   8.5636529548e+01   3.4473233070e+01    0.5319938    0.3677595  83.21  0.002196195    1.295    0.228
        20 -11.4970     34.9700    176.8082   8.3489671137e+01   3.4067213631e+01    0.7145471    0.3585092  27.08  0.001805881    2.311    0.567
        21  -9.0607    165.2652    211.8759   5.7248376962e+01   5.4962736283e+00     0.206931    0.1129081 -69.53 0.0006981376    4.177    0.761
        22  -9.2124     72.3074    186.3552   7.5253107633e+01   2.6932205417e+01    0.1878863    0.1189207  47.07 0.0005471052    1.494    0.331
        23  -8.5806     78.6263    184.2306   7.3359993885e+01   2.6502875496e+01    0.1493946   0.09599681  60.08 0.0004053699    1.605    0.377
        24 -10.6947    141.3510    182.7447   5.7486806756e+01   1.5906708348e+01    0.2944826    0.1730171  49.42 0.0009703945    1.728    0.421
        25 -11.0495    173.6648    178.5998   4.9276205061e+01   1.0605208011e+01     0.667855    0.3810003 -62.99  0.002616417    2.593    0.614
        26 -11.8300    115.7254    181.9339   6.3605672759e+01   2.0849300490e+01    0.4594155    0.2503006  33.81  0.001905139    1.910    0.476
        27 -10.1776     96.9024    180.2628   6.8087871602e+01   2.4532296967e+01    0.2507835    0.1921699 -80.76 0.0004996801    1.377    0.274
        28  -9.3657     62.8623    181.0769   7.6936389276e+01   2.9561616960e+01    0.1986511    0.1618723  74.24  0.001110526    1.139    0.122
        29 -10.5460     96.7806    175.4864   6.7329017588e+01   2.5709098045e+01    0.2651936    0.2371786 -85.22   0.00035151    1.090    0.082
        30  -9.5890    174.8184    223.1717   5.7108723599e+01   1.7862000694e+00      0.18726    0.1484112   4.12 0.0004453286    1.344    0.256
        31 -10.6226     89.4580    222.4162   7.5780965220e+01   1.6070213092e+01    0.3985512    0.2409633  82.91 0.0007978182    2.108    0.526
        32 -10.3071    139.8287    171.9028   5.5776526051e+01   1.8638964084e+01    0.3500472    0.2375821  87.88  0.001409268    2.341    0.573
        33 -11.0739    110.8946    167.2679   6.2190425365e+01   2.5218683067e+01    0.5637938    0.2975814 -72.25  0.002015757    2.752    0.637
        34 -11.7179    103.7630    172.2549   6.4956848197e+01   2.5289178878e+01    0.6193973    0.2911146  50.18  0.001533363    2.264    0.558
        35 -11.5809    179.5895    169.2845   4.6104856275e+01   1.1378602492e+01    0.6136541    0.4808381 -53.94  0.003123381    1.353    0.261
        36 -10.4720     50.8904    247.9094   8.6386778885e+01   1.6212668888e+01     0.270809    0.1317579  62.75  0.001400328    1.917    0.478
        37 -10.4788    101.0314    166.9626   6.4728166120e+01   2.7057249096e+01    0.4233693    0.2539889  33.20  0.001010563    1.768    0.434
        38  -9.5289     51.0859    163.3163   7.7633380654e+01   3.5516422352e+01    0.3205267    0.1838243 -46.32  0.001474952    1.982    0.496
        39 -10.9809    238.2968    160.6940   3.3158825520e+01   2.2422498949e+00    0.2581608    0.1476496 -48.36  0.001263934    1.752    0.429
        40 -10.6269     43.8858    155.9109   7.8587062290e+01   3.8238659657e+01    0.5213404    0.2957132  71.53  0.002321174    2.165    0.538
        41 -10.9731     92.3716    155.5066   6.4961251818e+01   3.1382489875e+01     0.511486    0.3176955  89.31 0.0007946203    2.383    0.580
        42 -10.8399     83.9713    150.2720   6.6332231677e+01   3.4086447635e+01    0.2629391    0.2517479 -20.95 0.0003279602    1.186    0.157
        43  -9.7036     88.0287    149.7525   6.5084250488e+01   3.3548961114e+01    0.2356883    0.2094676  88.92 0.0002172278    1.118    0.106
        44 -12.3680     89.3067    145.9979   6.3990251127e+01   3.4271590369e+01    0.8204845    0.5572992  -9.24  0.002445441    2.564    0.610
        45 -11.2464    133.6162    145.0059   5.1698746625e+01   2.6113212168e+01     1.235152    0.2943153 -54.84  0.002663651    6.478    0.846
        46  -9.2695    120.7732    146.9596   5.5485027077e+01   2.8241074652e+01    0.2128117    0.1995939 -60.30 0.0003966563    1.066    0.062
        47 -11.0259    108.9797    145.3417   5.8331532082e+01   3.0909653255e+01    0.3251102    0.3014595 -87.09 0.0006860893    1.075    0.070
        48  -9.8338    147.7945    143.8551   4.7893316110e+01   2.3417536333e+01    0.2178677    0.1856046 -88.25 0.0004867743    1.335    0.251
        49  -8.3542     29.1069    240.7668   9.0129039677e+01   2.0306122239e+01    0.3687246    0.1928812  38.51  0.002112988    1.769    0.435
        50  -9.0345    128.4168    138.2666   5.1526761989e+01   2.8761641651e+01    0.2180344     0.150099 -62.61 0.0006248308    1.595    0.373
        51 -11.6693    105.2300    131.6803   5.6376307957e+01   3.4936695212e+01    0.6271905    0.4208573 -32.85  0.001490807    1.827    0.453
        52 -10.9546     46.1454    238.5448   8.6610264114e+01   1.8710258025e+01     0.162029     0.130636  85.99 0.0002675067    1.168    0.144
        53 -11.6253     91.6718    131.9054   6.0366977779e+01   3.7355509607e+01    0.2954172    0.2678586 -41.49  0.000401101    1.141    0.124
        54  -9.1704    151.0179    130.7044   4.4054247076e+01   2.5672299254e+01    0.2173282    0.2000562  62.65 0.0003258427    1.092    0.084
        55 -10.4083    100.5686    126.7294   5.6582056128e+01   3.7006556970e+01    0.3486702    0.2620318 -89.35 0.0008671306    1.699    0.411
        56 -11.2460    134.8252    123.9291   4.6448896880e+01   3.0716091878e+01    0.5437551    0.2672828 -49.89   0.00203646    2.061    0.515
        57 -10.1723    112.5234    126.0016   5.2979805934e+01   3.4876378542e+01    0.2873473    0.2236428  18.64 0.0007630513    1.574    0.365
        58  -9.4563    147.8347    125.2521   4.3509214158e+01   2.7577368899e+01    0.2349781    0.2078146  83.41 0.0007316183    1.215    0.177
        59 -10.5371    100.0255    120.9634   5.5377829014e+01   3.8486857561e+01    0.3331404    0.2779625  -9.97 0.0009872167    1.472    0.321
        60  -9.6157     63.9138    231.8221   8.2360887056e+01   1.7778220628e+01    0.1617258    0.1440265  76.63 0.0004939839    1.145    0.126
        61  -9.9914    108.3205    116.2712   5.1796631049e+01   3.7988116719e+01    0.2795298    0.2386965 -57.03 0.0006029764    1.172    0.147
        62 -12.6357     52.7610    109.1914   6.7707514650e+01   4.8778688218e+01    0.5672333    0.3956456 -52.73  0.002957446    1.300    0.231
        63 -10.2237    115.3917    108.7910   4.7852436106e+01   3.8255249340e+01     0.223255    0.1443603 -37.86 0.0008042827    1.668    0.401
        64 -10.1787    134.5067    104.5378   4.1565747262e+01   3.5046472003e+01    0.3322318    0.1530846 -45.57  0.001215412    2.187    0.543
        65 -11.5753     46.4633    105.9727   6.9162984915e+01   5.0307030350e+01    0.3157513    0.2546539  87.48  0.001427804    1.448    0.310
        66 -10.3837    112.2061    103.5994   4.7380568888e+01   4.0065381102e+01    0.2201123    0.1458172  33.44 0.0009531825    1.650    0.394
        67  -8.7591    147.7220     97.3177   3.6377700907e+01   3.3519438526e+01    0.1550867    0.1197199 -79.93 0.0002295107    1.574    0.365
        68  -8.4998     66.2736     96.3235   6.0015062630e+01   4.9939163541e+01    0.1446072    0.1040123 -25.65 0.0001739316    1.577    0.366
        69 -10.2198     60.8072     95.4467   6.1693290521e+01   5.0925342455e+01    0.2365288    0.2074961  83.32 0.0003529099    1.364    0.267
        70 -18.5819     13.0527    201.0119   9.0730322639e+01   3.0612862584e+01     11.49408     3.016917 -76.66   0.04443713    3.368    0.703
        71 -12.4038     45.7196     90.1532   6.5794170586e+01   5.4060093779e+01    0.6852282      0.30112  41.81  0.002873246    2.668    0.625
        72 -11.0943     35.8116     88.1904   6.9006434003e+01   5.5582265340e+01    0.2564186    0.2191101  -7.37 0.0004113004    1.231    0.187
        73  -9.1313    102.3066     88.3163   4.6030739907e+01   4.5348824960e+01    0.1505572    0.1178013  -2.04 0.0002113759    1.628    0.386
        74 -11.4057     25.9080     87.4524   7.2571452257e+01   5.6674352158e+01    0.2767449    0.2045894  58.29  0.001369279    1.761    0.432
        75 -10.9734     27.1029     77.3959   6.9787542762e+01   5.8792493106e+01    0.3053828    0.2070512  39.33  0.001316755    1.756    0.430
        76  -8.8483     90.1983     77.3742   4.6550697703e+01   4.9926125618e+01    0.2039945    0.1309525  53.13 0.0004257397    1.764    0.433
        77 -10.5634     58.5737     85.6884   5.9924814193e+01   5.3408327566e+01    0.2931829    0.2415992 -77.32 0.0008021992    1.491    0.329
        78 -10.5183     30.6388     72.3516   6.7086382390e+01   5.9544179759e+01    0.1824532    0.1520937  73.42 0.0008476431    1.652    0.395
        79  -8.9797     72.8054     68.8645   4.9780417868e+01   5.4688508765e+01    0.1731471    0.1632108  70.89 0.0002959105    1.291    0.225
        80 -11.0825     33.1212     68.3280   6.4979004010e+01   6.0138174366e+01    0.2485017     0.205045  17.36 0.0007036438    1.287    0.223
        81  -9.7960     89.3325     68.2655   4.3967505843e+01   5.1830257642e+01     0.235902     0.196697  42.93 0.0007609475    1.195    0.163
        82 -11.9533    183.9724     63.7050   2.0265748213e+01   3.0890233758e+01    0.4191723    0.3934776  81.62 0.0007847676    1.102    0.093
        83 -13.5783    200.6166     51.8419   1.4894976630e+01   2.8758578773e+01     1.207457    0.8999128  47.25  0.004008416    1.618    0.382
        84 -12.4005    206.4320     46.7558   1.2956228654e+01   2.8142799550e+01     0.495386    0.3937326  69.80  0.001150949    1.244    0.196
        85  -9.9926    128.7069     55.5694   2.8843343098e+01   4.5485938479e+01    0.3639121    0.2301605 -85.59  0.001443702    2.760    0.638
        86 -12.7952     27.5631    250.2723   9.1011895162e+01   1.8582765840e+01    0.2737975    0.1733952  34.88  0.001723445    1.688    0.408
        87  -9.4126    198.1989    215.8782   5.1093588178e+01  -7.6629058748e-01    0.1778919    0.1714451   6.16 0.0003699973    1.186    0.157
        88  -9.5525     58.1591     43.0837   4.6337363330e+01   6.1586091246e+01    0.2200215    0.1639788  59.00 0.0008883191    1.988    0.497
        89  -9.7806     40.9733     40.0225   5.2337320548e+01   6.4517461569e+01    0.2296067    0.1577601  27.17 0.0007270785    1.426    0.299
        90 -11.6297    241.8328    246.4287   4.8097397085e+01  -1.1553716959e+01    0.2853944    0.2150988 -28.41 0.0008047818    1.379    0.275
        91 -10.0094     60.9616     21.1972   3.6490223778e+01   6.4202556815e+01     0.198215    0.1691454  -8.62 0.0006846346    1.169    0.144
        92 -11.9397     34.9785     15.1457   4.4695380127e+01   6.8935134599e+01     0.461526    0.1557761  39.43  0.002112669    2.904    0.656
        93 -11.2357     76.0314    244.3476   8.1016755838e+01   1.3516495461e+01    0.1871089    0.1589554  88.81 0.0002616551    1.207    0.172
