#   1 NUMBER                 Running object number                                     
#   2 MAG_AUTO               Kron-like elliptical aperture magnitude                    [mag]
#   3 X_IMAGE                Object position along x                                    [pixel]
#   4 Y_IMAGE                Object position along y                                    [pixel]
#   5 X_WORLD                Barycenter position along world x axis                     [deg]
#   6 Y_WORLD                Barycenter position along world y axis                     [deg]
#   7 A_WORLD                Profile RMS along major axis (world units)                 [deg]
#   8 B_WORLD                Profile RMS along minor axis (world units)                 [deg]
#   9 THETA_WORLD            Position angle (CCW/world-x)                               [deg]
#  10 FWHM_WORLD             FWHM assuming a gaussian core                              [deg]
#  11 ELONGATION             A_IMAGE/B_IMAGE                                           
#  12 ELLIPTICITY            1 - B_IMAGE/A_IMAGE                                       
         1 -14.8273    159.2658     50.9219   7.7804982984e+01   3.8779621361e+01     1.137395     1.086945 -24.77  0.003478971    1.160    0.138
         2 -15.0947    171.8789     21.3903   6.7378713003e+01   3.9384095461e+01     1.037899    0.8250202  82.53  0.003571308    1.159    0.137
         3 -13.0861    197.6686     22.3593   6.4116129610e+01   3.2948017030e+01    0.4772341    0.2749837 -56.23  0.002393059    1.820    0.451
         4 -14.1664    189.5896     14.2050   6.3134562734e+01   3.5817935426e+01    0.6376585    0.3531793 -73.57   0.00257063    2.152    0.535
         5 -12.7878    193.9897      4.9897   6.0409592280e+01   3.5697045642e+01    0.2869213    0.1603031  86.09  0.001467926    1.684    0.406
         6 -10.5533    158.6359    240.2490   1.2110285481e+02   1.4035969047e+00    0.2251628    0.1944502 -35.91 0.0007992866    1.383    0.277
         7 -20.3896     75.9902    179.6073   1.3021456439e+02   2.8371054382e+01     16.21281     7.224861 -64.90   0.06847976    2.168    0.539
         8 -12.6310    207.8555    226.6461   1.0896933814e+02  -5.0328731696e+00    0.2617329     0.194318   0.76 0.0008782436    1.460    0.315
         9 -10.5200     18.9150    185.7128   1.4368844121e+02   3.3948358454e+01    0.1165344    0.1018002  59.47 0.0004353333    1.293    0.227
        10 -10.0117     21.0783    181.0087   1.4280151857e+02   3.4791263211e+01    0.3213669    0.1512579  85.77 0.0008983369    2.269    0.559
        11 -13.2087    207.7372    221.5181   1.0807774414e+02  -4.1912213872e+00    0.3516986    0.2487632 -30.28  0.001266574    1.500    0.334
        12 -13.3747    236.1165    173.6697   9.3193739584e+01  -1.1611525422e+00    0.4210716    0.3168983 -68.71   0.00209784    2.027    0.507
        13 -11.8372    240.2333    169.5597   9.1585315583e+01  -1.1957123642e+00    0.1893085    0.1277443  29.41 0.0004420901    1.612    0.380
        14 -12.5893    194.3032    171.7601   1.0106015546e+02   7.4218597822e+00    0.4719546    0.3493779 -63.42  0.001561671    1.710    0.415
        15 -10.6227     10.0395    168.1542   1.4396789986e+02   3.8689644528e+01    0.1669349    0.1269973 -62.95 0.0004490849    1.304    0.233
        16 -10.6344     15.1015    218.5577   1.4700375959e+02   2.7277975362e+01    0.3234433   0.09508026 -72.06  0.001499062    2.784    0.641
        17 -11.4581    203.0141    173.2971   9.9569058462e+01   5.3313289501e+00     0.396659     0.181464 -56.01  0.001293603    3.537    0.717
        18 -12.6815    188.4587    154.1245   9.8434031899e+01   1.2250166353e+01    0.7329978    0.4781948  40.32  0.002435755    1.554    0.356
        19 -10.5372    177.8880    156.1378   1.0120565265e+02   1.4144076174e+01    0.2239631    0.2064203  84.35 0.0002771455    1.187    0.158
        20 -11.3307    217.6986    217.6783   1.0541689245e+02  -5.3012694661e+00    0.2930361    0.1827721 -50.13   0.00146204    2.085    0.520
        21 -12.1994     22.5949    155.8609   1.3981980456e+02   4.0404711989e+01      0.24979    0.1945083 -82.47 0.0009573049    1.050    0.047
        22 -10.7333     40.3876    245.2226   1.4443343538e+02   1.9050151498e+01    0.1447531   0.08740133  86.74 0.0004469581    1.429    0.300
        23 -12.9810    164.7607    153.5246   1.0360614988e+02   1.7590866972e+01    0.5964628    0.3034636  50.93  0.001598847    2.043    0.511
        24 -11.9430    174.4028    148.9758   1.0035945555e+02   1.6441314447e+01    0.3882974    0.3100298 -59.36  0.001253343    1.357    0.263
        25 -12.6977     10.6871    144.6329   1.4139784971e+02   4.3983526199e+01    0.4315799    0.2177105 -50.11  0.001804184    1.953    0.488
        26 -10.2574     24.9636    213.6516   1.4483181685e+02   2.7251804177e+01    0.1435271    0.1090227  71.84 0.0003228408    1.094    0.086
        27 -10.3263     33.2044    211.8788   1.4311663350e+02   2.6702385723e+01    0.1720262    0.1219809  79.33 0.0002247666    1.129    0.114
        28 -13.0230    160.4614    128.0255   9.8579446163e+01   2.4138004506e+01    0.5336772    0.4026597 -62.47  0.001720148    1.489    0.329
        29 -10.7374    167.9139    134.4717   9.8416923446e+01   2.1031935148e+01    0.2417191    0.1558055  49.28 0.0006962799    1.549    0.354
        30 -13.1854     11.5222    206.3895   1.4680312885e+02   3.0176687644e+01    0.4970603    0.3892768 -52.26  0.003504663    1.740    0.425
        31 -10.7201     12.7525    121.8070   1.3797950587e+02   4.9038298617e+01    0.1926746    0.1490809 -31.78  0.001273163    1.487    0.328
        32 -12.2198     14.2280    198.2980   1.4568169360e+02   3.1642214430e+01    0.2556279    0.1406679 -65.50  0.001121907    1.664    0.399
        33 -11.2456    231.3510    113.7701   8.0864466420e+01   1.0709029317e+01    0.2609397    0.2522205 -71.47  0.000756726    1.057    0.054
        34 -11.3150    167.6982    112.7201   9.3022438885e+01   2.5684418539e+01    0.3910476    0.2931591 -83.52  0.001474968    1.770    0.435
        35 -15.7198     44.2721    150.8627   1.3381288504e+02   3.9384934823e+01     1.443621    0.6856131 -77.77  0.006271302    2.294    0.564
        36 -11.0786    205.1335    110.2175   8.4644301070e+01   1.7282620200e+01    0.4075982    0.2115912  46.40   0.00132016    2.029    0.507
        37 -10.7276    222.9839    198.7043   1.0076937793e+02  -3.1035915610e+00     0.189544    0.1642127  20.21 0.0003815181    1.076    0.071
        38 -11.7594     32.1231    104.3093   1.2939639268e+02   5.1456509995e+01    0.2837883    0.2002805  -2.47   0.00100507    1.789    0.441
        39 -12.3581    134.0987    197.3490   1.1950676678e+02   1.4271688328e+01     0.396027    0.3425779 -43.77 0.0008884209    1.301    0.231
        40 -11.8246    128.4811    195.9914   1.2055434691e+02   1.5629238703e+01     0.361622     0.243102  89.04   0.00102447    2.069    0.517
        41 -12.1821     50.9499     92.0840   1.2067364303e+02   5.2233943998e+01    0.2794431    0.2254101  24.06 0.0006995571    1.379    0.275
        42 -11.0834     23.7446    191.1799   1.4318482826e+02   3.2249787788e+01    0.2166758    0.1526417 -56.09  0.001095378    1.608    0.378
        43 -10.1364     27.4059    228.1206   1.4547398799e+02   2.3986101032e+01   0.09397572   0.07062542  36.70 0.0006210618    1.688    0.408
        44 -12.5800    164.6135    186.8196   1.1065371524e+02   1.0475235399e+01    0.3209263    0.2516186 -63.31  0.001232702    1.468    0.319
        45 -12.9174    162.8771    181.7249   1.1003801645e+02   1.1898242535e+01    0.4847094    0.2706206 -55.78  0.001980772    2.076    0.518
        46 -14.1768    148.8696     65.0805   8.4128799404e+01   3.9153566316e+01    0.9966573    0.8494585  37.76  0.002907806    1.179    0.152
        47 -10.5257     36.7805    246.7307   1.4516342003e+02   1.9206442178e+01    0.1570608   0.09125561  74.93 0.0009817713    1.423    0.297
        48 -13.5111    163.8033     41.9076   7.4372447913e+01   3.8902974863e+01     0.508806    0.4460608  57.87 0.0008309835    1.062    0.058
        49 -11.3585     13.5434     59.8975   1.2585227755e+02   6.2139361095e+01    0.1804007    0.1594944   3.64 0.0004297772    1.318    0.241
        50 -10.5017     15.3775    187.7726   1.4459422427e+02   3.3831228560e+01    0.1552224   0.08639909 -66.66 0.0004061792    1.564    0.361
        51 -12.2828    117.3601    245.0257   1.3002500673e+02   7.7090396588e+00    0.1887368    0.1837475  17.65  0.001278252    1.337    0.252
        52 -11.2804    161.8605    236.8392   1.1993441304e+02   1.4178192987e+00     0.297668    0.1981862  50.27  0.001048754    1.397    0.284
        53 -10.7948    157.8716    244.6360   1.2190104261e+02   7.9244729579e-01    0.2020613    0.1844605 -22.21  0.000367026    1.318    0.241
