#   1 NUMBER                 Running object number                                     
#   2 MAG_AUTO               Kron-like elliptical aperture magnitude                    [mag]
#   3 X_IMAGE                Object position along x                                    [pixel]
#   4 Y_IMAGE                Object position along y                                    [pixel]
#   5 X_WORLD                Barycenter position along world x axis                     [deg]
#   6 Y_WORLD                Barycenter position along world y axis                     [deg]
#   7 A_WORLD                Profile RMS along major axis (world units)                 [deg]
#   8 B_WORLD                Profile RMS along minor axis (world units)                 [deg]
#   9 THETA_WORLD            Position angle (CCW/world-x)                               [deg]
#  10 FWHM_WORLD             FWHM assuming a gaussian core                              [deg]
#  11 ELONGATION             A_IMAGE/B_IMAGE                                           
#  12 ELLIPTICITY            1 - B_IMAGE/A_IMAGE                                       
         1 -10.5301    137.8089     22.0322   7.3869860419e+01   4.7923761306e+01    0.2116205    0.1394056  23.38 0.0007098354    1.857    0.461
         2 -11.6508     57.5636     17.2443   9.4589505058e+01   6.4497562859e+01    0.2983893    0.2352165  -9.42  0.000996461    1.167    0.143
         3 -10.9813    115.9111     15.8786   7.6557608992e+01   5.3587808867e+01    0.3368096    0.1914915  40.17  0.001557624    1.581    0.367
         4 -10.8278     13.0557     14.4911   1.1273749964e+02   6.9991765101e+01    0.2601753    0.1386724 -31.36  0.001386199    1.476    0.323
         5 -12.0639     10.6518      4.1839   1.0954194947e+02   7.1573476864e+01    0.3628859    0.2269716 -11.80  0.001073203    1.234    0.190
         6 -12.1260     18.9344      7.5621   1.0695712368e+02   7.0409350316e+01    0.4584013    0.2041934  13.58   0.00249904    2.494    0.599
         7 -12.1210     23.3855     11.2738   1.0646846494e+02   6.9503699335e+01    0.3590549    0.2709409  44.40  0.001734834    2.370    0.578
         8 -11.8267     24.8268      7.1530   1.0398062922e+02   6.9874367402e+01    0.2429025    0.1552214 -34.26 0.0004727177    1.625    0.385
         9 -10.9263    149.0037     12.2956   6.8840035755e+01   4.6207755963e+01    0.3229501    0.1823239  32.10 0.0008804881    2.203    0.546
        10 -11.7245    219.6188     14.7738   6.0210636633e+01   2.8773708579e+01    0.1923967    0.1837901 -42.02 0.0006124427    1.363    0.266
        11 -11.9543     65.5096     13.1475   8.9988180951e+01   6.3703772280e+01     0.427972    0.2538405  29.82   0.00160963    1.455    0.313
        12 -11.2850    172.8223     13.5127   6.5493460573e+01   4.0258095072e+01    0.4267211    0.2176865  54.35  0.001107634    1.737    0.424
        13 -11.5662     77.4953     13.4633   8.6111745276e+01   6.1604713283e+01    0.3751462    0.2260912  62.93  0.001893435    2.534    0.605
        14 -11.4126     74.7895     10.0672   8.5601215012e+01   6.2426257822e+01    0.2810318    0.2045763 -24.50  0.001178588    1.510    0.338
        15 -12.3512    211.4630      9.1957   5.9807032525e+01   3.1312599265e+01    0.4161485    0.2794833 -18.01  0.001845808    2.152    0.535
        16 -11.7409    208.8773      5.1246   5.9161161940e+01   3.2352325037e+01    0.2755819    0.1958887 -78.62 0.0003647781    1.250    0.200
        17 -10.7017     50.5224     11.8491   9.5009739659e+01   6.6146187772e+01    0.2427522    0.2172361  38.92  0.001762275    1.609    0.379
        18 -11.2036     46.2661      8.9974   9.5461110626e+01   6.7059564171e+01    0.3236032    0.1629295  31.38  0.001366058    1.756    0.431
        19 -10.2509     32.2460     12.0517   1.0276412406e+02   6.8463960369e+01    0.1850816    0.1248357  32.62  0.001250024    1.669    0.401
        20 -11.2688     86.6183      9.1225   8.1630911914e+01   6.0317057943e+01    0.2669097    0.1807537  13.21  0.001307806    1.475    0.322
        21 -11.1678    248.2833      7.3744   5.6159087398e+01   2.3159352083e+01    0.1925134    0.1597639  86.09 0.0007270286    1.209    0.173
        22 -11.6006    107.4824      7.5525   7.5608659013e+01   5.6187112933e+01    0.2420456    0.2060627  46.84 0.0007046025    1.081    0.075
        23 -10.7999    176.0439      7.0682   6.3370256691e+01   4.0098180308e+01    0.1963326    0.1621975  78.44 0.0003498469    1.020    0.020
        24  -9.9343     61.6390      6.8739   8.8699584130e+01   6.4973166204e+01    0.1542735   0.09892122 -30.79  0.000947154    1.778    0.437
        25 -10.7922    231.4214      5.4831   5.7158306293e+01   2.7093494780e+01    0.2940908    0.1898124  29.07  0.001452271    3.202    0.688
        26 -10.6995    191.2585      5.9868   6.1243132349e+01   3.6492321985e+01     0.176039    0.1513063 -88.86 0.0003608397    1.080    0.074
        27 -12.3345    217.6444      3.6886   5.8006843153e+01   3.0443292454e+01    0.3673415    0.2434875 -82.68  0.001655962    1.308    0.235
        28 -11.4036     77.2405      4.0266   8.2367436353e+01   6.2535823694e+01    0.5851639    0.1414971  36.90   0.00191065    4.787    0.791
        29 -11.4732     73.3262      1.9281   8.2707601007e+01   6.3425407162e+01      0.28367     0.266599  18.41  0.001995038    1.328    0.247
        30 -11.6582    160.5135      2.5610   6.4279554901e+01   4.4293007256e+01    0.3204587    0.2435886  78.78  0.001940226    1.162    0.140
        31  -9.9329    123.6438      3.7080   7.0803783250e+01   5.2921736818e+01    0.1489543    0.1180433 -31.58 0.0004602216    1.513    0.339
        32 -10.9372     36.9178      3.0310   9.6667363030e+01   6.8942983860e+01    0.3147185    0.1591332  14.69  0.001504519    2.080    0.519
        33 -11.1045     30.9385      3.6510   9.9584039184e+01   6.9605891367e+01    0.2020129    0.1323917 -17.27 0.0007312677    1.295    0.228
        34 -10.4191    195.4955      3.5139   6.0183468795e+01   3.5710523167e+01    0.1299106    0.1047926  82.84  0.000246007    1.013    0.013
        35 -11.8063    180.3179      1.7073   6.1474747912e+01   3.9553888709e+01    0.2936512    0.1770462  74.43  0.001599537    1.373    0.272
        36 -10.8841     90.3740      2.2134   7.7907442101e+01   6.0171575844e+01    0.3218616    0.1759711  54.93 0.0009758636    1.632    0.387
        37 -10.8859      1.3912      3.2321   1.1389480884e+02   7.2396516573e+01    0.2848926   0.07843176 -44.10  0.001211363    3.106    0.678
        38 -10.1954    138.1403      1.4155   6.7421190623e+01   4.9744650365e+01    0.1920223    0.1039445  63.06 0.0004371387    1.497    0.332
        39  -9.5683    192.6590    230.3301   1.1305662383e+02  -2.8252399985e+00    0.1307043    0.1032841  66.98 0.0007051479    1.744    0.427
        40 -11.2318    160.0893    246.9421   1.2225678615e+02   1.8116371065e-01    0.2056036    0.1897235 -76.19 0.0005015889    1.325    0.245
        41 -10.2459    144.0038    251.0000   1.2602548351e+02   2.2872737752e+00     0.401254    0.1224093  41.69  0.001500138    2.651    0.623
        42 -11.9563    141.4853    247.7167   1.2609116516e+02   3.2821862646e+00     0.379958    0.2482992  45.33 0.0002649816    1.251    0.201
        43 -11.8456    140.2766    242.5655   1.2564084308e+02   4.3948345107e+00    0.2802459    0.2566497  46.48 0.0006348015    1.121    0.108
        44 -11.4926    129.6565    248.0258   1.2848843990e+02   5.2567845552e+00    0.3341209     0.257521 -43.14  0.002018407    1.690    0.408
        45 -11.6949    128.8264    240.1123   1.2763669131e+02   6.8282887333e+00     0.467197    0.3011941 -48.87  0.002124854    1.893    0.472
        46 -11.9943    121.3525    247.7391   1.3009823000e+02   6.7114077422e+00    0.3638971     0.207005  51.39 0.0006334804    1.481    0.325
        47 -11.8320    105.5199    248.0608   1.3324032947e+02   9.2623806371e+00    0.3447466     0.297576  57.19  0.001253699    1.127    0.113
        48 -11.8316    108.9908    244.0679   1.3210554914e+02   9.4387441863e+00    0.3657716     0.219435 -76.31 0.0003744782    2.033    0.508
        49 -10.8725     89.1114    243.9298   1.3597438973e+02   1.2633332613e+01    0.3870177    0.2275346  32.89  0.001848058    2.000    0.500
        50 -12.7507     83.9249    238.8715   1.3645655830e+02   1.4407996587e+01    0.4741949    0.3678467 -88.85 0.0009755169    1.246    0.197
        51 -11.4487    105.9390    235.6698   1.3172394253e+02   1.1543921359e+01     0.312682    0.2245457 -47.23 0.0004403963    1.812    0.448
        52 -11.9385     95.9629    247.4436   1.3502205098e+02   1.0900904090e+01    0.3324403    0.2381052  86.48  0.002034638    1.431    0.301
        53 -12.0287    100.4056    243.7492   1.3375911045e+02   1.0891351133e+01    0.4886471    0.2565215 -51.13  0.001053448    2.422    0.587
        54 -12.2123    101.9495    234.1152   1.3234658237e+02   1.2502773006e+01    0.2922826    0.2491208 -77.04 0.0003665591    1.267    0.211
        55 -12.3176    101.0933    239.0531   1.3309390499e+02   1.1678658805e+01    0.3642389    0.1949341  65.31  0.001740654    2.085    0.520
        56 -13.7512     93.6477    236.9422   1.3433722067e+02   1.3279726929e+01    0.6353119     0.370444  62.61  0.001870342    1.631    0.387
        57  -9.9265     91.5401    249.9786   1.3612942756e+02   1.1117198289e+01    0.1563612    0.1155056 -73.48 0.0003888916    1.469    0.319
        58 -13.4230      7.2218    173.6388   1.4589351738e+02   3.7766368970e+01     1.855555     0.735883  67.92  0.008227652    3.117    0.679
        59 -10.9720     42.0810    237.1311   1.4416399866e+02   2.0548278016e+01    0.8369347    0.4660776  31.25  0.004657106    2.384    0.581
        60 -13.1883     30.8282    202.2888   1.4347667136e+02   2.9150995591e+01    0.6133298    0.3200071  64.43  0.001808506    1.807    0.447
        61 -12.8523     18.9452    201.0857   1.4572795798e+02   3.0664133416e+01    0.5254982     0.351324 -48.79  0.002926732    2.041    0.510
        62 -13.4315     20.3709    196.1607   1.4505393393e+02   3.1590171577e+01     1.047404    0.6776615  58.28  0.004109179    1.409    0.290
        63 -12.7813     47.2255    244.4439   1.4379879930e+02   1.8465967352e+01    0.3294571    0.1940526  42.11  0.001204019    1.659    0.397
        64 -13.6112     29.4341    212.8741   1.4462772746e+02   2.7028743316e+01     1.543503    0.5725284  53.54  0.007476681    2.424    0.588
        65 -14.1030     21.9809    221.3087   1.4664765270e+02   2.6085744134e+01     1.147671    0.4971713 -81.11  0.004617858    2.017    0.504
        66 -14.0780     37.7159    248.1096   1.4572378011e+02   1.8955179426e+01     0.635731    0.4832487  51.08  0.004615653    1.353    0.261
        67 -13.0393      7.2994    205.3811   1.4825375032e+02   3.0875611170e+01    0.6694598     0.323891  68.59  0.002279845    1.851    0.460
        68 -12.9975     40.5463    230.8951   1.4396281223e+02   2.1987079226e+01    0.8198661    0.2874082  35.02  0.003701086    3.188    0.686
        69 -13.4446     39.2281    223.3538   1.4360829831e+02   2.3692208311e+01    0.8228633    0.3495422  60.34   0.00323753    2.210    0.548
        70 -14.3957     28.2996    241.7196   1.4691124574e+02   2.1303115328e+01     1.033707    0.6187801  87.25  0.006822256    1.378    0.274
        71 -14.9928      9.0710    216.7145   1.4866703898e+02   2.8354299475e+01     1.023408    0.6656961  77.24  0.007099535    1.164    0.141
        72 -14.5408      6.2575    237.4626   1.5035411727e+02   2.4510415236e+01    0.9327371    0.3511898  84.22  0.004520423    2.546    0.607
        73 -14.6282     10.6468    233.4883   1.4940462118e+02   2.4835246711e+01    0.8326138    0.3877794 -74.40  0.005070794    1.860    0.462
        74 -14.6782     18.9214    249.2413   1.4893651375e+02   2.0931970302e+01    0.4544638    0.3774831  43.75  0.003020325    1.616    0.381
        75 -15.0689      7.4816    248.5915   1.5073678278e+02   2.2279591204e+01    0.7648149    0.2972074  62.75  0.003949795    2.051    0.512
        76 -14.6430     14.4920    246.4566   1.4950050053e+02   2.1938847644e+01    0.6874928     0.282435 -62.22   0.00375454    2.762    0.638
        77 -10.3827     95.0571    229.9762   1.3326049045e+02   1.4442083269e+01    0.1947928    0.1568144  67.02 0.0003539572    1.048    0.045
        78 -11.9552     95.7318    224.3646   1.3245365917e+02   1.5477928149e+01     0.579132    0.4050667  23.46  0.001925888    2.022    0.505
        79 -11.2709     95.4805    220.4315   1.3202364031e+02   1.6335268565e+01    0.2462641    0.1692804  51.80 0.0005372401    1.263    0.208
        80 -10.3296    202.3233    226.6190   1.1046716541e+02  -3.9246769358e+00    0.3456772    0.2013104   2.67   0.00139445    3.086    0.676
        81 -11.8085    124.4156    225.0092   1.2650351870e+02   1.0487129749e+01    0.4823182     0.283327  54.81  0.002158236    1.605    0.377
        82  -9.9715    125.4361    221.1793   1.2574181963e+02   1.1071014625e+01    0.2343826    0.1394727 -66.23 0.0008444233    1.992    0.498
        83 -11.1164    100.5144    226.2569   1.3169119309e+02   1.4312016423e+01    0.3220081    0.1888136  60.36  0.001209201    1.647    0.393
        84 -10.6059    249.1156    226.0281   1.0137839916e+02  -1.1474835483e+01    0.3209196    0.1219291 -31.79 0.0009299015    2.701    0.630
        85 -10.1184    174.2123    227.2288   1.1632823157e+02   1.0184735478e+00    0.2317653    0.1572418  23.98  0.001159575    1.574    0.364
        86 -10.6042    111.9750    223.9794   1.2899763277e+02   1.2855598598e+01    0.3952448    0.2134661  27.69  0.001671649    2.612    0.617
        87  -9.8817    111.3688    227.4929   1.2958622718e+02   1.2250797109e+01    0.1891005    0.1376404  71.80 0.0001129214    1.382    0.276
        88 -11.6452    106.3334    223.9076   1.3017812630e+02   1.3825849647e+01     0.395171    0.2577453  63.83  0.001963233    1.503    0.335
        89 -12.0510    225.0322    225.1594   1.0573431672e+02  -7.5624484017e+00    0.2282452    0.2027151   8.23 0.0003374092    1.107    0.096
        90 -10.5540     71.4857    225.1004   1.3749024643e+02   1.9041916977e+01    0.2146429    0.1548193  50.24 0.0008412214    1.258    0.205
        91 -10.4741    147.9449    223.3856   1.2125196004e+02   6.5529837939e+00    0.2208402    0.1888389   3.60 0.0007150826    1.456    0.313
        92 -10.7268    216.9734    223.1151   1.0693324428e+02  -5.8995922039e+00    0.1931523    0.1666153  15.96 0.0003738381    1.029    0.028
        93 -11.0568    131.9444    220.4358   1.2423387161e+02   1.0051429708e+01    0.4215361    0.3010703   8.99  0.001453644    2.292    0.564
        94 -12.6514     80.5399    208.9548   1.3379458436e+02   2.1147138814e+01    0.5337728    0.3208935 -88.83  0.002644487    1.858    0.462
        95 -11.1134     84.9913    221.4983   1.3434356641e+02   1.7772252995e+01    0.2337664    0.1908182  72.44 0.0004742959    1.038    0.037
        96 -11.5901     85.3468    217.2301   1.3376822512e+02   1.8619234391e+01    0.3730528    0.2848611  66.43  0.001283571    1.134    0.118
        97 -10.0370    169.0583    220.7579   1.1633422097e+02   3.1260232898e+00    0.1838826    0.1638739  31.61 0.0002521941    1.047    0.045
        98 -12.2698    195.3351    217.1601   1.1021169186e+02  -1.1006500087e+00    0.6676711    0.4253179 -63.13  0.002350912    2.613    0.617
        99 -11.3706     62.4830    219.9083   1.3876743498e+02   2.1405522964e+01    0.2068619    0.1541331  56.53 0.0003201881    1.184    0.155
       100 -11.1149    210.4404    207.3855   1.0532330431e+02  -2.1812634666e+00    0.2919037    0.2076237  17.35  0.001119157    1.469    0.319
       101 -10.9061    217.5842    217.4337   1.0577790269e+02  -5.1063068926e+00    0.2860934    0.2105126 -10.54 0.0009426757    1.440    0.306
       102 -10.7953    217.0119    212.7217   1.0501632906e+02  -4.2450170623e+00    0.2187167    0.1867824 -18.60 0.0004063747    1.173    0.147
       103 -11.4181    215.1681    209.0627   1.0469383371e+02  -3.3147673604e+00    0.2730747    0.2246523  30.63 0.0003869298    1.130    0.115
       104 -11.4184    176.6190    216.4061   1.1398818776e+02   2.5052245367e+00    0.3817411    0.2401057  34.14 0.0005094804    1.479    0.324
       105 -12.0006    107.1853    215.8281   1.2892539794e+02   1.5357687331e+01      0.66728    0.4695276  38.21  0.002203738    1.424    0.298
       106 -11.3945    112.4443    213.9514   1.2752253135e+02   1.4848294258e+01    0.3349664    0.2132712 -76.42  0.001022821    1.853    0.460
       107 -10.8687     99.1594    214.6638   1.3050292240e+02   1.6951002181e+01    0.3966503    0.1759114  51.09  0.001164705    2.101    0.524
       108 -11.5399     95.6040    211.6870   1.3088152568e+02   1.8173485223e+01    0.3008705    0.2677934  29.52 0.0007425884    1.382    0.276
       109 -10.9965    108.5409    210.0228   1.2782232152e+02   1.6359162357e+01    0.2425127    0.1834956  47.23 -2.809438e-05    1.208    0.172
       110 -11.7695    105.1202    207.5262   1.2822482326e+02   1.7484765281e+01    0.4041855    0.3332264 -56.46  0.001261898    1.356    0.263
       111 -11.0113     76.8986    217.1407   1.3552549574e+02   1.9924253551e+01    0.2965188    0.1826159  34.62  0.001553849    1.813    0.448
       112 -10.4092     73.1852    217.6075   1.3634678852e+02   2.0372954704e+01    0.2382692    0.1189299  37.34 0.0008136778    2.049    0.512
       113 -11.3159     46.6646    208.5062   1.4084704184e+02   2.5935575482e+01    0.4399411    0.2682415 -54.72   0.00175718    1.927    0.481
       114 -11.0954     52.5753    208.1133   1.3960012473e+02   2.5271298226e+01    0.2684141    0.2246123 -69.75  0.001252939    1.311    0.237
       115 -11.8586     58.9140    216.0365   1.3909953595e+02   2.2717542417e+01    0.2480267    0.1873693  48.99 0.0009793541    1.298    0.230
       116 -12.3350     58.5456    210.6814   1.3863083073e+02   2.3923436943e+01     0.482603    0.2701414  69.10  0.002491994    1.789    0.441
       117 -13.1993      3.6142    194.8582   1.4823387776e+02   3.3438099405e+01    0.9525554    0.3111483 -64.38  0.003479718    2.573    0.611
       118  -9.7354    228.8516    216.6040   1.0343295516e+02  -6.8877595360e+00    0.1817657    0.1159556  45.79 0.0009434806    1.721    0.419
       119 -11.6556    146.1891    215.1901   1.2033333523e+02   8.4699379330e+00    0.2570994    0.2262505 -43.56 0.0004635107    1.305    0.234
       120 -10.5184    125.7633    215.7437   1.2487591440e+02   1.2116802901e+01    0.2292015    0.1675833  38.82 0.0006450273    1.310    0.237
       121 -10.7772    230.6138    212.2849   1.0228649878e+02  -6.5094139120e+00    0.3258709    0.2230307 -58.41  0.001615095    2.404    0.584
       122 -10.2096    161.2321    212.3522   1.1658777168e+02   6.1802187283e+00    0.3536254    0.2018969  21.53  0.001392865    2.642    0.621
       123 -11.6083     69.6654    211.2533   1.3637663604e+02   2.2253059627e+01    0.5401672    0.3012604  68.01   0.00181956    1.871    0.466
       124 -10.1787    117.3734    211.4553   1.2608166768e+02   1.4509617839e+01    0.2472645    0.1289552  37.70 0.0007339909    1.872    0.466
       125 -11.2435    237.4171    208.6427   1.0030480817e+02  -7.0725323957e+00    0.3317522    0.2087193 -19.73  0.001180455    1.671    0.402
       126 -11.3511    184.2193    209.9783   1.1123298434e+02   2.2435980752e+00    0.2327499    0.1959698  29.65 0.0004405215    1.082    0.076
       127 -12.5190    183.3509    204.1796   1.1035002789e+02   3.4834458620e+00     0.307276    0.2699389 -16.08  0.000404542    1.221    0.181
       128 -11.1457    128.0477    209.5026   1.2342389095e+02   1.2995495065e+01    0.3531907    0.2349717  18.35  0.001568927    2.278    0.561
       129 -10.9012    189.0163    206.9740   1.0966703444e+02   1.8811075485e+00    0.2453729    0.1892732  37.28 0.0004560871    1.179    0.152
       130 -10.8123    145.0469    205.7325   1.1902421475e+02   1.0592788014e+01    0.3909007    0.2013367 -44.43  0.001398204    2.237    0.553
       131 -11.5459    116.1999    205.0273   1.2538327593e+02   1.6092029533e+01    0.2828502    0.2416718  44.06 0.0003565199    1.157    0.136
       132 -11.4267    112.5280    205.4421   1.2626981049e+02   1.6652818124e+01    0.3195481     0.245693  87.58  0.001512882    1.388    0.279
       133 -11.8813    200.0864    204.7421   1.0693553769e+02   1.9115085344e-01    0.2498729    0.2279524 -34.62 0.0004038204    1.202    0.168
       134 -11.8772     89.8934    202.3758   1.3090068270e+02   2.1140847337e+01    0.5003424    0.4343371 -32.54  0.002639463    1.580    0.367
       135 -11.0023    113.6730    194.0879   1.2425496964e+02   1.8953839933e+01    0.2668863    0.1970922  47.13 0.0003344348    1.260    0.206
       136 -10.7153    109.9338    201.5565   1.2627315376e+02   1.7957598505e+01    0.2345506    0.1889282 -46.92  0.001272733    1.458    0.314
       137 -12.1672     96.6821    202.9264   1.2945906995e+02   1.9913018845e+01    0.5007672    0.3067575  75.81  0.002105973    1.990    0.498
       138 -11.4796    100.6734    199.0406   1.2800370551e+02   2.0111021118e+01    0.4812382    0.3229594  42.10  0.002050572    1.433    0.302
       139 -10.7010    102.5307    192.9760   1.2667005805e+02   2.1161935086e+01      0.20943    0.1734284  53.13 0.0003251552    1.129    0.114
       140 -10.2523     74.4133    204.9881   1.3463805538e+02   2.2940328186e+01    0.2067806      0.14895  71.82 0.0003151633    1.276    0.217
       141 -11.5991     69.0530    201.1448   1.3534372626e+02   2.4575759080e+01    0.3633842    0.2562895  58.54  0.001183093    1.283    0.220
       142 -11.5635     68.1984    184.9191   1.3350375206e+02   2.8410491889e+01    0.3027066    0.2420031 -74.83 0.0005989182    1.156    0.135
       143 -12.4910     66.0979    190.7700   1.3473544418e+02   2.7350354561e+01    0.3206673    0.2780962 -54.67 0.0008531113    1.361    0.265
       144 -12.4864     71.4927    194.9972   1.3405254009e+02   2.5615585105e+01    0.2727426    0.2254929  88.14 0.0003455668    1.065    0.061
       145 -12.2915     69.3657    191.0966   1.3403750221e+02   2.6814433557e+01    0.4361723    0.2007242 -56.47  0.001421132    2.166    0.538
       146 -10.4789    137.0941    203.5437   1.2044020154e+02   1.2560496654e+01    0.2151928    0.1894088  88.32 0.0003521629    1.204    0.170
       147 -11.0922    121.2934    203.0822   1.2393453516e+02   1.5594958644e+01    0.2800312    0.2609395 -86.42 0.0005810298    1.112    0.100
       148 -11.7516    121.4878    199.1192   1.2326071855e+02   1.6421175011e+01    0.5644992    0.3004889 -39.59  0.002274862    2.639    0.621
       149 -12.0400     52.0497    202.3651   1.3912299907e+02   2.6605856786e+01    0.2783936    0.2316608 -65.68 0.0004175829    1.335    0.251
       150 -11.3643     56.3102    176.5597   1.3518910157e+02   3.1970683377e+01    0.4021457    0.2473119  48.44  0.001556804    1.611    0.379
       151 -10.5058     59.0291    198.5195   1.3721777369e+02   2.6551994941e+01    0.2875109    0.1638352  73.75  0.001120386    1.881    0.468
       152 -13.1129     53.0613    192.7745   1.3787240586e+02   2.8632653725e+01    0.5034782    0.3317313  61.95  0.001242228    1.416    0.294
       153 -11.9318     55.8627    181.3191   1.3589421167e+02   3.0913509854e+01    0.2785279     0.207944  79.04 0.0003037853    1.236    0.191
       154 -12.1053     60.4913    187.3382   1.3557887664e+02   2.8908152520e+01    0.5290355    0.2493727 -62.10  0.001422346    1.957    0.489
       155 -11.6260     62.2101    180.3546   1.3429794413e+02   3.0303469144e+01    0.3509516     0.301766 -73.06 0.0007543148    1.141    0.124
       156 -12.2956    205.6775    197.7932   1.0444353877e+02   3.7939764782e-01    0.4748504    0.3605858  65.07  0.001609974    1.813    0.449
       157 -10.8933    211.4840    197.5448   1.0321213338e+02  -6.6656462536e-01    0.2276969    0.1277207  39.17  5.66071e-05    1.692    0.409
       158 -10.3281    171.5076    201.9723   1.1250192603e+02   6.2103114215e+00    0.2320085    0.1884808 -54.55 0.0003763129    1.392    0.282
       159 -10.7149    170.0448    196.8848   1.1187662058e+02   7.5027766855e+00     0.384398    0.2298876 -39.59  0.001348187    1.865    0.464
       160  -9.6267    166.9522    201.9802   1.1350262585e+02   7.1011262654e+00    0.1705353     0.152425  39.30  0.000939883    1.020    0.020
       161 -12.0477    241.9454    200.1600   9.7822271820e+01  -6.4889801596e+00    0.3810981    0.3175709  59.80  0.002227388    1.707    0.414
       162 -11.9201    246.1409    198.8312   9.6791075249e+01  -6.9717319685e+00    0.2616696    0.2284286 -35.76 0.0003153874    1.302    0.232
       163 -11.7319    188.5320    190.9743   1.0670088102e+02   4.9810883617e+00     0.587971    0.2722461 -35.32  0.002165913    2.555    0.609
       164 -10.8952    190.5014    200.5211   1.0813759843e+02   2.7851155122e+00    0.2378785    0.2276818  17.53 0.0001234267    1.069    0.064
       165 -12.2871    188.4803    196.0713   1.0771100803e+02   4.0151972067e+00    0.3008572     0.280016 -51.56 0.0004807563    1.210    0.174
       166 -10.9057     76.1299    199.0614   1.3353126291e+02   2.4012835543e+01    0.2855307    0.1741904 -76.98 0.0006561414    1.640    0.390
       167 -10.0101    232.3253    199.9313   9.9585689599e+01  -4.8206086393e+00    0.1844468    0.1516282 -21.76 0.0004949334    1.162    0.139
       168  -9.4058     83.2891    200.6844   1.3214795394e+02   2.2559972506e+01    0.1414155   0.09256215  72.73 0.0007002089    1.591    0.371
       169 -10.2478     63.7432    199.8435   1.3634660654e+02   2.5613452648e+01    0.2284798    0.1412889 -66.91  0.001176815    1.534    0.348
       170 -10.8611    139.0000    198.0053   1.1906912187e+02   1.3369902979e+01    0.3051261     0.231308 -41.85  0.000874749    1.512    0.338
       171 -11.2346    139.9992    194.3106   1.1819475909e+02   1.3968654095e+01    0.2444333    0.2135503 -70.52 0.0003341763    1.226    0.184
       172 -11.5953    224.1000    197.4383   1.0068345382e+02  -2.9565518430e+00    0.3700612    0.2289086 -19.40 0.0008232381    1.893    0.472
       173 -10.6618    227.3335    193.6601   9.9306044318e+01  -2.8952552493e+00    0.3059731    0.2123915  54.38  0.001368571    1.826    0.452
       174 -10.2959    116.7703    198.1206   1.2418250339e+02   1.7498851873e+01    0.2140147     0.176311  74.60 0.0003628305    1.201    0.168
       175 -11.9284    108.9349    196.6875   1.2575937553e+02   1.9213373900e+01    0.7474901    0.3899844  56.68   0.00187126    2.063    0.515
       176 -10.7792    178.5187    193.7414   1.0941365719e+02   6.4384695732e+00    0.3178271    0.2057559 -57.14 0.0005643886    1.893    0.472
       177 -13.1346    246.3595    191.0952   9.5225289804e+01  -5.7741780465e+00    0.4332495    0.3575817  37.67  0.001014727    1.320    0.243
       178 -11.1345    249.2139    185.1076   9.3512202721e+01  -5.2817241437e+00    0.3129188    0.2429729 -28.95   0.00109071    1.188    0.158
       179 -10.2517    193.7296    193.9307   1.0617596312e+02   3.3906780516e+00    0.1978669    0.1847371 -22.06 0.0005171471    1.112    0.101
       180 -11.0682     32.5291    192.0620   1.4220317522e+02   3.1223981300e+01    0.4460936    0.1834695 -55.06  0.002074155    2.624    0.619
       181 -11.7346    215.4887    190.4926   1.0100343767e+02  -1.6639306164e-01    0.4375146    0.3137093 -35.32  0.001417083    1.405    0.288
       182 -11.0491    210.0395    192.4898   1.0250377059e+02   5.0596703101e-01    0.2665298     0.205887 -54.12  0.001385694    1.574    0.365
       183 -10.6580    163.9800    192.5184   1.1240351904e+02   9.5973032413e+00     0.435527    0.2404259  22.78  0.001565093    2.860    0.650
       184 -11.3262    163.2077    188.9857   1.1190277598e+02   1.0482681812e+01    0.4842334    0.2639856  39.93  0.001687817    1.737    0.424
       185 -10.3117     86.4008    192.2385   1.3029595149e+02   2.3990388755e+01    0.3309489    0.1699765 -73.41  0.001422531    2.188    0.543
       186 -10.4880    149.2577    191.3640   1.1553350386e+02   1.2781464074e+01    0.2492819    0.2095805 -50.85 0.0006071969    1.279    0.218
       187 -10.6612    120.3615    189.4030   1.2191838833e+02   1.8785803471e+01    0.2819974    0.1814814 -62.60   0.00131127    1.656    0.396
       188  -9.7812     91.6753    189.9332   1.2874077518e+02   2.3674053379e+01    0.1889853    0.1670079 -88.51 0.0005102991    1.064    0.060
       189  -9.8398    198.6293    185.7040   1.0349529669e+02   3.9816195482e+00    0.2995021    0.1836361  19.23 0.0006248014    2.222    0.550
       190 -10.2353    195.4928    188.5153   1.0472563916e+02   4.0691311807e+00    0.2614065    0.1930402 -51.15  0.001264943    1.531    0.347
       191 -10.3797    193.4819    185.7295   1.0459018547e+02   5.0047621157e+00    0.2760779    0.1906478 -36.88 0.0009800333    1.513    0.339
       192 -11.2184    140.4532    188.8737   1.1711406279e+02   1.5058935976e+01    0.3813451     0.194276  46.81 0.0008221293    1.850    0.459
       193 -10.8350     80.2525    189.3293   1.3130891724e+02   2.5615636377e+01    0.3666154    0.1377605  44.11  0.001455719    2.477    0.596
       194 -10.5849    105.0367    187.6667   1.2525091752e+02   2.1941295867e+01    0.2519286    0.1977457 -64.31 0.0006063067    1.287    0.223
       195 -10.4521    101.6933    186.2911   1.2582391618e+02   2.2837273536e+01    0.2822779    0.1884354  58.95 0.0007131489    1.502    0.334
       196 -11.6203    107.4443    180.7389   1.2353431129e+02   2.3119343899e+01    0.4792949    0.2494982 -44.24  0.001948323    2.310    0.567
       197 -11.4586    103.4772    182.1062   1.2472013654e+02   2.3499123837e+01    0.2982413    0.2734839  83.48 0.0009060882    1.027    0.027
       198 -11.7165    104.0076    178.0948   1.2392180780e+02   2.4343763479e+01    0.3044193     0.260032  88.86   0.00042445    1.145    0.127
       199 -11.4781     66.9172    174.6474   1.3240706591e+02   3.1005658955e+01    0.4364825     0.427287  79.90   0.00278675    1.216    0.177
       200 -11.1959     62.4180    169.6681   1.3279578903e+02   3.2802656043e+01    0.5485085    0.2395171 -75.99  0.002078165    2.709    0.631
       201 -11.9686     72.6149    169.7617   1.3030493772e+02   3.1362160601e+01    0.4412993    0.2472331  47.71  0.001062298    1.787    0.440
       202 -13.0465     74.8015    180.5176   1.3135105505e+02   2.8489774117e+01    0.6154578    0.3624464 -76.01 0.0004565993    1.737    0.424
       203 -11.5068     76.9749    174.0326   1.2987869379e+02   2.9702589855e+01    0.2472437    0.2129849 -80.43 0.0003106065    1.063    0.060
       204 -12.4357    121.8631    182.7616   1.2041069610e+02   2.0010858228e+01     0.680424    0.3708062  63.54  0.002156655    2.538    0.606
       205 -12.7138     92.4100    180.8430   1.2718319550e+02   2.5668328580e+01    0.5976745     0.417242 -31.33 0.0004688767    2.136    0.532
       206 -11.3947     32.9274    184.8824   1.4142116171e+02   3.2798440456e+01     0.333159    0.2159471  27.79  0.001749202    1.974    0.493
       207  -9.7886    225.3052    184.3128   9.7811465065e+01  -9.0717386293e-01    0.1439807    0.1040002   1.50 0.0003311616    1.618    0.382
       208 -11.8850    127.4874    187.8582   1.1997268951e+02   1.7793743618e+01    0.3649616    0.3081672   0.02  0.001841744    1.582    0.368
       209 -11.2063     47.4625    181.4103   1.3782562713e+02   3.1938076659e+01    0.5680578    0.1654556 -59.22  0.002217412    2.962    0.662
       210 -11.9730      2.7756    182.2876   1.4749583121e+02   3.6224399405e+01    0.4019192    0.2342896  75.13  0.002500619    1.504    0.335
       211 -10.0749    238.1497    183.3733   9.5178741048e+01  -3.0785509483e+00    0.1766515     0.127507  49.17 0.0003502875    1.604    0.377
       212 -11.0856    230.4127    181.4646   9.6244280633e+01  -1.3515393770e+00    0.3906312    0.1293002 -40.00  0.001394622    2.946    0.661
       213 -10.2744    190.3300    180.3389   1.0416256534e+02   6.6970997344e+00    0.2843564    0.2156222  82.90 0.0008754994    1.999    0.500
       214 -11.6396     42.1981    178.9621   1.3873851132e+02   3.3124524929e+01    0.3634956    0.2372962  79.20  0.001751623    1.477    0.323
       215 -11.1416     36.9642    172.3956   1.3919035288e+02   3.5232107323e+01    0.2863514    0.2363367 -18.36  0.001504575    1.797    0.444
       216 -11.8646     26.8745    178.9871   1.4215240938e+02   3.4768798033e+01    0.3084553    0.2481131  81.48  0.001107329    1.071    0.066
       217 -11.0649     31.3541    175.6813   1.4082432081e+02   3.5066962535e+01    0.2988735    0.2345057  58.50  0.001320597    1.271    0.213
       218 -10.5129    233.7969    193.9698   9.8129937239e+01  -4.0926103939e+00    0.1955636    0.1801216 -42.85 0.0006804476    1.301    0.231
       219 -11.7121    130.4819    176.1176   1.1711355659e+02   1.9871691180e+01    0.4405443    0.3259248 -69.52   0.00105868    1.499    0.333
       220 -11.2522    136.5010    176.2997   1.1569416171e+02   1.8639161537e+01    0.2584098    0.2539412 -38.43 0.0002384461    1.113    0.102
       221 -10.6601    221.8990    176.1923   9.6794563962e+01   1.1902482797e+00    0.1976935    0.1943223  68.10 0.0002558962    1.202    0.168
       222 -12.3049    154.6828    192.2592   1.1445843227e+02   1.1512137469e+01    0.2725605    0.2595735  47.31 0.0003116167    1.030    0.029
       223 -10.2630    203.9124    174.5396   1.0007377142e+02   5.0591536065e+00    0.2139101     0.192329 -27.76 0.0003867302    1.111    0.100
       224 -10.8253    167.1249    174.8170   1.0818281915e+02   1.2657911757e+01    0.2346247    0.2095947  65.64 0.0008072315    1.182    0.154
       225 -10.0988    156.0447    181.4229   1.1207201965e+02   1.3543063873e+01    0.4427414     0.142477  42.00   0.00139921    2.946    0.661
       226 -11.9948    173.4820    172.4793   1.0624742005e+02   1.1812921341e+01    0.4766263    0.3574533   7.18  0.002150035    1.780    0.438
       227 -11.8937    156.1293    172.2744   1.1021267185e+02   1.5514919770e+01    0.3921813    0.2586547  48.57 0.0006393762    1.473    0.321
       228  -9.9375    144.4801    173.5259   1.1323318066e+02   1.7650678571e+01    0.1529745    0.1466386  46.23 0.0001224887    1.043    0.041
       229 -12.4218     87.7072    171.6327   1.2685997958e+02   2.8613352738e+01    0.4845674    0.3360294  74.70  0.002362199    1.621    0.383
       230 -11.0464     24.9878    167.2850   1.4138001376e+02   3.7633835518e+01    0.3509614    0.2631593  52.46  0.001664344    1.391    0.281
       231 -11.6880     23.6471    172.0532   1.4217481882e+02   3.6667268129e+01    0.2705812    0.2228036  11.22 0.0006924049    1.747    0.428
       232 -11.1089     19.9646    170.0193   1.4279409255e+02   3.7476525485e+01    0.2374254    0.2246995  48.48  0.001453704    1.347    0.258
       233  -9.8168     82.2697    172.3139   1.2831460159e+02   2.9307388412e+01    0.1336464    0.1078487 -36.70 0.0002383408    1.552    0.355
       234 -10.4784     52.1213    171.9055   1.3558047313e+02   3.3594101792e+01    0.2007853    0.1510266  76.36 0.0003547742    1.262    0.207
       235 -11.0110    135.8933    169.1290   1.1443416628e+02   2.0393950157e+01    0.2830086    0.2089036 -80.96   0.00091582    1.692    0.409
       236 -10.3055    100.9399    170.4525   1.2336289321e+02   2.6684308790e+01    0.2143395    0.1400732  42.36 0.0005307725    1.514    0.340
       237 -10.1948    108.6648    168.9738   1.2116397110e+02   2.5665023646e+01     0.203518     0.181084 -73.72 0.0003668519    1.101    0.092
       238 -12.1510     55.8880    167.5297   1.3409138707e+02   3.4160977054e+01    0.4376178    0.2778106  54.19 0.0006171032    1.607    0.378
       239 -11.5038     49.2482    162.2967   1.3500634381e+02   3.6218937784e+01    0.4447643    0.2592487  61.95  0.001696128    1.911    0.477
       240 -12.1907      9.1402    165.5214   1.4476940478e+02   3.9428306731e+01    0.3863775    0.1830483 -56.10 0.0006325025    2.015    0.504
       241 -10.0217    194.1802    168.3177   1.0079653546e+02   8.2941004793e+00    0.2233316    0.1348004  51.81 0.0007599259    1.768    0.434
       242 -10.6497     12.2532    170.2076   1.4451296620e+02   3.8114599563e+01    0.3260902    0.2245654   8.47  0.001998848    2.294    0.564
       243 -12.0341     41.1275    166.3699   1.3750230789e+02   3.6185411925e+01    0.2576166    0.2424379 -62.95  0.001081952    1.250    0.200
       244 -11.3185     31.5551    169.6625   1.4012979202e+02   3.6435708777e+01    0.2809272    0.2666741 -40.51  0.001475437    1.378    0.274
       245 -10.4501     36.1009    165.7593   1.3862266396e+02   3.6872508072e+01    0.1853064    0.1446902  82.39 0.0005094411    1.154    0.134
       246 -10.8470    196.0688    164.6516   9.9598093009e+01   8.6312310183e+00    0.2445317    0.1917923  65.72   0.00116889    1.538    0.350
       247 -10.0436    179.3833    164.5780   1.0322718818e+02   1.2214601375e+01    0.3059537    0.1371052 -57.11 0.0009560887    3.363    0.703
       248 -10.7441    104.7089    164.1017   1.2126629530e+02   2.7535441978e+01    0.2431743    0.2401048  23.65 0.0004826663    1.151    0.131
       249 -11.0417    100.7170    163.3323   1.2214313437e+02   2.8423482512e+01    0.3572291    0.2319094 -82.87  0.001548728    1.954    0.488
       250  -9.9420     73.7835    165.2185   1.2931354942e+02   3.2282258293e+01     0.175971    0.1572086 -43.71 0.0002942787    1.296    0.228
       251 -10.2882    203.5016    163.0210   9.7680278698e+01   7.3893191018e+00    0.3674289    0.2188241 -63.02  0.001390205    2.672    0.626
       252 -10.6051    139.4150    162.6830   1.1225251238e+02   2.1152870605e+01    0.3189917    0.2411084 -62.56  0.000890532    1.421    0.296
       253 -10.2406    123.9782    163.4906   1.1626454969e+02   2.4072661557e+01    0.2244265    0.2031225 -63.71 0.0003813664    1.113    0.101
       254  -9.9885     92.8072    163.3870   1.2417565924e+02   2.9757523680e+01    0.1865243    0.1411954  26.64  0.000242465    1.571    0.363
       255 -13.4029     40.8605    199.5501   1.4117957524e+02   2.8608372445e+01      1.32489    0.6649466 -67.53  0.007018592    1.781    0.439
       256 -10.3660    242.6952    161.0099   8.9695220429e+01  -2.9729711968e-02    0.1959916    0.1655648 -26.97 0.0003196193    1.085    0.079
       257 -10.8520    224.1520    161.0785   9.3135325687e+01   3.5318644886e+00    0.2370647    0.2134419  63.65 0.0007387784    1.295    0.228
       258 -10.8230     18.4603    160.8237   1.4220400234e+02   3.9715797350e+01    0.1801156    0.1732236 -50.27 0.0005958372    1.340    0.254
       259 -12.5567     34.3038    158.2161   1.3814175638e+02   3.8828132962e+01    0.3559988    0.2311498  63.61 0.0004554603    1.618    0.382
       260  -9.6697    196.4800    159.5177   9.8381335238e+01   9.5768603089e+00    0.1508398    0.1471029   8.86 0.0001879444    1.006    0.006
       261 -11.9259    107.1338    157.7780   1.1944065082e+02   2.8612262363e+01    0.3694425    0.2565137 -67.75 0.0004101694    1.516    0.340
       262 -11.4003    139.1939    156.4567   1.1098846689e+02   2.2630847123e+01     0.676344    0.3386955  59.62  0.001507726    2.877    0.652
       263 -10.8921    136.3865    151.7885   1.1067964404e+02   2.4296097523e+01    0.3687461    0.2731208  47.07  0.001006561    1.324    0.245
       264 -10.2464     66.2703    158.0336   1.3009223399e+02   3.5073298780e+01    0.1963081    0.1624142 -73.59 0.0003833456    1.086    0.080
       265 -10.5804    209.8441    157.1303   9.5084417983e+01   7.2130051382e+00    0.2157751    0.2037729 -85.83 0.0003503665    1.206    0.171
       266 -10.1811      1.5268    156.9781   1.4569091574e+02   4.1925008588e+01    0.1734703   0.08940567 -74.88 0.0003858537    1.486    0.327
       267  -9.7556    190.0140    156.7612   9.9154231845e+01   1.1536394426e+01     0.200424      0.12817  45.39 0.0003778092    1.547    0.354
       268 -10.3207    183.6619    155.5161   1.0026712720e+02   1.3185067788e+01    0.3003914    0.1965336 -13.05  0.001140608    2.465    0.594
       269  -9.4021    156.3211    156.3159   1.0676413267e+02   1.9010647266e+01    0.1593314    0.1269631   0.81  0.000704116    1.660    0.398
       270 -10.0025    176.1504    155.1200   1.0186271955e+02   1.4923180017e+01    0.2029391    0.1827507 -88.06 0.0002493469    1.250    0.200
       271  -9.9188    145.6910    155.7148   1.0921730972e+02   2.1431513280e+01    0.1539039    0.1264542   1.46 0.0001708868    1.570    0.363
       272 -10.7839    114.1204    154.8408   1.1704231931e+02   2.8018143699e+01    0.2801301    0.2274896  61.13 0.0009231062    1.260    0.206
       273 -10.4041     93.1818    154.8375   1.2252326866e+02   3.1757547713e+01    0.2200354    0.1873806 -88.45 0.0004060593    1.177    0.150
       274 -11.2205     85.1537    154.7795   1.2462499683e+02   3.3078289211e+01    0.3916077    0.2453008  36.36  0.001139022    1.697    0.411
       275 -10.8594    233.4503    153.0455   8.9648908983e+01   3.1710695373e+00    0.2360418    0.1777397 -14.61  0.000626004    1.487    0.328
       276 -10.1297     44.5308    154.4941   1.3511487752e+02   3.8618820662e+01    0.1320435    0.1117562 -78.57 3.424385e-05    1.008    0.008
       277 -10.0781     37.0324    153.8124   1.3690819878e+02   3.9586231589e+01    0.2191602    0.1237586  64.16   0.00107963    2.068    0.516
       278 -11.7884     18.7862    153.9748   1.4139258959e+02   4.1264423642e+01    0.2235585    0.1949789  35.29 0.0003698865    1.418    0.295
       279  -9.8417     11.4621    157.5253   1.4348441204e+02   4.1053581267e+01    0.1207141   0.09394183 -80.04 0.0001620221    1.025    0.024
       280 -11.2639    249.1206    151.3562   8.6525944825e+01   4.7274156187e-01    0.2745425    0.1898213 -43.49 0.0007702633    1.370    0.270
       281 -10.9990    187.9508    150.0881   9.8092323559e+01   1.3371042905e+01     0.253269    0.2226849  32.33 -0.001320134    1.156    0.135
       282 -10.3749    178.1495    149.8441   1.0021110973e+02   1.5605083003e+01    0.2179162    0.1879016   7.98 0.0003775834    1.332    0.249
       283  -9.8432    123.3832    150.2190   1.1367012138e+02   2.7316612028e+01     0.207491    0.1463552 -64.70  0.000284402    1.538    0.350
       284 -10.6954    104.5466    149.4507   1.1846272081e+02   3.1080224889e+01    0.2383106    0.1912921 -49.67 0.0007343624    1.254    0.202
       285 -11.2182    154.9850    147.1074   1.0501159292e+02   2.1364242271e+01    0.4732334    0.2166363 -35.06  0.001534757    2.926    0.658
       286 -11.6111    164.8690    147.3919   1.0271101731e+02   1.9105288587e+01    0.4774722    0.3538853  76.47  0.001590601    1.778    0.438
       287 -10.4994     36.3673    147.0877   1.3617493492e+02   4.1244314834e+01     0.197281    0.1851535 -23.00  0.001320586    1.329    0.248
       288 -12.5638     52.8727    144.0487   1.3138393386e+02   4.0156361183e+01    0.6380797    0.3136165  59.09  0.001287541    2.829    0.647
       289 -11.4470     24.1736    138.9956   1.3824137172e+02   4.4281600727e+01    0.3036012    0.2144704  -4.12  0.001776896    2.063    0.515
       290 -11.3872     14.9473    143.9712   1.4119912563e+02   4.3883230749e+01    0.2850339    0.2149348 -89.44 0.0006858096    1.177    0.150
       291  -9.7710    224.2574    149.6695   9.0612467558e+01   5.6480501265e+00    0.1425098    0.1132005 -67.01 0.0001691059    1.563    0.360
       292 -10.3848     85.1199    143.9216   1.2260239383e+02   3.5714245308e+01     0.216474    0.1807053  82.56            0    1.268    0.211
       293  -9.8000    123.8105    142.8387   1.1194119979e+02   2.8971199987e+01    0.2133855     0.181555  82.93 0.0004193615    1.301    0.232
       294 -10.5327     92.0244    146.9864   1.2132610333e+02   3.3849777142e+01    0.2338127    0.1767281 -27.73 0.0008429418    1.698    0.411
       295 -10.3190    225.5627    142.9406   8.8867894114e+01   6.6465047435e+00    0.2058581    0.1966256  35.78 0.0004309335    1.095    0.087
       296 -11.2993    132.2500    139.8548   1.0905467282e+02   2.7932912569e+01    0.3546111    0.2804644 -63.27 0.0008015268    1.341    0.254
       297 -11.6461     62.6932    140.8715   1.2818671550e+02   3.9695478050e+01    0.2292847     0.216888  89.84 0.0002431874    1.080    0.074
       298 -11.8712     23.0515    144.4242   1.3922371998e+02   4.3113623774e+01    0.3071998    0.2341403  38.81  0.001231916    1.523    0.344
       299 -11.4931     35.8334    138.4311   1.3508614765e+02   4.3343940984e+01    0.2356253    0.1826585 -68.22 0.0002976243    1.082    0.076
       300 -10.5410    181.2512    137.1000   9.6531853646e+01   1.7606097180e+01    0.3188528     0.230732  55.79  0.001258878    1.437    0.304
       301 -10.8952    121.9548    134.7899   1.1059746248e+02   3.1234857976e+01    0.3047653    0.2174493 -55.51 0.0006143331    1.420    0.296
       302 -10.8000     77.2393    134.9863   1.2303322914e+02   3.9083312208e+01     0.225502    0.2067952  49.20 0.0004961093    1.158    0.136
       303 -11.5346     76.5142    129.8176   1.2219380330e+02   4.0430826474e+01    0.3648882     0.238786 -45.38  0.001768494    1.506    0.336
       304 -11.0763     29.6340    134.9564   1.3624380384e+02   4.4745158654e+01    0.2034782    0.1686733 -20.27 0.0006675039    1.521    0.342
       305 -11.2694     22.8713    132.4276   1.3770212866e+02   4.5918187934e+01    0.4709929    0.2095587  86.58  0.001743178    3.933    0.746
       306 -10.6942    195.9659    133.8033   9.2577740279e+01   1.4917457045e+01    0.2576919    0.2169258 -38.40 0.0005362948    1.186    0.157
       307 -10.0989    161.7516    132.9964   1.0003715352e+02   2.2972032717e+01    0.2068265    0.1371762 -44.76 0.0003841582    1.529    0.346
       308 -11.2897    143.7578    132.8741   1.0444290889e+02   2.7055309577e+01    0.2879689    0.2535271  70.10 0.0004052272    1.203    0.169
       309 -10.4390    147.3942    129.9920   1.0282141785e+02   2.6895105897e+01    0.2765031     0.219758  45.83 0.0005499558    1.243    0.195
       310 -10.5070      8.6003    132.5750   1.4147076431e+02   4.6954640014e+01    0.1785062     0.143352  34.17 0.0006524979    1.532    0.347
       311 -11.2953    122.4531    128.9823   1.0908969224e+02   3.2485779270e+01     0.275016    0.2633469  15.18   0.00033755    1.110    0.099
       312  -9.8134     86.5802    129.8063   1.1930541759e+02   3.8877133821e+01    0.1998848    0.1361304 -68.23 0.0005278408    1.569    0.363
       313 -11.5961     62.5197    128.8746   1.2603385201e+02   4.2596633462e+01    0.3374212    0.2329904  59.78  0.001685111    1.729    0.422
       314 -10.4793     35.2261    128.5373   1.3374378615e+02   4.5731749344e+01    0.2448009    0.1270376 -40.68  0.001165613    2.168    0.539
       315 -10.0656     51.0092    128.4980   1.2926851792e+02   4.4089163083e+01     0.180943    0.1355424  28.13 0.0007012887    1.544    0.352
       316 -10.8001     19.9784    124.9791   1.3744613699e+02   4.7869471009e+01     0.240552    0.1437072 -69.86 0.0006264185    1.375    0.273
       317 -11.5893    206.3792    124.7913   8.8327714651e+01   1.4339553869e+01    0.2721394    0.2588856 -32.85 0.0002219809    1.060    0.056
       318 -10.0782     55.0153    124.6903   1.2741066799e+02   4.4523392740e+01    0.1774208    0.1680856 -57.20 0.0003937532    1.081    0.075
       319 -10.3343    127.7438    123.7472   1.0638357276e+02   3.2590000815e+01    0.2147969    0.1836356 -85.55 0.0005926181    1.342    0.255
       320 -12.0140     69.3365    123.0904   1.2288904185e+02   4.3058893759e+01    0.4045129    0.3454835  74.76  0.001640597    1.314    0.239
       321 -10.0204    178.5277    123.4914   9.3821907307e+01   2.1094901466e+01    0.1578401    0.1544223  87.82 8.152107e-05    1.016    0.016
       322 -11.2007     13.9928    122.5000   1.3874816705e+02   4.8877015082e+01    0.2171211    0.1539746 -68.97 0.0003251669    1.124    0.110
       323 -12.0579     21.2439    110.7190   1.3490455970e+02   5.1028229320e+01    0.5463039    0.2186608 -45.79  0.002549416    2.288    0.563
       324 -11.9365     31.7884    119.4901   1.3325481955e+02   4.8156514505e+01    0.3296652    0.2164699 -73.10  0.000569144    1.400    0.286
       325 -11.6875     27.5270    117.4824   1.3416256307e+02   4.8987765110e+01    0.3126619    0.1984337 -13.45  0.001398073    2.222    0.550
       326 -11.6543     19.4451    118.6103   1.3666454758e+02   4.9369382858e+01    0.4463805    0.2487386   2.31  0.002314535    2.690    0.628
       327 -11.2722     14.6196    115.8773   1.3763341130e+02   5.0336982776e+01    0.2532417    0.1996207  85.28 0.0003434672    1.337    0.252
       328 -11.0162    138.7577    121.4259   1.0288992081e+02   3.0732017332e+01    0.2706872    0.2499853 -38.36 0.0004587077    1.109    0.098
       329  -9.8205    120.4070    122.4874   1.0806239682e+02   3.4399176672e+01    0.1538046    0.1492512 -68.78 -4.698762e-05    1.030    0.029
       330 -10.7411     63.2345    122.5607   1.2458053827e+02   4.4002919001e+01    0.2548466    0.1281601  38.29  0.001137142    2.144    0.534
       331 -10.7254    173.1109    120.3931   9.4261665415e+01   2.3022033868e+01    0.2912538    0.2276593 -53.80 0.0003889968    1.328    0.247
       332 -11.5409     83.9494    120.0744   1.1791392330e+02   4.1600627841e+01    0.3517568    0.3030655  76.97   0.00105083    1.322    0.244
       333 -10.7240     58.3468    120.9286   1.2569970195e+02   4.5007011731e+01    0.3104596    0.1250149 -59.37   0.00125414    2.216    0.549
       334 -12.2175     61.7708    114.4805   1.2333874468e+02   4.6085353926e+01    0.6696498    0.3772964 -25.54  0.002774007    2.723    0.633
       335 -10.5664      3.4098    117.9901   1.4105386417e+02   5.0572059348e+01    0.2071317    0.1477305  54.41  0.001048588    1.667    0.400
       336 -10.8566     87.9718    114.3995   1.1539071913e+02   4.2269945937e+01    0.4478725    0.1979525 -57.24  0.001095023    2.378    0.580
       337 -10.0557     54.7495    117.4421   1.2607777423e+02   4.6259112684e+01      0.16705    0.1316653   2.47 0.0006382217    1.562    0.360
       338  -9.6148    156.0449    116.0071   9.7147829298e+01   2.7973841839e+01    0.1876771    0.1821116  58.01 0.0003448941    1.013    0.013
       339 -10.1849    140.0587    116.3002   1.0123798146e+02   3.1575067415e+01    0.2288698    0.1988284  47.66 0.0007177048    1.139    0.122
       340  -9.4546    115.4813    116.4513   1.0791539638e+02   3.6768546575e+01    0.1520558    0.1496515 -83.46 0.0008081692    1.031    0.030
       341  -9.4141    112.2735    115.6870   1.0862558838e+02   3.7577353718e+01    0.1504106    0.1215205 -89.76 0.0001499564    1.557    0.358
       342  -9.8233    126.0062    114.4514   1.0449166668e+02   3.5048982026e+01    0.2283146    0.1527352  45.37 -4.50817e-05    1.495    0.331
       343 -10.9684     34.4908    112.3482   1.3121516252e+02   4.9557972517e+01     0.346254    0.1066431 -43.48  0.001239046    3.572    0.720
       344 -10.7540     48.9784    111.9748   1.2673104394e+02   4.8187133011e+01    0.1975982    0.1735615 -52.32 0.0003557047    1.020    0.020
       345  -9.6862    105.9358    119.6941   1.1142655940e+02   3.7877477818e+01    0.2075597    0.1899948  35.10 0.0003800138    1.127    0.112
       346 -10.5238      3.8647    110.5723   1.3994522133e+02   5.2197365016e+01      0.24517    0.1097566  22.90   0.00129347    2.740    0.635
       347 -10.0886    231.6301    109.2428   8.0138114336e+01   1.1607372923e+01    0.1966314     0.132592 -32.34 0.0003296821    1.536    0.349
       348 -10.3024     85.0240    109.1952   1.1501349879e+02   4.3942174641e+01    0.2135929    0.1862812  76.65 0.0005175146    1.353    0.261
       349 -11.1644     27.1262    107.8126   1.3263733604e+02   5.1225825216e+01    0.1674694    0.1425173 -55.49 0.0002631239    1.042    0.040
       350 -10.8622     28.8672    103.8589   1.3138134553e+02   5.1973296599e+01    0.2566889    0.1441971 -40.12 0.0004150495    1.726    0.421
       351 -10.4289    152.1932    106.0438   9.5465888650e+01   3.0975799731e+01    0.2944259    0.2192387 -64.72 0.0007504395    1.593    0.372
       352 -10.9274     93.1373    118.3960   1.1481785922e+02   4.0476827142e+01    0.3500013    0.3022998 -57.18  0.001872235    1.125    0.111
       353 -10.6089     92.0949    105.8815   1.1203202794e+02   4.3510881513e+01    0.2209727     0.195115  89.27 0.0004796054    1.336    0.252
       354 -10.2084     43.9653    107.0000   1.2727528728e+02   4.9860929522e+01    0.1901156   0.07571387  26.73 0.0006162104    2.905    0.656
       355  -9.7388    228.9868    104.7320   7.9533779415e+01   1.3005583229e+01    0.1732258    0.1273097  57.39 0.0003687098    1.428    0.300
       356 -10.1158    138.4874    104.4879   9.8511525244e+01   3.4468839894e+01    0.1565471    0.1529327  73.17 0.0001085117    1.038    0.037
       357 -10.9917    135.5938    101.4263   9.8432842427e+01   3.5763228161e+01    0.3122277     0.284715  72.83 0.0005111471    1.175    0.149
       358 -12.0645    234.0466    102.3856   7.8180852622e+01   1.2306207412e+01    0.2591421    0.2526588  73.12 0.0003641057    1.115    0.103
       359 -11.0716    167.1346    102.3935   9.0960504084e+01   2.8145105669e+01    0.3703753     0.258688  36.17  0.001613413    1.587    0.370
       360  -9.8922    116.1558    102.8325   1.0414318795e+02   3.9644646928e+01    0.2021043     0.175947 -10.53  0.000306471    1.266    0.210
       361 -11.2979     47.0227    101.4337   1.2513508245e+02   5.0797859141e+01    0.3288217    0.2406732  64.54  0.001798861    1.848    0.459
       362 -11.2156     76.4846    101.6161   1.1576984235e+02   4.6976839492e+01     0.284219     0.234568  -6.86  0.001413073    1.354    0.262
       363 -10.5805      2.3154    101.8998   1.3916581573e+02   5.4190032266e+01    0.1686391    0.1562371  53.97 0.0009249891    1.351    0.260
       364 -10.6361     67.5934    100.2883   1.1826295777e+02   4.8547980884e+01    0.3443044    0.1532336 -55.36  0.001070184    2.136    0.532
       365 -11.2563     25.3927    100.3826   1.3182312040e+02   5.3029378796e+01    0.2397837     0.184993 -44.89 0.0005380466    1.148    0.129
       366 -10.0365    177.7157    100.0077   8.7997813335e+01   2.6037321140e+01    0.2130104    0.1996818 -56.56  0.000304935    1.073    0.068
       367 -11.6219     85.8808     98.7752   1.1208876540e+02   4.6126620283e+01    0.5611156    0.3075736 -27.97  0.002028677    2.545    0.607
       368 -11.6957      9.9448     99.0102   1.3640763821e+02   5.4394895068e+01    0.2967786    0.2314346  -0.16   0.00204365    1.576    0.365
       369  -9.7661     35.7101     99.7020   1.2840253556e+02   5.2306759405e+01    0.1831847    0.1205601   5.31 0.0004918182    1.917    0.478
       370 -11.4202     32.6889     97.8479   1.2899783734e+02   5.2988487067e+01    0.3619589    0.1563864 -66.84  0.001596944    2.352    0.575
       371 -10.2934    124.8695     97.9056   1.0034497616e+02   3.8859259885e+01    0.2297982    0.2037975  -3.71 0.0002687096    1.236    0.191
       372 -11.4174     55.2644     97.0873   1.2147743219e+02   5.0835265766e+01    0.2416361    0.2089318 -80.61 0.0002380348    1.347    0.257
       373 -11.0225     47.4689     96.4354   1.2387736308e+02   5.1862467111e+01    0.2258872    0.1892696 -51.04 0.0005985446    1.058    0.055
       374 -11.1268    106.3419     98.5944   1.0582299911e+02   4.2504449759e+01    0.2220611    0.1817105  83.28 0.0006230617    1.610    0.379
       375 -11.0147    147.9922     96.0335   9.3773573910e+01   3.4006026982e+01    0.2271742    0.2213365  50.12   0.00119627    1.005    0.005
       376  -9.9631    118.5155     96.4979   1.0172297053e+02   4.0500144654e+01    0.1512468    0.1476609   4.19 0.0002287201    1.004    0.004
       377  -9.6648    112.5277     96.6329   1.0347208908e+02   4.1699991092e+01    0.1477932    0.1424421  29.10 -4.710802e-05    1.039    0.038
       378 -11.6296     18.9551     89.2526   1.3177393512e+02   5.5936414839e+01    0.2883047    0.1414165 -54.91 -0.000430966    1.564    0.361
       379 -11.1695     18.9824     95.2537   1.3290910158e+02   5.4633207675e+01    0.2327035    0.2173982  82.91 0.0007937241    1.272    0.214
       380 -11.1324     22.0123     92.9903   1.3149904150e+02   5.4910663836e+01     0.359571     0.200103 -80.72  0.001781568    2.335    0.572
       381 -11.0304     25.9042     92.1979   1.3006536212e+02   5.4788999944e+01    0.1915645    0.1661189  25.43 0.0008109833    1.381    0.276
       382 -10.7288     59.8704     95.0624   1.1947993340e+02   5.0716685611e+01    0.2652758     0.154688  54.53   0.00117928    2.564    0.610
       383  -9.9278    181.9352     93.9916   8.5535521173e+01   2.6154093958e+01    0.1987525    0.1679084  58.11 0.0009814356    1.157    0.136
       384  -9.6905     91.4579     94.0024   1.0906169585e+02   4.6213621266e+01      0.21314    0.1376276 -46.79 0.0004344534    1.497    0.332
       385  -9.9040    106.9608     92.9485   1.0406169433e+02   4.3574351424e+01    0.2355271    0.1786618  -3.37 0.0006886457    1.664    0.399
       386 -10.7935     16.0677     98.7512   1.3446145286e+02   5.4064862773e+01    0.2042323    0.1406109 -61.87 0.0004266619    1.171    0.146
       387 -10.7959    135.9547     92.0278   9.5710442624e+01   3.7597932524e+01    0.2338871    0.2253557  30.86  0.000425967    1.024    0.023
       388 -10.7818    113.9535     91.0651   1.0148154009e+02   4.2563282080e+01    0.2225868    0.2188358   1.33 0.0003681078    1.031    0.030
       389 -11.5761     88.6991     88.0028   1.0824404556e+02   4.7946880236e+01    0.4603336    0.3257554 -23.54  0.001869616    1.575    0.365
       390 -11.4820     85.4855     82.7269   1.0774788870e+02   4.9567559112e+01    0.2693327    0.2324647  58.34 0.0005305447    1.411    0.291
       391  -9.8331    151.3177     89.2883   9.1078619237e+01   3.4537254061e+01    0.1565018    0.1224082  17.60 0.0002822384    1.594    0.373
       392 -11.1273     63.8129     87.5663   1.1625196200e+02   5.1820848248e+01    0.3680195    0.2678582  54.68  0.001487347    1.824    0.452
       393 -10.1504      6.2557     89.2131   1.3592118889e+02   5.6723097499e+01    0.1854384    0.1009654  36.99 0.0006443214    2.337    0.572
       394 -10.0634      1.9895     88.7376   1.3721115763e+02   5.7044027120e+01    0.2277604    0.1207627  52.92  0.001204927    2.869    0.651
       395 -10.3618     77.7319     87.9793   1.1176033233e+02   4.9734847767e+01    0.2620811    0.1786506 -26.85 0.0003363494    1.584    0.369
       396 -10.3462     80.8569     84.8236   1.0985323559e+02   4.9898151205e+01    0.2087109     0.174865 -12.14  0.001159357    1.211    0.174
       397 -10.3525    180.8367     87.0112   8.3919651183e+01   2.7721837863e+01    0.2343747     0.197782 -77.91 0.0004373864    1.277    0.217
       398  -9.8448    130.9963     87.0000   9.5574470068e+01   3.9709292954e+01    0.2802256    0.1554053  47.28 0.0003161492    1.757    0.431
       399 -11.5207    127.5189     85.9478   9.6201780125e+01   4.0689279675e+01    0.3181187    0.2363761  14.97  0.001446246    1.698    0.411
       400 -12.2554    118.7416     82.8219   9.7704387598e+01   4.3199700498e+01    0.6506572    0.3093075 -56.82   0.00167763    3.426    0.708
       401 -11.0162     20.3696     82.3964   1.2989656022e+02   5.7297533149e+01    0.2472369    0.2215186  75.30 0.0001630572    1.428    0.300
       402 -10.4943     10.7772     85.9638   1.3385496979e+02   5.7160654261e+01    0.2258133     0.183566 -29.24   0.00160275    1.247    0.198
       403  -9.9390     13.2245     82.5410   1.3237156032e+02   5.7737279455e+01     0.148956     0.115392   4.09 0.0004749738    1.515    0.340
       404 -10.6970    154.9929     85.3209   8.9090223020e+01   3.4402884968e+01    0.2823721    0.1916328  55.12 0.0004576555    1.441    0.306
       405 -10.5454    103.8935     84.9684   1.0266903009e+02   4.5795195484e+01    0.3872199    0.2007481  28.65   0.00148292    2.456    0.593
       406  -9.8868    103.6969     81.3228   1.0164441397e+02   4.6552181102e+01    0.2438128    0.1375455 -46.38 0.0001801975    1.827    0.453
       407 -10.9489     53.3526     82.8368   1.1855847137e+02   5.4125022130e+01     0.196815    0.1815805  31.76 0.0007498046    1.260    0.206
       408 -10.2124      2.6231     83.2613   1.3606502936e+02   5.8169311335e+01    0.1660821   0.07733852 -56.25 0.0002584231    1.551    0.355
       409 -11.0824    148.1640     81.8295   8.9718595634e+01   3.6697709537e+01    0.2728017    0.2107535 -27.78  0.001299799    1.427    0.299
       410 -10.2622    132.5270     82.4870   9.3850515928e+01   4.0229280994e+01    0.2290385    0.1911595 -52.26 5.780238e-05    1.294    0.227
       411 -10.8549    130.2035     79.8121   9.3672828799e+01   4.1256934487e+01    0.2790768    0.2133408  42.45 0.0004457693    1.264    0.209
       412 -11.1342     45.0100     81.1359   1.2101636878e+02   5.5408963092e+01    0.2776297    0.1922892  35.74 0.0003108043    1.677    0.404
       413  -9.3866    162.6619     81.2922   8.6213862554e+01   3.3267292027e+01    0.1578974    0.1205683 -84.85   0.00070258    1.645    0.392
       414 -10.9324     94.6864     79.2686   1.0379529200e+02   4.8646364566e+01    0.3959574    0.2610507  -4.51  0.001201831    2.215    0.549
       415 -10.6643    154.2850     79.0211   8.7468132445e+01   3.5730757572e+01    0.2106601    0.2036089 -57.14 0.0005588949    1.076    0.071
       416 -11.1765     86.2509     78.0353   1.0610911967e+02   5.0370463497e+01    0.2296863    0.1972454  35.09 0.0002903448    1.211    0.174
       417 -10.7692      3.6593     77.7208   1.3470052809e+02   5.9271727050e+01     0.176911    0.1524347 -43.65 0.0006485705    1.139    0.122
       418 -11.8065      1.6499     74.4113   1.3476209006e+02   6.0048489203e+01    0.3140465    0.1420341 -61.72  0.000768451    1.702    0.412
       419  -9.6363    107.4862     77.4699   9.9344926759e+01   4.6545400526e+01    0.1458037    0.1379713   7.75 0.0001084708    1.006    0.006
       420 -12.0942     58.4799     74.3154   1.1441866492e+02   5.5233478339e+01    0.3359592    0.2771063  47.42 0.0004183955    1.525    0.344
       421 -11.0904     52.9110     75.3378   1.1667846193e+02   5.5713266592e+01    0.3844412    0.2397911  35.26  0.002070779    1.792    0.442
       422  -9.8839     69.0007     73.9912   1.1065677348e+02   5.3869595309e+01    0.1628206    0.1387452 -29.65 0.0003759983    1.064    0.060
       423 -10.1331     29.0961     74.2746   1.2495469783e+02   5.8315867668e+01    0.1624976    0.1401054 -35.37 0.0006690405    1.072    0.067
       424 -10.8503     28.0508     85.8658   1.2801230494e+02   5.5982608783e+01    0.3725574    0.2025773  22.54  0.002034012    2.133    0.531
       425 -10.5209     36.7126     72.0194   1.2161108642e+02   5.8099382727e+01    0.3096322    0.2275289  42.15  0.001882362    1.751    0.429
       426 -10.2899    106.7362     70.5405   9.7419870586e+01   4.7974398572e+01    0.2778175     0.133094  38.85  0.001115988    2.097    0.523
       427  -9.9270    205.0415     69.5063   7.4998258857e+01   2.4747689146e+01     0.206178    0.1383352  63.44 2.134983e-05    1.440    0.305
       428 -11.6548     88.1729     69.1287   1.0273474463e+02   5.1728027370e+01    0.3698904     0.197212  29.43  0.001445969    2.082    0.520
       429 -10.1798     53.3571     68.8856   1.1466684622e+02   5.6933245507e+01    0.2488262    0.1416183 -39.98  0.001288464    1.553    0.356
       430 -11.4507    129.6194     67.5788   9.0121000996e+01   4.3571265458e+01    0.5531524    0.3005293  66.01  0.001231586    2.715    0.632
       431 -11.2496     26.9636     67.1960   1.2395049638e+02   5.9910492578e+01    0.3907718    0.1612727 -32.36  0.001760736    2.637    0.621
       432 -10.5767      3.6995     67.4702   1.3263222808e+02   6.1352700113e+01    0.1807653    0.1049269  20.03  0.001135846    2.075    0.518
       433 -10.2341     74.5814     66.3021   1.0636808423e+02   5.4493947366e+01     0.214744    0.1565734  43.51 0.0005760903    1.554    0.357
       434 -10.3304     15.7050     65.0019   1.2762325174e+02   6.1160692123e+01    0.2114782    0.1350156 -17.91 0.0007243764    1.609    0.379
       435  -9.9040     11.8537     62.6559   1.2851023167e+02   6.1861210323e+01    0.1675239    0.1378345  83.82 0.0004934961    1.754    0.430
       436 -10.4419     16.3758     60.7568   1.2631033199e+02   6.1945186018e+01    0.2733375    0.1480533 -60.18 0.0008402222    1.755    0.430
       437 -10.7130     14.2256     56.4303   1.2602716095e+02   6.2913260882e+01    0.2215651    0.1256657 -50.33 0.0006639583    1.399    0.285
       438 -11.8406     19.9106     57.2007   1.2399749144e+02   6.2380762022e+01    0.2292697    0.2041367   4.01 0.0004137825    1.297    0.229
       439 -10.8882     27.7366     54.0513   1.2000701434e+02   6.2356098397e+01    0.2616625    0.2191971  -1.10   0.00185617    1.221    0.181
       440 -10.7688     69.4653     61.6563   1.0665325920e+02   5.6115096795e+01    0.3637744    0.2188047  -0.56 0.0008971077    2.406    0.584
       441 -10.8645     24.8253     56.6002   1.2189760388e+02   6.2121656575e+01    0.2048648    0.1971223  50.14  0.001327846    1.460    0.315
       442 -11.0398     78.1173     60.8964   1.0341122101e+02   5.4903149726e+01    0.3313695    0.2243635 -16.57  0.001294346    1.614    0.380
       443 -11.3290      4.1482     53.1236   1.2916766791e+02   6.4115272008e+01    0.3664534    0.1468848 -40.27  0.001196068    1.908    0.476
       444 -12.1744     10.6975     50.3761   1.2582012732e+02   6.4264520145e+01    0.4279113    0.3016554 -31.98  0.003006611    1.124    0.111
       445 -11.6338      5.6374     60.1425   1.3027986040e+02   6.2697674955e+01    0.3060462    0.3047304 -89.19  0.001474163    1.371    0.271
       446 -10.3209      1.4633     61.4734   1.3216352754e+02   6.2643730270e+01    0.1674649    0.1111442 -47.08  0.000601658    1.115    0.103
       447 -10.9044     19.4980     49.5424   1.2199774334e+02   6.3829737073e+01    0.1977101    0.1654925  -9.14 0.0006892282    1.198    0.165
       448 -11.8711     16.3591     47.8345   1.2278546072e+02   6.4362306261e+01    0.3256072    0.1955895 -25.46  0.002051354    1.472    0.321
       449  -9.6693     39.4157     61.4960   1.1766364865e+02   5.9887934867e+01     0.124937    0.1006692 -29.06 9.394861e-05    1.017    0.017
       450  -9.7512     31.6261     59.3110   1.2001701275e+02   6.1039002121e+01    0.1091141   0.09461826  69.11 0.0007031914    1.781    0.438
       451 -11.1180    106.9487     57.2886   9.3082683647e+01   5.0190676264e+01    0.3574277    0.2423204  52.62   0.00155799    1.556    0.357
       452 -10.6817     53.9199     58.0504   1.1112403344e+02   5.8889780823e+01    0.2300083     0.198332 -64.50 0.0004860409    1.598    0.374
       453 -10.9891     53.8839     53.6134   1.0968833449e+02   5.9680068674e+01    0.3277293    0.1975631  19.74  0.001775396    1.743    0.426
       454 -12.0111     43.0945     53.6646   1.1383893050e+02   6.0941274154e+01     0.610931    0.4374274 -87.56  0.002863246    3.656    0.727
       455 -10.5223     37.7941     57.2241   1.1700845871e+02   6.0847411265e+01    0.2106353    0.1548036  31.92   0.00100755    1.601    0.376
       456 -10.5688    118.7161     55.7914   8.9285252019e+01   4.7931163975e+01    0.2181706    0.1726848  -7.33  0.000805305    1.406    0.289
       457 -10.5404     95.7052     54.6756   9.5593933564e+01   5.2835101414e+01    0.2516563     0.193148  19.99 0.0005613841    1.287    0.223
       458 -10.8486     92.7268     54.3398   9.6412610808e+01   5.3450933926e+01    0.2715368    0.1985014 -29.56 0.0007402491    1.369    0.270
       459 -11.3335     60.5654     52.0852   1.0667951171e+02   5.9059008801e+01    0.2203449    0.1669566  12.88  0.001327461    1.266    0.210
       460 -10.2739     33.0556     51.3009   1.1704811288e+02   6.2380991965e+01     0.162574    0.1352899 -13.56 0.0004924281    1.099    0.090
       461 -11.4722    196.0086     48.0667   7.1041525887e+01   3.0261841949e+01    0.2129985    0.1940964 -73.56 0.0003021343    1.084    0.078
       462  -9.9172    151.4848     49.4874   7.9449899449e+01   4.1198603197e+01    0.1460429     0.133022  57.23 2.551922e-05    1.002    0.002
       463 -11.3623     75.3063     53.1639   1.0177464209e+02   5.6673991992e+01    0.3950399    0.2593482  55.28  0.001481382    2.234    0.552
       464 -11.1101     37.3469     40.2687   1.1164216851e+02   6.3843268836e+01    0.2195797    0.1689128 -14.92 0.0006641682    1.054    0.051
       465 -10.4704      3.2887     45.8739   1.2764494270e+02   6.5500321943e+01    0.2097338   0.09828441 -26.30  0.000843586    2.019    0.505
       466  -9.7525    122.6312     45.7383   8.4974831475e+01   4.8549388689e+01    0.1488957   0.09802993  29.19 0.0006254849    1.650    0.394
       467  -9.5249    115.2870     45.2781   8.6742148022e+01   5.0239056725e+01    0.1394386   0.09961366  22.23 0.0001964824    1.516    0.341
       468 -10.8124    138.8360     44.1736   8.0587184446e+01   4.5004433108e+01    0.2058935    0.1573838  32.32 0.0006499881    1.354    0.261
       469  -9.8146     80.2944     44.3088   9.6960236055e+01   5.7237134114e+01     0.134547   0.09270613   5.18 0.0002491702    1.588    0.370
       470 -11.6215     34.7252     44.7728   1.1426103434e+02   6.3360207442e+01    0.2166104    0.1975998  34.53 0.0006089144    1.526    0.345
       471 -10.7602     25.9504     44.0836   1.1765349261e+02   6.4286161591e+01    0.1737915    0.1372493 -22.77 0.0003932544    1.031    0.030
       472  -9.9437    199.3072     43.6215   6.9435152373e+01   3.0065366887e+01    0.1866348    0.1192165  59.21 0.0004004427    1.462    0.316
       473 -10.2453    164.5262     42.9937   7.4977685786e+01   3.8863009490e+01    0.1856672    0.1244023  11.39 0.0005961602    2.361    0.577
       474 -12.5262     61.7971     44.8782   1.0370789852e+02   6.0067138269e+01    0.3671091    0.2352384 -28.48 0.0002961717    1.451    0.311
       475 -10.3504     86.9532     43.3316   9.4417947312e+01   5.6201636934e+01     0.186663    0.1582285  23.78 0.0007201096    1.073    0.068
       476  -9.8739     69.2947     42.3045   1.0004847738e+02   5.9343906820e+01    0.1309023   0.08865608   0.61 0.0002092657    1.580    0.367
       477  -9.7780     20.3348     41.3130   1.1912284398e+02   6.5220197279e+01    0.1231824   0.06744536 -24.23 0.0007045624    1.685    0.407
       478 -12.0015     10.0534     39.5430   1.2297086717e+02   6.6244026778e+01    0.2700776    0.2292782  -0.38 0.0007809711    1.311    0.237
       479  -9.8423    186.7928     38.9702   7.0120206268e+01   3.3811910575e+01    0.1698954    0.1137036 -34.23 0.0003460658    1.656    0.396
       480 -10.5726    175.6350     39.0107   7.1917011065e+01   3.6605631261e+01    0.1855956    0.1744806 -61.22 0.0003659478    1.148    0.129
       481 -11.0590     22.9847     38.4200   1.1704334740e+02   6.5498253411e+01    0.2603516    0.1891998  33.35  0.001755198    1.791    0.442
       482  -9.9214    103.6370     38.2975   8.7565700630e+01   5.3659306391e+01    0.1285885    0.1084636  89.82 0.0007033094    1.717    0.417
       483 -10.5986    129.4866     36.7283   8.0363269388e+01   4.8181490645e+01     0.254764    0.1741261  55.64 0.0006398605    1.329    0.248
       484  -9.8648    110.8367     37.1539   8.5177241539e+01   5.2296729165e+01    0.1887046    0.1410411  27.85            0    1.289    0.224
       485 -10.2598     41.2000     36.3402   1.0864816284e+02   6.4048173748e+01    0.1956559    0.1530002 -60.65  0.001115655    2.099    0.524
       486 -10.1601     30.9327     36.9061   1.1313431627e+02   6.5035419685e+01    0.2446798    0.1879937 -86.42  0.001311724    3.380    0.704
       487 -11.5199      3.4233     35.9516   1.2477187852e+02   6.7249298176e+01    0.3738407    0.1839141 -58.78  0.002176075    2.092    0.522
       488  -9.9725      5.3075     32.6445   1.2291432747e+02   6.7706093854e+01    0.1973249    0.1240251  42.06  0.001225077    2.663    0.625
       489 -11.4532     60.6919     34.2937   1.0021318689e+02   6.1820370408e+01    0.2615587    0.1939702 -30.06 0.0006172202    1.339    0.253
       490 -10.6416     56.0641     34.3579   1.0199310220e+02   6.2470692082e+01    0.2083328    0.1451762 -17.50 0.0005935086    1.297    0.229
       491 -10.0460     17.4916     34.5177   1.1811329180e+02   6.6581608439e+01    0.2209421   0.09049619 -47.45  0.001179261    2.057    0.514
       492 -10.6293     92.1129     33.6907   8.9308225594e+01   5.6556535802e+01    0.1836217    0.1477548  30.80 0.0003249587    1.092    0.084
       493 -11.2828     75.9970     27.2990   9.2064651681e+01   6.0309067326e+01    0.3724035    0.1665168 -30.95  0.001719883    2.288    0.563
       494 -11.3599     78.6020     33.7898   9.3664937325e+01   5.9020442623e+01    0.2938016    0.2055902  34.16  0.001638353    1.300    0.231
       495 -10.2845    135.0381     32.8427   7.7863266265e+01   4.7360197203e+01    0.1968135    0.1715042  73.24 0.0002731874    1.202    0.168
       496 -10.5810    117.9250     33.0262   8.1928703327e+01   5.1267389883e+01    0.2094675    0.1777954  35.31 0.0003919941    1.049    0.047
       497  -9.9334    157.9860     33.0000   7.3314098373e+01   4.1772104737e+01    0.2309155   0.07173091  61.30 0.0004907763    2.830    0.647
       498 -10.9924    142.6671     31.2025   7.5738266338e+01   4.5734660894e+01    0.2287172    0.1862109  -2.87 0.0009644732    1.457    0.314
       499 -11.0417    106.2802     31.7431   8.4524088377e+01   5.3943209705e+01    0.2506653    0.1788457  -8.77 0.0007849145    1.556    0.357
       500  -9.8446    222.9498     31.4990   6.3542966719e+01   2.5957691641e+01    0.1874701     0.116616  73.30 -0.0003468204    1.451    0.311
       501 -10.1873    183.0203     31.4939   6.8744548097e+01   3.5708620877e+01    0.2055588    0.1208589  63.84 0.0004583604    1.485    0.327
       502  -9.5629     46.5512     30.4371   1.0423931128e+02   6.4294081425e+01     0.119585   0.09586272  -5.25 0.0002686828    1.029    0.029
       503 -10.0707     33.3015     30.6859   1.0985736855e+02   6.5773666062e+01     0.158574    0.1071932  21.85 0.0002513037    1.483    0.326
       504 -11.0649     32.3676     27.0869   1.0888779276e+02   6.6408242563e+01    0.2275085    0.1891136 -28.23 0.0008299052    1.322    0.244
       505 -10.0126     24.2478     30.6237   1.1376955091e+02   6.6652465707e+01    0.1473231   0.09052004   2.92 0.0003405162    1.592    0.372
       506 -10.3850     70.5913     28.8766   9.4533473647e+01   6.1019681597e+01    0.2179678    0.1508159  22.80 0.0009641673    1.298    0.230
       507 -11.8155    187.1228     27.2585   6.7052987209e+01   3.5199279520e+01    0.2750142    0.2081913  68.58 0.0004247945    1.152    0.132
       508 -10.2642    100.4402     26.0060   8.4078799310e+01   5.5832651435e+01    0.2683234    0.1607011  -1.60  0.001298479    2.158    0.537
       509 -10.4720      1.8244     25.6256   1.2222337932e+02   6.9058200015e+01    0.1631927    0.1194998 -33.52 0.0004487334    1.099    0.090
       510 -11.4714      5.4881     23.4945   1.1977233264e+02   6.9182441498e+01    0.3344806    0.1474977  15.52   0.00198878    2.368    0.578
       511  -9.9669     90.4754     24.4828   8.6389025932e+01   5.7991602233e+01    0.1291826    0.1097107  24.74 0.0001096429    1.028    0.027
       512 -10.4121     65.6133     24.2324   9.4474457617e+01   6.2411721794e+01    0.1665107    0.1036906 -15.87 0.0005491909    1.599    0.375
       513 -11.2813     17.8863     22.9829   1.1379368048e+02   6.8365990177e+01    0.2369639     0.184758  15.16  0.001122556    1.418    0.295
       514 -11.2630     38.8214     27.2229   1.0618029669e+02   6.5683578521e+01    0.2952816    0.1817135  47.23  0.001610453    2.764    0.638
       515  -9.9935     61.4806     23.4748   9.5679220133e+01   6.3150407161e+01    0.1237927   0.09840737   7.45 0.0008097973    1.013    0.013
       516 -10.9545     46.6255     23.2602   1.0136263715e+02   6.5278586281e+01    0.2064192    0.1209735  11.15 0.0006923223    1.757    0.431
       517 -11.6589    181.0433    244.7421   1.1773072118e+02  -3.1060518379e+00    0.4452497    0.2777689 -24.33  0.002279801    2.199    0.545
       518 -10.1215    114.2580     20.9965   7.8713624349e+01   5.3438626413e+01    0.1750456    0.1625469  22.86 0.0004916221    1.117    0.105
       519 -11.1547     73.9159     20.4381   9.0071755717e+01   6.1486167976e+01    0.2182765    0.1576465  -7.00 0.0005532145    1.334    0.250
       520 -10.0213     39.0235     20.9906   1.0359517692e+02   6.6524767211e+01    0.1837598    0.1408815  -3.39  0.000953891    1.011    0.011
       521  -9.8327     61.3442     18.3103   9.3625177225e+01   6.3795142862e+01    0.1650967    0.1058201  -6.25 0.0008209776    1.543    0.352
       522 -12.3688    185.3015    239.5340   1.1605815827e+02  -3.0191533074e+00    0.4280178     0.299176   2.22  0.001252176    1.868    0.465
       523 -11.1532     33.6573     17.6759   1.0453893204e+02   6.7583923392e+01    0.2326013    0.1712285 -18.76   0.00102769    1.157    0.136
       524  -9.9779    182.6524     18.7100   6.5484892569e+01   3.7283544198e+01    0.1374647   0.09049156  45.35 0.0003766755    1.662    0.398
       525 -10.8902    157.9438     17.2008   6.8772598935e+01   4.3547675723e+01    0.1950952    0.1901537 -86.05   0.00032004    1.161    0.139
       526  -9.7390    132.5216     22.5289   7.5110110813e+01   4.9119931529e+01    0.1355896    0.1175363  53.59 0.0001013911    1.029    0.028
       527 -10.7500      6.6040     18.0814   1.1726569423e+02   6.9941612348e+01    0.1803064    0.1115324 -15.11 0.0007674367    1.327    0.246
       528 -10.1594    200.4705     17.4714   6.2914915913e+01   3.3045255367e+01    0.1336947    0.1108386  85.76 0.0001690207    1.002    0.002
       529 -11.1431    132.2009     16.2514   7.3165608132e+01   4.9833333064e+01    0.3325744    0.1516551  44.87 0.0009950441    1.980    0.495
       530 -11.6842    190.6161    235.1699   1.1427868203e+02  -3.2489673854e+00    0.3051337    0.1616084  36.16 0.0007466136    1.637    0.389
       531 -10.2061    112.3091     14.6962   7.6989967883e+01   5.4495071249e+01    0.1825387     0.161614   2.77 0.0005949601    1.215    0.177
       532 -10.1095     77.7542    248.3687   1.3856566357e+02   1.3500050629e+01    0.1801201    0.1136086  65.22 0.0004756119    1.357    0.263
       533 -13.2507     76.2281    241.3540   1.3818704288e+02   1.5072865396e+01    0.5421724    0.2792907  77.29  0.002120617    2.355    0.575
       534 -10.6029     25.5448     16.5801   1.0771789423e+02   6.8586444812e+01    0.2007389    0.1353365 -20.44  5.95026e-05    1.178    0.151
       535  -9.6754    154.6786    247.6633   1.2344349866e+02   1.0031402336e+00    0.1281857   0.09689155  11.69 0.0007050278    1.710    0.415
       536 -11.6669    188.0252    243.8420   1.1619815740e+02  -4.1673951204e+00    0.4223098    0.2548127   9.26  0.001258071    2.581    0.613
       537 -10.2643    192.2992    240.3205   1.1478348389e+02  -4.3545802160e+00    0.1819216    0.1479518  15.45 0.0007397039    1.179    0.152
       538 -11.3946    174.8240    243.5680   1.1879651313e+02  -1.8387805454e+00    0.2406383     0.217421 -59.75 2.778866e-05    1.391    0.281
       539 -10.2889     96.6556     15.9412   8.1421213011e+01   5.7679236734e+01    0.1714507    0.1505194  11.99 0.0005494956    1.130    0.115
       540 -10.0566    165.3046    244.0636   1.2078818545e+02  -2.5405360053e-01    0.1735735    0.1533955  42.50 0.0003012787    1.079    0.073
       541 -11.9931    203.4840    240.7100   1.1263211598e+02  -6.3140893305e+00    0.3438911    0.2449237  43.70  0.001471956    1.370    0.270
       542 -10.3302     42.2332     15.5432   9.9962056603e+01   6.6830749969e+01    0.1903373    0.1000722  36.15 0.0006689014    1.915    0.478
       543 -10.9576    197.5593    241.3697   1.1390912565e+02  -5.4143661554e+00    0.3330832     0.193698   6.37   0.00143212    2.908    0.656
       544  -9.7086    153.9943     14.2240   6.8567583793e+01   4.4810901028e+01    0.1849302   0.09497104  64.55 0.0008689347    1.641    0.391
       545 -10.7293     85.9297     13.8733   8.3684582288e+01   5.9997154637e+01    0.1960175    0.1384085  23.66 0.0004589304    1.264    0.209
       546 -11.3096    147.8290    241.2174   1.2391928391e+02   3.3081961252e+00    0.2977595    0.2381662  29.49 0.0008319914    1.269    0.212
       547 -11.3455    144.3513    237.9404   1.2416642547e+02   4.5054013779e+00    0.4584917    0.1599172  46.21  0.001581469    2.475    0.596
       548 -10.7866    168.6463    238.8778   1.1932865946e+02   2.1713497530e-02    0.3140058    0.2170199  73.93  0.001549699    2.274    0.560
       549 -11.5776    115.0282    238.9601   1.3028647913e+02   9.3974397480e+00    0.3387658    0.2664146  11.99  0.001678527    1.920    0.479
       550 -11.3642    119.1723    233.9497   1.2880625724e+02   9.6513633296e+00    0.3525009    0.2472489 -70.00  0.001095645    1.621    0.383
       551 -10.1032    233.5322    239.1912   1.0659682832e+02  -1.0933079906e+01    0.1583283    0.1148281 -27.03 0.0004116162    1.433    0.302
       552 -10.5381     66.8122    238.7955   1.3973341719e+02   1.6932465438e+01    0.2000161    0.1638886  38.68  0.001320415    1.486    0.327
       553 -10.0450      9.2818     11.3180   1.1328618657e+02   7.0728971308e+01    0.1287458   0.08293198  19.61 0.0006737513    1.622    0.384
       554 -11.8932    218.5928    233.5518   1.0846544296e+02  -7.7571662433e+00    0.4954174    0.2929003  -5.84  0.002339155    2.410    0.585
       555 -10.2203    180.9468    236.0543   1.1638028583e+02  -1.6902958656e+00    0.1942781    0.1656561  27.80 0.0003655612    1.048    0.046
       556 -11.8867    153.6597    232.5457   1.2145109143e+02   3.8122352999e+00    0.3867131    0.2421357  56.81 0.0009625477    1.686    0.407
       557 -11.2782    124.1231    239.2161   1.2847573176e+02   7.8040673959e+00      0.41333     0.235805 -47.46  0.002086989    2.199    0.545
       558 -11.7736    142.5959    232.3328   1.2372469063e+02   5.8424087602e+00     0.368163    0.2549213  49.36  0.002004341    1.254    0.202
       559 -10.6598    178.1599    232.4970   1.1637444667e+02  -6.0104324221e-01    0.3687907    0.1876244  27.61  0.001553643    2.281    0.562
       560 -11.2508    161.2888    231.8327   1.1975487454e+02   2.5594182673e+00    0.2569352    0.2216778   3.92 0.0005192792    1.351    0.260
       561 -10.5726    162.2808    227.3814   1.1884706688e+02   3.1756516483e+00    0.5174372    0.3081023 -10.68  0.001772729    4.610    0.783
       562 -10.6678    162.3544    221.6987   1.1791280636e+02   4.2014865278e+00    0.2107359    0.1838975 -69.35  0.001221043    1.364    0.267
       563 -11.1967    162.5103    217.2870   1.1714799828e+02   4.9967029494e+00    0.2915601    0.2167185  37.41 0.0009638491    1.210    0.174
       564  -9.4577    131.2881    233.2974   1.2621401770e+02   7.6705929025e+00    0.1229177    0.1038953  10.76 0.0002390409    1.553    0.356
       565 -10.9432    112.4862    232.5695   1.3000519164e+02   1.1056889763e+01    0.3699974     0.274928  19.38  0.001882478    1.915    0.478
       566  -9.5764    158.7263    218.7134   1.1819691095e+02   5.4378268654e+00     0.222016    0.1203725  32.94 0.0002042531    1.879    0.468
       567 -11.7569     75.0086    229.5754   1.3724990734e+02   1.7605118645e+01    0.4420061    0.3557085 -23.90  0.001719893    2.234    0.552
       568 -10.3148     77.9421    221.8604   1.3583663803e+02   1.8768696975e+01    0.1928197    0.1581034  67.60 0.0002882687    1.029    0.028
       569 -12.1787     58.6685    231.0070   1.4057211964e+02   1.9623197403e+01    0.2277675    0.1679958  81.15 0.0004683751    1.137    0.121
       570 -11.1850    242.4539    228.7155   1.0308606113e+02  -1.0844616016e+01    0.3738666      0.23055 -55.04  0.001778932    3.131    0.681
       571 -10.6469     81.1877    230.7295   1.3614212013e+02   1.6448438052e+01    0.2153073    0.1355852  53.43 0.0009678798    1.338    0.252
