#   1 NUMBER                 Running object number                                     
#   2 MAG_AUTO               Kron-like elliptical aperture magnitude                    [mag]
#   3 X_IMAGE                Object position along x                                    [pixel]
#   4 Y_IMAGE                Object position along y                                    [pixel]
#   5 X_WORLD                Barycenter position along world x axis                     [deg]
#   6 Y_WORLD                Barycenter position along world y axis                     [deg]
#   7 A_WORLD                Profile RMS along major axis (world units)                 [deg]
#   8 B_WORLD                Profile RMS along minor axis (world units)                 [deg]
#   9 THETA_WORLD            Position angle (CCW/world-x)                               [deg]
#  10 FWHM_WORLD             FWHM assuming a gaussian core                              [deg]
#  11 ELONGATION             A_IMAGE/B_IMAGE                                           
#  12 ELLIPTICITY            1 - B_IMAGE/A_IMAGE                                       
         1 -11.8541     81.1118      8.8124   2.3247709236e+01   6.1518639632e+01    0.1731471    0.1529033  45.43 0.0003520792    1.166    0.142
         2 -11.2442     91.7739      7.5618   1.9899722211e+01   5.9377169104e+01    0.2428275   0.06301521 -35.55 0.0008703578    4.516    0.779
         3 -10.6480     33.3200      7.7050   4.0639634887e+01   7.0020866094e+01     0.097103   0.09109133  22.79 0.0003349038    1.612    0.380
         4 -11.0004    122.3556      5.1710   1.2601702294e+01   5.2658317947e+01    0.1521724     0.115038 -38.10 0.0001988829    1.558    0.358
         5 -11.4021    100.3884      2.1080   1.5823568198e+01   5.7910962299e+01    0.2421611    0.1334762  52.00  0.001314059    1.434    0.303
         6 -11.6954     51.7680    237.1156   8.5938126740e+01   1.8001619881e+01    0.2795948    0.1697397  15.78  0.001059706    2.648    0.622
         7 -11.3885    245.5906    249.8235   4.7776377604e+01  -1.2233919515e+01     0.143066   0.09903686 -34.23 0.0007956951    1.634    0.388
         8 -11.7650    237.3431    248.8326   4.9089851593e+01  -1.1104114326e+01     0.307461    0.1370118 -34.62  0.001631614    2.178    0.541
         9 -11.8389     83.5784    250.6895   8.0619430311e+01   1.1035254373e+01    0.2205444    0.1024038  33.59  0.000588253    2.005    0.501
        10 -13.5856     70.1292    246.9981   8.3032480881e+01   1.3609141185e+01    0.3756582      0.31333  64.37  0.001350396    1.049    0.046
        11 -11.7852     61.0016    249.6382   8.5115898152e+01   1.4298740361e+01    0.1869045    0.1698087  71.55 0.0008180714    1.181    0.153
        12 -11.3341     64.4192    245.8120   8.4093987560e+01   1.4606587337e+01    0.2692997    0.1328233 -55.68  0.001367547    2.381    0.580
        13 -11.3931     29.9200    249.6163   9.1161731785e+01   1.8069098505e+01    0.1712733    0.1254458  77.70 0.0005650731    1.148    0.129
        14 -13.8740      9.1538    197.5863   9.1911744343e+01   3.1308934297e+01    0.9137508    0.6159511 -47.66   0.00548866    1.867    0.464
        15 -14.9822     31.1320    225.7981   8.9295915180e+01   2.2831748365e+01     1.664927    0.8266004  30.68  0.007887212    2.156    0.536
        16 -14.9049     17.3535    211.3272   9.1120240526e+01   2.7441902954e+01     1.541103    0.8401712  47.31  0.008808305    1.645    0.392
        17 -16.7549      5.2640    237.6399   9.5081706775e+01   2.3025812346e+01      2.08728     1.060861  81.78    0.0124213    1.701    0.412
        18 -16.0115     12.6199    238.0923   9.3735683624e+01   2.2213453262e+01     1.728451     1.086317 -11.70   0.00806543    4.631    0.784
        19 -15.4460     15.0815    225.9193   9.2548057103e+01   2.4494416787e+01    0.7457102    0.4803719 -80.94  0.004766062    1.388    0.280
        20 -11.6870     47.5293    243.5017   8.7315443166e+01   1.7221133881e+01    0.2036989     0.159973  61.49 0.0008143164    1.026    0.025
        21 -12.9071     45.9678    239.5747   8.7322225028e+01   1.8210353727e+01    0.3997051    0.3035676 -43.95   0.00249597    1.872    0.466
        22 -11.8609     40.6169    248.7695   8.9064286083e+01   1.7002309816e+01    0.1964278    0.1432897  66.07 0.0005319893    1.103    0.093
        23 -12.6983     35.3274    245.2034   8.9840390861e+01   1.8329057693e+01    0.5067958    0.1919114  46.73  0.002550465    2.082    0.520
        24 -11.8427    153.0338    246.1250   6.5385869169e+01   1.3622333993e+00    0.1896155    0.1612134  25.07 0.0003827899    1.019    0.019
        25 -10.7321    159.0000    242.0480   6.3521055461e+01   1.1286847670e+00    0.1939929   0.07587365 -48.04 0.0008031623    2.947    0.661
        26 -11.7983    143.1184    242.1315   6.6926898064e+01   3.6198781740e+00    0.2549258    0.1713899  26.38 0.0009191966    1.388    0.279
        27 -12.4299    147.8598    239.0637   6.5461096752e+01   3.4178750391e+00    0.2722555    0.1808796  28.37 0.0005660229    1.362    0.266
        28 -12.1337    199.1308    241.1617   5.5096147273e+01  -4.8468541103e+00    0.2011318    0.1586779  27.91 0.0003753742    1.212    0.175
        29 -12.2922    107.2474    240.3700   7.4462347288e+01   9.5573262134e+00     0.280449    0.1725264 -53.29 0.0007306461    1.863    0.463
        30 -13.2752    102.6247    237.7550   7.5150332482e+01   1.0775150200e+01    0.4385031    0.3044765  19.20  0.002337981    1.735    0.424
        31 -11.2832     97.7876    238.0511   7.6239923233e+01   1.1445600450e+01    0.1742672    0.1566536  68.37 0.0003966278    1.103    0.093
        32 -10.7311     89.5248    241.3739   7.8399559131e+01   1.2003301614e+01    0.1283777    0.1074613  48.00 0.0001959794    1.046    0.044
        33 -12.9315     70.7280    237.2044   8.1975336585e+01   1.5500932661e+01    0.4422098    0.3035219 -51.32  0.002542094    1.781    0.438
        34 -13.0672     73.4628    230.7367   8.0730113096e+01   1.6471542299e+01    0.4030188    0.2303315 -69.59  0.001260387    1.854    0.461
        35 -11.0047     60.4813    241.5022   8.4520516887e+01   1.5989182722e+01     0.130259   0.09716423  62.31 -6.28216e-05    1.136    0.119
        36 -12.1480     32.6036    239.0072   8.9946354034e+01   1.9894628501e+01    0.2454114    0.1759928  50.61  0.001619585    1.208    0.172
        37 -11.7863    124.2985    250.4410   7.2059624028e+01   5.0586006667e+00    0.2112431    0.1362457  26.44 0.0001008948    1.526    0.345
        38 -11.3030    218.1610    237.8302   5.0816618146e+01  -7.0553896043e+00    0.1737996    0.1494564   8.27 0.0004848194    1.187    0.158
        39 -11.1318     79.5287    237.6622   8.0143260867e+01   1.4184483947e+01    0.1682399    0.1165511  89.28 0.0007592051    1.587    0.370
        40 -11.7592    121.8623    236.2874   7.0741869475e+01   8.0778403110e+00    0.2822995   0.09365896  41.40 0.0009263299    2.565    0.610
        41 -12.0442     62.8516    234.7696   8.3412176290e+01   1.7063468651e+01    0.2965437    0.1675199  64.20 0.0008197411    1.788    0.441
        42 -12.4007     61.2703    231.2316   8.3414765406e+01   1.8014968345e+01     0.451574    0.1544217  39.41  0.001934779    2.426    0.588
        43 -11.1350    158.4851    233.4725   6.2315922933e+01   2.7173440635e+00    0.1357325    0.1171703  24.07   0.00010503    1.005    0.005
        44 -14.5442      2.2566    209.7215   9.4145168675e+01   2.9192340358e+01     0.962045    0.2051192 -80.45  0.003325907    4.558    0.781
        45 -12.9905    179.1808    229.2295   5.7205333962e+01   1.4156968394e-01    0.4378181    0.3081357  58.50   0.00160907    2.122    0.529
        46 -12.4371    231.7613    227.6631   4.6491504436e+01  -7.4223726246e+00    0.2951873    0.1987124  -8.57  0.001678178    1.366    0.268
        47 -11.4433    194.0277    228.4945   5.3996871249e+01  -2.0625924568e+00    0.2021838    0.1166875  32.95 0.0005939415    1.574    0.365
        48 -12.8345    112.4371    227.7743   7.1691932565e+01   1.1262729591e+01    0.2751775    0.2197401 -19.07  0.001520532    1.644    0.392
        49 -12.3981    105.8248    226.3330   7.2994145468e+01   1.2601252316e+01    0.2423487    0.2228601 -19.99  0.001480256    1.303    0.233
        50 -12.3229     91.5011    225.7287   7.6156883909e+01   1.4924823065e+01    0.3070011     0.125298 -58.51  0.001296129    2.594    0.615
        51 -11.8701    222.7462    225.2318   4.7751369887e+01  -5.8055618223e+00    0.2990081    0.1451185 -17.72  0.001257124    2.866    0.651
        52 -11.7398    156.2244    225.7672   6.1583168005e+01   4.4966299050e+00    0.1872758     0.151364  -0.78 0.0006414364    1.327    0.246
        53 -11.6061     68.0432    224.9197   8.1312067649e+01   1.8460052898e+01    0.1890018    0.1616839  62.33 0.0003180114    1.012    0.012
        54 -12.1138    159.9168    222.3337   6.0207494303e+01   4.5258530100e+00    0.3425515    0.2170437  41.27  0.001238693    1.489    0.328
        55 -11.1822     55.9761    222.9530   8.3770248045e+01   2.0482836548e+01    0.1541006    0.1289429  62.65 0.0003672457    1.034    0.033
        56 -13.1284    124.7003    221.6800   6.8038125707e+01   1.0526831504e+01    0.2800511    0.2177996  47.41  0.001086397    1.206    0.170
        57 -12.6409    246.2391    220.4129   4.2581820927e+01  -8.2863121512e+00     0.220875    0.1718573 -13.24 0.0002502908    1.064    0.060
        58 -12.7049    237.9522    219.6728   4.3929808672e+01  -7.0750367730e+00     0.344456    0.1623196 -33.71  0.001731701    1.937    0.484
        59 -13.0889    173.4563    219.3652   5.6747029053e+01   2.8218830039e+00    0.4174806    0.2853533 -24.83  0.002061752    1.617    0.382
        60 -12.2090     87.5155    220.6773   7.6443591687e+01   1.6604166336e+01    0.2252809    0.1850517  40.97 0.0003250004    1.149    0.130
        61 -12.5095     77.2863    219.8109   7.8675754980e+01   1.8285199693e+01    0.2975671    0.2237658 -74.62 0.0009010291    1.367    0.269
        62 -12.8157    231.4589    219.7152   4.5126951395e+01  -6.1880299113e+00     0.316121    0.1451429 -37.63  0.001538228    2.073    0.518
        63 -11.3946    222.6521    220.1516   4.6859226410e+01  -5.0053342956e+00     0.212355    0.1557783  30.56 0.0008391013    1.378    0.274
        64 -12.7420    145.3070    216.2671   6.2478068081e+01   8.1652540515e+00    0.3743705    0.3612985  53.71  0.002264574    1.138    0.121
        65 -13.8999    140.2172    211.9300   6.2930284659e+01   9.9147998184e+00    0.5984324    0.4614726 -60.90  0.002766227    1.507    0.337
        66 -12.2272    129.8439    216.8380   6.6118921458e+01   1.0667060594e+01    0.1878412    0.1623655  70.37 0.0005396021    1.302    0.232
        67 -13.5171    108.3463    215.6850   7.0951623994e+01   1.4454486490e+01    0.3826936     0.282946 -73.42   0.00170531    1.544    0.352
        68 -12.9546     65.2099    215.6079   8.0955986591e+01   2.0895206485e+01    0.4190721    0.2863996  34.95  0.001149868    1.463    0.316
        69 -11.7080     70.6946    215.0140   7.9633928067e+01   2.0277833314e+01    0.3864782    0.2270192 -29.09  0.001558647    3.480    0.713
        70 -11.5443     90.7169    210.0714   7.4333110106e+01   1.8465937879e+01    0.2251101    0.1918131  37.94 0.0006292161    1.156    0.135
        71 -12.9705     87.3133    211.2862   7.5300581370e+01   1.8709459831e+01    0.5290959    0.3014236 -82.72  0.002035346    2.322    0.569
        72 -12.2503     84.4304    214.8916   7.6438046189e+01   1.8333865320e+01    0.5652981    0.2653108  50.82  0.002431057    2.123    0.529
        73 -12.2682     79.2441    212.4595   7.7347387193e+01   1.9638443282e+01     0.296754    0.2218909  66.87 0.0006535653    1.317    0.241
        74 -11.6176     75.5338    212.4360   7.8211620256e+01   2.0177158594e+01    0.2629384    0.1937185  58.42 0.0005380608    1.267    0.210
        75 -12.1000     52.7086    216.5517   8.3872770403e+01   2.2312512990e+01    0.2342696    0.1805267  62.78 0.0004296364    1.136    0.120
        76 -12.1244    208.0299    215.3397   4.8831798015e+01  -2.0408986153e+00    0.2118117    0.1588956 -16.79  0.000320046    1.247    0.198
        77 -11.9135    193.0480    215.0358   5.1823677433e+01   3.8244535996e-01    0.2055687    0.1784403   9.03 0.0003478817    1.027    0.027
        78 -10.8027     36.5636    215.4753   8.7328680878e+01   2.4483629975e+01    0.1219634    0.1071414  85.03 0.0005212968    1.121    0.108
        79 -12.3586    247.7523    213.1862   4.1005712647e+01  -7.4219024915e+00    0.2230344    0.2159902 -39.29 0.0009892643    1.613    0.380
        80 -12.8144    118.8334    213.5053   6.8171525766e+01   1.3206789844e+01    0.4176584    0.1924316  49.91  0.001355422    2.350    0.574
        81 -11.6812    156.0305    212.7205   5.9448341796e+01   7.0316784069e+00    0.3604105    0.2501287 -78.98  0.001603677    2.520    0.603
        82 -13.5646    159.6780    206.8232   5.7588273804e+01   7.5662080961e+00    0.4826692    0.3076452  31.40  0.001307348    1.488    0.328
        83 -13.3132    124.6201    212.2552   6.6620125115e+01   1.2505047586e+01     0.393408    0.2540038 -80.66  0.001491699    2.371    0.578
        84 -12.4807    113.2355    210.1029   6.8978529403e+01   1.4868850463e+01    0.2673358    0.1940775  42.76 0.0007024207    1.265    0.210
        85 -11.0883     48.2932    209.8360   8.4209061155e+01   2.4376795273e+01     0.159933    0.1469766 -47.31 0.0006261037    1.361    0.265
        86 -14.5113      7.3887    217.8114   9.3587267035e+01   2.6970237021e+01     0.567916    0.3692199  88.76  0.003658767    1.271    0.213
        87 -13.5925    228.2774    206.2158   4.3227844447e+01  -3.6081830359e+00    0.4742571    0.4007806  58.34  0.001478333    1.857    0.462
        88 -11.9751    242.1437    208.0197   4.1040840989e+01  -5.8795019093e+00    0.1919016    0.1513831 -12.09 0.0003461085    1.024    0.023
        89 -13.0857    103.4479    206.9322   7.0846078448e+01   1.7169091218e+01     0.404663    0.2766444  46.61  0.001739163    1.367    0.268
        90 -11.6519     69.8752    207.4341   7.8942477035e+01   2.2113163389e+01     0.422506    0.2498192  27.23  0.002038072    1.903    0.475
        91 -11.0319     63.8479    208.1404   8.0441900571e+01   2.2773384857e+01    0.1845826    0.1625039  70.32 0.0004797219    1.009    0.009
        92 -12.7532     59.7991    206.9466   8.1255368696e+01   2.3585097324e+01    0.3665469    0.2574518 -51.06  0.001116388    1.626    0.385
        93 -11.8345     36.3380    203.2682   8.6303777091e+01   2.7284549184e+01     0.206035     0.184251 -41.97 0.0004284278    1.436    0.304
        94 -11.8295    205.0354    206.2404   4.7743259689e+01  -1.6696367097e-02    0.2142653    0.1767176 -21.56 0.0003100192    1.136    0.120
        95 -14.0216    145.0227    202.9856   6.0282648998e+01   1.0932857156e+01    0.6082268    0.4231966 -34.26  0.002966722    1.605    0.377
        96 -13.9889    140.5830    197.4861   6.0354893306e+01   1.2892255488e+01    0.5357156    0.3336309  50.22  0.002408274    1.720    0.419
        97 -12.4558    117.2125    205.5989   6.7332373496e+01   1.5193584951e+01    0.2880495    0.2359178  49.24  0.001211934    1.163    0.140
        98 -11.6155     41.9045    205.4865   8.5242285522e+01   2.6137103213e+01    0.2142601    0.1717764  44.77  0.001309737    1.250    0.200
        99 -13.1761    179.9744    208.3218   5.3367780083e+01   3.7674251170e+00    0.5018534    0.2847807  16.99  0.002121543    2.276    0.561
       100 -12.7881     99.4141    185.6897   6.8541333741e+01   2.2756244182e+01    0.3562383    0.2940264  65.08  0.001865431    1.252    0.201
       101 -13.0200     84.3759    198.8455   7.4332053817e+01   2.2009815259e+01    0.4354545    0.2734474  84.81  0.001310669    2.071    0.517
       102 -12.7559     82.3588    193.7345   7.4113621739e+01   2.3521041150e+01    0.6988479    0.2939052  41.78  0.002690431    2.214    0.548
       103 -12.3795     62.6230    177.0462   7.6825314230e+01   3.0398665740e+01    0.5083845    0.2183552  36.35  0.002089802    2.272    0.560
       104 -13.5676     90.0680    201.6245   7.3325298117e+01   2.0493553269e+01    0.7223505    0.3597539 -43.40  0.001319675    2.560    0.609
       105 -15.6754     94.4142    193.2461   7.1014347866e+01   2.1770685064e+01     2.637218     1.153567  62.28  0.007058506    5.577    0.821
       106 -13.6105     93.9339    183.6783   6.9627041005e+01   2.4134030367e+01    0.6012681    0.3298031 -54.68  0.002219342    1.823    0.451
       107 -12.6148     64.1930    183.8279   7.7349866432e+01   2.8513271340e+01    0.5162762    0.3388123 -46.46  0.001612889    1.710    0.415
       108 -13.3881     70.1866    186.8011   7.6220514513e+01   2.6961439900e+01    0.6392758    0.3963256  67.81  0.001589085    1.884    0.469
       109 -13.6764     75.4230    186.2057   7.4796326274e+01   2.6358848490e+01    0.9932318    0.3718552 -56.32  0.003776456    2.544    0.607
       110 -11.6478     48.9358    203.2245   8.3394446236e+01   2.5823363232e+01    0.2267648    0.1843028  65.55 0.0007572142    1.098    0.089
       111 -12.1652    167.2911    202.5796   5.5100796761e+01   7.0704168984e+00     0.322511    0.1997355 -11.01  0.001200993    2.507    0.601
       112 -12.2951     33.5866    206.2478   8.7191951581e+01   2.6902908660e+01     0.279303    0.1819055 -82.17 0.0009186025    1.390    0.280
       113 -13.2495     89.7453    182.9885   7.0603874566e+01   2.4970022189e+01     0.507906    0.3269321 -63.75  0.001241925    1.575    0.365
       114 -11.5985    212.3189    199.8694   4.5078287770e+01  -8.0009511886e-02    0.2046766    0.1683328 -49.59  0.001167676    1.506    0.336
       115 -13.4781    122.8556    196.1185   6.4404868790e+01   1.6335575059e+01    0.4054462     0.317799  55.57  0.002026263    1.325    0.245
       116 -12.5966    120.6741    191.4193   6.4133366922e+01   1.7782434998e+01    0.2717639    0.2518975  62.72 0.0003258958    1.093    0.086
       117 -12.9394    179.5218    197.2760   5.1392593100e+01   5.9494006294e+00     0.375635    0.3011267  59.26  0.001754688    1.617    0.381
       118 -11.2526     15.0109    199.5738   9.0773130674e+01   3.0321988035e+01    0.1651715    0.1146344  35.23 0.0004447199    1.560    0.359
       119 -11.9461    219.4599    198.0269   4.3334780177e+01  -8.9895168047e-01    0.1939447    0.1652462   6.94 0.0003700383    1.087    0.080
       120 -11.7741     38.2225    196.9489   8.5268389309e+01   2.8550255178e+01    0.2408128    0.1498611  57.46 0.0008189608    1.525    0.344
       121 -11.9544     35.0316    193.1919   8.5652732556e+01   2.9791896591e+01    0.3589592    0.1815419 -61.15  0.001766878    1.868    0.465
       122 -12.3013    202.0095    195.5310   4.6302561599e+01   2.3886950342e+00    0.2215308    0.1743538 -30.52  0.000926697    1.214    0.177
       123 -13.5426    188.7915    193.4666   4.8653272455e+01   5.0491190956e+00    0.4706524    0.3408145  29.55  0.001299154    1.340    0.254
       124 -13.0905    194.0983    193.2180   4.7483879880e+01   4.1695528330e+00    0.4432622     0.275481 -19.43  0.001310789    1.922    0.480
       125 -12.2554    173.1006    196.0964   5.2582099018e+01   7.3224371848e+00     0.227222    0.1871964  -7.36 0.0006697284    1.251    0.200
       126 -14.0280    162.7426    192.7554   5.4282028340e+01   9.8719146319e+00    0.6663961    0.4506258  70.99  0.002537464    2.636    0.621
       127 -12.2886     26.6499    193.6217   8.7657450250e+01   3.0571565204e+01    0.4457964     0.142457 -70.85  0.001476195    2.704    0.630
       128 -12.4004     27.3713    185.4505   8.6732696108e+01   3.2441875646e+01     0.518335    0.2014568 -76.03  0.002206168    2.388    0.581
       129 -11.5096     69.6884    193.9603   7.7306960433e+01   2.5302586334e+01    0.1866671    0.1596933 -81.03 0.0003145096    1.120    0.107
       130 -11.3231      3.3370    194.0386   9.2936110659e+01   3.2616942541e+01    0.1933803    0.1601408  46.17 0.0007488199    1.321    0.243
       131 -13.6229    151.5257    195.0866   5.7326777827e+01   1.1429106986e+01    0.4015485    0.3391913  30.85 0.0009314636    1.120    0.107
       132 -13.2489    134.1735    190.0434   6.0555119766e+01   1.5680898496e+01     0.385394    0.2635068   5.92  0.001646949    2.101    0.524
       133 -11.2622    234.3953    190.1701   3.9026512439e+01  -1.8887050785e+00     0.184036    0.1133483 -43.97 0.0009466987    1.683    0.406
       134 -12.2612     50.7528    190.0735   8.1518479915e+01   2.8721653316e+01    0.3086435    0.1964624  30.34 0.0009058448    1.701    0.412
       135 -13.2357     12.0139    188.8801   9.0629773488e+01   3.3071545779e+01    0.4669694    0.2917453  31.27  0.002465588    1.779    0.438
       136 -12.4516     10.7266    181.9930   9.0381332496e+01   3.4804503504e+01    0.3079641    0.2155127 -32.17  0.001294974    2.019    0.505
       137 -12.7076      7.5062    184.9823   9.1360954001e+01   3.4369558712e+01    0.2284895    0.2056368  68.12  0.001025702    1.188    0.158
       138 -13.4788      4.3090    181.9088   9.1864349018e+01   3.5349595558e+01    0.6240984    0.2470908 -63.31  0.003008658    2.172    0.540
       139 -12.8358     51.5335    198.5888   8.2287839006e+01   2.6591572454e+01    0.3365946    0.2888873  58.66  0.001182678    1.102    0.093
       140 -12.7309    156.8887    186.4518   5.4418369240e+01   1.2274315862e+01      0.34698    0.2132279 -42.72  0.001548792    1.669    0.401
       141 -12.4215    110.2565    187.8730   6.6138339121e+01   2.0413545470e+01    0.2715409     0.194584  49.22 0.0009298598    1.382    0.276
       142 -10.8981    226.6839    187.6692   3.9945055984e+01  -2.6583889782e-01    0.1414306   0.09469904  -6.38 0.0007046346    1.683    0.406
       143 -12.7678    194.5835    186.7427   4.6094871273e+01   5.3094992590e+00    0.2688921    0.2283254  46.71 0.0007992109    1.354    0.262
       144 -13.3627    120.6632    186.4898   6.3265517654e+01   1.8917747788e+01    0.4113146    0.2910074  31.86 0.0005687456    1.415    0.293
       145 -13.5532    118.2630    179.6416   6.2629058924e+01   2.0945672823e+01    0.5831049    0.3609372  62.73  0.001962239    2.191    0.544
       146 -11.8471     43.1802    186.9278   8.3030487255e+01   3.0382756482e+01    0.2015602    0.1683563 -87.58 0.0008103722    1.061    0.057
       147 -12.4887     18.1690    187.0422   8.9058944625e+01   3.2949221019e+01    0.3984895    0.1709226  31.31  0.001292447    2.421    0.587
       148 -11.6664     21.3059    184.2740   8.8076059626e+01   3.3314467313e+01     0.382514     0.151811 -41.06  0.001306925    4.937    0.797
       149 -11.9261    247.4881    185.8476   3.5892621586e+01  -3.1307834858e+00    0.2434106    0.1708633  19.50  0.001417027    1.507    0.336
       150 -12.5725    164.4052    185.3241   5.2447987040e+01   1.1109355703e+01     0.275107     0.257885  22.05 0.0006461417    1.044    0.043
       151 -12.7389    167.5616    181.9710   5.1050588412e+01   1.1218718839e+01    0.3199897    0.1860816 -43.95  0.001390195    1.738    0.425
       152 -12.8413    127.5062    185.8879   6.1440545854e+01   1.7828383288e+01    0.2465691    0.2142288   4.41  0.001009164    1.281    0.220
       153 -11.2446    239.1929    185.1858   3.7196286349e+01  -1.7883793988e+00    0.1616238    0.1479255 -36.21 0.0002613274    1.306    0.234
       154 -13.6741    200.3087    182.2280   4.3995201206e+01   5.1527064375e+00    0.4409045     0.334979  44.99  0.001541095    1.468    0.319
       155 -12.9324     50.0427    183.2713   8.0890769540e+01   3.0462511115e+01    0.3763405    0.2246605  59.85  0.001332124    1.761    0.432
       156 -13.2820    143.4530    181.2177   5.6609508907e+01   1.5935970667e+01    0.4759903    0.2023247  38.76  0.001738248    2.275    0.560
       157 -11.3460     38.6021    181.5157   8.3569699521e+01   3.2215005635e+01    0.2494958    0.1298753  29.61 0.0009531782    2.086    0.521
       158 -11.3057     17.8179    179.9066   8.8519291905e+01   3.4682755445e+01    0.2413794    0.1240637  56.56 0.0007758017    1.962    0.490
       159 -11.0095    246.4490    179.5229   3.4832418708e+01  -1.9446526556e+00    0.1321981      0.10717 -18.87 9.061343e-05    1.026    0.025
       160 -13.1046    137.6064    177.2990   5.7279884153e+01   1.7921383380e+01    0.3634112    0.2514917  58.72  0.001607982    1.737    0.424
       161 -11.7495     32.6076    177.1859   8.4603573887e+01   3.3913821248e+01    0.2973111     0.162388  56.67  0.001444314    1.905    0.475
       162 -11.9162     31.2182    168.1152   8.3954804698e+01   3.6292054925e+01     0.354212    0.2325049  27.24  0.001913023    1.738    0.425
       163 -12.8851     22.7333    175.4482   8.6897862187e+01   3.5309257757e+01    0.4112259     0.277461 -82.11  0.001439908    1.285    0.222
       164 -13.1271     27.0134    172.6589   8.5537910904e+01   3.5584024752e+01    0.4371337    0.3073577  85.82  0.001262611    1.317    0.241
       165 -12.4697     22.9831    168.1502   8.6095426183e+01   3.7071749319e+01     0.314276    0.1909093 -61.71 0.0009644401    1.480    0.324
       166 -13.1836     23.8297    163.7666   8.5406893252e+01   3.8076000458e+01    0.5583962    0.2752953 -77.16  0.002374783    1.829    0.453
       167 -12.3718    165.9643    177.0108   5.0404294633e+01   1.2566014918e+01    0.2423503    0.1941953  81.10   0.00114265    1.789    0.441
       168 -13.8321    148.7094    175.1797   5.4119570170e+01   1.6281438544e+01    0.4987146    0.3511668  60.86  0.002212087    1.795    0.443
       169 -13.8638    127.0303    174.2189   5.9345582076e+01   2.0617281489e+01    0.5557249    0.3594748 -79.71  0.002171752    2.458    0.593
       170 -11.7219    210.4532    182.5182   4.2016174861e+01   3.3296565079e+00    0.1416758    0.1238328 -11.31 0.0001166676    1.014    0.014
       171 -10.9684     31.5577    188.9398   8.6064916462e+01   3.1176399697e+01    0.1828377    0.0839896 -51.31 0.0008064848    2.433    0.589
       172 -11.4408    247.9683    175.9763   3.3878404498e+01  -1.5876381147e+00      0.15803    0.1283863 -22.20 0.0009754502    1.013    0.013
       173 -11.2054     16.9684    175.4532   8.8321764853e+01   3.5830939457e+01    0.1927596    0.1406457 -81.70 0.0003245245    1.153    0.132
       174 -12.3203      3.2665    174.9300   9.1578501500e+01   3.7077033770e+01    0.2821789    0.1546697 -76.00  0.001542126    1.491    0.329
       175 -12.4369    105.9806    176.0046   6.5158374434e+01   2.3978587600e+01    0.2306676    0.2275457  55.76 0.0007369292    1.031    0.030
       176 -12.3698    224.2216    174.6753   3.7787503308e+01   2.4117419978e+00    0.2582802     0.228421 -57.27 0.0006039276    1.423    0.297
       177 -13.2609     90.6403    172.2894   6.8589015303e+01   2.7452227337e+01    0.5367066    0.2691737 -48.11  0.001839314    2.070    0.517
       178 -11.2622     12.8298    173.9720   8.9200684255e+01   3.6543745731e+01    0.2189453     0.108104 -52.55  0.001073872    2.100    0.524
       179 -11.4349    235.1251    171.0575   3.5087638925e+01   1.2506792720e+00    0.2385877    0.1438985 -14.35  0.001101586    2.084    0.520
       180 -12.6621    197.1312    170.6533   4.2244074436e+01   7.9554566434e+00    0.3016559    0.2000379 -32.03  0.001437425    1.474    0.321
       181 -11.4719    166.1589    170.8399   4.9069478197e+01   1.3842748811e+01     0.203947    0.1719506  -0.15 0.0002460827    1.276    0.216
       182 -12.4811    160.3082    168.6931   4.9982776189e+01   1.5452963776e+01    0.2349763    0.1986069  35.19 0.0005366358    1.170    0.145
       183 -14.5990    151.9400    166.1834   5.1454754985e+01   1.7658689442e+01    0.6582645    0.5203319 -56.39  0.001788858    1.366    0.268
       184 -12.7329     61.9121    170.1915   7.6031264702e+01   3.2206229609e+01    0.3935664    0.2528089 -86.06  0.001844736    1.734    0.423
       185 -10.8298    231.3102    170.7026   3.5689050129e+01   1.9361838943e+00    0.1244895    0.1071673 -66.89 0.0002325534    1.596    0.374
       186 -13.4221    131.2441    169.4251   5.7308620101e+01   2.0945119043e+01    0.3773106    0.2925536  38.59  0.001094858    1.267    0.211
       187 -13.6896    124.5785    167.2303   5.8587499864e+01   2.2724077789e+01    0.5558251    0.3250258  33.87   0.00230436    1.753    0.430
       188 -12.6245    106.2669    167.2932   6.3463122409e+01   2.6048420302e+01    0.2507168    0.2302304 -16.93 0.0003625774    1.203    0.168
       189 -11.8009     54.1133    168.1534   7.7850494108e+01   3.3719951458e+01    0.2145954    0.1808964 -47.88 0.0007790035    1.268    0.211
       190 -13.1019     55.7546    164.2256   7.6837514617e+01   3.4505416992e+01    0.3969744    0.2580714  30.53  0.001967149    1.663    0.399
       191 -12.3989     41.5178    168.1519   8.1237545887e+01   3.5198902439e+01    0.3221124    0.1652681  21.32  0.001429893    2.439    0.590
       192 -11.5404      6.8767    168.3760   9.0173242896e+01   3.8368392611e+01    0.2105303     0.156198  -0.55 0.0007530393    1.896    0.473
       193 -13.2566     12.4263    167.3764   8.8703358532e+01   3.8172712431e+01    0.3913478    0.2874262  39.98  0.001263207    1.480    0.324
       194 -11.1025      2.9281    168.0000   9.1109547065e+01   3.8753405932e+01    0.1765809    0.0709215  22.25 0.0008098556    2.994    0.666
       195 -13.0260    199.3708    165.5390   4.0695599731e+01   8.5362035591e+00    0.3109147    0.2456773  85.08  0.001287209    2.004    0.501
       196 -12.5916     91.5490    166.4457   6.7310352411e+01   2.8755856679e+01    0.2525007    0.2281359  29.40 0.0005981197    1.165    0.141
       197 -12.7770     83.3462    165.2668   6.9361321080e+01   3.0357991284e+01    0.4323339    0.2247218 -49.15  0.001103461    1.940    0.485
       198 -13.1454     87.9024    164.8356   6.8024998440e+01   2.9747355741e+01    0.3456495    0.2756571  32.33  0.001731369    1.306    0.235
       199 -11.6038    206.3109    164.3165   3.9042282357e+01   7.4810072598e+00    0.1483319    0.1079076  -4.93 0.0006146121    1.638    0.390
       200 -13.3432     66.3361    163.3482   7.3767961376e+01   3.3335197073e+01    0.4840788    0.2211019  36.61  0.001287309    2.187    0.543
       201 -10.8639    212.3167    163.7368   3.7749364066e+01   6.4921353111e+00    0.1297043    0.1143563 -83.29 0.0002318054    1.546    0.353
       202 -12.9854     37.3980    161.8752   8.1550839406e+01   3.7216813076e+01    0.4278148    0.2202787  42.96  0.002009702    2.000    0.500
       203 -13.1128    172.4077    165.7989   4.6557367628e+01   1.3689365825e+01    0.3366791    0.1974208 -40.33   0.00101919    1.691    0.409
       204 -12.0737      3.7096    147.3097   8.9056894142e+01   4.3706037938e+01    0.2581738    0.1546254  81.40 0.0009524681    1.654    0.396
       205 -13.5188      4.6610    159.2162   8.9925570368e+01   4.0744803791e+01    0.4371909     0.302301 -88.78  0.001704718    1.232    0.188
       206 -13.0931      3.5322    154.2517   8.9765047320e+01   4.2027962595e+01    0.5449405    0.2277316 -61.49  0.001805885    1.951    0.487
       207 -13.3186     47.6717    161.4097   7.8666841879e+01   3.6196218616e+01    0.4924364    0.2606786  57.51  0.002126009    2.250    0.556
       208 -11.9024     20.4834    154.1001   8.5222975499e+01   4.0769735582e+01    0.2423229    0.1790282 -47.23 0.0008483909    1.422    0.297
       209 -13.4172     29.7659    161.4306   8.3561862026e+01   3.8098660744e+01    0.3216748    0.2852923 -47.40 0.0008828767    1.250    0.200
       210 -13.8024     40.7830    148.6035   7.8779044157e+01   4.0211105103e+01    0.4562791    0.3532372 -33.14  0.002511604    1.486    0.327
       211 -14.3818     33.4976    147.7122   8.0761479732e+01   4.1182512113e+01    0.6008441    0.3507564  32.73  0.001576444    1.860    0.462
       212 -13.3487     27.1686    154.6847   8.3456722708e+01   4.0030975227e+01    0.5944133    0.2721662  53.88   0.00254594    2.588    0.614
       213 -13.4307     26.0087    149.4411   8.3128790272e+01   4.1450328919e+01    0.3787432    0.2856931  36.84  0.001236262    1.469    0.319
       214 -12.2994     21.1871    149.0774   8.4439859846e+01   4.1961083706e+01    0.2552276    0.1715488 -58.63 0.0005027026    1.327    0.246
       215 -13.5581    170.3748    159.5824   4.5659849978e+01   1.5416667612e+01    0.3908703    0.3031536  51.40  0.001887323    1.405    0.288
       216 -13.2876    188.4619    158.0521   4.1333464959e+01   1.2126875605e+01    0.4197278    0.3234102  15.35 0.0009793275    1.476    0.322
       217 -12.7526    156.8774    165.7944   5.0179328790e+01   1.6766800354e+01    0.2818887    0.2286436 -49.81 0.0006263569    1.272    0.214
       218 -12.2932    117.2348    157.9947   5.8636429149e+01   2.6320352390e+01    0.3191522    0.2022316  10.15  0.001178743    2.580    0.612
       219 -11.5387    105.5100    158.0793   6.1859592451e+01   2.8446680009e+01    0.2382536    0.2098061  37.39 0.0005612348    1.145    0.127
       220 -13.8959     76.7612    154.8249   6.9361081590e+01   3.4000188603e+01    0.4332275    0.3700528 -18.15 0.0004608606    1.382    0.276
       221 -13.5168     62.4010    153.8062   7.3326148354e+01   3.6291986492e+01    0.3970394    0.2451283 -74.44  0.001809216    1.694    0.410
       222 -12.1948    212.5849    153.2781   3.5448484194e+01   8.4174364360e+00    0.2425552    0.1807529  55.15 0.0009152961    1.624    0.384
       223 -11.6570     50.9930    153.1978   7.6519297783e+01   3.7888021442e+01     0.231993    0.1403803  57.35 0.0005944012    1.911    0.477
       224 -12.6043     68.8298    151.8029   7.1115656575e+01   3.5921614479e+01    0.2874306    0.1812564  -1.42   0.00115101    2.648    0.622
       225 -13.3422    167.9115    150.5058   4.4182157094e+01   1.7870175083e+01    0.2774026    0.2611161  33.37  0.001098605    1.078    0.072
       226 -13.8390    102.5701    143.0388   5.9520109177e+01   3.2691180653e+01    0.7864918     0.410951  59.76  0.002603472    3.145    0.682
       227 -12.9398    138.6591    149.5803   5.1120043294e+01   2.4118050926e+01    0.2831542     0.249753  26.07 0.0006343277    1.163    0.140
       228 -12.8614     84.1727    149.5143   6.6212653677e+01   3.4200258293e+01    0.3026837     0.252224 -51.93 0.0009963235    1.165    0.141
       229 -12.4939     82.8346    145.0769   6.5725294689e+01   3.5533549828e+01    0.2701042    0.2327653  79.95  0.001024333    1.271    0.213
       230 -11.9173     55.0265    150.5085   7.4923965779e+01   3.8081528413e+01    0.2111252    0.1422028  30.30  0.001040736    1.613    0.380
       231 -12.4440     16.0868    149.6979   8.5929770299e+01   4.2223487257e+01     0.326578     0.153422  22.50   0.00154121    2.515    0.602
       232 -12.2837    146.9870    148.8439   4.8834710647e+01   2.2578832869e+01    0.2729255    0.2258721 -45.77 0.0004269628    1.205    0.170
       233 -12.4472     88.4318    153.3772   6.5736019110e+01   3.2539935758e+01    0.2621159    0.2518696  -7.15 0.0007893274    1.122    0.109
       234 -11.0648     53.7548    156.6005   7.6253071298e+01   3.6687663072e+01    0.1874579    0.1268599  44.37 0.0005806484    1.538    0.350
       235 -12.6688    123.5202    143.2483   5.3683932260e+01   2.8657512942e+01    0.3295751    0.2460267 -23.24 0.0009322514    1.621    0.383
       236 -12.7526    121.2997    146.7090   5.5078451667e+01   2.8266238559e+01    0.2558672     0.236702 -12.64 0.0004131514    1.145    0.127
       237 -12.6290    118.5539    143.5769   5.5123236796e+01   2.9555026029e+01    0.2771321    0.2732981  38.12 0.0002467436    1.023    0.022
       238 -12.2011      3.2019    142.4457   8.8708578200e+01   4.4925608686e+01    0.2466452    0.1658158  20.59  0.001461934    1.824    0.452
       239 -12.9020      2.5806    131.4975   8.7715750444e+01   4.7634467089e+01    0.2396744    0.2141652 -60.55 0.0005276732    1.143    0.125
       240 -13.8176      7.6828    131.1572   8.6175433126e+01   4.7403809800e+01    0.5681674    0.2135795  33.81   0.00255931    2.871    0.652
       241 -11.8663      5.4829    138.4868   8.7652587101e+01   4.5748005304e+01    0.2123231    0.1269728  20.37 0.0006300332    2.032    0.508
       242 -12.4871      1.6824    137.1545   8.8586101594e+01   4.6309537361e+01    0.3163961    0.1467491 -58.13  0.001594602    1.764    0.433
       243 -13.6754      9.6494    137.9491   8.6401671154e+01   4.5603482692e+01     0.507297    0.2223389 -49.22  0.001301082    2.148    0.534
       244 -15.2090     14.3751    140.8258   8.5381783049e+01   4.4554703652e+01    0.8879161    0.7243963 -20.15  0.004634774    1.499    0.333
       245 -11.3132    229.1705    145.8132   3.0852518455e+01   6.7512776164e+00    0.2008803    0.1763305 -49.53 0.0005171613    1.187    0.158
       246 -11.4924    151.4944    145.8919   4.7030957239e+01   2.2309489815e+01    0.2314641    0.1545043 -45.30 0.0004202785    1.487    0.327
       247 -12.9233    108.7628    149.3061   5.9123280221e+01   3.0016967167e+01    0.4100168    0.2876884 -52.32  0.000901671    1.408    0.290
       248 -13.4262     70.5460    142.7287   6.8934960902e+01   3.7986590470e+01    0.4311704     0.273959 -51.62 0.0005121971    1.482    0.325
       249 -12.8863     51.1924    143.9427   7.4976083431e+01   4.0221337642e+01    0.2871469    0.2112444  12.30  0.001472746    1.661    0.398
       250 -12.7411     95.9302    149.1398   6.2733208246e+01   3.2346525418e+01    0.2941487    0.2298242   1.88  0.001371051    1.629    0.386
       251 -11.8636    178.2138    142.3442   3.9975396613e+01   1.7456295773e+01    0.2679201    0.2001498  54.80  0.000840117    1.487    0.328
       252 -12.4290    131.9575    140.2711   5.0715186648e+01   2.7658100171e+01    0.2891369    0.2044838 -32.59 0.0006380437    1.558    0.358
       253 -12.0599    249.2184    151.9438   2.8849004834e+01   2.2522593931e+00    0.1935678    0.1787416 -14.76 0.0003726932    1.129    0.115
       254 -12.2572     30.1010    139.8309   8.0647268650e+01   4.3493501851e+01    0.2092171    0.1691981  76.50 0.0007204105    1.291    0.225
       255 -11.3756     77.3132    139.3060   6.6211409709e+01   3.7850606719e+01    0.1532422    0.1135625 -25.80 0.0002429615    1.621    0.383
       256 -12.7493     45.7534    136.9321   7.5448820237e+01   4.2631530315e+01     0.311837    0.2061307 -52.19 0.0008107024    1.381    0.276
       257 -13.0511     43.2549    133.4014   7.5621968339e+01   4.3800304926e+01    0.2526863    0.2374167 -70.06 0.0008365664    1.057    0.054
       258 -12.6218    177.4997    137.8510   3.9075406826e+01   1.8545856789e+01    0.2374479    0.2137666  86.30 0.0003298025    1.298    0.230
       259 -12.7247     36.2535    138.4348   7.8591955063e+01   4.3254886770e+01    0.3244635    0.1872947  -5.58  0.001397197    2.758    0.637
       260 -12.7210     37.1173    134.8875   7.7771226774e+01   4.4064552593e+01    0.2485833    0.1988282  45.09 0.0005929325    1.379    0.275
       261 -12.6701     14.5353    136.4679   8.4803633039e+01   4.5622911034e+01    0.2602255    0.2339518 -66.02 0.0007600394    1.097    0.088
       262 -13.3587    119.3596    135.3148   5.2970742494e+01   3.1376099621e+01    0.4635428    0.3368747 -62.40  0.002062771    1.530    0.347
       263 -12.9377    101.2960    134.2213   5.7902334213e+01   3.5091384541e+01    0.3829449    0.2238306  19.31  0.001425601    2.435    0.589
       264 -12.4952     61.2453    133.5880   7.0024887770e+01   4.1590187376e+01    0.3197975    0.1832278 -21.72  0.001209059    2.880    0.653
       265 -12.7021    128.4151    133.0981   4.9942818050e+01   3.0062659242e+01    0.2841693    0.2274682  49.39 0.0004632414    1.291    0.226
       266 -11.6972    139.0567    133.2527   4.7155515773e+01   2.7798797044e+01    0.3167226    0.2411616  80.64  0.001270601    1.824    0.452
       267 -13.1838     19.7898    131.9684   8.2643678220e+01   4.6341996044e+01    0.2966332    0.2317886 -55.05    0.0017814    1.156    0.135
       268 -12.9262     82.6921    131.0643   6.2808533269e+01   3.9074188676e+01    0.3544355     0.226978 -75.21  0.001270007    2.038    0.509
       269 -12.7451     83.3293    127.3208   6.1767642390e+01   3.9899453235e+01    0.3106274      0.22251 -45.88  0.001106607    1.343    0.255
       270 -12.9070     80.4626    127.4742   6.2699456808e+01   4.0323226506e+01     0.289694    0.2455498 -88.54 0.0007791779    1.360    0.264
       271 -11.1404    230.0784    130.6473   2.7427709455e+01   9.3176608624e+00    0.1788986    0.1697209 -30.58 0.0004413864    1.081    0.075
       272 -13.8232     27.0994    125.1963   7.9364040756e+01   4.7428542470e+01    0.4857662     0.418466 -80.78  0.002689937    1.131    0.116
       273 -13.9305     35.8038    130.0720   7.7397284204e+01   4.5407900228e+01    0.5030378    0.3934247  87.87  0.002021984    1.363    0.266
       274 -12.2636    187.9792    127.9317   3.4498240525e+01   1.8335952780e+01    0.2232955     0.210854 -33.39 0.0003172166    1.017    0.017
       275 -10.9978    130.5060    128.4893   4.8239066185e+01   3.0695085094e+01    0.1578064    0.1557239 -17.11  1.05697e-05    1.001    0.001
       276 -12.1032    121.7663    127.8751   5.0483400966e+01   3.2647295789e+01    0.2433397    0.2192348 -17.71 0.0009450208    1.174    0.148
       277 -14.6994     60.9096    125.2918   6.8462801973e+01   4.3722293857e+01    0.6593921    0.5942441  85.18  0.003696622    1.212    0.175
       278 -13.0118     64.2213    122.0437   6.6695965986e+01   4.4084264592e+01    0.3295097    0.2184108  28.09  0.001042955    1.633    0.388
       279 -13.2074     64.3300    118.6984   6.5922848236e+01   4.4896480669e+01    0.3365985    0.2080842  35.45  0.001556859    1.716    0.417
       280 -12.5119     45.6571    128.1897   7.3942006571e+01   4.4851658862e+01    0.2184732      0.18508  46.31 0.0003082202    1.305    0.234
       281 -11.9789    169.3592    126.1816   3.8056697823e+01   2.2750952523e+01    0.2176987    0.1977161  27.52 0.0005836796    1.152    0.132
       282 -13.1876      5.4820    121.7902   8.5682362749e+01   4.9827790740e+01    0.2739711    0.1771782 -65.93 0.0008690092    1.236    0.191
       283 -12.6959     74.7046    124.9681   6.3957336302e+01   4.1840255837e+01    0.2927186    0.2156943  35.51 0.0003503788    1.426    0.299
       284 -13.5690     10.4381    124.4225   8.4490180229e+01   4.8877272709e+01    0.3853127    0.1084092 -61.31  0.001538586    2.502    0.600
       285 -13.3365     55.1063    127.0689   7.0695529035e+01   4.4021830089e+01    0.3678219    0.1950393 -49.81  0.001395585    1.716    0.417
       286 -14.0616     20.4769    122.6016   8.1073692507e+01   4.8611834431e+01    0.4525143    0.3411749   6.84 0.0009901469    1.603    0.376
       287 -12.3591     23.6685    115.5188   7.8900674155e+01   5.0105594804e+01     0.478541    0.2341761 -57.57  0.001510548    1.651    0.394
       288 -13.6187     18.8414    115.3918   8.0482048744e+01   5.0507508198e+01    0.4337741    0.3017478 -78.64  0.001618394    1.392    0.282
       289 -13.4832    105.3432    113.9827   5.1685676954e+01   3.9161674011e+01    0.6528592    0.3000896  34.31  0.002264024    2.386    0.581
       290 -13.7803    104.0420    121.4845   5.4008575213e+01   3.7653774035e+01     0.752947    0.2790055  45.60  0.002420061    2.948    0.661
       291 -13.0113     99.7175    118.2782   5.4505013279e+01   3.9226954951e+01     0.458195     0.314107  74.51  0.001822066    2.359    0.576
       292 -13.2729    113.0746    110.3745   4.8425574459e+01   3.8445686684e+01    0.5329202    0.4013924  75.78  0.001519319    1.867    0.464
       293 -11.9460    200.3793    120.4830   3.0305609228e+01   1.7146827094e+01    0.2626546     0.134285 -40.41 0.0008214539    1.831    0.454
       294 -11.7215    189.0418    121.3356   3.2699017168e+01   1.9417653300e+01    0.2047537    0.1957551  60.24 0.0004689783    1.102    0.092
       295 -10.8716    179.2521    120.0138   3.4382095354e+01   2.1830409008e+01    0.1902991    0.1280587 -40.96 0.0002689782    1.437    0.304
       296 -13.5333     78.7796    119.6089   6.1414671521e+01   4.2525771420e+01    0.4827801    0.2339058  36.35  0.001914967    2.132    0.531
       297 -13.6337     72.3667    118.7711   6.3298030716e+01   4.3720408689e+01    0.4448576    0.2909907  53.84  0.001759533    1.890    0.471
       298 -11.2928     41.9461    120.2523   7.3671727329e+01   4.7239955880e+01    0.1787748    0.1765683 -15.44 0.0003450548    1.124    0.110
       299 -11.3280     36.7449    119.8630   7.5320486518e+01   4.7867346066e+01    0.2582327    0.1498268  38.14  0.001250052    1.924    0.480
       300 -11.9322    109.7463    112.0127   4.9846716761e+01   3.8746354924e+01     0.237177    0.1880875 -57.08 0.0002876196    1.339    0.253
       301 -13.3019      8.9565    117.6266   8.4033003112e+01   5.0630787595e+01    0.3541563    0.1721519   8.51  0.001698673    2.683    0.627
       302 -11.9623    210.8994    117.1419   2.7628509882e+01   1.5567954264e+01    0.2144452    0.1888474 -72.54 0.0004015807    1.226    0.184
       303 -12.1047     58.1396    117.6409   6.7745857021e+01   4.5985624984e+01     0.193446    0.1373856   9.89 0.0004659509    1.684    0.406
       304 -11.5440    196.9215    115.4932   2.9766227132e+01   1.8841335802e+01    0.2116047    0.1481404  51.27 0.0005468343    1.514    0.340
       305 -12.5651    120.2884    114.3300   4.7410568604e+01   3.6065986625e+01    0.2894558    0.2747785  -5.18 0.0003459586    1.069    0.065
       306 -13.3615     82.9693    111.1695   5.7977122828e+01   4.3873517000e+01    0.5635255    0.2185363 -51.69 0.0007086479    2.470    0.595
       307 -13.7254     63.7472    113.0790   6.4835000962e+01   4.6352079290e+01    0.5078677    0.3208611  28.97  0.002387835    1.698    0.411
       308 -12.7981     61.8462    108.6563   6.4438129241e+01   4.7681422890e+01    0.3575612     0.208639 -47.60  0.001230005    1.562    0.360
       309 -12.4887     90.2047    111.3119   5.5680549876e+01   4.2596364310e+01    0.3088765    0.2448422 -85.82 0.0008695757    1.681    0.405
       310 -12.4057     53.4498    110.6391   6.7788648068e+01   4.8291752175e+01    0.4267399    0.2282164  27.08  0.001900703    2.043    0.511
       311 -12.5017    221.2694    109.8307   2.4230287968e+01   1.4763905920e+01     0.317656    0.2045815  56.54 0.0009958795    1.732    0.423
       312 -12.9019     73.6906    109.3696   6.0589487636e+01   4.5790527551e+01    0.3384903    0.2345974 -68.93 0.0008342834    1.722    0.419
       313 -12.0807    161.8304    110.3646   3.5743000026e+01   2.7715174365e+01    0.2238351    0.1429307  38.70  0.000419426    1.692    0.409
       314 -12.4000    170.2076    109.1906   3.3581952365e+01   2.6036841196e+01    0.2095396    0.1811784 -78.06 0.0003923626    1.296    0.229
       315 -11.2540    209.6223    107.8121   2.5678377945e+01   1.7546758566e+01    0.2195186    0.1209877 -48.71 0.0009520178    1.754    0.430
       316 -10.9313    155.4793    108.4512   3.6708161063e+01   2.9558741163e+01    0.1544072    0.1521691 -78.81 3.973849e-05    1.026    0.025
       317 -11.0597    139.6728    107.3226   4.0285830861e+01   3.3383449470e+01    0.1610418     0.126889 -87.00 0.0007048549    1.690    0.408
       318 -11.4297     92.2158    107.5983   5.4058506745e+01   4.3100727249e+01    0.2034429      0.14572  21.81 0.0002502545    1.566    0.362
       319 -14.0099     10.0571    104.9821   8.1778396233e+01   5.3612995385e+01    0.4438771    0.3090338  79.11  0.002141726    1.732    0.423
       320 -12.1078    197.2448    103.9898   2.6930468110e+01   2.0930107786e+01    0.2093958    0.1821558 -50.01 0.0004153565    1.085    0.078
       321 -12.1776    229.5112    103.1034   2.1464114086e+01   1.4277570849e+01     0.220446    0.1983197  72.12 0.0003549664    1.224    0.183
       322 -11.2273     19.2446    105.0107   7.8593345578e+01   5.2994570511e+01    0.1712765    0.1425609 -55.17 0.0004032178    1.002    0.002
       323 -12.8873    153.4320    100.9822   3.5186701355e+01   3.1541496508e+01     0.496837    0.2919684 -62.33  0.001850566    2.447    0.591
       324 -11.1693    105.2903    102.6022   4.8608349175e+01   4.1746382696e+01    0.1583087    0.1243727 -85.37 0.0001518997    1.789    0.441
       325 -13.1442     78.9212    101.4719   5.6771371091e+01   4.6804724299e+01    0.3671756    0.2997718 -66.93 0.0005930454    1.408    0.290
       326 -12.5829     76.5293     97.0252   5.6369107324e+01   4.8206268279e+01    0.2691445    0.2044444   8.71 0.0005778504    1.487    0.327
       327 -12.5230     32.4501     98.5872   7.2596526214e+01   5.3442475910e+01    0.5220948    0.2592397 -31.05  0.002263947    2.352    0.575
       328 -13.3354    163.0343     99.3251   3.2561109283e+01   2.9635201938e+01     0.368619    0.2847816  42.96  0.001124678    1.332    0.249
       329 -11.2629    208.5121     99.5429   2.3921357708e+01   1.9269353398e+01    0.1429702     0.131754 -55.60 0.0001300794    1.004    0.004
       330 -12.4007     93.9246     99.1823   5.1195566126e+01   4.4691120266e+01    0.2286208    0.2141492  82.30 0.0007223955    1.247    0.198
       331 -11.7261     58.6633     97.6377   6.2820294573e+01   5.0711061873e+01    0.3959945    0.2786145  47.12  0.001974285    1.701    0.412
       332 -11.9071     25.5597     97.4780   7.4889231335e+01   5.4302036680e+01    0.3921234    0.1798108 -47.51  0.001571033    1.821    0.451
       333 -10.7274     45.5238     97.5201   6.7561345875e+01   5.2357375823e+01    0.1409526    0.1219451 -38.14 0.0003685987    1.025    0.025
       334 -13.0335     82.9231     95.2696   5.3701127508e+01   4.7529924057e+01    0.3920763    0.2310659 -30.13  0.001634683    1.975    0.494
       335 -12.3103     65.9808     94.4889   5.9364104140e+01   5.0407009532e+01    0.2254267    0.1863371 -43.93 0.0004991955    1.134    0.118
       336 -13.1048    189.6502     93.2474   2.5654018750e+01   2.4597307172e+01    0.4168024    0.2200549 -48.14  0.001738361    1.886    0.470
       337 -12.7560     78.5659     92.8489   5.4492582905e+01   4.8802670768e+01    0.2246107    0.2068266  62.85 0.0005827445    1.295    0.228
       338 -11.8373    249.5784     91.8807   1.6356298542e+01   1.2251945220e+01    0.1779356    0.1726994 -79.74 0.0003505345    1.200    0.166
       339 -11.7017     41.0654     91.6413   6.7791604971e+01   5.4209679483e+01    0.2086124    0.1781993 -63.23 0.0004139394    1.231    0.188
       340 -10.8395    138.6914     90.3452   3.5789790916e+01   3.7051866774e+01    0.1583159     0.123006 -79.77 0.0007044182    1.700    0.412
       341 -11.7105    121.8921     90.3299   4.0220723270e+01   4.0849728058e+01    0.2444373    0.1903188  63.20  0.001150011    1.477    0.323
       342 -12.2544    148.9937     87.7210   3.2552798939e+01   3.5148382756e+01    0.2185624    0.1980473  51.27 0.0005072527    1.086    0.079
       343 -12.2649    177.9223     86.9262   2.6221191000e+01   2.8450271387e+01    0.2591444    0.2156091  83.69  0.000474166    1.294    0.227
       344 -12.6242     54.4967     85.7512   6.1164925495e+01   5.3948963247e+01    0.4106333     0.332763 -13.56  0.002301962    1.225    0.184
       345 -11.3229     11.9985     87.0118   7.7862286245e+01   5.7703869666e+01    0.2014126    0.1816605  41.03 0.0003866999    1.377    0.274
       346 -11.8621      8.5389     87.4565   7.9269007030e+01   5.7806252441e+01    0.1941547    0.1434251 -29.42 0.0005062762    1.308    0.236
       347 -11.5884    159.6444     85.3084   2.9494471822e+01   3.3071150442e+01    0.1582132    0.1182504 -81.43 0.0007042545    1.725    0.420
       348 -13.6310     65.6508     79.0706   5.5022715361e+01   5.3811897762e+01     0.462319     0.301157 -26.23  0.001589082    1.631    0.387
       349 -11.8701     60.4788     85.4896   5.8849958767e+01   5.3196739047e+01    0.2536187    0.1289137 -48.37  0.001104152    1.820    0.451
       350 -12.3309     60.9965     82.6622   5.7835882154e+01   5.3735511192e+01     0.283634    0.1682133  41.17  0.001321211    1.897    0.473
       351 -11.2133    133.2477     84.2262   3.5387114779e+01   3.9478418845e+01     0.198388    0.1756654 -86.80 0.0002782524    1.304    0.233
       352 -11.0691    125.8546     84.6300   3.7445388703e+01   4.1085232886e+01    0.2208244    0.1421948  58.44 0.0009398157    1.736    0.424
       353 -10.8645    232.2350     82.9961   1.6658776485e+01   1.7067411963e+01    0.1729783    0.1001591 -40.74 0.0004067149    1.543    0.352
       354 -12.4055    150.1785     82.9504   3.0928033236e+01   3.5749465142e+01    0.2757814    0.2190943  35.07 0.0009018757    1.349    0.259
       355 -12.2216    112.0469     83.1696   4.0872071628e+01   4.4401249960e+01    0.3675929    0.2130142  45.61  0.001300967    1.699    0.412
       356 -11.8300     69.4883     83.4969   5.4956570228e+01   5.2290950988e+01    0.1438295    0.1316104 -17.79  0.000810506    1.018    0.018
       357 -12.6530    182.5082     81.0002   2.3829079254e+01   2.8406044065e+01    0.3645417    0.2291185 -62.61  0.001226706    1.920    0.479
       358 -12.4705      7.6999     78.8052   7.7879702289e+01   5.9808500822e+01    0.4727428    0.1623173 -62.45  0.002070278    2.333    0.571
       359 -12.2756    153.6346     79.0913   2.9060349318e+01   3.5617402464e+01    0.2349757    0.2015551  69.94 0.0003171239    1.193    0.162
       360 -11.8075    112.7985     78.9184   3.9340151078e+01   4.5055749641e+01    0.2825478    0.2137615 -59.76 0.0008983058    1.624    0.384
       361 -12.3857     89.0256     78.5467   4.6614893948e+01   4.9944389850e+01    0.3470237     0.258297  13.41  0.001176566    1.501    0.334
       362 -12.0674     53.8675     78.3103   5.9263425862e+01   5.5640915614e+01    0.4460461    0.2281771  16.88  0.001252506    2.463    0.594
       363 -11.9424    161.6771     76.9404   2.6751056211e+01   3.4064645257e+01    0.2114641    0.1931795 -50.76 0.0007123604    1.107    0.096
       364 -12.9501     75.3795     75.2243   5.0266155179e+01   5.3037554451e+01    0.3415138    0.2026188 -33.44  0.001166918    1.712    0.416
       365 -11.1085    227.5885     76.7298   1.5884112910e+01   1.9022917964e+01    0.1781796    0.1110351 -49.08 0.0002880423    1.428    0.300
       366 -11.7592    115.9626     74.7571   3.7136034917e+01   4.5136809133e+01    0.2715958    0.1978955 -54.22  0.001281989    1.607    0.378
       367 -12.4780     86.3133     74.4710   4.6217932310e+01   5.1247152685e+01    0.3921328    0.2430876 -39.86   0.00146952    1.603    0.376
       368 -12.3909    150.5572     73.6240   2.8171656097e+01   3.7302651518e+01    0.2721564     0.256629  -2.23 0.0006885928    1.159    0.137
       369 -11.7385    105.8378     72.4362   3.9333208013e+01   4.7745926382e+01    0.2527969    0.2063543 -35.49 0.0005245988    1.254    0.203
       370 -11.5202    204.3226     72.2953   1.8084031328e+01   2.4796510111e+01     0.132303    0.1098824  24.46 0.0003259254    1.618    0.382
       371 -11.6125      2.3137     69.6123   7.8141026241e+01   6.2103679860e+01     0.352389    0.1925516 -85.03  0.001691271    2.726    0.633
       372 -13.6908    241.5999     66.9923   1.2104284593e+01   1.7646649380e+01    0.2986071     0.253135 -62.09 0.0008120637    1.025    0.024
       373 -11.0178    236.2843     69.3507   1.3208136040e+01   1.8365930270e+01    0.1186608    0.1027355   0.44 0.0002790462    1.657    0.396
       374 -12.6831     53.0237     68.2809   5.6497111385e+01   5.7816873881e+01    0.2421445    0.1907305 -48.85 0.0004561126    1.342    0.255
       375 -12.4963    225.4028     67.2561   1.4062075907e+01   2.0947665422e+01    0.2305006    0.2010985 -70.82 0.0003584909    1.030    0.029
       376 -11.2638     72.4779     68.5334   4.9127152044e+01   5.4828426486e+01    0.1432151    0.1258578  -4.87 -2.837322e-06    1.035    0.034
       377 -11.6101     64.6915     68.4322   5.1995955717e+01   5.6100457420e+01    0.2237339    0.1295616  32.39 0.0009775555    1.736    0.424
       378 -12.3313     60.4085     66.9611   5.3154840381e+01   5.7033494364e+01    0.2480059    0.1887341  11.93 0.0005482283    1.308    0.235
       379 -11.8397     97.9425     66.9015   3.9933393211e+01   5.0379932588e+01    0.2102038    0.2022452  24.57 0.0003027354    1.095    0.086
       380 -11.5486     47.3275     66.6798   5.8288441333e+01   5.8875900580e+01    0.1232366     0.108506  72.73 0.0007047446    1.685    0.406
       381 -11.5801    199.0069     65.5173   1.7229089101e+01   2.7070073418e+01    0.1989052    0.1320227  65.13 0.0003731883    1.498    0.332
       382 -11.4278    188.4960     64.0193   1.8460204271e+01   2.9751350717e+01    0.2056344    0.1341173 -40.13 0.0004049169    1.521    0.343
       383 -11.6171    178.8230     64.1781   2.0084482168e+01   3.2026284685e+01    0.2070869    0.1811993 -75.74 0.0003488502    1.118    0.106
       384 -11.7705     10.3208     63.2836   7.3199074788e+01   6.3013991546e+01    0.1973267    0.1639932 -16.82 0.0005328265    1.175    0.149
       385 -11.9573     13.3179     61.3507   7.1361911523e+01   6.3223069537e+01    0.2684589    0.1669971 -37.01  0.001579739    1.309    0.236
       386 -11.8491    109.7994     59.8388   3.4038912691e+01   4.9060069663e+01    0.1968239    0.1755986  79.87  0.001072624    1.351    0.260
       387 -11.9487     42.4888     59.5236   5.7972516939e+01   6.0870898773e+01    0.2266843    0.1573575 -31.48  0.001275979    1.273    0.215
       388 -13.3131     37.8072     58.2059   5.9548494135e+01   6.1667329393e+01    0.3507377    0.2423936  55.57 0.0009851978    2.502    0.600
       389 -13.6490    192.7579     57.8427   1.6257734384e+01   2.9677318294e+01    0.3401685    0.2962067 -43.91 0.0009281134    1.189    0.159
       390 -12.0071    159.9705     57.3453   2.1591492822e+01   3.7623170248e+01    0.2042012    0.1766266  67.76  0.000479383    1.088    0.081
       391 -11.5840    101.0000     55.9757   3.5284246075e+01   5.1577742764e+01    0.2269103   0.08102275 -36.00 0.0005968368    2.942    0.660
       392 -12.4405     25.3091     54.8333   6.4016708608e+01   6.3587176008e+01    0.3146666    0.1538357  -0.46  0.001403426    2.748    0.636
       393 -12.5518    116.1734     53.9437   3.0332796389e+01   4.8557490575e+01    0.2115711    0.1940075  81.50 0.0005580462    1.248    0.199
       394 -12.5930    130.3179     51.6769   2.6095441721e+01   4.5608259113e+01    0.3125322    0.1959311 -33.23  0.001484049    1.717    0.417
       395 -11.4544     40.3010     53.3085   5.6791258239e+01   6.2302632350e+01      0.13493   0.08603036 -16.58 0.0002395909    1.600    0.375
       396 -11.2318     18.4591     57.4745   6.7950136620e+01   6.3641062261e+01    0.1265519    0.0996981 -31.00 0.0001305913    1.009    0.009
       397 -12.8484    100.7481     50.3090   3.3383574215e+01   5.2504496514e+01    0.3767805    0.2340161  56.33  0.001779054    1.725    0.420
       398 -13.7936     30.9093     49.8649   5.9795711537e+01   6.3984721122e+01    0.3539447    0.2853036  43.91  0.001221081    1.735    0.424
       399 -12.1545     19.4786     47.1156   6.4215522710e+01   6.5567532444e+01    0.4656405    0.1127398 -43.41  0.001809504    3.147    0.682
       400 -11.7539    191.3360     48.0256   1.4018513049e+01   3.1407251987e+01    0.1850208    0.1629448 -65.28 0.0003886681    1.082    0.076
       401 -11.0760    143.2618     46.6515   2.1724544267e+01   4.3209731938e+01    0.1407967    0.1052396 -68.12 0.0001948516    1.607    0.378
       402 -12.0567    143.3681     42.1828   2.0348602090e+01   4.3778392148e+01    0.2633392    0.1971995 -69.18 0.0006727881    1.592    0.372
       403 -13.0490     22.9586     39.8346   5.9961741206e+01   6.6576416164e+01    0.4455689    0.1804132 -54.59  0.001935779    3.085    0.676
       404 -13.3801     27.3543     37.3517   5.6874345148e+01   6.6564568904e+01    0.3012235    0.2231416  15.63   0.00107546    1.313    0.238
       405 -13.3285     30.6959     32.1384   5.3162400050e+01   6.7047835591e+01     0.373331    0.2543148 -14.33   0.00230671    1.284    0.221
       406 -13.3547     36.3413     40.1868   5.3722217478e+01   6.5080222262e+01    0.3961264    0.2377978  22.45  0.001329786    1.613    0.380
       407 -11.3173    241.7306     40.0610   6.5571942130e+00   2.1384485657e+01    0.1695725    0.1313391 -57.72 0.0003714413    1.096    0.088
       408 -10.7029    135.7281     39.3136   2.1002643502e+01   4.5989927130e+01    0.1347961    0.1045283 -72.47 0.0002270609    1.555    0.357
       409 -10.5578    124.2717     39.6840   2.3610162865e+01   4.8667548494e+01    0.1328407     0.106463 -73.06 0.0002281812    1.559    0.359
       410 -11.4153    225.5159     36.0236   7.2481643524e+00   2.5284650065e+01    0.1766273    0.1111159 -42.15 0.0003781556    1.502    0.334
       411 -11.8906      9.1405     36.4401   6.5698238263e+01   6.8316773234e+01    0.2055142    0.1039527   9.43  0.001136411    2.036    0.509
       412 -11.2556     67.7912     33.7724   3.7979069646e+01   6.1332044530e+01    0.1556773    0.1457216  30.40 0.0002313478    1.283    0.221
       413 -11.8509     96.5678     31.4212   2.7739271410e+01   5.5943124824e+01    0.3303083     0.213593  17.00  0.001395225    1.838    0.456
       414 -11.8294     96.2816     27.4478   2.6331929420e+01   5.6467102104e+01    0.2228908    0.1901668 -46.32 0.0009809362    1.447    0.309
       415 -12.6236     44.4125     32.7442   4.7045819636e+01   6.5205994788e+01    0.3163226    0.1889586  11.32  0.001678925    1.781    0.439
       416 -11.3485    106.5138     32.0762   2.5304986399e+01   5.3682564104e+01    0.1927055    0.1339885 -26.59  0.001029898    1.585    0.369
       417 -13.0885     78.2515     31.2362   3.3283150926e+01   5.9717213608e+01    0.2935955    0.2373278  84.98   0.00161743    2.047    0.512
       418 -11.1606    209.3030     30.6770   7.7230916596e+00   2.9511821932e+01    0.1353242   0.08180013 -67.26 0.0002383957    1.635    0.389
       419 -10.8582     19.3538     28.6603   5.7418859304e+01   6.8794775650e+01    0.1021096   0.09491012  50.18  0.000704198    1.806    0.446
       420 -12.0293     59.2663     26.3705   3.8120021473e+01   6.3784109644e+01    0.2017981    0.1484635 -44.33 0.0008785559    1.838    0.456
       421 -13.7063     88.0589     24.5533   2.7562397042e+01   5.8533124203e+01    0.3833556    0.2765061  49.66 0.0007261221    1.271    0.213
       422 -11.4784     23.8089     31.1912   5.6177078219e+01   6.7946842066e+01     0.169827    0.1128999 -13.70 0.0003882411    1.308    0.236
       423 -12.5181     45.6361     25.9169   4.3571137287e+01   6.6001354926e+01    0.2495845    0.1979609  47.82  0.001197116    1.760    0.432
       424 -12.8461      4.5924     24.3679   6.3647967526e+01   7.0712353702e+01    0.2232582    0.1594207 -27.77 0.0004866603    1.078    0.073
       425 -11.3700    167.0247     23.7232   1.1120686260e+01   4.0223994205e+01    0.1817946    0.1483196  74.64 0.0002176344    1.067    0.063
       426 -11.6036     67.5241     24.5226   3.4236634136e+01   6.2558606573e+01    0.1292264    0.1070416  19.50 0.0001129086    1.013    0.013
       427 -12.1072    131.4106     18.5806   1.5296533035e+01   4.9340563267e+01    0.2710911    0.1992972 -52.06  0.001535914    1.587    0.370
       428 -11.9004     81.1820     18.9906   2.7401479399e+01   6.0539470449e+01    0.1770131     0.174977  57.11 0.0008853607    1.305    0.234
       429 -11.3378     74.4559     13.5071   2.7212863497e+01   6.2429209091e+01     0.126666    0.1039712  29.72 0.0001525197    1.017    0.017
       430 -12.3416    139.5550    247.3717   6.8420201114e+01   3.2471727575e+00    0.2975614    0.2424288 -52.59  0.001471638    1.465    0.317
       431 -12.2326    114.3029    248.6409   7.3954575979e+01   6.9120044118e+00    0.2529265    0.2369823  50.32  0.001697173    1.116    0.104
       432 -11.6441     98.9947    248.7557   7.7203800620e+01   9.1823659026e+00    0.2517176    0.1524445 -32.60  0.001197141    2.795    0.642
       433 -12.0129     39.1354    241.8483   8.8859396124e+01   1.8562544364e+01    0.3308579    0.2603621 -72.93  0.001877013    1.376    0.273
