#   1 NUMBER                 Running object number                                     
#   2 MAG_AUTO               Kron-like elliptical aperture magnitude                    [mag]
#   3 X_IMAGE                Object position along x                                    [pixel]
#   4 Y_IMAGE                Object position along y                                    [pixel]
#   5 X_WORLD                Barycenter position along world x axis                     [deg]
#   6 Y_WORLD                Barycenter position along world y axis                     [deg]
#   7 A_WORLD                Profile RMS along major axis (world units)                 [deg]
#   8 B_WORLD                Profile RMS along minor axis (world units)                 [deg]
#   9 THETA_WORLD            Position angle (CCW/world-x)                               [deg]
#  10 FWHM_WORLD             FWHM assuming a gaussian core                              [deg]
#  11 ELONGATION             A_IMAGE/B_IMAGE                                           
#  12 ELLIPTICITY            1 - B_IMAGE/A_IMAGE                                       
         1 -16.7840      8.3125    176.0532   1.3932623433e+02   3.6344082626e+01     6.320612     2.294801 -87.31   0.02668656    2.689    0.628
         2 -18.5465    239.4329     43.2998   5.7261721942e+01   2.1441458312e+01     7.870248     5.780916 -41.80    0.0519663    1.139    0.122
         3 -12.1756    213.0739     22.2174   5.4486673648e+01   2.9272244926e+01    0.3286732    0.2356262 -14.15  0.001234852    1.826    0.452
         4 -12.8974      2.8808     19.0557   1.2116026232e+02   7.5854856084e+01    0.9524795    0.4215309 -67.91   0.00317749    2.402    0.584
         5 -12.5686      4.8820      4.7703   1.1205987583e+02   7.8573576666e+01    0.6640123    0.5780844 -34.49  0.004638819    1.173    0.147
         6 -10.4974    209.0480      5.8716   5.0860386533e+01   3.1878925159e+01    0.1381205    0.1284838 -40.29 0.0003792512    1.299    0.230
         7 -10.9440    158.5069      3.0026   5.3787094865e+01   4.4218720732e+01    0.3181053    0.2477009  25.59  0.001139954    1.741    0.425
         8 -10.7979    249.9952    247.4921   9.3867254256e+01  -6.3431904713e+00    0.2900795    0.1214448 -13.57  0.001587712    2.806    0.644
         9 -12.6894    101.2738    230.7667   1.2013834078e+02   1.3951968205e+01     1.009018    0.3309343  24.90  0.003623424    3.485    0.713
        10 -13.3909    168.2336    249.0848   1.0817852952e+02   2.3836792813e+00     1.396871    0.4421036  35.25  0.006502379    2.548    0.607
        11 -15.6164    116.7527    245.4961   1.1826717482e+02   9.4369210009e+00      4.06332     1.236036  29.35   0.01675372    2.717    0.632
        12 -11.4187     19.7149    237.6480   1.3903341491e+02   2.2143310966e+01    0.1992749    0.1727459 -23.29 0.0008696004    1.694    0.410
        13 -10.9200     77.6145    236.4736   1.2604337555e+02   1.5964380351e+01    0.3301079    0.2229408 -16.38  0.001792487    2.365    0.577
        14 -10.9121     28.5813    235.5291   1.3700899631e+02   2.1678427017e+01    0.2457445   0.09833114 -71.37  0.001248037    2.811    0.644
        15 -10.5767     15.5167    235.2903   1.3986078025e+02   2.2987374214e+01    0.2118448    0.1940157 -24.38 0.0009643878    1.574    0.365
        16  -8.9268     59.2847    233.3707   1.2997255707e+02   1.8749556797e+01    0.1118037   0.09138805 -18.78 0.0007017773    1.704    0.413
        17 -10.1900     91.2766    232.0250   1.2253959006e+02   1.5039438227e+01    0.2025588    0.1550244  36.27 0.0005143703    1.029    0.028
        18 -11.3727     93.1052    227.9212   1.2171665205e+02   1.5549445596e+01    0.3139483    0.2566178 -14.23  0.001712697    1.544    0.352
        19 -10.8145     74.9469    248.2362   1.2756566354e+02   1.4204941054e+01    0.2738585    0.1639165 -57.62  0.001425065    2.141    0.533
        20 -11.5765     23.5450    231.3598   1.3794854014e+02   2.2981231778e+01    0.2669352    0.2174684  -5.83  0.001370993    1.734    0.423
        21 -10.6747      5.1366    249.5391   1.4243437976e+02   2.1287512713e+01     0.182835    0.1551465  47.83 0.0007397964    1.229    0.186
        22 -10.2557     85.9174    231.0473   1.2367324184e+02   1.5910038613e+01    0.1906157    0.1554351  32.24 0.0006294235    1.076    0.071
        23 -11.1481     13.7904    241.3621   1.4042567238e+02   2.2001682459e+01    0.2761932    0.2111996 -37.33  0.001147629    2.033    0.508
        24 -11.2653    116.8006    229.7224   1.1652684378e+02   1.2045276224e+01    0.3273199    0.1888459  30.75 0.0006811831    1.389    0.280
        25 -10.2599    100.9401    221.9789   1.1927277334e+02   1.5596942570e+01    0.1844875    0.1490728  34.15 0.0004486785    1.005    0.005
        26 -10.8087     97.1460    220.4882   1.1999852467e+02   1.6393704548e+01    0.2274316    0.1607584  20.01 0.0007154001    1.384    0.278
        27 -11.1381    113.1698    226.1327   1.1692942458e+02   1.3167593508e+01    0.2943412    0.1807285  38.95  0.000776619    1.350    0.260
        28 -11.7157    108.6024    225.3723   1.1788228766e+02   1.3928936355e+01    0.3489469    0.2373945  48.38  0.001169816    1.426    0.299
        29 -10.9339    103.8616    224.1787   1.1883794245e+02   1.4792745881e+01    0.2488536    0.1733002  17.37 0.0004870343    1.443    0.307
        30  -9.7778     81.5757    229.3295   1.2451606709e+02   1.6784336200e+01      0.14533    0.1197799 -49.72 0.0009345805    1.528    0.346
        31 -11.5170     12.7846    246.8156   1.4079880371e+02   2.1091333934e+01    0.2530546     0.175815 -64.25  0.001451408    1.905    0.475
        32 -11.1965     10.4760    245.4441   1.4123833410e+02   2.1551803968e+01    0.1877643    0.1332071  61.14  0.000603773    1.170    0.146
        33 -12.1593    160.2926    235.6371   1.0800841757e+02   5.2606373709e+00    0.3770485    0.1546375  34.11  0.001870654    1.978    0.494
        34  -8.8539     71.6568    226.7437   1.2659844368e+02   1.8523780713e+01     0.117906   0.09148641   4.56 0.0004538028    1.586    0.370
        35 -10.8494     99.0447    225.1487   1.2005692315e+02   1.5267781979e+01    0.3873752    0.1048652  40.54  0.001463153    2.880    0.653
        36 -13.1608     93.8967    247.5418   1.2339094945e+02   1.2006331340e+01    0.8462275    0.4609294  30.89  0.004835011    1.412    0.292
        37 -10.4085     35.0553    222.1427   1.3487756829e+02   2.3648193370e+01     0.169458    0.1574851  27.10 0.0005357418    1.287    0.223
        38 -10.9324    116.0732    220.0872   1.1554954890e+02   1.3844086325e+01    0.3391122    0.1442833  33.97  0.001549119    1.884    0.469
        39 -11.6156     31.9793    217.4986   1.3535205096e+02   2.4917391183e+01    0.3344832    0.2140003 -47.57  0.001401774    2.170    0.539
        40 -10.7079    109.3218    219.0623   1.1698633968e+02   1.4978195609e+01     0.170431    0.1541381  34.77 0.0004646478    1.109    0.098
        41  -9.4400    121.9313    216.5555   1.1376392025e+02   1.3649791365e+01    0.1988021    0.1083831  32.23 0.0004374995    1.512    0.338
        42  -9.3494    116.5361    215.4820   1.1487196335e+02   1.4617205444e+01    0.1326483    0.1100944  28.03  5.74714e-05    1.026    0.025
        43  -9.7604     37.3137    209.0357   1.3356741349e+02   2.6137132957e+01    0.1736039    0.1419068  73.98 0.0005494959    1.187    0.158
        44 -10.5724    192.4790    194.4886   9.5411456202e+01   7.0166094637e+00    0.3889642    0.2191701 -59.63  0.001553938    4.395    0.772
        45 -10.7795    171.6385    241.3252   1.0651828960e+02   3.0089643327e+00    0.1583009    0.1219606  43.07 0.0005152893    1.629    0.386
        46 -10.0673     81.6788    194.9542   1.2095642908e+02   2.3718699240e+01    0.2870971     0.170104  41.98  0.001423435    1.440    0.306
        47  -9.8443    103.8971    194.0975   1.1513464991e+02   2.0665021108e+01    0.2079793    0.1781224  32.69 0.0004265966    1.033    0.032
        48 -12.8237     68.3894    145.2467   1.1806936342e+02   3.7445094137e+01     1.003957    0.5769585  49.51  0.003130279    1.724    0.420
        49 -12.3491     55.5612    163.1542   1.2454003455e+02   3.4676960941e+01    0.4184997    0.3523352  -0.37  0.001063509    1.444    0.307
        50 -14.0870     64.8005    156.1542   1.2081647048e+02   3.5198187603e+01     1.373488     1.054036  -6.67  0.006274447    1.719    0.418
        51  -9.6692    132.0083     97.8412   8.8002734473e+01   3.6572423284e+01    0.2435806    0.2069055  83.18 0.0009148069    1.322    0.243
        52 -11.4386    152.5172     96.2846   8.2680975805e+01   3.2177799641e+01    0.4315092    0.3422521  32.66  0.001341647    1.420    0.296
        53  -9.8967    132.9348     93.4817   8.6550083786e+01   3.7254915055e+01    0.2751252    0.2094246 -60.86 0.0005859814    1.441    0.306
        54 -10.9858    171.6048     83.3120   7.5381046961e+01   3.0133248642e+01    0.2599783    0.2440037 -71.59 0.0003491113    1.034    0.033
        55 -11.1622    155.7030     83.0436   7.8374096945e+01   3.3897292146e+01    0.3396948    0.2467558  52.13 0.0008765773    1.388    0.280
        56 -12.6747    165.7121     87.7150   7.7656719961e+01   3.0722671794e+01    0.6868942    0.5860119 -29.55  0.001508682    1.227    0.185
        57 -11.5809    159.5190     84.5615   7.8020034754e+01   3.2724578128e+01    0.4836913    0.2509132 -50.93  0.001627592    2.078    0.519
        58  -9.9780    137.5858     91.9893   8.4968389709e+01   3.6473899760e+01    0.3150706    0.2459319 -76.92  0.001468814    1.547    0.354
        59  -9.9410    143.9310    147.5369   9.6960699802e+01   2.3606425341e+01    0.2225103    0.1999884 -39.13 0.0006632924    1.150    0.130
        60 -11.4605    149.6214     86.8573   8.0733500327e+01   3.4636213825e+01     0.324241    0.2642509 -45.87 0.0007382556    1.217    0.178
        61 -10.0027    133.0259    163.7506   1.0285331735e+02   2.2240892814e+01      0.22634    0.2107679 -36.34 0.0004578197    1.143    0.125
        62 -10.2209    107.5504     77.6229   8.8865521674e+01   4.6424666638e+01    0.3157898    0.2627791  -3.91 0.0009084983    1.531    0.347
        63 -10.2403    124.8127     77.0368   8.3784606987e+01   4.2456942546e+01    0.2700135     0.221215  56.95 0.0006172402    1.187    0.158
        64  -9.2470    191.4621     62.0355   6.6656856748e+01   2.8959453986e+01    0.2858705    0.1264277 -46.46 0.0005947098    2.103    0.524
        65 -12.3331    192.5244     69.2790   6.8368590654e+01   2.7643008618e+01     0.743901    0.4570692 -49.34  0.003686654    1.527    0.345
        66 -11.4554    197.6973     67.9829   6.7332983269e+01   2.6694232263e+01     0.482713    0.3323254 -72.21  0.002049896    1.643    0.391
        67 -10.6173    153.2172     74.2331   7.6373321849e+01   3.6055840555e+01    0.2145188    0.1731612 -78.54  0.001066469    1.352    0.260
        68  -8.9910     73.3330    239.2628   1.2723295060e+02   1.5983497982e+01    0.1135341    0.0871347   6.46 0.0002955087    1.577    0.366
        69 -10.2812    132.7206    140.9832   9.8370246838e+01   2.7154324155e+01    0.4609264    0.2344514 -59.31   0.00171007    2.580    0.612
        70 -12.3859    222.0802    158.4013   8.3633526238e+01   8.1198306200e+00    0.4456002    0.3049787 -58.19 0.0009677865    2.341    0.573
        71 -10.9743    204.5381     61.4839   6.4853938754e+01   2.6146863817e+01    0.3348464    0.2032729 -36.84  0.001186389    1.488    0.328
        72 -10.9958    207.3308     59.7251   6.4094300962e+01   2.5793569868e+01    0.2193089    0.1919905 -78.57 0.0004499628    1.125    0.111
        73 -11.8511     33.7598    137.5433   1.2858495085e+02   4.3768520492e+01    0.6776593    0.3835208 -65.55  0.002870128    1.698    0.411
        74 -13.5139    223.8933     61.0539   6.2599110650e+01   2.2192715089e+01    0.7752638    0.3350774 -57.52    0.0030529    2.778    0.640
        75 -11.4774    160.4880    128.4665   8.8923559790e+01   2.4183435889e+01    0.4038741    0.2779969 -42.37   0.00157239    1.445    0.308
        76  -8.5975     20.3036     63.3036   1.2238855795e+02   6.4464022709e+01    0.1445739   0.09158515 -35.54  0.000600896    1.596    0.373
        77 -11.0741      1.5986     61.1535   1.3257521453e+02   6.6090917236e+01    0.4231297    0.1498572 -81.72  0.001621997    2.918    0.657
        78 -10.7861    134.0363    127.3757   9.4984359303e+01   2.9838139085e+01    0.5364173    0.2580687  54.19  0.001911638    2.543    0.607
        79 -13.4063    168.8483    114.4906   8.3847246218e+01   2.5128284977e+01    0.7732829    0.6512467  45.03 0.0006568566    1.218    0.179
        80 -11.4555    134.5670    108.0865   9.0089536729e+01   3.3854148740e+01     1.072687    0.2040725 -45.12  0.002558691    5.339    0.813
        81 -10.0281     29.2706    105.1691   1.2602322085e+02   5.2820094642e+01    0.2420885    0.1992419  -2.40  0.001000807    1.385    0.278
        82 -10.4264    195.1078     60.0380   6.5664550867e+01   2.8427813329e+01    0.2178744    0.1690319 -52.51  0.000331427    1.161    0.139
        83 -10.2997    144.5060    102.0023   8.6038299532e+01   3.2881994582e+01    0.2811107    0.2139861  31.38 0.0006397257    1.487    0.328
        84  -9.9931    190.0283     35.4706   5.9872992518e+01   3.2905620317e+01    0.1876005    0.1531346 -45.88 0.0005226639    1.154    0.134
        85 -11.3187     31.0667     32.9755   1.0551081787e+02   7.0286908214e+01    0.4115907    0.3444442 -18.07  0.001193868    1.136    0.119
        86 -10.8364    160.1384     29.6471   6.1780843515e+01   4.0966768394e+01    0.3587181    0.2414559 -27.28  0.001223616    1.637    0.389
        87 -12.0008     18.0071     30.2435   1.1342454401e+02   7.2336490146e+01    0.5076666    0.2241279  33.84  0.002296079    2.339    0.572
        88 -11.3360    211.9917     16.7102   5.3254020847e+01   3.0111954552e+01    0.1959371    0.1455287 -64.14 0.0008764704    1.110    0.099
        89 -10.9810    211.3342     29.1929   5.6290338281e+01   2.8850260328e+01    0.2960415    0.1896428 -35.76  0.001100401    1.437    0.304
        90 -10.9811      1.7568    244.3403   1.4300747542e+02   2.2523082628e+01    0.3140396    0.1397899 -79.64  0.001720109    2.476    0.596
        91 -11.2424     27.1946    244.0356   1.3766989583e+02   2.0222259332e+01    0.1813525    0.1483189   7.81  0.000851481    1.586    0.370
        92 -11.2437    180.4122    242.2658   1.0496390066e+02   1.7992861454e+00    0.2119384    0.1504095  29.72 0.0007595929    1.301    0.231
        93 -10.2614    206.6953     16.5285   5.3582113656e+01   3.1294943906e+01    0.1470257    0.1038617 -74.98 0.0002632994    1.250    0.200
        94 -13.9244      4.7344    200.8537   1.4119833803e+02   3.0988231749e+01    0.9467322    0.5939487  75.13  0.005734446    1.409    0.290
        95 -10.0448    206.3217     25.0340   5.5689822065e+01   3.0432774356e+01    0.1973526    0.1373691 -76.17 0.0006325039    1.324    0.245
