#   1 NUMBER                 Running object number                                     
#   2 MAG_AUTO               Kron-like elliptical aperture magnitude                    [mag]
#   3 X_IMAGE                Object position along x                                    [pixel]
#   4 Y_IMAGE                Object position along y                                    [pixel]
#   5 X_WORLD                Barycenter position along world x axis                     [deg]
#   6 Y_WORLD                Barycenter position along world y axis                     [deg]
#   7 A_WORLD                Profile RMS along major axis (world units)                 [deg]
#   8 B_WORLD                Profile RMS along minor axis (world units)                 [deg]
#   9 THETA_WORLD            Position angle (CCW/world-x)                               [deg]
#  10 FWHM_WORLD             FWHM assuming a gaussian core                              [deg]
#  11 ELONGATION             A_IMAGE/B_IMAGE                                           
#  12 ELLIPTICITY            1 - B_IMAGE/A_IMAGE                                       
         1 -14.0142    213.5860      8.8739   3.9599171374e+01   3.0322882675e+01     2.313397     1.441533  43.75   0.01141797    2.004    0.501
         2 -13.1430    174.4265     53.7269   5.7485613090e+01   3.4543100406e+01     1.700524     1.159301  20.51  0.004404311    2.047    0.512
         3 -13.6279    189.5052     39.7204   5.0829710934e+01   3.2675981155e+01     1.185065     1.067237 -10.65  0.004095681    1.263    0.208
         4 -12.7113    194.2841     34.0721   4.8534993263e+01   3.2199475455e+01      0.60551    0.5681365 -30.93  0.001294881    1.158    0.136
         5 -10.9178     44.8723      6.2792   7.5722440849e+01   6.8956610189e+01    0.1757896    0.1496018  31.74  0.001205623    1.452    0.311
         6 -10.1464     58.5876      4.2283   6.8902901133e+01   6.7045696129e+01    0.1772114    0.1032161 -10.36 0.0009593878    1.702    0.413
         7  -9.9231     64.9934      2.0000   6.5362763756e+01   6.6160298895e+01    0.1995966   0.06377406  49.75 0.0008072326    2.976    0.664
         8  -7.3111     43.6236    221.2397   1.2293792734e+02   2.3302342517e+01    0.2057341    0.1557816  34.63   0.00141008    1.609    0.378
         9 -12.8166    249.6435    231.6048   8.4730328498e+01  -9.9537138914e+00    0.7505146    0.4815599 -21.14  0.004860109    1.503    0.335
        10 -12.5629    249.1555    243.8680   8.6845291736e+01  -1.1254905112e+01     0.866968    0.7374352  43.86  0.006266997    1.855    0.461
        11  -9.3445    160.5362    205.4915   9.7268830398e+01   8.3861128796e+00    0.1365008    0.1196562  33.44 0.0001545199    1.025    0.024
        12  -8.3339     50.3029    216.5476   1.2132334144e+02   2.3422672472e+01    0.3124565     0.229131  -3.88  0.001723145    3.050    0.672
        13 -10.3167     58.2229    202.0024   1.1848895361e+02   2.5398950647e+01    0.2778226    0.2041705 -42.52  0.001647297    2.004    0.501
        14  -8.8199     87.8681    202.3743   1.1231371208e+02   2.1211782138e+01    0.1727095     0.117138  29.45  0.000884324    1.744    0.427
        15 -19.5184     23.6431    147.2831   1.2082034749e+02   4.1467671051e+01     19.19616     4.809982 -75.19   0.06718834    3.778    0.735
        16 -10.8767    192.9110    194.8918   8.8739996725e+01   4.3380659008e+00    0.9451556    0.5156968 -64.15  0.002910007    5.918    0.831
        17  -9.5310    146.3191    198.3293   9.9110542661e+01   1.2262265141e+01    0.1369036    0.1068369   3.23 0.0006751968    1.686    0.407
        18 -10.9238    150.4099    195.3623   9.7735692050e+01   1.2083506590e+01    0.4892091    0.1418045 -50.25  0.001630945    3.924    0.745
        19 -11.4379    149.5683    188.1480   9.6680045950e+01   1.3632522031e+01    0.3921263    0.3236702  76.93  0.001548142    1.447    0.309
        20 -11.6602     60.3395    195.8726   1.1744877564e+02   2.6424241174e+01    0.3538216    0.2388483 -43.94  0.001362008    2.118    0.528
        21  -9.2996     82.2571    195.0703   1.1265059393e+02   2.3575961336e+01    0.2117693    0.1709471  52.13 0.0006365814    1.150    0.130
        22  -9.4808    184.6051    212.3976   9.3509496229e+01   2.9589968409e+00    0.2263056    0.2192447  -2.06  0.001253138    1.202    0.168
        23  -9.1512    206.6617    194.3194   8.5900720927e+01   1.9525725743e+00    0.1260799    0.1098619  75.27 0.0007049664    1.709    0.415
        24  -9.2648    156.5113    189.9034   9.5469864455e+01   1.1996451862e+01    0.1936054    0.1415787 -47.84 0.0005346188    1.507    0.336
        25 -10.7632    140.7743    188.2722   9.8648273752e+01   1.5235516573e+01     0.239275    0.2150729 -54.65   0.00138697    1.214    0.176
        26 -11.9401     70.7732    182.5553   1.1369017877e+02   2.7942257540e+01    0.6986871    0.5476555 -68.65  0.003478787    1.264    0.209
        27 -11.1533    150.8254    179.5754   9.4857295846e+01   1.5097466278e+01    0.4509871    0.3065429 -71.50  0.002058715    2.073    0.518
        28 -11.3261    145.0539    180.6285   9.6348727852e+01   1.5981439648e+01    0.4031397    0.3246272  41.58    0.0011574    1.153    0.133
        29 -11.6250    141.5489    174.6250   9.6048972309e+01   1.7884135008e+01    0.7362196    0.4807074  78.40  0.003017981    2.556    0.609
        30 -10.5867    189.2256    177.2536   8.6081399508e+01   8.0941844147e+00    0.5041292     0.364927 -59.09  0.002472885    1.854    0.461
        31  99.0000     55.8815    211.1673   1.1979153855e+02   2.3808768931e+01    0.4616967    0.1634596  61.06  0.001825902    3.468    0.712
        32  -8.6881    194.4319    172.2436   8.3982888774e+01   7.9833934426e+00    0.1953618    0.1369891 -49.65 0.0009478678    1.661    0.398
        33  -9.7605     75.1331    249.7915   1.1938950644e+02   1.4072671485e+01    0.2697988     0.100386 -59.98  0.001377094    3.109    0.678
        34  -9.7164    240.4667    169.4622   7.4593571296e+01  -1.2704456953e-01    0.1364823    0.1153167  -3.40 3.917927e-05    1.013    0.013
        35 -10.1220    230.5566    166.8347   7.5819915299e+01   2.0516196082e+00    0.3303968    0.1146988 -43.79  0.001157458    3.343    0.701
        36  -8.1401     81.2682    220.3112   1.1562364742e+02   1.8583439810e+01    0.1030916   0.09668864 -30.28  0.000283167    1.544    0.352
        37 -10.9189     91.1232    157.9527   1.0528280999e+02   3.0578292435e+01    0.2717007    0.2545462 -60.90 0.0003569342    1.142    0.124
        38 -11.8653     97.0911    151.2734   1.0259429267e+02   3.1180510737e+01    0.6124181    0.5066985 -17.53  0.003193989    1.608    0.378
        39 -10.9653    133.9387    145.7424   9.2085088752e+01   2.5665134104e+01     1.302649    0.3413939 -55.39  0.002981428    6.200    0.839
        40  -9.5713    113.4299    151.1240   9.8375461118e+01   2.8364138902e+01    0.3304825    0.2221814  74.55  0.001428477    2.015    0.504
        41  -9.4012    187.0708    151.5464   8.1060912939e+01   1.3339908193e+01    0.2096621    0.1338168  67.84  0.000808173    2.550    0.608
        42  -9.4763    174.8539    149.0965   8.3164671940e+01   1.6405798615e+01    0.2262349    0.2139145  83.35 0.0005540127    1.201    0.167
        43  -9.8879    143.7452    145.3939   8.9588375456e+01   2.3746533770e+01    0.2895097    0.1915357 -58.59  0.001258688    1.696    0.410
        44 -10.2950    107.1368    145.4763   9.8883464592e+01   3.0817642949e+01    0.3987253    0.2632633 -83.95  0.001479373    2.071    0.517
        45 -11.5070    108.2302    138.1519   9.7098090412e+01   3.2349080855e+01    0.6288477    0.4773918 -46.73  0.003113345    1.332    0.249
        46 -10.9094    105.8764    131.0058   9.6198560049e+01   3.4468434903e+01    0.4474516    0.3493586 -51.74  0.001582761    1.245    0.197
        47 -11.7514     96.5055    137.2872   1.0007256534e+02   3.4610166397e+01    0.3167079    0.2855232 -87.04 0.0003944696    1.094    0.086
        48  -9.9986    135.8894    129.4016   8.7863164077e+01   2.8949266003e+01    0.4667878   0.09684265 -47.68  0.001131639    4.864    0.794
        49 -10.3394    115.1933    128.8459   9.3181478937e+01   3.3240366106e+01    0.3415029    0.2977525  -7.73 0.0006792545    1.367    0.268
        50  -9.4328    160.8733    127.7592   8.1310516656e+01   2.3878900521e+01     0.308513     0.212784 -70.23  0.001245848    2.088    0.521
        51 -10.5685    102.8649    124.6574   9.5613883215e+01   3.6519624782e+01    0.3125021    0.2619889 -14.41 0.0007320046    1.461    0.316
        52 -10.4084    120.4595    122.8077   9.0332301829e+01   3.3615331777e+01    0.5064254    0.2829577 -26.36  0.001717714    3.063    0.674
        53  -9.3926    134.8919    119.8948   8.5777169892e+01   3.1296234021e+01    0.3407798    0.1677803 -48.91  0.001122941    2.049    0.512
        54  -9.4970    110.2567    118.1062   9.1998667059e+01   3.6697533011e+01    0.2396243    0.2165678  40.41 0.0003696216    1.146    0.127
        55 -10.0002    231.2226    113.7779   6.3659183024e+01   1.0833116803e+01    0.2804956    0.2633094 -25.42 0.0007085488    1.035    0.034
        56  -9.6036    167.3668    112.3107   7.5833300985e+01   2.5614797221e+01     0.335124    0.2624337 -77.53    0.0010147    1.677    0.404
        57 -10.1087    134.5283    106.0531   8.2229624071e+01   3.4439099971e+01    0.4735094     0.153061 -45.58   0.00142475    3.074    0.675
        58 -11.1526    118.9124    110.8628   8.7751714240e+01   3.6668796318e+01    0.6086571    0.3752602  56.32  0.001766465    1.925    0.481
        59  -9.5644    205.4758    110.1916   6.7334472469e+01   1.7141660751e+01    0.3235279    0.2170015  42.24 0.0008640683    1.572    0.364
        60  -9.1748    130.9784     96.5363   8.0510166661e+01   3.7276167681e+01    0.2345691    0.1556954  45.14 0.0004044816    1.529    0.346
        61 -11.1402     67.0651    205.9120   1.1705134619e+02   2.3429225874e+01    0.1949545     0.189526 -78.90 0.0003040212    1.359    0.264
        62  -8.7248    181.5165     82.5033   6.4555747679e+01   2.7943121303e+01    0.1542691    0.1518849 -51.28 0.0008104564    1.002    0.002
        63  -8.5033    154.2944     82.2935   7.0405445867e+01   3.4713277912e+01    0.1575884    0.1241312  12.87 0.0002535078    1.558    0.358
        64  -9.7923     70.4588     72.3545   9.2005218942e+01   5.3880673949e+01    0.2301693    0.2227069 -46.68 0.0003550074    1.151    0.131
        65 -10.4947     71.9099    245.3085   1.1960822372e+02   1.5276947664e+01    0.2301376    0.1454874 -68.51  0.001510521    1.765    0.433
        66  -8.8367    167.7986    230.9564   9.9742213254e+01   2.9118393906e+00    0.1651531    0.1468274  29.82 0.0004518343    1.088    0.081
        67 -10.8796     59.0458    230.1667   1.2075289311e+02   1.9700885629e+01    0.1724319    0.1314506  79.16  0.000377365    1.131    0.116
        68 -10.3318    192.8186    205.4017   9.0666787171e+01   2.6366383854e+00    0.3162886     0.116709  36.23  0.001232244    2.548    0.607
        69  -9.1704     72.3095    202.8467   1.1565133488e+02   2.3350826872e+01    0.3021398    0.1878212  70.57  0.001227412    1.585    0.369
        70  -9.5826     56.0996    223.8748   1.2080549120e+02   2.1270863910e+01    0.1190724   0.08772976  81.14 -0.0006383859    1.164    0.141
