#   1 NUMBER                 Running object number                                     
#   2 MAG_AUTO               Kron-like elliptical aperture magnitude                    [mag]
#   3 X_IMAGE                Object position along x                                    [pixel]
#   4 Y_IMAGE                Object position along y                                    [pixel]
#   5 X_WORLD                Barycenter position along world x axis                     [deg]
#   6 Y_WORLD                Barycenter position along world y axis                     [deg]
#   7 A_WORLD                Profile RMS along major axis (world units)                 [deg]
#   8 B_WORLD                Profile RMS along minor axis (world units)                 [deg]
#   9 THETA_WORLD            Position angle (CCW/world-x)                               [deg]
#  10 FWHM_WORLD             FWHM assuming a gaussian core                              [deg]
#  11 ELONGATION             A_IMAGE/B_IMAGE                                           
#  12 ELLIPTICITY            1 - B_IMAGE/A_IMAGE                                       
         1 -13.7371     32.4366    105.0743   1.2104557079e+02   5.1443605723e+01     1.612182      1.04177 -81.43  0.006392402    2.091    0.522
         2 -12.1437      5.3048     23.2428   1.0852986082e+02   6.9013639784e+01    0.4900466    0.3877951  30.89  0.003702032    1.793    0.442
         3 -13.5133      7.0046      8.6009   1.0180063885e+02   7.0791778747e+01    0.8722207    0.6013196   4.99  0.005787247    1.151    0.131
         4 -13.0504    134.5378     25.2423   6.7837214257e+01   4.7432793751e+01     0.574326    0.3816945 -26.42  0.003286687    1.775    0.437
         5 -12.9319    200.0212     28.2059   5.9086871142e+01   3.2363207932e+01    0.5601025    0.4569575 -74.70  0.003714374    1.086    0.079
         6 -11.9636    207.1262     19.6789   5.6535676445e+01   3.1825147172e+01    0.3515615    0.2830762  21.46    0.0012506    2.114    0.527
         7 -12.3439     19.4680      2.9587   9.3476217999e+01   7.0125765409e+01    0.4521553    0.2499921  30.17  0.002352741    1.605    0.377
         8 -12.9672    214.3810     10.6556   5.4043666160e+01   3.1293293821e+01    0.5911787     0.455799 -79.16  0.003294986    1.043    0.041
         9 -12.1321     89.1173     11.3994   7.3202936369e+01   5.8303805175e+01    0.6157942    0.2691779  33.34  0.002900808    2.514    0.602
        10 -12.0319    145.7907      2.8271   5.9931296523e+01   4.7040759009e+01     0.485677    0.2329783  55.66  0.002614573    1.732    0.423
        11 -10.9042     59.4894      5.5004   7.9340979789e+01   6.4185523746e+01     0.114307   0.08891618  25.87 0.0008105925    1.007    0.007
        12 -12.6250      2.9952     35.1719   1.1383514050e+02   6.7385191112e+01    0.9016128    0.3424542 -49.96  0.004757552    2.406    0.584
        13 -15.0729     53.8190    248.2469   1.3566076898e+02   1.4747367151e+01     3.234888     1.368957  26.52    0.0127376    3.903    0.744
        14 -14.3349     98.2925    160.7928   1.1299107202e+02   2.8843737669e+01     3.029145     2.176135  -7.85    0.0130124    2.151    0.535
        15 -15.9332    122.1820    244.1906   1.2108997584e+02   5.3716036441e+00      5.42991     3.045213  44.16    0.0267227    1.600    0.375
        16 -14.6981     73.1697    191.6095   1.2478479603e+02   2.5107616622e+01     4.261518     1.104503  39.44   0.01393131    3.551    0.718
        17 -16.1090     66.4122    170.6766   1.2326004790e+02   3.1334508660e+01     5.474175     2.516473 -49.82   0.02219483    2.148    0.534
        18 -16.4751     11.6231    241.4367   1.4309470999e+02   2.1221147770e+01     2.077643     1.388953  69.49   0.01381637    1.190    0.160
        19 -14.7300     49.6254    208.6342   1.3251503083e+02   2.4191812346e+01     1.732855     1.017716 -48.08  0.008538451    2.044    0.511
        20 -15.8983     57.9365    228.0986   1.3284164248e+02   1.8582047599e+01     3.076159     2.224612 -20.51   0.01560484    2.565    0.610
        21 -14.4528     38.3892    225.4765   1.3665497035e+02   2.1680539970e+01     1.310183    0.6725807  32.09  0.006604819    2.216    0.549
        22 -13.7382    145.9965    178.1670   1.0441924030e+02   1.5721974091e+01     1.200534     1.060888 -27.80  0.005560818    1.209    0.173
        23 -12.8728    122.2159    188.7087   1.1221830180e+02   1.7692152128e+01     1.194568     0.882425   2.99  0.005335453    1.982    0.495
        24 -12.5215    135.5461    186.2266   1.0851781779e+02   1.5821207176e+01    0.9604388    0.5851775  29.41  0.004047775    1.885    0.469
        25 -10.0719    109.9357    189.6824   1.1540644888e+02   1.9645166465e+01    0.2970045    0.2205571 -67.62 0.0009196526    1.377    0.274
        26 -10.7004     31.5331    180.0800   1.3339509423e+02   3.3271056611e+01    0.3219479    0.2335501 -83.77  0.001129825    1.204    0.170
        27 -12.3672     21.4278    175.9319   1.3534560734e+02   3.5316891405e+01    0.6790017    0.4605585 -84.38   0.00218613    1.284    0.221
        28  -9.8170      1.4389    179.2293   1.4032882606e+02   3.6276959334e+01    0.2418224   0.09038032 -69.16  0.001121929    2.040    0.510
        29 -13.2945    166.5161    166.7498   9.7247526370e+01   1.4303460436e+01     1.024968    0.5339669 -57.90   0.00384137    2.273    0.560
        30 -12.3435    115.7347    172.8323   1.1081957745e+02   2.2736969219e+01     1.402107    0.4318351  37.72  0.004280985    3.368    0.703
        31 -11.7697      2.5406    167.7565   1.3898160398e+02   3.8931147494e+01    0.6199677    0.2468679 -71.51  0.002876707    1.950    0.487
        32 -11.9631    150.3004    165.8667   1.0082787579e+02   1.7751867947e+01    0.7028244    0.5076969 -46.97  0.002491373    1.351    0.260
        33  99.0000     31.6317    168.0241   1.3186556045e+02   3.6249850503e+01    0.6316534    0.2427162 -54.86   0.00265178    2.280    0.561
        34 -11.1442     42.4767    161.3428   1.2811968789e+02   3.6741378186e+01    0.6466704    0.3303852 -59.76  0.002479354    1.666    0.400
        35 -12.2662     34.9276    159.9758   1.2991728101e+02   3.7912527074e+01    0.7449714    0.5167062  54.03  0.003436989    1.582    0.368
        36 -13.2642    173.3408    150.4285   9.2132318708e+01   1.6571912910e+01     1.655158     0.577045 -40.90   0.00520521    3.007    0.667
        37 -12.2919    159.2105    155.4706   9.6457037864e+01   1.8352773476e+01    0.7409007    0.5497475 -47.15  0.003469659    1.302    0.232
        38 -10.0676     11.2176    157.8255   1.3577641083e+02   4.0650124274e+01    0.2643947    0.1596539  71.54  0.001209005    1.865    0.464
        39 -11.7217     32.6439    145.3107   1.2835445771e+02   4.1799855343e+01    0.8634721    0.2642038 -56.34  0.003311725    2.525    0.604
        40 -11.2611     36.5417    134.8335   1.2551175226e+02   4.3987645215e+01    0.8565704    0.3917165  37.12  0.003833925    2.426    0.588
        41 -14.1521      6.4361    141.8847   1.3507233564e+02   4.4873569291e+01     1.482032     0.846766 -60.19  0.008242629    1.390    0.281
        42 -13.9448      6.3728    115.3504   1.3130354747e+02   5.1150269670e+01     1.579274    0.7431762 -63.55  0.006977651    1.659    0.397
        43 -12.0034     11.2028     99.8556   1.2705087727e+02   5.4349378999e+01    0.6317414    0.3851362 -33.81  0.002894714    1.578    0.366
        44 -13.2879     22.8317    130.9532   1.2888267156e+02   4.6226477432e+01      1.64302    0.5801866 -65.93   0.00628836    2.406    0.584
        45 -12.2332     29.6935    117.1387   1.2436991379e+02   4.8911769730e+01    0.7537767     0.546841  33.11  0.003515702    1.602    0.376
        46 -13.4267     91.9635    246.0748   1.2771235704e+02   9.7529866156e+00     1.079449    0.6705822  34.12  0.005671341    1.641    0.391
        47 -14.3357      9.5227    210.1534   1.4122794319e+02   2.8325724966e+01     1.388809    0.9356421  34.66  0.008659566    1.732    0.423
        48 -13.2403    108.7655    131.1326   1.0364261959e+02   3.4242158077e+01     1.204859    0.7840954  59.18  0.004758799    1.918    0.479
        49 -10.6959     99.4136    129.1827   1.0580274872e+02   3.6432673097e+01    0.3209583    0.2413666 -15.56  0.001071107    1.723    0.419
        50 -11.2534     59.0869    132.8577   1.1845505275e+02   4.1838747890e+01    0.3149789       0.2317 -65.79   0.00127714    1.301    0.231
        51 -10.8095     95.3750    117.9884   1.0424613212e+02   3.9782126366e+01    0.4652742    0.2557388 -53.69  0.001933355    1.811    0.448
        52 -12.3643    108.6047    113.3060   9.9260663835e+01   3.8384950323e+01     0.706756    0.4108116 -43.87  0.003013746    1.683    0.406
        53  -9.3845    167.6537    112.3312   8.4390460794e+01   2.6006909666e+01    0.1613453    0.1184302 -82.63 0.0007049767    1.761    0.432
        54 -12.6032     66.1730    108.2445   1.1075699721e+02   4.6708359419e+01    0.7394551      0.45394  47.88  0.003446372    1.976    0.494
        55 -11.6420     46.2249    103.5673   1.1613065183e+02   5.0332613089e+01    0.9129956     0.259736 -56.29  0.003170806    3.155    0.683
        56 -11.8999     51.2251     99.8905   1.1358166961e+02   5.0557924523e+01    0.9147345    0.6641239  68.20  0.004608975    2.124    0.529
        57 -11.0307      2.1915     89.2623   1.2806859613e+02   5.7219456132e+01    0.4347866    0.2178397 -58.21  0.001959468    1.546    0.353
        58 -13.8504     30.6196     82.8235   1.1648039378e+02   5.6442568122e+01     1.523566    0.8495205  20.80  0.006333672    1.980    0.495
        59 -12.2153     10.9082     82.9645   1.2366757647e+02   5.8013183584e+01    0.9152579    0.3915462 -34.58  0.004403631    2.268    0.559
        60 -12.3366     35.3014     69.1847   1.1103985777e+02   5.8672556495e+01    0.7037221    0.5736455   3.41  0.004206676    1.204    0.170
        61 -12.4046     53.6081     75.0779   1.0605888889e+02   5.5381658255e+01    0.8511392     0.727815  41.80    0.0052487    1.419    0.295
        62 -11.0298      8.3167     57.0500   1.1820645694e+02   6.3274593980e+01    0.4615681    0.1856897 -53.62  0.002352729    2.149    0.535
        63 -11.1283     43.2975     52.4546   1.0276502570e+02   6.0714188249e+01    0.4513865    0.2659756 -26.47   0.00249803    1.629    0.386
        64 -11.7173     99.0526     65.1152   8.8278992562e+01   4.9652546189e+01    0.5681103    0.3536198  21.42  0.002604257    2.068    0.516
        65 -11.7271     74.7734     51.9109   9.1413936103e+01   5.6159631527e+01    0.4413679    0.2679434  24.37  0.002266662    1.747    0.428
        66 -10.5950    109.2294    230.3452   1.2197518130e+02   1.0367486431e+01    0.2887802    0.2168689  54.22 0.0008790006    1.254    0.203
        67 -10.0707    109.5027    211.5116   1.1912751595e+02   1.4537821444e+01    0.3006313    0.2085174  27.07   0.00144793    1.648    0.393
        68 -11.7278     36.1203     36.8417   1.0012731324e+02   6.3993948193e+01     0.607047    0.3311107  30.30  0.003525078    1.778    0.438
        69 -10.9201     63.7228     35.8638   8.9493036812e+01   6.0233994044e+01    0.2160959    0.1667086  65.02  0.001254174    2.122    0.529
        70 -12.1677    191.6839     34.2309   6.1408825134e+01   3.3468273096e+01    0.3519649     0.266886  58.52  0.001603454    1.362    0.266
        71 -11.3474     46.0011     32.9345   9.4801500798e+01   6.3262649083e+01    0.4623392    0.2647302 -19.71   0.00262012    1.784    0.440
        72 -11.4990     52.7629     32.6359   9.2167924442e+01   6.2340262771e+01    0.2487353    0.2014669  31.04   0.00168792    1.279    0.218
        73 -11.5669    116.5818    207.5234   1.1683590328e+02   1.4251860537e+01    0.6070242    0.4743638   6.18  0.002582506    1.725    0.420
        74 -12.9958    134.1528    199.3660   1.1129542831e+02   1.3017836265e+01     1.332441     0.807165  26.12  0.004566135    1.996    0.499
        75 -12.4071    146.6035    195.7735   1.0771773266e+02   1.1550460182e+01    0.7222976    0.5315775 -77.13  0.003351737    1.750    0.428
        76 -11.7603     86.1467     27.9443   7.9725959275e+01   5.7241359668e+01    0.2923936    0.2419432   3.42  0.001924932    1.209    0.173
        77 -11.2926     27.4876    200.8771   1.3660100594e+02   2.8656127510e+01    0.4302678      0.36131  68.24  0.002360707    1.150    0.130
        78 -12.2070    158.1744    198.4937   1.0557402683e+02   8.8018538177e+00    0.5120398    0.4488286 -36.26  0.002186575    1.155    0.134
        79 -14.3969    164.8918    186.9355   1.0180131444e+02   1.0095054212e+01     1.541279     0.964916 -44.44  0.006913627    1.576    0.365
        80 -11.8345    127.5458     38.7017   7.3106416770e+01   4.7444158103e+01    0.2631575      0.23494 -40.23  0.001661002    1.250    0.200
        81 -13.5451      4.9482    195.3564   1.4096945450e+02   3.2175939259e+01    0.7908458    0.5341585 -55.22  0.004149882    1.593    0.372
        82 -10.9441     11.8646    185.7317   1.3859231081e+02   3.3835508000e+01    0.5998918    0.3811425 -84.90  0.002597876    1.318    0.241
