#   1 NUMBER                 Running object number                                     
#   2 MAG_AUTO               Kron-like elliptical aperture magnitude                    [mag]
#   3 X_IMAGE                Object position along x                                    [pixel]
#   4 Y_IMAGE                Object position along y                                    [pixel]
#   5 X_WORLD                Barycenter position along world x axis                     [deg]
#   6 Y_WORLD                Barycenter position along world y axis                     [deg]
#   7 A_WORLD                Profile RMS along major axis (world units)                 [deg]
#   8 B_WORLD                Profile RMS along minor axis (world units)                 [deg]
#   9 THETA_WORLD            Position angle (CCW/world-x)                               [deg]
#  10 FWHM_WORLD             FWHM assuming a gaussian core                              [deg]
#  11 ELONGATION             A_IMAGE/B_IMAGE                                           
#  12 ELLIPTICITY            1 - B_IMAGE/A_IMAGE                                       
         1 -12.6577    244.2075     26.9833   5.4971073880e+00   2.5833093872e+01    0.6337698    0.3936197 -80.06  0.004895932    1.529    0.346
         2 -11.8752    244.3384     20.7419   4.4100758402e+00   2.6469778420e+01    0.5040293    0.2583191  89.86  0.003553141    2.022    0.505
         3 -11.2905      2.1499     24.2444   6.4664081940e+01   7.4383700066e+01    0.4121138    0.2572788 -58.68  0.001553841    1.890    0.471
         4  -9.9179    112.3775     14.0624   1.3935759439e+01   5.3451713661e+01    0.4531945    0.2005271 -76.27  0.001681912    3.695    0.729
         5  -9.8284    103.0556      7.7895   1.3247040032e+01   5.6241630652e+01    0.1947993    0.1751703 -64.12 0.0005257927    1.191    0.161
         6 -10.2379      2.1109      2.5246   5.2324723599e+01   7.8067147405e+01    0.2436147     0.149186 -33.17  0.001310577    1.730    0.422
         7 -10.2520    185.1258    238.4786   5.0375622880e+01   2.6487036511e+00    0.2875537    0.1447893 -46.51  0.001267211    2.171    0.539
         8  -9.0994    101.0472    250.5275   6.9838052944e+01   9.2093678388e+00    0.1820511    0.1042896  21.55  5.58872e-05    1.435    0.303
         9  -9.2271     74.9582    250.5189   7.6066584409e+01   1.1895349513e+01    0.2324572    0.1090227  17.89 0.0006587875    1.884    0.469
        10  -9.7244     75.8898    246.1932   7.5435847212e+01   1.2639485245e+01    0.3892302    0.1628953 -55.42  0.001697977    2.611    0.617
        11 -15.1278     68.7932    146.2119   6.4267675040e+01   3.6974134792e+01     10.08896     4.888196 -81.95   0.02896556    4.473    0.776
        12  -9.1555    102.2082    211.1023   6.4726588029e+01   1.6880233877e+01    0.2026972    0.1663865 -18.28 0.0002847954    1.205    0.170
        13  -9.8165    211.0220    198.7353   3.9771070878e+01   6.1420434759e+00    0.1872222     0.134211 -29.50 0.0004781403    1.122    0.109
        14 -11.7292     68.0695    192.0548   7.1550302179e+01   2.5437493308e+01     0.470145    0.3007861  82.39  0.001591128    2.229    0.551
        15  -9.9094    192.2230    193.2978   4.2086365732e+01   9.0877449017e+00    0.2844564    0.1379362 -58.17   0.00108297    4.471    0.776
        16 -15.8424     37.3789    181.7851   7.9691786519e+01   3.1430840592e+01     5.870637     2.980871 -75.29   0.02465926    2.135    0.532
        17 -10.6229     74.6719    191.4127   6.9543047131e+01   2.4784295412e+01       0.3029    0.2384115 -66.11 0.0009826598    1.404    0.288
        18 -12.1849    129.3039    191.6179   5.4973382429e+01   1.7459245733e+01     1.037433    0.2782417  26.92  0.003149704    4.246    0.764
        19 -11.8443    127.4067    185.4182   5.4391627767e+01   1.9018520150e+01    0.7780076    0.3618771  10.66  0.002505029    4.066    0.754
        20  -9.2397    207.5273    189.5159   3.8837310869e+01   7.9571051426e+00    0.1193484    0.0915412 -21.82 0.0006720239    1.028    0.027
        21 -10.7431     63.7202    182.6361   7.1613366279e+01   2.8289634618e+01    0.3376398    0.2530584 -87.27 0.0008422418    1.593    0.372
        22 -11.3338    179.6331    168.5555   4.0066392174e+01   1.4953456458e+01     0.612797    0.4320861 -41.93  0.003601413    1.292    0.226
        23  -9.2741    174.5344    180.4926   4.3181507904e+01   1.3494375362e+01    0.2420378    0.1888429 -43.60 0.0006539859    1.291    0.226
        24 -10.2203    172.2917    175.9240   4.2805158331e+01   1.4623193741e+01    0.2803888    0.2585253   3.29  0.001087154    1.162    0.140
        25  -9.6658    115.9917    181.4901   5.6595698212e+01   2.1489331075e+01    0.2167338    0.1345591  28.65  0.000427813    1.547    0.353
        26  -8.5331    100.2803    181.2999   6.0762134592e+01   2.3768849377e+01    0.1474677    0.1066049 -19.15   0.00015782    1.544    0.352
        27 -10.2847    173.8422    171.2997   4.1666703089e+01   1.5255217930e+01    0.3289558    0.1877591 -57.25  0.001550389    2.327    0.570
        28 -15.4078     13.6604    241.8334   9.0582554853e+01   1.9306578343e+01     1.168846     0.698085 -57.04  0.006529369    1.966    0.491
        29  -8.4167     96.6779    174.7334   6.0676235626e+01   2.5817481576e+01    0.1497152    0.1095311 -12.92 0.0002377267    1.562    0.360
        30 -10.7603    104.1955    170.7832   5.7889725580e+01   2.5642382168e+01    0.4937928    0.3616586  43.82  0.001729132    1.448    0.310
        31  -9.1629    101.7558    166.9773   5.7891440670e+01   2.6898392778e+01    0.2070906    0.1875876 -41.36 0.0003803358    1.119    0.106
        32 -11.8805    127.1769    229.3582   6.1150284728e+01   1.0275691445e+01    0.4661756    0.3483631   1.54  0.002791191    1.185    0.156
        33  -8.1880    118.3032    170.2843   5.4016719448e+01   2.3633003211e+01    0.1467431    0.1070011 -13.69 0.0002354637    1.557    0.358
        34 -11.0924     90.0060    165.8595   6.1083992234e+01   2.8918454127e+01    0.4879657    0.3928005  57.95  0.001404184    1.439    0.305
        35  -9.2419    110.7838    167.2325   5.5449372928e+01   2.5466813949e+01    0.2685369    0.2018009 -85.89  0.001166097    1.937    0.484
        36 -10.7189     81.2565    220.9171   7.1420707604e+01   1.7261233973e+01    0.4449285    0.2998018  63.76  0.001401244    2.012    0.503
        37  -9.3081    184.9831    230.5164   4.9250329139e+01   3.8778746756e+00    0.1842767    0.1252091 -31.18 0.0007392637    1.296    0.228
        38 -17.4006      5.5589    219.7375   9.1647952624e+01   2.4799217483e+01      3.27257     2.209778  71.02   0.01133463    1.475    0.322
        39 -10.0290    103.1323    238.4964   6.7983135011e+01   1.1234814222e+01    0.3226013    0.1848426 -36.40 0.0005237237    1.891    0.471
        40 -10.9088     31.7634    154.1627   7.8445877752e+01   3.9347398882e+01    0.4369991    0.2791539  26.95 0.0003584836    1.504    0.335
        41 -11.3680    237.8670    161.6032   2.9702538757e+01   8.8319691653e+00    0.2804385    0.1796089  16.62  0.001768693    2.071    0.517
        42 -11.3057     92.9778    156.8787   5.8578481102e+01   3.0657000487e+01     0.722897    0.4873321  83.54  0.002941974    2.438    0.590
        43  -9.4495     53.7045    158.9733   7.1488431471e+01   3.5629210099e+01    0.2627825    0.1894872  51.00 0.0005441798    1.470    0.320
        44 -11.2997     44.5023    156.9903   7.4348225082e+01   3.7240230849e+01    0.6748176     0.318162  59.40  0.002277694    3.110    0.678
        45 -10.5663    127.5075    159.0148   4.9539143060e+01   2.4679754498e+01    0.3818735    0.2527292 -60.83  0.001062586    1.782    0.439
        46 -14.8100     10.1009    206.3362   8.9747636504e+01   2.7621558267e+01    0.8197867    0.4603477  -1.11  0.002547215    2.127    0.530
        47 -10.7320    133.6713    145.5494   4.5307359148e+01   2.6559996916e+01     1.147277     0.259506 -53.34  0.002637736    6.827    0.854
        48 -11.8572     84.9010    144.4481   5.8661674537e+01   3.4982265857e+01    0.5922963    0.5738823 -41.14  0.002477882    1.055    0.052
        49 -11.3712    115.1957    228.2786   6.3818164048e+01   1.1848233991e+01    0.4324603     0.302497 -72.12  0.002310715    2.119    0.528
        50 -10.5902    108.9702    145.2919   5.1667218692e+01   3.0818724939e+01     0.291674     0.277687  35.41 0.0007133034    1.080    0.074
        51 -10.3491     36.9068    142.4769   7.5004248358e+01   4.2011876605e+01    0.3214846    0.2325618 -73.79 0.0009311031    1.434    0.303
        52 -11.8265    107.5301    231.7867   6.6109984329e+01   1.2040387191e+01    0.7135704    0.5208807 -40.40  0.004169383    1.442    0.307
        53  -9.9194     28.2414    142.8108   7.8290420354e+01   4.2794435440e+01    0.3385171    0.2277333  21.39  0.001086022    1.470    0.320
        54 -11.1277    148.3358    228.6247   5.6331612546e+01   8.0350017587e+00    0.2858647    0.2319693   5.20  0.001414774    1.070    0.066
        55 -11.7520     97.9932    223.1905   6.7388941608e+01   1.4853929488e+01    0.6789344    0.5169235 -77.24  0.002426868    1.783    0.439
        56  -9.3299     90.2379    217.5634   6.8670977743e+01   1.6942721846e+01    0.2239499    0.1928217 -52.97 0.0005631631    1.304    0.233
        57 -11.5596    103.9786    131.4169   5.0098141819e+01   3.4900568196e+01    0.7731479    0.5499895   9.82  0.002378256    1.795    0.443
        58  -9.3564    241.5019    134.0333   2.4576647747e+01   1.2419477930e+01     0.169158   0.08283468 -40.35 0.0005068275    1.530    0.346
        59 -11.6088     87.6447    132.1853   5.5239504137e+01   3.7559372333e+01    0.2970099    0.2746471 -30.79 0.0003931304    1.091    0.084
        60  -9.5326    110.2644    126.3442   4.7158786661e+01   3.4920941357e+01    0.2748336    0.2263822  -8.06 0.0006168229    1.417    0.294
        61 -10.2180     44.0126    130.7923   7.0434297581e+01   4.4377848957e+01    0.3754801    0.2198314 -60.09  0.001496014    1.678    0.404
        62  -9.6749     39.9427    132.0195   7.2217051084e+01   4.4525628459e+01    0.2237122    0.2105165  40.11 0.0003180723    1.073    0.068
        63 -10.8340    135.5584    125.0222   4.0391473065e+01   3.0520909606e+01    0.8635481    0.1377143 -49.13  0.001842706    7.612    0.869
        64  -9.8633    116.6863    121.6270   4.4310153670e+01   3.4768807137e+01    0.2348544    0.1795768  -5.66  0.001104525    1.717    0.418
        65  -9.9543     97.4141    121.4358   4.9750520129e+01   3.8401625420e+01    0.2866732    0.2417552  -3.71 0.0005638737    1.354    0.262
        66 -10.4029     72.1031    225.0782   7.4282598867e+01   1.7384068069e+01    0.3675329    0.2059427  26.56   0.00124664    1.523    0.343
        67  -9.8530     24.6203    116.3162   7.5866312816e+01   5.0405150999e+01    0.4310621    0.2261068  48.40  0.001514945    2.177    0.541
        68  -9.8089    107.0078    116.2229   4.5676648405e+01   3.7791436205e+01    0.2591324    0.2168867 -59.42 0.0003144541    1.252    0.201
        69  -9.7324     35.2722    116.2490   7.1323174994e+01   4.9321040469e+01     0.314821    0.2299525  59.33 0.0006177241    1.584    0.369
        70 -10.0690    243.5026    113.9893   2.0880596858e+01   1.5017858727e+01    0.1708288   0.08177092 -40.49 0.0005237032    1.559    0.358
        71  -9.5930    140.0459    113.8004   3.6778892843e+01   3.1929796592e+01    0.2244897    0.1874071 -82.93  0.001206726    1.418    0.295
        72 -10.8834    174.1543    223.3603   5.0253891033e+01   6.1258842818e+00    0.3582527    0.1807518   5.47  0.001738158    2.389    0.581
        73 -10.2780     45.0612    150.0505   7.3155236115e+01   3.9045914093e+01    0.5311573    0.2419141  52.99  0.001651961    2.850    0.649
        74 -14.8794     55.5318    232.7500   7.9347688712e+01   1.7471438989e+01     3.607298     1.694454 -48.77   0.01159451    2.402    0.584
        75  -9.2633     34.3189    106.6923   6.9871655889e+01   5.1974073573e+01    0.2668187    0.1988517  35.50 0.0006247971    1.345    0.257
        76 -10.6537     30.3354    108.7318   7.2030993129e+01   5.1875467140e+01    0.6474209    0.2141481  35.94  0.002174024    2.855    0.650
        77 -10.9102     24.3840    104.9904   7.3996708279e+01   5.3479267806e+01    0.3620595    0.3328781  17.97  0.001038717    1.090    0.083
        78 -10.1462    114.5087    108.0570   4.1583445748e+01   3.8096955525e+01    0.2304281    0.1440481 -47.21  0.001034392    1.595    0.373
        79 -10.4799     50.6496    105.4408   6.2606265553e+01   5.0172871169e+01    0.3887824    0.2797835 -31.72 0.0006426358    1.520    0.342
        80  -9.9722     67.1655    221.1598   7.5178175875e+01   1.8777111295e+01    0.2095827    0.1921974   6.66 0.0003709814    1.070    0.066
        81  -9.9775    134.2266    104.9649   3.5958787330e+01   3.4794188236e+01    0.3762921    0.1784841 -53.36  0.001483809    2.342    0.573
        82  -9.3412     60.0525    100.1341   5.7476336086e+01   5.0049291385e+01    0.3001716    0.2039827  52.37  0.001332226    1.668    0.401
        83 -10.4756     47.8942     96.4448   6.1585307692e+01   5.2832799031e+01    0.3357228    0.2505161  49.73 0.0005157276    1.465    0.317
        84  -8.7330    134.9970     95.7275   3.3484554815e+01   3.6400576587e+01    0.1690274     0.122865  51.57 0.0003576438    1.408    0.290
        85  -9.7985     57.4714     94.0785   5.6927312757e+01   5.1930999460e+01    0.3760914    0.1921299  43.50 0.0009320135    2.007    0.502
        86 -10.5688     52.7901     90.9122   5.8030834016e+01   5.3439393105e+01    0.2909037    0.2608744  86.23  0.000357843    1.301    0.231
        87 -10.0968     27.2748     93.9611   7.0422150021e+01   5.6079641209e+01    0.3201693    0.2073815  40.78 0.0009949892    1.623    0.384
        88  -8.8305    161.4968     87.4688   2.6350497105e+01   3.2506375656e+01    0.1317898    0.1189447 -62.28 0.0002693716    1.009    0.009
        89 -10.5828     25.7058     84.1004   6.8932096971e+01   5.8752521002e+01     0.337158    0.2724088 -42.66 0.0003852182    1.201    0.167
        90  -9.7014     56.0629     86.3656   5.5371016317e+01   5.3980222430e+01    0.3359841    0.1715715  40.71  0.001336432    1.907    0.476
        91 -10.2984     44.5393     85.7057   6.0249110949e+01   5.5943053709e+01    0.4307891    0.2216074  43.46 0.0009485615    2.060    0.514
        92  -8.3771     70.6872     85.3765   4.9243715168e+01   5.1609055341e+01    0.1556574    0.1189388  78.93 0.0007029316    1.793    0.442
        93 -11.0249     35.5128     82.0608   6.3519424093e+01   5.8076203640e+01    0.4228529    0.3460969  31.07  0.001365953    1.200    0.167
        94 -10.2337     31.2850     79.0348   6.4803414063e+01   5.9346667876e+01    0.3433933    0.1979147  30.83  0.001195895    1.659    0.397
        95 -10.3011     15.1026     80.0975   7.3546395475e+01   6.0790652183e+01    0.2256526    0.1769292 -27.36 0.0004546142    1.227    0.185
        96  -8.4624     70.6643     78.3319   4.7108219563e+01   5.3128761990e+01    0.1527419    0.1174377  76.01 0.0007052168    1.735    0.423
        97  -9.2287    184.5293     76.9741   2.0521121137e+01   2.9726995800e+01    0.1614325    0.1074216 -15.02 0.0008087959    2.451    0.592
        98  -8.8235    215.6260    229.7920   4.3788572042e+01   1.1231328309e+00    0.1422578   0.08836644 -42.07 0.0008184317    1.687    0.407
        99  -9.3812    128.6877     73.3397   2.8925747206e+01   4.1728331370e+01    0.3159387    0.1893384 -66.77  0.001369628    2.258    0.557
       100  -9.5426     30.4753     72.5208   6.3392022233e+01   6.0995385977e+01    0.1438742    0.1340649   2.34  0.000256455    1.022    0.022
       101 -15.4066      6.1380    139.7220   8.6318806491e+01   4.5382312313e+01      9.27964     1.864669 -77.93   0.02429321    5.091    0.804
       102 -11.9720    193.2496     62.4884   1.6320423105e+01   3.0172593161e+01    0.4424534    0.3771412  53.92  0.001045255    1.461    0.316
       103 -12.8860    206.0346     53.6653   1.3190422238e+01   2.9023345696e+01    0.7784051    0.6362342 -54.48  0.003161676    1.083    0.077
       104 -13.0667    215.3222     46.8760   1.1037037370e+01   2.8250934558e+01    0.5684565    0.5087147 -53.87  0.001365499    1.250    0.200
       105 -11.4157      1.8754     63.5914   7.7503318509e+01   6.5830681016e+01    0.5107174    0.2052162 -65.06  0.001678289    2.355    0.575
       106  -8.9180     96.6597    235.7332   6.9231798296e+01   1.2481234190e+01    0.1341344    0.0896742  -8.96 0.0002859749    1.599    0.375
       107 -10.7119     20.4305     52.2552   6.2643548161e+01   6.6776584047e+01    0.2595785    0.2195624  10.07 0.0003186511    1.076    0.070
       108  -8.8825    134.9973     61.5001   2.4400986221e+01   4.2242058870e+01    0.1831977     0.111393 -89.38 0.0004365873    2.276    0.561
       109 -10.4963      2.7518     40.2230   7.0463713767e+01   7.1103648660e+01    0.2488865    0.1924348 -19.57 0.0004313998    1.151    0.131
       110 -11.5984     13.5235     60.0504   6.9381994456e+01   6.5773043230e+01    0.3588564     0.260719 -43.21  0.001417598    1.312    0.238
       111 -11.0447    229.3239     38.9705   8.5137636613e+00   2.6850740581e+01    0.1957141    0.1126267 -64.81 0.0009545221    1.508    0.337
       112 -11.4479     28.0460     34.8601   5.0935974614e+01   6.9145094320e+01    0.6050349    0.2663497  28.32  0.001708308    2.316    0.568
       113  -8.3020     68.5020    248.4321   7.7452064424e+01   1.2950444242e+01    0.1294679     0.105925   7.48 6.131089e-05    1.132    0.117
       114 -11.5880     82.9695    245.7317   7.3659847391e+01   1.1997049580e+01    0.2128032     0.192642  -3.13 0.0003322056    1.134    0.118
       115  -9.9595     72.6304    232.7125   7.4933806204e+01   1.5707023509e+01    0.2687381    0.1881476  38.02 0.0006978345    1.329    0.247
       116 -10.5391      6.7489     25.7765   6.1579563275e+01   7.3632726360e+01    0.3167848     0.160556  36.65  0.001403499    2.039    0.510
       117 -10.3181     75.7935    220.1774   7.2776288205e+01   1.8039153301e+01    0.4640082    0.3268211  83.01  0.001893277    1.970    0.492
       118  -9.6276     60.9858     21.2969   2.8839966937e+01   6.4733753695e+01    0.2165775    0.1994785 -58.23 0.0007634367    1.274    0.215
       119  -9.6589    146.9460    243.3061   5.8654557023e+01   5.6764735672e+00    0.1808532    0.1641842 -24.96 0.0006087479    1.338    0.253
       120 -10.2696      5.0216     13.4994   5.6647824587e+01   7.5992309439e+01    0.1885939    0.1058653  25.89 0.0004529085    1.543    0.352
       121 -11.7700     89.2151    223.4281   6.9651724647e+01   1.5818179813e+01    0.8990796    0.5166258  49.10  0.003228176    2.086    0.521
