#   1 NUMBER                 Running object number                                     
#   2 MAG_AUTO               Kron-like elliptical aperture magnitude                    [mag]
#   3 X_IMAGE                Object position along x                                    [pixel]
#   4 Y_IMAGE                Object position along y                                    [pixel]
#   5 X_WORLD                Barycenter position along world x axis                     [deg]
#   6 Y_WORLD                Barycenter position along world y axis                     [deg]
#   7 A_WORLD                Profile RMS along major axis (world units)                 [deg]
#   8 B_WORLD                Profile RMS along minor axis (world units)                 [deg]
#   9 THETA_WORLD            Position angle (CCW/world-x)                               [deg]
#  10 FWHM_WORLD             FWHM assuming a gaussian core                              [deg]
#  11 ELONGATION             A_IMAGE/B_IMAGE                                           
#  12 ELLIPTICITY            1 - B_IMAGE/A_IMAGE                                       
         1 -11.9738     19.7340     93.2662   9.8780140995e+01   5.5211664232e+01     2.584352      0.63774 -73.96  0.007616558    5.125    0.805
         2 -15.3677    135.6493     94.0927   6.3373899491e+01   3.6546290087e+01      2.85487      1.50772  46.35   0.01166853    1.928    0.481
         3 -14.6282     71.3174     40.9131   6.4313435604e+01   5.9922197079e+01      1.45758    0.8727065 -44.62  0.007135086    1.668    0.401
         4 -14.3998     16.0054      8.4993   7.4425924663e+01   7.3385834768e+01     1.329409     0.822912   0.33  0.007649209    1.872    0.466
         5 -13.5185    186.1103     12.3018   2.9585147150e+01   3.6461848211e+01    0.6321032     0.396623  59.78  0.003244109    1.580    0.367
         6 -13.4200    194.5883      4.2360   2.6491209614e+01   3.5159843768e+01     1.226691    0.4199454  78.51  0.004655216    3.027    0.670
         7 -12.8622     54.7151      3.7680   5.2683009804e+01   6.8317301006e+01    0.4789183     0.297605  29.45  0.002655639    1.595    0.373
         8 -13.2933    164.6603      6.1071   3.0033598054e+01   4.2448343598e+01    0.7445403    0.6350284  63.47  0.004411801    1.142    0.125
         9 -11.0650     14.6976    236.5697   1.1206069967e+02   2.4972076201e+01      0.25387    0.1670716 -72.69  0.001920632    1.708    0.414
        10 -12.1209    186.5808    248.9944   8.2498283014e+01   9.1005756956e-01     0.353918    0.1814162  37.55  0.002177077    1.543    0.352
        11 -11.7044     15.8410    226.5303   1.1142161982e+02   2.6623378793e+01    0.4551128    0.1809275  59.96   0.00265069    1.998    0.499
        12 -11.3979     19.3758    233.2767   1.1110110418e+02   2.5081291555e+01    0.2370199    0.1528343  65.80 0.0008458294    1.155    0.134
        13 -11.3188     24.9106    230.8180   1.1000010929e+02   2.4951965380e+01    0.3045215    0.1153486  40.23  0.001757451    2.052    0.513
        14  -9.7619      7.1360    241.8557   1.1355002858e+02   2.4795990616e+01    0.1189158    0.1007319  70.96 0.0005841631    1.308    0.235
        15  -9.8377    132.3144    241.6654   9.1153380021e+01   9.5481538984e+00    0.1138781   0.07585235  60.49 0.0007046504    1.688    0.408
        16  -9.9335     20.6154    240.2255   1.1119826902e+02   2.3760696882e+01    0.1239861    0.0831293 -78.00 0.0009366172    1.592    0.372
        17 -11.3044    201.0232    237.1653   7.8466115434e+01   2.9583687550e-01    0.2859367    0.1373293 -26.92  0.001574463    2.588    0.614
        18 -13.5460     62.6291    232.6839   1.0321544957e+02   2.0372588400e+01     1.365984    0.9839719 -21.46  0.008104892    2.964    0.663
        19 -14.6181     54.6478    222.2376   1.0394483716e+02   2.3185949250e+01     1.738699     1.172059 -87.41    0.0118662    1.473    0.321
        20 -10.7550    186.6594    226.6761   7.9442002754e+01   3.6588784511e+00    0.1204538    0.0786096  10.94 5.355686e-05    1.727    0.421
        21 -10.9319     27.8938    224.5117   1.0912822173e+02   2.5769475857e+01    0.1783591    0.1232631  82.13 0.0006439959    1.257    0.205
        22 -12.1958     34.1058    222.1024   1.0783543407e+02   2.5548021190e+01    0.3333395    0.2401435 -21.90   0.00201324    3.008    0.668
        23 -10.4729    125.3900    221.2567   9.0085454600e+01   1.3700146898e+01    0.2007451     0.113301 -49.32   0.00112816    2.126    0.530
        24 -11.3432     11.6455    220.4852   1.1190794621e+02   2.8121501686e+01    0.1909838    0.1459668  64.31 0.0004943678    1.089    0.081
        25 -10.2411      3.5625    221.4510   1.1340820922e+02   2.8693926463e+01    0.1555597   0.09801501  19.34  0.001026468    2.382    0.580
        26 -11.5130    223.1423    220.1501   7.2244705509e+01  -8.0910785761e-01    0.1841242    0.1304487  10.91  0.001251554    1.226    0.184
        27 -12.2015     42.5876    222.7750   1.0627994943e+02   2.4489451823e+01    0.2114795    0.1565319  74.29 0.0009692991    1.141    0.124
        28 -10.4260     21.7638    218.3980   1.0993873752e+02   2.7516695452e+01    0.1291329   0.09420916  34.67   0.00034966    1.535    0.349
        29 -15.7249     93.5604    190.4882   9.2799205742e+01   2.4032739479e+01     2.319303     1.545053  84.28   0.01266246    1.800    0.445
        30 -12.0850    147.7748    202.7940   8.3201690163e+01   1.3244063333e+01    0.3801619     0.283268  54.83  0.002285142    1.395    0.283
        31 -11.5841    147.0040    209.4912   8.4326833595e+01   1.2273517488e+01     0.224994    0.1634297  45.08  0.001171895    1.226    0.184
        32 -10.3327     13.9128    211.1829   1.1104927242e+02   2.9637580179e+01    0.1788399    0.1061213  62.06  0.001103907    1.295    0.228
        33 -10.7491     41.8774    234.6137   1.0715315346e+02   2.2467742274e+01    0.3065005    0.1421199  85.50  0.001633013    2.386    0.581
        34 -11.1572    164.7959    208.4276   8.0744983993e+01   9.6051459882e+00    0.1847085    0.1029283  30.19 0.0009569683    1.739    0.425
        35 -10.2135     24.1566    208.4570   1.0893152509e+02   2.9149334956e+01    0.1503869   0.09478762  39.49 0.0009982907    1.509    0.337
        36 -10.6410     32.3988    207.2033   1.0723285127e+02   2.8532363734e+01    0.2051343    0.1233533  83.78  0.001176989    1.504    0.335
        37  -9.8959     18.5114    205.5126   1.0986688698e+02   3.0279952104e+01    0.1132058   0.08212243  67.66 5.757462e-05    1.042    0.040
        38  -9.9564     27.9959    235.0181   1.0966195102e+02   2.3897693843e+01    0.1283705   0.09341732  69.81 0.0008353492    1.089    0.082
        39 -14.7205     71.4337    182.0229   9.6679392540e+01   2.8906111396e+01     1.000355     0.704055  76.51  0.004734817    1.414    0.293
        40 -12.5259    152.1690    209.7270   8.3357399880e+01   1.1415599886e+01    0.4274227    0.3544941 -17.69  0.002792634    1.419    0.295
        41 -11.1931    124.3158    194.9870   8.6836275655e+01   1.8401192493e+01    0.2915344    0.2393141  26.43   0.00136038    1.282    0.220
        42 -11.9050     35.6595    192.5758   1.0553308159e+02   3.1085619261e+01    0.4293383    0.2513586  22.41   0.00240732    2.314    0.568
        43 -10.5827      6.0559    193.9762   1.1172804018e+02   3.3708217437e+01    0.1616869    0.1248355  73.13 0.0003051354    1.050    0.048
        44 -11.3824    192.4777    191.6372   7.2838137112e+01   7.6290777778e+00    0.2986119    0.2117402 -74.54  0.001433852    3.104    0.678
        45 -10.3898    143.6661    189.3231   8.1960886782e+01   1.6227632499e+01    0.1314081   0.09777873  69.56 0.0004504751    1.708    0.414
        46 -10.6187      7.7772    188.0694   1.1107249007e+02   3.4747789427e+01    0.2871215   0.09777138  53.05  0.001453271    2.382    0.580
        47 -10.0971    128.7852    184.3524   8.4300329405e+01   1.9634890034e+01    0.1895538    0.1147685  32.72 0.0009438581    1.674    0.403
        48 -16.5315     67.5061    194.9787   9.8952117961e+01   2.6779914857e+01     3.124223      1.57954  62.09   0.01567578    2.092    0.522
        49 -10.3901     86.7096    229.4492   9.8410953614e+01   1.7838025619e+01    0.1517716   0.09800719  32.14 0.0009361127    1.574    0.365
        50 -12.1383     71.4428    235.2558   1.0177644038e+02   1.8839096222e+01    0.3035386    0.2430562  44.53  0.001886048    1.197    0.165
        51 -11.7528    140.2893    175.5460   8.0393803273e+01   1.9313155483e+01    0.2303155    0.1676116 -23.27  0.001200531    1.793    0.442
        52 -11.9315    107.0272    170.7733   8.6998382296e+01   2.5917641209e+01    0.3465531      0.26713  48.19  0.001975013    1.201    0.168
        53 -11.5766    135.5012    168.5024   8.0204970079e+01   2.1498420768e+01    0.2698007    0.1241922  44.29   0.00100533    2.035    0.509
        54 -10.9064    112.8673    228.2109   9.3294687575e+01   1.4405683423e+01    0.2242882    0.1771634  38.86  0.000857305    1.131    0.116
        55 -11.4924     37.3572    228.5497   1.0761583722e+02   2.4032306805e+01    0.2363115    0.1197544  69.33  0.001436918    1.801    0.445
        56 -10.2400    175.6768    165.3014   7.1197778305e+01   1.4760752433e+01    0.1292586     0.108463  81.18 0.0006898385    1.632    0.387
        57  -9.7906     28.3187    160.2819   1.0450107546e+02   3.8763103285e+01    0.1109682   0.08866862 -46.95 0.0003124924    1.583    0.368
        58 -12.5817     25.0423    153.5720   1.0468489727e+02   4.0592173942e+01    0.5898992     0.434989  59.89  0.003241295    1.242    0.195
        59 -12.3538     19.0820    153.7870   1.0617862734e+02   4.1100411478e+01      0.48872    0.2594247 -75.80  0.002723042    1.617    0.382
        60 -10.9066    212.9644    154.0000   6.2002281784e+01   9.7713910343e+00    0.2127602     0.072629  45.74 0.0008080915    2.982    0.665
        61 -10.6821    180.3137    150.6663   6.7326722063e+01   1.6414544935e+01    0.1349863     0.112038 -84.12 0.0007045769    1.684    0.406
        62 -12.3590    108.1283    147.5851   8.2767499680e+01   3.0642725118e+01    0.3722092    0.3173003   1.00   0.00198969    1.511    0.338
        63 -13.7315    106.1828    141.7404   8.2141135959e+01   3.2257463031e+01    0.8733706    0.6272383  40.09  0.004489456    1.398    0.285
        64 -10.4832    179.6806    143.3075   6.5881597799e+01   1.7825903060e+01    0.1360173    0.1133716 -85.45 0.0002763552    1.637    0.389
        65 -15.1490    135.2378    117.6403   6.9637944238e+01   3.1859680069e+01     1.936204     1.179313 -60.64  0.008168167    2.020    0.505
        66 -15.5543    149.8162    130.4906   6.9296852444e+01   2.6256637693e+01     1.894141     1.183697  41.13  0.008715987    1.613    0.380
        67 -12.9819     45.7825    109.2216   9.2983558947e+01   4.8827186898e+01     1.225805    0.3710268 -64.00  0.004463103    2.949    0.661
        68 -12.9448     32.1885    110.5777   9.7472745794e+01   4.9966570418e+01     1.117851    0.6470051  53.19  0.005774676    1.906    0.475
        69 -10.3679    173.2891    249.4099   8.4813807569e+01   2.7016378492e+00    0.2263437   0.08475067  34.39  0.001137239    2.218    0.549
        70 -12.8330    190.6520    114.3858   5.7106511779e+01   2.0619386072e+01    0.5421965     0.340553  37.13  0.002516212    1.751    0.429
        71 -13.1077    185.3494    109.2320   5.6818879827e+01   2.2650452226e+01    0.6674376    0.4405501  28.96  0.003043159    1.862    0.463
        72 -13.8226     47.8174     83.0716   8.6783844381e+01   5.4748673830e+01     1.840606     1.180544  77.88  0.008497554    2.382    0.580
        73 -12.2759     18.6733     67.8052   9.4276292186e+01   6.1227822022e+01    0.9031649    0.5614178 -44.97  0.005144394    1.467    0.319
        74  -9.9964     32.8107    249.2333   1.0953479206e+02   2.0997109254e+01    0.1173661   0.09978008  65.86 0.0002745093    1.264    0.209
        75 -13.3660     52.6403     97.6851   8.8489291829e+01   5.0731674721e+01     1.019252    0.8234769  83.97  0.005824597    1.343    0.255
        76 -15.6652    148.4601    109.6016   6.4533139325e+01   3.0671167047e+01     2.204946     1.366301 -57.36  0.009413818    1.921    0.479
        77 -11.4884    125.1629     72.8679   5.9646514889e+01   4.2986627881e+01    0.2730911    0.2268118 -23.50 0.0009289244    1.279    0.218
        78 -12.6287     99.3053     69.3256   6.5577760983e+01   4.9241569510e+01    0.4403716    0.3322673  59.45  0.001791483    1.500    0.333
        79 -12.4546    131.9726     68.0804   5.6452237736e+01   4.2293746188e+01    0.4431247    0.2827315  26.11  0.001821199    2.198    0.545
        80 -12.3981    140.9857     61.9476   5.2415686510e+01   4.1213320483e+01    0.3427747    0.2340393  55.35  0.001600951    1.475    0.322
        81 -11.7848    150.1884     59.0084   4.9534023808e+01   3.9457329129e+01    0.2738596    0.2204441  60.85  0.001116946    1.259    0.206
        82 -13.7890     62.6160     50.8159   7.1396600351e+01   5.9593064283e+01     1.020436     0.557793  39.92  0.004844124    1.963    0.491
        83 -13.8222     82.8153     48.3440   6.3296565678e+01   5.6459082638e+01    0.8297251    0.7321478 -40.87  0.004785309    1.129    0.114
        84 -10.4409     52.2480    246.6915   1.0604017206e+02   1.9255593253e+01    0.1649824    0.1294503  78.79 0.0007232139    1.227    0.185
        85 -12.8943     27.8295     64.0545   8.9620908312e+01   6.1268752236e+01     1.007238    0.5654613  43.82  0.005187321    2.163    0.538
        86 -12.9406     53.5006     44.5345   7.2590108763e+01   6.2218342240e+01     1.184471    0.6959417   0.94  0.004750809    3.303    0.697
        87 -10.3929     43.6699    244.1531   1.0739271574e+02   2.0649202705e+01    0.1633805    0.1609102 -43.06  0.001409015    1.583    0.368
        88 -12.0185      9.7244    228.8926   1.1261071463e+02   2.6790156215e+01    0.3829961    0.1691774  63.59  0.001656139    1.773    0.436
        89 -10.5151     68.8896    243.9276   1.0290029778e+02   1.7719393688e+01    0.1493647    0.1306434  44.39 0.0005129423    1.290    0.225
        90 -11.1592     16.2452    241.8921   1.1201651858e+02   2.3913758634e+01    0.1688112      0.12876  56.00 0.0006101407    1.172    0.147
