#   1 NUMBER                 Running object number                                     
#   2 MAG_AUTO               Kron-like elliptical aperture magnitude                    [mag]
#   3 X_IMAGE                Object position along x                                    [pixel]
#   4 Y_IMAGE                Object position along y                                    [pixel]
#   5 X_WORLD                Barycenter position along world x axis                     [deg]
#   6 Y_WORLD                Barycenter position along world y axis                     [deg]
#   7 A_WORLD                Profile RMS along major axis (world units)                 [deg]
#   8 B_WORLD                Profile RMS along minor axis (world units)                 [deg]
#   9 THETA_WORLD            Position angle (CCW/world-x)                               [deg]
#  10 FWHM_WORLD             FWHM assuming a gaussian core                              [deg]
#  11 ELONGATION             A_IMAGE/B_IMAGE                                           
#  12 ELLIPTICITY            1 - B_IMAGE/A_IMAGE                                       
         1 -11.5926    203.4075     20.8541   2.5601110716e+01   3.2535250994e+01     1.595284    0.3732157 -40.21   0.00682174    3.164    0.684
         2 -12.3642    210.5038     48.3313   3.0777640687e+01   2.7737882678e+01     2.168524    0.4741144 -43.33  0.008321157    3.364    0.703
         3 -14.8121    182.0370     86.5681   4.3033337005e+01   2.7772328840e+01     10.92754     4.697917 -60.95   0.03496741    4.236    0.764
         4 -14.6661    237.4165     51.1449   2.8915383958e+01   2.2330407585e+01       2.4194     1.116192 -30.63   0.01204178    2.672    0.626
         5 -13.1925    219.1151     29.7098   2.6192616791e+01   2.8411413502e+01     2.925283    0.4636401 -40.74   0.01130284    3.834    0.739
         6 -12.6691    240.1375     22.4612   2.3366294026e+01   2.5382779566e+01     0.646753    0.5476606 -37.11 0.0008329283    1.517    0.341
         7 -14.5140    231.0961     96.1895   3.8371004858e+01   1.6874411817e+01      5.73105     1.067864 -48.43    0.0159056    6.032    0.834
         8 -12.4466    198.1444     56.6485   3.3908531942e+01   2.9082919073e+01     2.941944    0.7826574 -47.78   0.01083807    3.375    0.704
         9 -13.0659    248.9485     51.7997   2.8119149855e+01   2.0258017011e+01     1.273586    0.3234344 -35.36  0.004919623    4.162    0.760
        10 -11.6012    228.3815     11.4566   2.2036108442e+01   2.8726069268e+01    0.8223259    0.5005286 -25.52  0.005164677    2.259    0.557
        11 -11.7150    145.1311     29.2878   3.3956560364e+01   4.4389539905e+01    0.6510847    0.3694828 -52.57  0.002958067    1.829    0.453
        12 -11.5364    140.1366     31.6719   3.5388862245e+01   4.5279461811e+01    0.7671404    0.3818079 -21.19  0.002056461    2.846    0.649
        13 -13.9736    249.0153     85.8518   3.4429577184e+01   1.5497541838e+01     2.317711    0.8556167 -36.29  0.003925822    2.524    0.604
        14 -14.9813    236.8251     75.6824   3.3703261322e+01   1.9014646395e+01     2.940239      1.28546  48.46   0.01410925    3.356    0.702
        15 -10.1445    135.3252     11.1132   3.0132564248e+01   4.8564075246e+01    0.3762784    0.2354437 -13.77  0.001904244    2.213    0.548
        16  -9.6952    155.6929     13.2885   2.8275299069e+01   4.3656468085e+01    0.3395799    0.2380763   2.51  0.001554064    2.324    0.570
        17  -8.8191    220.0253     10.9899   2.2447044543e+01   3.0343014523e+01    0.1661541    0.1201198 -67.62 0.0004097684    1.034    0.033
        18 -10.2064    120.2539      9.3372   3.1732106006e+01   5.2249026083e+01    0.2904966    0.2699659 -52.62 0.0009743676    1.225    0.183
        19  -8.9920    247.4847      9.0113   2.0575155108e+01   2.5585419567e+01    0.1910972    0.1637421  -7.85 0.0007740022    2.080    0.519
        20 -11.2193    248.9060      3.4187   1.9548076741e+01   2.5927807201e+01    0.4523672    0.1976724 -60.23  0.002892242    1.706    0.414
        21  -9.1422    190.0340      9.5567   2.4214370127e+01   3.6497271717e+01    0.1899076     0.159806 -44.39 0.0005973009    1.339    0.253
        22 -10.7654    133.2855     22.4702   3.3761725733e+01   4.7917736949e+01    0.5506517    0.2697104 -22.18  0.002547414    2.676    0.626
        23  -9.1705    182.6668      3.8884   2.3518086905e+01   3.8608992826e+01    0.2131265    0.1791599  81.75  0.001548624    1.216    0.178
        24  -8.3053    171.8341      2.6715   2.4093488330e+01   4.1058389861e+01    0.2274566    0.1050864 -57.67  0.001190072    2.042    0.510
        25  -9.0144    239.2934      2.6925   1.9867972248e+01   2.7669415646e+01    0.4002374    0.1548573  72.29  0.002342762    2.533    0.605
        26  -7.9895    250.6659    186.2026   5.2628378112e+01  -4.8412291464e-01    0.1663218   0.08237062 -32.96 0.0003007492    1.603    0.376
        27  -8.8017    148.3222    250.2108   8.2345158620e+01   1.4908512547e+00    0.2031207    0.1460025  10.27 0.0004232883    1.246    0.197
        28  -9.8370    220.9580    184.6204   5.7036086496e+01   3.4236414587e+00    0.2503067    0.1542862   7.91  0.001303836    2.112    0.527
        29  -9.0509    241.5018    183.1633   5.3466466652e+01   1.0683665535e+00    0.1864618    0.1652715 -44.00 0.0005134829    1.395    0.283
        30  -9.7436    211.1332    181.8885   5.8234651930e+01   5.2300955407e+00    0.2364794    0.1638975 -33.26 0.0008512936    1.218    0.179
        31 -10.0608    213.9451    176.5786   5.6747631712e+01   5.7746284056e+00    0.3178002    0.2920139  -4.77  0.001542353    1.177    0.151
        32  -9.4040    206.6110    179.5951   5.8613858671e+01   6.2777218743e+00    0.2882622    0.2134324 -58.80 0.0008452807    1.767    0.434
        33  -9.0708    199.0464    178.6798   5.9831835700e+01   7.5456806880e+00    0.3316995    0.2393604 -49.24  0.001840372    1.456    0.313
        34  -7.6194     50.4545    180.4866   9.7454664226e+01   3.0204101712e+01     0.144105    0.1362409  78.97 0.0001153992    1.004    0.004
        35 -10.9981    220.9513    174.2245   5.5115325187e+01   5.2104208214e+00    0.4398728    0.3765448  84.09     0.002712    1.902    0.474
        36  -8.4198    134.3416    248.8188   8.5205214055e+01   3.5244685295e+00    0.1771756    0.1617457  68.68 0.0007137415    1.468    0.319
        37  -8.7598    149.4426    246.0004   8.1514463186e+01   2.0780326709e+00    0.1909492    0.1497337  15.59 0.0003252972    1.084    0.077
        38 -12.2804    160.3936     94.3698   4.8771029433e+01   3.0994678313e+01     1.105561    0.8506267 -55.77 0.0006542087    1.268    0.211
        39  -7.4477    177.7041    245.2657   7.5487435565e+01  -1.3187324872e+00    0.1076691   0.09226257  36.66 0.0002394896    1.511    0.338
        40 -10.6167    242.6754    165.1954   5.0057898278e+01   3.8250398890e+00    0.4019585    0.2707867  39.03  0.002527562    1.864    0.463
        41  -8.2866     94.7317    164.0659   8.1822833398e+01   2.8157496925e+01    0.1993373    0.1879786 -38.00  0.000217466    1.063    0.060
        42  -8.7147     36.0000    239.9805   1.0693805033e+02   1.7528610936e+01    0.1905848   0.06939857 -73.86 0.0006898469    2.919    0.657
        43  -9.2548    221.5721    161.4666   5.2598729716e+01   7.3424473165e+00    0.2330316      0.19344 -53.60 0.0005286181    1.353    0.261
        44  -9.2313    196.0073    158.5260   5.6442837217e+01   1.1802854488e+01    0.3559231    0.2408912  40.79  0.001422039    1.672    0.402
        45 -10.3152    192.8467    154.0843   5.6126432129e+01   1.3171857781e+01    0.4954922    0.4260258 -48.20  0.002772813    1.166    0.143
        46 -10.8879      2.2432    154.2886   1.0912824261e+02   4.1717699912e+01    0.7082888    0.2885467 -78.67  0.002401187    2.204    0.546
        47  -9.6723    204.9975    152.9375   5.3703923351e+01   1.1401616726e+01    0.4323231    0.3229272  83.41  0.002200089    2.312    0.567
        48  -8.7845    166.9191    152.8738   6.1070555489e+01   1.7919223395e+01    0.2249218    0.1888727 -16.92 0.0004517508    1.235    0.191
        49  -9.9730    133.6474    144.9053   6.7118588107e+01   2.5873543906e+01     1.200516     0.297866 -54.11  0.002706647    6.053    0.835
        50 -12.0138     13.8934    140.5759   1.0395943760e+02   4.4564498841e+01    0.9021297    0.5031098 -53.61  0.004232229    1.642    0.391
        51 -10.7634    213.1343    138.8216   4.9493766336e+01   1.2657337526e+01      0.93182    0.3469639 -51.50 0.0008127295    3.139    0.681
        52  -9.6723    225.5155    147.0628   4.9198966147e+01   9.2676407975e+00    0.2358917    0.1996714 -61.59 0.0005488291    1.371    0.270
        53  -8.8515    222.7091    145.0184   4.9228999929e+01   1.0048178389e+01    0.1874709    0.1486408 -28.44 0.0003274267    1.153    0.133
        54 -10.0968    218.9915    144.7371   4.9751168067e+01   1.0671569408e+01    0.3330469    0.2784933  48.03 0.0005192919    1.463    0.316
        55 -11.7882     63.1401    137.5389   8.6579838259e+01   3.9990991874e+01     3.051244     1.556517  44.74   0.01188614    2.128    0.530
        56 -12.2100     31.5116    143.2289   9.8335284835e+01   4.2299944295e+01    0.8787142    0.6891738  50.52  0.001960225    1.346    0.257
        57 -12.0915     39.1600    140.8389   9.5361695222e+01   4.2144686776e+01    0.9673632    0.6569358 -73.41  0.002792858    1.451    0.311
        58  -9.6531    178.3837    145.7388   5.7166863225e+01   1.7319442905e+01    0.3571062      0.22706 -60.42  0.001614539    1.945    0.486
        59  -9.5749    204.1821    144.2534   5.2081571064e+01   1.3140596540e+01    0.3337272    0.2076626 -64.58  0.001056924    2.379    0.580
        60 -11.5230     46.0470    139.8180   9.2829416440e+01   4.1628551774e+01    0.7127265    0.4473783 -71.60  0.001840292    1.611    0.379
        61 -10.2929    192.7461    143.8656   5.4024103712e+01   1.5152036347e+01    0.3741729    0.2348114  31.60  0.001056787    1.937    0.484
        62  -8.6953    199.2102    143.3884   5.2765473755e+01   1.4135312964e+01    0.1923817     0.161582 -65.53 0.0009333218    1.375    0.273
        63 -10.0667    116.1832    237.0406   8.7760678776e+01   8.1534897209e+00    0.2489657    0.2148117 -41.71 0.0004974533    1.273    0.214
        64  -9.1194    144.4899    139.1170   6.3124486079e+01   2.5095031709e+01    0.2169458    0.1847556 -47.31 0.0004146767    1.135    0.119
        65  -9.5272    140.6072    137.4618   6.3685665737e+01   2.6220481457e+01    0.3935041    0.2885754 -24.09  0.001224439    1.595    0.373
        66  -8.5697    136.6938    136.5142   6.4435011832e+01   2.7199847075e+01    0.2862115    0.1368334 -48.35  0.001077205    2.036    0.509
        67  -9.2234    155.8121    135.1214   5.9583310030e+01   2.3758004896e+01    0.2176563    0.1955239 -65.08  0.000284878    1.180    0.152
        68  -9.5670    171.6327    131.6034   5.5414273552e+01   2.1424743697e+01     0.270333    0.2294372 -66.71 0.0002782513    1.289    0.224
        69 -10.0266    161.2490    127.9268   5.6732688904e+01   2.4200474737e+01    0.4884984    0.3705308 -25.92  0.001591298    1.458    0.314
        70  -9.4612    136.0925    127.9979   6.2573353490e+01   2.9230094791e+01    0.5794979    0.1744985 -51.43  0.001639328    3.757    0.734
        71  -9.2624    195.4025    126.5189   4.9855773414e+01   1.7964850589e+01    0.3042557    0.2043943 -61.14 0.0001350322    1.702    0.413
        72  -9.8377    202.1590    126.2866   4.8671808281e+01   1.6795009225e+01    0.3177781     0.229112 -74.04  0.001298231    1.864    0.463
        73 -12.0782    200.0281     90.0088   4.1108219249e+01   2.3557042236e+01     1.053571    0.4378488  51.38  0.004564114    2.721    0.632
        74  -7.8802     91.7901    124.3676   7.4225497344e+01   3.8712508689e+01    0.2141423    0.1501662  25.41 0.0005268273    1.560    0.359
        75  -8.8675    135.2506    120.1867   6.0875826666e+01   3.1125148020e+01    0.2786877    0.1824292 -42.98   0.00102425    1.495    0.331
        76  -9.2451    176.9331    119.1741   5.1548931130e+01   2.2855782786e+01     0.312487      0.19987 -56.80 0.0008711568    1.660    0.398
        77  -7.8845     88.4239    120.5059   7.4361408860e+01   4.0272975178e+01    0.1543397    0.1511386 -69.63 0.0001563707    1.053    0.051
        78  -8.6932    167.3179    117.3721   5.3003568696e+01   2.5124555498e+01    0.2268081    0.1796544  -2.36  0.001121316    1.693    0.409
        79 -12.4614    136.6385    104.2456   5.6472474307e+01   3.4215033944e+01     2.028951     1.504051  31.96  0.009660452    1.555    0.357
        80 -10.5753    144.0541     96.7669   5.2796516911e+01   3.4099056679e+01    0.4506172    0.3523364  58.66 0.0007605826    1.319    0.242
        81  -9.3674    130.8241    109.8666   5.9368030180e+01   3.4280479717e+01    0.3100467     0.283734 -38.72 0.0005405109    1.092    0.084
        82 -12.2271    124.0666    103.9240   5.9537981231e+01   3.6980650350e+01     1.735116     1.346963  39.38  0.008479435    1.330    0.248
        83  -9.2324    222.9250    112.0272   4.2596774434e+01   1.5683531521e+01    0.3430014    0.1530544 -43.34  0.001611549    1.836    0.455
        84  -9.0307    218.0028    112.1377   4.3297958737e+01   1.6508515347e+01    0.1935265    0.1514036 -61.09 0.0004885205    1.259    0.206
        85 -10.0372     67.5708    110.8489   7.9096400136e+01   4.6219299045e+01    0.2589245    0.2384245  21.53 0.0002654495    1.101    0.092
        86  -8.0339    101.1273    229.1715   9.0305415073e+01   1.1814252620e+01    0.1781175    0.1451882  49.79 0.0002415213    1.261    0.207
        87 -10.0576    150.3517    105.0290   5.3538213656e+01   3.1110444519e+01    0.4741569    0.2914747 -39.40  0.001388365    1.618    0.382
        88  -8.6170     67.3746    227.3148   9.8347414684e+01   1.6668753272e+01    0.2097483    0.1922851 -17.65  0.001268909    1.257    0.204
        89  -9.0072    108.5381    100.5356   6.2892304464e+01   4.0986333635e+01    0.2668481    0.2280409  55.00 0.0006568674    1.210    0.173
        90  -8.7872    107.4818     97.4854   6.2346556064e+01   4.1863179304e+01    0.2732774    0.2509294 -41.71 0.0006998656    1.094    0.086
        91  -7.9481     88.4477     99.9414   6.8951001638e+01   4.5145943556e+01    0.2340168    0.1502271 -50.25  0.001018626    1.575    0.365
        92  -8.8251     50.4986    227.9726   1.0254439516e+02   1.8561460555e+01    0.1920481    0.1274046 -71.95  0.001031468    1.590    0.371
        93 -10.7460    157.0641     81.5542   4.6133874489e+01   3.4027457492e+01    0.4826874    0.2877389 -40.96  0.001238216    1.640    0.390
        94  -9.4117    133.1622     82.6637   5.1439545279e+01   3.9195044417e+01    0.3940561    0.2068348 -42.45   0.00133118    1.906    0.475
        95  -9.7456    141.2819     79.1896   4.8671621657e+01   3.7987654461e+01     0.349713    0.2593989  61.30 0.0006008765    1.352    0.260
        96  -9.1753     84.4573     76.4984   6.3254354560e+01   5.0927026208e+01       0.3504    0.2781914  -0.33 0.0009389117    1.505    0.336
        97 -10.2394    164.4427     74.4397   4.2970268815e+01   3.3594134960e+01    0.3165179    0.2480393 -56.11  0.001064084    1.211    0.175
        98  -9.5337    136.2511     72.4709   4.7871439671e+01   4.0301758929e+01    0.4214948    0.1977042 -35.87  0.001407872    2.293    0.564
        99  -8.8940    140.0387    224.9531   8.0507760709e+01   7.2413431733e+00    0.1963623    0.1768391   6.20 0.0003811044    1.040    0.038
       100  -8.8002    151.2545     71.4263   4.4555621488e+01   3.7051441026e+01    0.2517031    0.1846403 -43.08 0.0005986537    1.353    0.261
       101  -9.7678    151.1905    173.0744   6.8781781006e+01   1.6360635765e+01    0.3303208    0.2239189 -42.77 0.0004434742    1.415    0.293
       102  -8.7943    126.1694     67.1169   4.8558198378e+01   4.3520355037e+01    0.2110068    0.1953444  33.32 0.0005495957    1.173    0.148
       103  -9.3627    244.9944    223.5122   5.9782348581e+01  -5.4615474615e+00    0.1493759   0.09953666  17.29 0.0006590407    1.535    0.349
       104  -8.2101    145.0515    172.3249   7.0085968157e+01   1.7576942885e+01    0.1982553    0.1894363  12.94 0.0004523118    1.066    0.062
       105  -8.8788    124.9718     60.7202   4.6910609205e+01   4.4837312704e+01    0.2920798    0.1749332 -38.34 0.0008135661    1.747    0.427
       106  -8.7687    186.2474     60.2341   3.6198475685e+01   3.1053211529e+01    0.2172133    0.1504138 -41.86 0.0006527189    1.381    0.276
       107  -9.9853    181.8399     56.3756   3.5864536114e+01   3.2556973185e+01    0.3210028    0.2255229 -51.61 0.0005679696    1.294    0.227
       108 -10.7986    178.3456     52.9926   3.5512669627e+01   3.3796442270e+01    0.6740642    0.3771033  50.18  0.003344451    2.079    0.519
       109  -9.8544    144.4864     59.4810   4.2549679736e+01   4.0501585920e+01    0.2673976    0.2435607 -82.25 0.0005572722    1.034    0.033
       110  -9.0205    106.5423     58.4897   5.0704058593e+01   4.9420714288e+01    0.2322827    0.1975289  59.81  0.000539417    1.132    0.116
       111  -7.7264     72.5626     58.4481   6.1294997205e+01   5.6658092443e+01    0.1396482       0.1304  24.41 0.0001710113    1.034    0.033
       112  -9.5469    181.8495     45.9053   3.3365419319e+01   3.4004845712e+01    0.4280271    0.1752371 -33.04  0.001863723    2.625    0.619
       113  -7.7313     68.0000     45.9589   5.8297825681e+01   5.9629158106e+01    0.2116716   0.07791534 -38.07 0.0007388272    2.913    0.657
       114  -7.5287    189.5092    171.5049   6.0264546563e+01   1.0356118604e+01     0.138486    0.1212006 -25.76 -6.80866e-05    1.014    0.014
       115  -8.6764    224.2573    218.2083   6.2351340427e+01  -2.4659488358e+00    0.1841277    0.1512565  48.66  0.001042616    2.023    0.506
       116 -10.4768    132.6705     42.8785   3.9953990689e+01   4.5631316862e+01    0.4628168    0.3341554  36.64   0.00203919    1.666    0.400
       117 -10.6809    139.9912     37.5023   3.7091971332e+01   4.4604808819e+01    0.4771113    0.2041643  63.39  0.001798318    2.109    0.526
       118 -10.0028    132.6153     38.2377   3.8577611497e+01   4.6245414987e+01     0.291462    0.2641368 -46.68   0.00138691    1.195    0.163
       119 -10.4367    133.4772     34.4908   3.7308052127e+01   4.6506887818e+01    0.3540692    0.2846831 -58.14  0.001602043    1.278    0.218
       120  -8.0259    103.1574     43.1864   4.6453125266e+01   5.2475284046e+01    0.1816587    0.1551604 -89.12  0.001033161    1.304    0.233
       121  -9.7515    164.5715     40.1710   3.4154258320e+01   3.8588971611e+01    0.3106537    0.1879104  50.48  0.001192788    1.853    0.460
       122  -9.1963     33.3766    218.0428   1.0589803136e+02   2.2758356150e+01    0.2772418    0.1470193 -52.78  0.001318192    2.127    0.530
       123  -8.8141    109.5495     40.5051   4.4000095310e+01   5.1363007398e+01    0.2585337    0.1279905  70.37   0.00104215    2.456    0.593
       124  -8.7996    249.6060    168.7673   4.9707878057e+01   2.3766753261e+00    0.1689769   0.09040979 -44.83 0.0009434049    1.617    0.381
       125  -9.3495    153.9951     32.8381   3.3671573010e+01   4.1916416530e+01    0.2012767    0.1744694 -60.43 0.0003098793    1.143    0.125
       126  -9.0670     35.3596    213.1190   1.0499284309e+02   2.3715279767e+01    0.4049535    0.1559555  62.57  0.001399297    3.623    0.724
       127 -11.1984    126.5122     29.6691   3.7060898222e+01   4.8718209164e+01    0.4839652    0.3507736 -19.04  0.001917527    1.727    0.421
       128  -7.5458    217.3215    213.6290   6.2793803713e+01  -9.4015247639e-01    0.1082563   0.09807025 -64.96 0.0007033732    1.803    0.445
       129 -10.1993    178.9595     23.9760   2.8479914062e+01   3.7331329317e+01    0.5012844    0.3077581  77.10  0.002358909    1.477    0.323
       130  -7.4984    190.6721    211.3453   6.7397166126e+01   2.7952989263e+00    0.1163729    0.1067208  83.74 0.0007050438    1.749    0.428
       131  -8.3863    232.1502     19.5723   2.3326353444e+01   2.7144646731e+01    0.1855163    0.1406139 -25.23   0.00130103    1.840    0.457
       132  -8.1415     89.8641     19.1951   4.1083889598e+01   5.8379693440e+01    0.1839676    0.1364502  37.30 0.0007991039    1.337    0.252
       133  -8.4248     65.4943     19.4769   4.8198012817e+01   6.3660588586e+01    0.1293999    0.1093024  38.48 0.0008102138    1.001    0.001
       134  -7.9894    190.4539     15.4887   2.5488641592e+01   3.5795088784e+01    0.1180921   0.09453991 -76.12 0.0001514554    1.020    0.019
       135  -8.4628    186.0741     15.2945   2.5813218598e+01   3.6742391730e+01    0.1577811    0.1220594 -79.76 0.0002693602    1.047    0.045
       136  -8.7400    206.9000    206.0768   6.3377211333e+01   1.5924106623e+00    0.2017536    0.1735383  42.40  0.000611598    1.599    0.375
       137  -8.2467    234.8457     14.6151   2.2246784672e+01   2.7204796406e+01    0.1431672   0.07911856 -80.23 8.531751e-05    1.606    0.377
       138  -8.6192    229.5564    207.5371   5.9641228095e+01  -1.3997628129e+00    0.1857482    0.1079021  41.80  0.001028443    2.385    0.581
       139  -8.6001    245.5082    205.4768   5.6713176567e+01  -2.8592620753e+00    0.1187432   0.08711181 -21.24 0.0004515245    1.024    0.023
       140  -8.3829     68.6681    204.1443   9.5367747469e+01   2.1913822042e+01    0.2519414    0.1722846  44.76 0.0007887849    1.389    0.280
       141  -9.9729    193.9804    196.8030   6.4172932677e+01   4.9490825055e+00    0.5390446      0.32471 -65.60  0.002141132    3.774    0.735
       142  -9.1605    191.4843    192.0006   6.3782267002e+01   6.1827754725e+00     0.353158    0.2516267 -71.07   0.00168742    2.596    0.615
       143  -8.6999      3.9477    190.4206   1.1136907368e+02   3.2239237149e+01    0.1869166    0.1538105 -88.92 0.0003432556    1.087    0.080
       144  -9.1469    210.1191    188.1998   5.9583075456e+01   4.2582657728e+00    0.3255819    0.1629836 -54.30   0.00139656    2.831    0.647
       145  -9.6136    172.8554    187.5656   6.6759296430e+01   9.8144182871e+00    0.2444488    0.2155848 -49.72 0.0004069526    1.277    0.217
