#   1 NUMBER                 Running object number                                     
#   2 MAG_AUTO               Kron-like elliptical aperture magnitude                    [mag]
#   3 X_IMAGE                Object position along x                                    [pixel]
#   4 Y_IMAGE                Object position along y                                    [pixel]
#   5 X_WORLD                Barycenter position along world x axis                     [deg]
#   6 Y_WORLD                Barycenter position along world y axis                     [deg]
#   7 A_WORLD                Profile RMS along major axis (world units)                 [deg]
#   8 B_WORLD                Profile RMS along minor axis (world units)                 [deg]
#   9 THETA_WORLD            Position angle (CCW/world-x)                               [deg]
#  10 FWHM_WORLD             FWHM assuming a gaussian core                              [deg]
#  11 ELONGATION             A_IMAGE/B_IMAGE                                           
#  12 ELLIPTICITY            1 - B_IMAGE/A_IMAGE                                       
         1 -10.8398     36.6158      9.7187   2.9143543547e+02   7.3469877235e+00   0.05354958     0.028016 -57.40  0.002761591    1.838    0.456
         2 -10.6574     19.3350      6.9864   2.9161941147e+02   7.4704733884e+00   0.06792054   0.03748446  67.30  0.005487653    3.196    0.687
         3 -10.2160     10.1327     18.9663   2.9179572400e+02   7.3851241652e+00   0.07014114   0.03142067 -21.01  0.004071057    5.899    0.830
         4 -10.7979     23.5390     32.7964   2.9172125551e+02   7.1576685193e+00   0.06791563   0.02970606 -45.99  0.003480147    2.295    0.564
         5 -10.2043      4.5833     42.2567   2.9199558655e+02   7.1528867495e+00   0.04323191   0.02210812 -70.13  0.003900706    2.254    0.556
         6  -9.4179      2.1385     14.3862   2.9186152114e+02   7.4794762736e+00   0.02607099   0.01248952 -74.45   0.00198382    2.801    0.643
         7 -10.4003      5.0864      4.7979   2.9177152010e+02   7.5714854443e+00    0.0279319   0.02396692  17.31  0.001507046    1.159    0.137
         8 -10.1171      7.1883     28.3361   2.9188438239e+02   7.2955276325e+00    0.0223325   0.01366416  42.70 0.0009983903    1.728    0.421
         9 -11.2253     36.2394     38.9813   2.9161044085e+02   7.0199203172e+00   0.03593793   0.02389271 -84.19   0.00364676    1.924    0.480
        10  -9.4656    100.9760     33.4198   2.9082977068e+02   6.7341234721e+00    0.0320076   0.01137372 -60.55  0.002544466    2.702    0.630
        11  -9.0844    102.0503      8.1477   2.9066970716e+02   7.0124323333e+00   0.02374062   0.01435985  79.03  0.001907268    2.688    0.628
        12  -9.2199    102.9281     21.4193   2.9073711971e+02   6.8585231373e+00   0.02514039   0.01186708 -63.30  0.001361176    2.161    0.537
        13  -8.4065    104.2743     15.3100   2.9068586733e+02   6.9199374156e+00   0.02076812  0.009240976 -35.34   0.00162171    2.977    0.664
        14  -9.6793     63.0836     21.1255   2.9119592252e+02   7.0764511111e+00   0.02553941   0.01668846 -84.91  0.001889427    2.000    0.500
        15  -9.7235     64.5480     13.4698   2.9113429930e+02   7.1546463495e+00    0.0160997   0.01396714 -30.34 0.0004648083    1.149    0.129
        16  -8.6518     46.4273     20.8241   2.9138675457e+02   7.1694049901e+00   0.02567754  0.007097117 -56.20  0.001876104    3.129    0.680
        17 -10.2126     51.8427     13.8028   2.9128315919e+02   7.2192411766e+00   0.04120123   0.02448042 -10.20  0.003785093    2.309    0.567
        18  -9.2203     73.6111     19.7727   2.9106632030e+02   7.0350034744e+00   0.01802907   0.01238151  86.02  0.001400774    1.960    0.490
        19  -9.2163     73.0000     15.0090   2.9104556954e+02   7.0918505539e+00   0.03465746  0.009190921 -46.30  0.002281409    3.953    0.747
        20  -9.3190     96.0391     15.3054   2.9078100194e+02   6.9643963954e+00    0.0284968  0.009685445 -53.39   0.00225371    2.658    0.624
        21  -8.8341    110.7863      5.7994   2.9055503096e+02   6.9916929193e+00   0.04581744          nan -54.53  0.002352159    6.340    0.842
        22  -9.0265    115.3385      4.3144   2.9049375148e+02   6.9838114717e+00   0.01671711   0.01085775 -76.06  0.001090639    1.814    0.449
        23  -9.1802    114.1141      9.8389   2.9054019792e+02   6.9283379486e+00   0.02012233   0.01167615 -25.37 0.0003392912    2.214    0.548
        24  -8.1054     80.5188     12.6242   2.9094472342e+02   7.0781709844e+00   0.01293907  0.008445936  77.56  0.001236461    2.226    0.551
        25  -9.4611     85.1817     12.9733   2.9089286292e+02   7.0491275173e+00   0.02201643   0.01355229  73.08   0.00141073    2.524    0.604
        26  -8.2244     85.3810      6.3275   2.9085173253e+02   7.1227529778e+00   0.01464851  0.009072206 -23.45  0.001415331    1.994    0.499
        27  -8.8184     88.2908      2.2059   2.9079401172e+02   7.1533930504e+00   0.01790521   0.01189111  38.73   0.00122224    1.533    0.347
        28  -8.8797    125.0281     13.0343   2.9043280169e+02   6.8335074476e+00   0.01566429   0.01089926 -87.14 0.0007749942    1.831    0.454
        29  -9.0886    126.4961      9.0340   2.9039245406e+02   6.8705329822e+00   0.01301166     0.009115 -30.02 0.0006720997    1.549    0.355
        30  -9.6073    125.3620      5.4539   2.9038461745e+02   6.9168867389e+00   0.02114057   0.01167483 -43.85  0.002044247    1.837    0.455
        31  -9.1933    133.1808     10.6200   2.9032452015e+02   6.8166021491e+00   0.02336136  0.009626187 -71.08  0.001770091    3.205    0.688
        32  -8.4660    141.1109     12.1165   2.9024169600e+02   6.7569342832e+00  0.009822116  0.009613807  14.56   0.00117946    1.043    0.041
        33  -8.5234     71.9540      8.4468   2.9101933968e+02   7.1712494569e+00   0.01230525  0.008752566 -51.53 0.0006533568    1.367    0.269
        34  -7.6586     67.8478      9.1328   2.9107082181e+02   7.1856430396e+00  0.008935913  0.007118911 -33.58 0.0003783719    1.274    0.215
        35  -9.1795     96.6085      4.7901   2.9071297298e+02   7.0795121434e+00   0.02049159   0.01590407 -85.25  0.001654438    1.515    0.340
        36  -8.4775     76.5452      6.4841   2.9095479336e+02   7.1685891656e+00   0.01196485  0.009667399 -49.42 0.0006561324    1.210    0.174
        37  -8.5883     78.7807      3.1127   2.9090925244e+02   7.1944414142e+00   0.01313579   0.01180274  77.94 0.0007636368    1.249    0.199
        38  -9.3946    132.3283      5.3052   2.9030328172e+02   6.8809270762e+00   0.02154719  0.008563792  17.82  0.001650179    3.025    0.669
        39  -9.5677     63.8071      2.9563   2.9108147371e+02   7.2768135188e+00   0.02017765    0.0132472  69.09  0.001796804    2.126    0.530
        40  -8.6776    236.3753      1.9681   2.8908342708e+02   6.3547996645e+00   0.01196949   0.01007052 -15.31  0.001425144    1.235    0.190
        41  -8.4731    104.4840      1.8989   2.9060505379e+02   7.0695267849e+00   0.01242414  0.009499926   6.90 0.0009677983    1.378    0.275
        42  -7.8090    136.4954      1.5120   2.9023296283e+02   6.9010263782e+00  0.006388418  0.006262558  38.07 0.0003075373    1.067    0.063
        43 -10.3060    107.9782     99.3126   2.9113333950e+02   5.9550260714e+00   0.03514511    0.0244975  66.15  0.001950578    1.855    0.461
        44  -7.2147    249.6553    250.3223   2.9038094809e+02   3.4906808560e+00  0.006878538  0.004832297  59.03 0.0007050099    1.733    0.423
        45 -10.0988    197.9812    248.9261   2.9096703721e+02   3.7852465943e+00   0.01923222   0.01571796 -19.01  0.002262431    1.283    0.221
        46 -10.4703    238.3104    125.3037   2.8978263253e+02   4.9584102747e+00   0.01317852   0.01180297  21.96 0.0003023757    1.110    0.099
        47  -8.4502    129.4949    123.4750   2.9102587903e+02   5.5670370764e+00  0.006466638   0.00619692 -18.36 0.0008101243    1.009    0.009
        48  -9.5347     27.4215    123.0385   2.9220146542e+02   6.1209918724e+00   0.02610894   0.01505049  65.17  0.002199083    2.714    0.632
        49  -9.3010     41.1304    121.9046   2.9203657818e+02   6.0601998462e+00   0.02080507   0.01148292 -76.22  0.001354526    2.310    0.567
        50  -8.6652    125.8889     84.0023   2.9083734709e+02   6.0307642317e+00   0.02357076   0.01167362 -23.23  0.001779264    3.388    0.705
        51  -8.3378    151.8418    121.3925   2.9075601924e+02   5.4699126208e+00  0.008839119  0.006149669   6.94 0.0005944187    1.579    0.367
        52  -9.9540    140.6762    118.5749   2.9086835620e+02   5.5618850625e+00   0.01963469   0.01453091  74.96  0.001238496    1.724    0.420
        53  -7.5660    166.8309    118.1486   2.9056428355e+02   5.4254843500e+00    0.0093281  0.007366527 -27.95 0.0005880735    1.318    0.241
        54 -10.0512     91.7752    112.9593   2.9139985813e+02   5.8886675523e+00   0.02695611   0.01880931  72.60  0.001638266    1.913    0.477
        55  -8.7857     92.0415    104.1540   2.9134550367e+02   5.9863691886e+00   0.03016599   0.01583516  -9.88  0.002356827    3.235    0.691
        56  -8.1183      1.3197    116.0807   2.9246251529e+02   6.3392629971e+00   0.01419645  0.005822903 -61.63 0.0008277438    2.402    0.584
        57  -8.0499    166.2547    114.5358   2.9054985188e+02   5.4692528370e+00   0.01292548  0.007360358 -30.27 0.0008926899    2.141    0.533
        58  -8.9217    152.7312    115.2409   2.9070989299e+02   5.5343480063e+00   0.01002094  0.008240264  83.46 0.0008939111    1.433    0.302
        59 -10.2022     78.0697    112.9854   2.9155821586e+02   5.9621304883e+00    0.0234597   0.01546455  81.19  0.001627024    2.166    0.538
        60  -8.5504    158.8667    112.2577   2.9062174441e+02   5.5347927524e+00   0.01212168  0.009140876 -54.03 0.0006064908    1.298    0.229
        61 -10.5790     62.8477     95.9552   2.9163484417e+02   6.2357436445e+00   0.04761365   0.02685674  84.02  0.001504392    3.227    0.690
        62  -8.8158     64.6129     85.9828   2.9155639008e+02   6.3385186118e+00   0.02792193   0.01402653 -20.12  0.002099378    3.459    0.711
        63 -10.0466     65.7715    110.9805   2.9168853192e+02   6.0508461255e+00   0.03232545   0.01992358  78.65  0.001201537    2.547    0.607
        64  -9.6061     59.7767    109.8416   2.9175112409e+02   6.0958944746e+00   0.02523091    0.0178702  73.86  0.002436351    1.865    0.464
        65  -9.7368     14.3927    111.6583   2.9228582868e+02   6.3190304762e+00    0.0218048   0.01433443  75.84  0.001605934    2.178    0.541
        66  -9.2755     35.5898    111.8718   2.9204224233e+02   6.2029347377e+00   0.01788633   0.01136647  17.70  0.001771142    1.634    0.388
        67  -9.5625     24.4059    112.1965   2.9217329953e+02   6.2592809435e+00   0.01204994  0.009382785  -8.29 0.0008117055    1.395    0.283
        68  -7.6297    184.5921    110.7928   2.9031663512e+02   5.4122768189e+00  0.008208147  0.006309345 -79.57 0.0002684529    1.483    0.326
        69  -9.1072    243.3169    109.6783   2.8963373339e+02   5.1070093265e+00   0.01175553  0.009518101  88.91  0.001129133    1.453    0.312
        70  -9.0672    241.2253    106.1789   2.8963736175e+02   5.1576866823e+00   0.01333556  0.009626335  62.46 0.0008374234    1.705    0.413
        71 -10.8642     44.8335    102.6479   2.9188184501e+02   6.2571809124e+00   0.04355409   0.02145902  59.93   0.00322054    3.651    0.726
        72  -9.1827     39.9319    106.5491   2.9196114775e+02   6.2395694103e+00   0.02238324  0.009683168 -69.57  0.001156748    2.780    0.640
        73  -7.8701    188.8873    106.0329   2.9023934843e+02   5.4426044236e+00   0.01055906  0.007226572 -28.26 0.0005804737    1.625    0.385
        74  -8.0382     77.7920    105.5401   2.9151807937e+02   6.0474562404e+00   0.01317898  0.006891748 -32.92  0.001061452    2.364    0.577
        75 -10.6518     20.6394    101.1523   2.9215261961e+02   6.4038581200e+00   0.05089116   0.02625326  71.54  0.003454837    4.612    0.783
        76 -10.1041     20.1856     84.2736   2.9205972374e+02   6.5963433188e+00   0.05460398   0.01264517 -55.87  0.003761404    3.540    0.718
        77 -10.4919     25.5444     77.9374   2.9196093613e+02   6.6389315028e+00   0.04332126   0.02549024  81.62  0.003708923    2.872    0.652
        78 -10.2779     31.8486     64.4139   2.9180936143e+02   6.7573230805e+00   0.05332415   0.02440135 -31.80  0.003044743    3.180    0.686
        79 -10.1351     36.3757     81.4450   2.9185618592e+02   6.5413175872e+00   0.04096085    0.0202937 -12.54  0.002880065    4.034    0.752
        80  -9.7061    149.4108    103.2635   2.9067832707e+02   5.6870697085e+00   0.02009008   0.01317813 -83.85  0.001027127    1.963    0.491
        81  -8.3108    149.8384     97.0216   2.9063697984e+02   5.7550006853e+00   0.01561069  0.008310167 -26.38  0.001321629    2.610    0.617
        82 -10.1590    138.9713    103.3128   2.9079903264e+02   5.7428643920e+00   0.03229139   0.01554776 -69.32  0.002218622    2.397    0.583
        83  -9.5823    138.7159     92.7490   2.9074036150e+02   5.8631236316e+00   0.01794343   0.01387679  84.43  0.001229317    1.586    0.369
        84  -8.5193     14.1361    104.8128   2.9224902097e+02   6.3975017730e+00   0.01237439  0.007244813 -36.03 0.0004617375    1.884    0.469
        85  -9.5791      5.3592    103.8724   2.9234495450e+02   6.4551261860e+00   0.02878684   0.01545105  30.92  0.002449143    1.808    0.447
        86  -8.3539    166.0061    103.8818   2.9049055705e+02   5.5904826167e+00   0.01086349  0.009250331 -62.90 0.0003728807    1.197    0.165
        87  -8.1233     35.6961    104.6976   2.9199930446e+02   6.2831559376e+00  0.006786905  0.004717494 -27.38 0.0003083433    1.594    0.372
        88  -7.9165     73.7128    103.1256   2.9155112059e+02   6.0965843940e+00   0.01003826  0.008003196  85.39 0.0006007826    1.502    0.334
        89  -8.9327    159.1135    101.4327   2.9055574597e+02   5.6552749388e+00   0.01255458   0.01003144  84.53 0.0007285958    1.501    0.334
        90  -9.5658     81.3468    100.2087   2.9144599318e+02   6.0883526621e+00    0.0198957   0.01291047 -85.57 0.0008436918    2.037    0.509
        91  -7.5900     81.9996     94.0004   2.9140229583e+02   6.1547304881e+00   0.01516601  0.007922914 -28.24  0.001277335    2.614    0.617
        92  -9.2263     94.3510     97.3010   2.9127891880e+02   6.0510801781e+00   0.01422309   0.01135546  71.30 0.0005780217    1.501    0.334
        93  -8.8288     96.1241     90.9346   2.9122135008e+02   6.1131932413e+00   0.02582923    0.0120205 -27.88  0.001893438    3.538    0.717
        94  -8.8408    130.5079     96.7003   2.9085811238e+02   5.8629491322e+00   0.01750722   0.01029191  -9.16   0.00157798    2.370    0.578
        95 -10.2998      4.4496     89.7522   2.9227341964e+02   6.6190055362e+00   0.04721375   0.02352943 -83.03  0.002565014    3.500    0.714
        96  -9.4220      6.8952     78.3018   2.9217858963e+02   6.7348214720e+00   0.02461209   0.01216208 -29.04  0.001984852    2.895    0.655
        97  -8.6132    164.4914     94.2244   2.9045165955e+02   5.7073258207e+00   0.01670043   0.01049812 -61.37  0.001596251    1.592    0.372
        98  -8.8503    242.3885     93.8347   2.8955182855e+02   5.2901679345e+00  0.009829908   0.00552837 -50.28 0.0009572328    1.715    0.417
        99  -8.7850    157.7557     91.6750   2.9051446049e+02   5.7723998555e+00   0.01249939  0.009033949 -79.77 0.0008024946    1.620    0.383
       100  -9.4970    111.6262     89.8121   2.9103585103e+02   6.0422971029e+00    0.0336628   0.01688738  10.14  0.002862893    2.569    0.611
       101 -10.5496     48.1616     83.0610   2.9172941985e+02   6.4598311600e+00   0.05122107   0.02309927 -57.70  0.002318277    2.105    0.525
       102 -10.4899     55.2321     71.0570   2.9157782335e+02   6.5569553048e+00    0.0340314   0.01593158  44.42  0.001380568    2.396    0.583
       103  -7.8507    241.6281     89.6791   2.8953629066e+02   5.3410050093e+00  0.007166701  0.004669303 -25.12 7.569633e-05    1.804    0.446
       104 -10.1637     85.2338     86.6115   2.9132190047e+02   6.2204962748e+00   0.02401214   0.01569511  52.04 0.0009442658    1.786    0.440
       105  -9.3996     88.0172     78.5030   2.9124249990e+02   6.2967722569e+00   0.02739766   0.01549288  -0.07  0.002080077    2.421    0.587
       106  -8.1509    163.3828     86.8672   2.9042149655e+02   5.7960867218e+00   0.01147049  0.007649828 -53.80 0.0006032655    1.455    0.313
       107  -7.5322    209.0415     85.0019   2.8988426249e+02   5.5701013747e+00  0.007497974  0.007156235   0.65            0    1.028    0.027
       108  -8.8078    150.4104     89.0779   2.9058402696e+02   5.8412943757e+00   0.01326124  0.009970732 -65.44 0.0007826518    1.373    0.272
       109 -10.3199    103.8347     82.5899   2.9108368530e+02   6.1655717428e+00   0.02378186   0.01435154 -77.82 0.0008480988    2.072    0.517
       110  -9.5159    105.9343     70.6687   2.9098991653e+02   6.2884039718e+00   0.03856423   0.02361451 -44.25  0.003341487    1.633    0.388
       111  -9.3440    109.7081     64.2511   2.9090889868e+02   6.3402637606e+00   0.01693356   0.01288509 -85.35 0.0009021434    1.561    0.360
       112  -8.0419    170.3002     83.4071   2.9032151902e+02   5.7976230141e+00   0.01072223  0.008004778  82.59  0.001033509    1.695    0.410
       113  -8.5999    157.5930     83.6015   2.9046920932e+02   5.8641092313e+00   0.01155218   0.01079315  86.36 0.0004950737    1.169    0.145
       114  -9.7996    140.5170     81.6330   2.9065471758e+02   5.9784789591e+00   0.04368278  0.009872796 -56.40  0.002973263    3.622    0.724
       115  -8.6828    139.8123     75.4071   2.9062650901e+02   6.0523271966e+00   0.01841579  0.008941961 -68.60  0.001207101    2.331    0.571
       116  -9.1291    115.1938     72.8577   2.9089578075e+02   6.2138503229e+00   0.02170117   0.01322191 -63.13  0.001916963    1.667    0.400
       117  -8.8129    118.9610     80.4848   2.9089678870e+02   6.1077131684e+00   0.01543715  0.009679423 -74.67 0.0006403354    1.867    0.464
       118  -8.1194    119.7998     76.1877   2.9086203707e+02   6.1515410435e+00   0.01214331  0.009462992   6.48 0.0006177137    1.345    0.257
       119  -7.6799     63.4631     82.4768   2.9154925152e+02   6.3841672894e+00  0.006357735  0.006279768  11.08 0.0001633088    1.046    0.044
       120  -8.6191    241.3857     81.1664   2.8948931034e+02   5.4380083126e+00  0.009286257  0.006284264 -78.84 0.0006996557    1.768    0.434
       121  -8.4995    184.0284     78.4941   2.9013452882e+02   5.7786459063e+00   0.01730239  0.008776119 -60.78  0.001616519    1.946    0.486
       122  -8.6111    149.9646     80.1366   2.9053698035e+02   5.9442971206e+00   0.01922073  0.008730444 -60.52  0.001706343    2.152    0.535
       123  -9.0756     74.1181     80.2344   2.9141311522e+02   6.3520979171e+00   0.01953079   0.01164476 -79.12  0.001274426    2.158    0.537
       124  -7.8004     74.9876     74.4865   2.9136957721e+02   6.4121116305e+00   0.01341725  0.008363495  -7.25  0.001280789    2.071    0.517
       125  -8.3265     68.5555     79.5192   2.9147319952e+02   6.3900722455e+00   0.01382098  0.006328141 -62.66  0.001213284    2.201    0.546
       126  -8.6392    166.3623     78.1723   2.9033636132e+02   5.8777918148e+00   0.01956251   0.00860389 -52.80  0.001359729    2.133    0.531
       127  -8.7078    157.1128     76.5550   2.9043360514e+02   5.9459705261e+00   0.01910943   0.01127564 -88.12   0.00134941    2.568    0.611
       128  -9.4458    127.3168     75.2375   2.9076972698e+02   6.1216802099e+00   0.01757127   0.01282172  84.63 0.0007828073    1.757    0.431
       129  -9.0682    129.3891     68.8748   2.9070867242e+02   6.1820800451e+00   0.02494669   0.01227797 -25.01  0.001905011    3.293    0.696
       130  -8.5080    130.5167     64.9964   2.9067301579e+02   6.2196231810e+00   0.01698393  0.008181281 -67.78  0.001363193    2.310    0.567
       131  -9.9202     81.5976     72.4242   2.9128120644e+02   6.3997457736e+00   0.02232854   0.01464702  81.92 0.0009698623    2.188    0.543
       132  -9.0959     83.6547     64.1435   2.9120916511e+02   6.4818530269e+00   0.02511032   0.01394184 -33.33  0.002325969    2.124    0.529
       133  -8.7138    239.6116     72.8087   2.8946086052e+02   5.5415611875e+00  0.009124001  0.006306912 -77.11 0.0009505082    1.683    0.406
       134  -7.7184    162.4165     73.1298   2.9035242288e+02   5.9558368466e+00  0.008957325  0.006270932 -83.69 0.0008183852    1.760    0.432
       135  -8.3070    223.6527    249.7126   2.9067634166e+02   3.6378996837e+00  0.006882684  0.004744245 -23.54 0.0002585567    1.656    0.396
       136  -9.8832    207.0608    249.4165   2.9086544229e+02   3.7307521069e+00   0.02394643   0.01011942  14.63   0.00183864    3.072    0.674
       137 -10.8147     20.8288     54.8401   2.9188100330e+02   6.9241972700e+00   0.05440284   0.03546057 -51.04   0.00388546    1.485    0.327
       138  -9.5839    159.8113    249.1649   2.9140766109e+02   3.9883145203e+00   0.01460613  0.008343477   8.02  0.001354522    2.125    0.529
       139 -10.0254     14.8815     44.4104   2.9188903397e+02   7.0734517393e+00   0.03694188   0.02163897 -13.96  0.003346968    2.374    0.579
       140  -9.3470    158.2670    245.0102   2.9140131082e+02   4.0434154113e+00   0.01565355  0.008506444  64.39  0.001255992    3.134    0.681
       141  -9.1951     60.6402    248.6427   2.9254667437e+02   4.5275561817e+00    0.0118541   0.01029952 -32.01 0.0004954418    1.144    0.126
       142 -10.5451    170.8433    247.3509   2.9127015089e+02   3.9492916862e+00   0.02007834     0.016398  28.33   0.00161724    1.218    0.179
       143 -10.2186    190.1757    248.7110   2.9105559003e+02   3.8297609783e+00   0.01668991   0.01408875  35.81  0.002007951    1.203    0.168
       144  -9.5352      6.7600     32.6703   2.9191458467e+02   7.2490699524e+00   0.01501018   0.01193327   1.22  0.000757242    1.327    0.246
       145  -8.6719    180.4751    244.4840   2.9114264846e+02   3.9296489546e+00  0.006506712  0.006153544 -21.76 0.0008097826    1.028    0.027
       146  -9.2818    146.9181     69.2598   2.9050862375e+02   6.0831066033e+00   0.01648758    0.0119682  81.30 0.0009911223    1.788    0.441
       147  -7.9722    146.6728     64.6233   2.9048437845e+02   6.1365823495e+00   0.01422405  0.007110711 -39.02 0.0008630971    2.237    0.553
       148  -8.3165    156.4906     70.0312   2.9040268456e+02   6.0227137329e+00  0.009776296  0.006411345 -64.00  0.001019406    1.561    0.359
       149  -9.4703    157.7680     63.3377   2.9034884916e+02   6.0910920288e+00   0.02460529  0.009635536 -61.04  0.001604229    2.494    0.599
       150  -9.7150     94.6843     68.2278   2.9110559079e+02   6.3764930650e+00   0.01932994   0.01246491 -75.35 0.0009006555    1.813    0.448
       151  -9.3676     96.6744     59.1244   2.9102950354e+02   6.4681951948e+00    0.0392505    0.0153283 -33.24  0.002485453    4.657    0.785
       152  -9.1595    121.3464     66.2665   2.9078628786e+02   6.2548198836e+00   0.01624681   0.01240793  83.17 0.0006611063    1.626    0.385
       153  -8.0032    122.0025     61.4858   2.9075080933e+02   6.3050602617e+00   0.01431389   0.00869769 -28.76  0.001281697    1.954    0.488
       154  -9.2726    138.0099     65.6659   2.9059043934e+02   6.1716404496e+00   0.02197832   0.01179199 -69.56  0.001153567    2.102    0.524
       155  -7.3389    248.6728     66.3502   2.8931875662e+02   5.5650077814e+00  0.006892391  0.004863788  61.83 0.0007048566    1.761    0.432
       156  -8.8315    192.2557     63.1268   2.8994987079e+02   5.9069276034e+00   0.01071845  0.009444246 -10.18 0.0002838944    1.151    0.131
       157  -9.4336     54.7916     63.1477   2.9153683356e+02   6.6483358052e+00   0.02344384   0.01216141  23.52  0.001537421    1.937    0.484
       158 -10.0805     62.8572     60.7874   2.9142987718e+02   6.6315308941e+00   0.03379678   0.01405257  19.58  0.002747545    2.674    0.626
       159  -9.0097     80.1431     46.8026   2.9114858734e+02   6.6958536397e+00   0.01509393   0.01221523 -15.95  0.001248452    1.308    0.236
       160  -9.9599     73.0530     58.9965   2.9130162914e+02   6.5968323790e+00   0.02872386   0.01352384 -73.35  0.001036992    2.785    0.641
       161  -8.8632     75.8719     50.4909   2.9121945578e+02   6.6773557410e+00    0.0225047   0.01355588 -18.48  0.002104963    2.189    0.543
       162  -7.7507    164.8031     60.5776   2.9025156374e+02   6.0841019454e+00  0.009389219  0.005628679  38.00 0.0005710552    1.683    0.406
       163  -7.8239    152.2966     59.9885   2.9039241282e+02   6.1583260348e+00   0.00926805  0.008278943 -58.97 0.0008804588    1.130    0.115
       164  -8.2880      9.8136     60.1353   2.9203917564e+02   6.9236697908e+00  0.009818852  0.009001993  68.14  0.001216849    1.203    0.169
       165  -8.6333    146.6318     59.1020   2.9045260250e+02   6.1989024244e+00   0.01179263  0.009852064  79.46 0.0007424915    1.402    0.287
       166  -9.0890    147.5959     53.2966   2.9040756277e+02   6.2589800910e+00   0.02305613  0.008602835 -59.22  0.001394218    2.532    0.605
       167  -8.9960    149.7784     48.1147   2.9035209788e+02   6.3054556349e+00   0.01296255   0.01014449 -69.56 0.0007827069    1.354    0.262
       168  -9.0353    110.4507     57.9833   2.9086374425e+02   6.4067713776e+00   0.01547577   0.01249688 -24.33 0.0008835566    1.291    0.225
       169  -9.3235     87.6296     57.0914   2.9112211832e+02   6.5397929415e+00    0.0287472   0.01139523 -55.85  0.001915376    2.334    0.572
       170  -9.9252     34.4957     90.7651   2.9193213772e+02   6.4464797713e+00   0.02666514   0.01415079 -81.53  0.001717818    2.838    0.648
       171  -9.2552    139.0078     56.8742   2.9052757958e+02   6.2651374562e+00   0.01541356   0.01299809 -87.13 0.0007192912    1.347    0.258
       172  -8.7272    141.9910     48.7433   2.9044564865e+02   6.3404624539e+00   0.01492261   0.01073514 -71.14 0.0007539575    1.509    0.337
       173  -8.0405    142.4828     44.5183   2.9041528578e+02   6.3853132145e+00   0.01197174  0.008670889   3.64  0.001301128    1.516    0.340
       174  -8.9681    129.8913     57.3669   2.9063568884e+02   6.3088174035e+00   0.02176188   0.01103343 -64.66   0.00129056    2.052    0.513
       175  -8.1045    132.9551     52.2944   2.9057069709e+02   6.3493276242e+00   0.01127482  0.008199835   7.81 0.0003733433    1.474    0.321
       176  -9.4489    118.1645     54.8601   2.9075644073e+02   6.4002960243e+00   0.02215934   0.01484155 -73.71  0.001292837    1.690    0.408
       177  -9.1395    121.0639     46.9659   2.9067686655e+02   6.4734389584e+00   0.01625722  0.009662892 -61.19 0.0004806539    1.678    0.404
       178  -8.1155    122.4779     41.0267   2.9062584833e+02   6.5325971815e+00   0.01652933  0.008935317 -33.94  0.001497975    2.195    0.544
       179 -10.1106     49.9729     53.5590   2.9153664465e+02   6.7821336482e+00   0.03356937   0.01714371 -70.93  0.002580966    2.302    0.566
       180  -9.3394     56.0935     43.1674   2.9140532104e+02   6.8661449160e+00   0.03607757   0.01643371 -27.67   0.00255783    3.814    0.738
       181  -8.0314     94.4946     54.0026   2.9102479697e+02   6.5375606503e+00   0.01405557  0.008237458 -62.40  0.001401209    1.720    0.418
       182  -8.9954    162.6951     53.9626   2.9023722710e+02   6.1698823629e+00   0.01100658   0.01042289 -83.89 0.0006010309    1.134    0.118
       183  -9.0416    105.3284     52.0963   2.9088853894e+02   6.5006115266e+00   0.02460039   0.01098175 -59.48  0.001563767    2.160    0.537
       184  -9.8087     44.4594     52.9389   2.9159675773e+02   6.8187363588e+00   0.01799688   0.01631232  31.52  0.001237102    1.117    0.105
       185  -9.8773    187.6592    233.3462   2.9099523415e+02   4.0162921853e+00   0.01846076   0.01283532 -79.73   0.00159904    1.712    0.416
       186 -10.1038    247.4828     49.7679   2.8923542431e+02   5.7577680541e+00   0.01496577   0.01307668 -36.78 0.0002784604    1.128    0.113
       187  -7.7832    250.6686     45.6709   2.8917476382e+02   5.7865020942e+00  0.009839421  0.006033634 -44.66 0.0007096019    1.627    0.385
       188  -9.3280    157.6441     47.6748   2.9025875762e+02   6.2678867296e+00   0.02594654   0.00792126 -59.21  0.001942682    3.010    0.668
       189  -9.7093    130.5619     46.1846   2.9056263705e+02   6.4309576116e+00   0.04144841  0.009443981 -53.85  0.001924988    3.596    0.722
       190  -7.7898    136.2205     27.0416   2.9038543762e+02   6.6156222297e+00   0.00997212  0.007699212  61.66 0.0004573411    1.528    0.345
       191  -8.5984    132.5728     36.0067   2.9047995428e+02   6.5345410021e+00   0.01332661   0.01019018 -64.00  0.000721358    1.338    0.253
       192  -9.8072    133.9692     31.1116   2.9043522263e+02   6.5820310726e+00   0.01226471   0.01050548 -36.55  0.001481248    1.154    0.134
       193 -10.2223     85.1376     48.1243   2.9109859259e+02   6.6540917095e+00   0.01954369   0.01389526  74.63  0.001018727    1.857    0.462
       194 -10.3045     89.4524     38.2645   2.9099119679e+02   6.7417490135e+00   0.03957097   0.01944813   4.22  0.003099243    3.136    0.681
       195  -8.2979    111.9887     46.8359   2.9078090725e+02   6.5238624415e+00   0.01173835  0.009413986 -77.37  0.000469475    1.382    0.276
       196  -8.6915    113.2320     42.2243   2.9073961941e+02   6.5690189918e+00   0.02657319  0.009023519 -43.98  0.001935768    3.257    0.693
       197  -7.4431    162.4561     46.4916   2.9019631847e+02   6.2551726885e+00  0.006352769  0.006284264   8.73 0.0001179928    1.045    0.043
       198 -10.0344     69.3183     40.6272   2.9123765092e+02   6.8235839365e+00   0.03830772   0.01800795 -60.16  0.002446261    2.074    0.518
       199  -8.9803     69.9562     26.0403   2.9114515872e+02   6.9842046152e+00   0.02281042   0.01405203  -0.89  0.002196668    2.047    0.512
       200 -10.1220     76.1119     31.8443   2.9110788382e+02   6.8858003356e+00   0.02498608    0.0157653  53.90   0.00132595    1.924    0.480
       201 -10.0332     79.8258     23.7312   2.9101759737e+02   6.9570323378e+00   0.03224109   0.01727765  -6.93  0.002093794    2.984    0.665
       202  -9.1373     84.7152     21.9405   2.9095063015e+02   6.9508314936e+00    0.0136053     0.012881 -41.50 0.0009175559    1.041    0.040
       203  -7.8317    110.3550     26.8185   2.9068286013e+02   6.7577644852e+00   0.01277196  0.004855812 -50.16  0.001037747    2.479    0.597
       204  -8.0234    111.9445     22.9001   2.9064160402e+02   6.7932396305e+00   0.01613679    0.0104354  80.00   0.00153338    2.272    0.560
       205  -9.1389    110.1358     32.9399   2.9072115383e+02   6.6901232551e+00   0.01952526   0.01143271 -75.79 0.0009113271    2.099    0.523
       206  -9.0518    104.9468     41.3739   2.9083034787e+02   6.6232671630e+00    0.0157502    0.0113889  81.61  0.000782962    1.800    0.445
       207  -8.5567    106.0622     36.4425   2.9078866714e+02   6.6727093172e+00   0.01590732   0.01073137 -17.93  0.001248885    1.765    0.433
       208  -9.0719    153.2462     40.9525   2.9027021745e+02   6.3672382342e+00   0.01305252  0.008951181  62.91  0.001079742    1.864    0.463
       209  -8.9461    139.0646     39.7857   2.9042708906e+02   6.4569903445e+00   0.01941285   0.01512095  72.69  0.001755388    1.570    0.363
       210  -8.9703     53.1792     38.7764   2.9141340240e+02   6.9312069739e+00   0.02895024  0.009363481 -44.76  0.002076375    3.350    0.702
       211  -8.3638    247.4960     38.7532   2.8917079500e+02   5.8814178670e+00   0.01406722  0.008062111   5.73  0.001290554    2.198    0.545
       212  -8.2122    160.0166     38.8490   2.9017978867e+02   6.3542809653e+00   0.01185248  0.008465533 -82.97 0.0008954183    1.695    0.410
       213  -8.3368    188.9640     36.9009   2.8983446170e+02   6.2195366626e+00   0.00985037  0.009492382  25.76   0.00102761    1.058    0.055
       214  -9.1153    144.0299     36.4844   2.9035047588e+02   6.4672794351e+00   0.01202302  0.009528868 -68.73 0.0005788269    1.328    0.247
       215  -8.8709    118.8385     34.8280   2.9063166619e+02   6.6219384644e+00   0.01895518  0.008523065 -59.07  0.001310754    2.138    0.532
       216  -7.3217    240.6819    228.6835   2.9035815594e+02   3.7825783651e+00   0.00692836  0.004707006 -27.30 0.0004956882    1.654    0.396
       217  -8.5659     38.5386    227.0204   2.9267618738e+02   4.8897757166e+00   0.01125457  0.009456819  20.46 0.0004214453    1.184    0.155
       218  -7.9035      2.2983    216.6906   2.9303417129e+02   5.2003713460e+00  0.006572262  0.004908346  61.02 0.0002379959    1.597    0.374
       219  -7.3908     35.9790    214.2078   2.9263151253e+02   5.0478839029e+00  0.008417441  0.005116731  24.43 0.0008428128    1.635    0.388
       220  -8.5769    152.9646     34.8055   2.9023753165e+02   6.4378622039e+00   0.01136136  0.009386053 -58.65 0.0006521759    1.211    0.174
       221  -9.3650     60.1278     33.8431   2.9130430317e+02   6.9493329012e+00   0.02288625   0.01298423 -74.27  0.001711318    2.135    0.532
       222  -8.5026     63.0510     26.6624   2.9122861281e+02   7.0143655878e+00   0.02425207   0.01075373  17.44  0.001396577    2.595    0.615
       223  -9.8157     10.1203    207.3977   2.9289022943e+02   5.2632166093e+00   0.02513398   0.01519746   7.26  0.002448545    1.949    0.487
       224  -8.3134    124.0447    206.0356   2.9156906478e+02   4.6666725321e+00  0.009044527   0.00860857 -19.85  0.001144842    1.019    0.019
       225  -8.8138    169.4759     70.6588   2.9025656473e+02   5.9454660376e+00   0.02270722  0.005903066 -60.89  0.001191316    3.601    0.722
       226  -8.2417     97.1652     32.1338   2.9086628871e+02   6.7691284448e+00   0.01804638  0.006966477 -52.89  0.001218456    2.391    0.582
       227  -7.5554     57.8564    204.1247   2.9232086783e+02   5.0441072082e+00  0.008854815  0.007241901 -24.91 0.0002827831    1.265    0.210
       228  -8.8428    191.1484    192.8292   2.9071933479e+02   4.4535715255e+00   0.02858841   0.01432115  87.94  0.001828466    5.117    0.805
       229 -10.2148     46.2025     29.9758   2.9144273741e+02   7.0676938045e+00   0.02307149   0.01656329  86.03  0.001510295    1.801    0.445
       230  -8.5825     42.4275     28.4121   2.9147726751e+02   7.1055654692e+00   0.01088093   0.01036859 -20.27            0    1.016    0.016
       231  -7.9499    230.9793     32.0000   2.8932149016e+02   6.0468837282e+00   0.01084977  0.003649415  25.08 0.0006979657    2.965    0.663
       232  -9.8902    152.7350     26.9032   2.9019397700e+02   6.5279257644e+00   0.02145769   0.01470913  30.13  0.002338984    1.438    0.304
       233  -9.5414    142.6543     27.8500   2.9031588163e+02   6.5717737323e+00   0.01998579   0.01284554 -30.68  0.000916043    1.752    0.429
       234  -9.1572     91.2609     26.2397   2.9090009091e+02   6.8672244240e+00   0.01765515   0.01197564  85.37   0.00108069    2.015    0.504
       235  -8.6000     92.0954     20.8894   2.9085919854e+02   6.9228806658e+00   0.01494263   0.01005846 -31.93  0.001092524    1.617    0.381
       236  -8.6817    128.5971     25.1406   2.9046235637e+02   6.6781657765e+00   0.02134495   0.01007697 -54.09   0.00128433    1.998    0.500
       237  -8.2647    154.9902     22.7954   2.9014392325e+02   6.5618972217e+00   0.01235093   0.00732621 -48.27 0.0009436897    1.644    0.392
       238  -8.4035    140.1831     23.1141   2.9031672263e+02   6.6383573103e+00  0.008627439  0.007550353  66.06 0.0003887646    1.285    0.222
       239  -9.5577    118.8165     21.4523   2.9055376099e+02   6.7724293901e+00    0.0135779   0.01115737 -75.25 0.0006228929    1.325    0.245
       240  -8.8073    119.6005     17.2380   2.9052007129e+02   6.8155674711e+00   0.01740799   0.01118014 -31.29  0.001771228    1.743    0.426
       241  -8.9719     40.9389     20.7802   2.9144996749e+02   7.1993910156e+00   0.01412277  0.009051135 -56.22 0.0004360999    1.517    0.341
       242  -9.9765    182.1902    196.9873   2.9084668531e+02   4.4551150297e+00   0.01090945   0.01047582 -80.25 0.0002547994    1.108    0.097
       243  -7.7552    182.3590    182.3847   2.9075972989e+02   4.6185942351e+00   0.00923886   0.00574805  34.87 0.0005307394    1.593    0.372
       244  -9.6001    131.8775     17.3582   2.9037897549e+02   6.7479212177e+00   0.02396478  0.009181431  32.67  0.001521166    2.444    0.591
       245  -7.4168    229.6679    166.3651   2.9012172732e+02   4.5432752394e+00  0.006979351  0.004840614  62.18 0.0001052088    1.817    0.450
       246  -7.2436     57.3707    163.2361   2.9208923614e+02   5.5074074211e+00  0.006661092  0.004748999 -16.55 0.0005589579    1.608    0.378
       247  -7.8316     10.5123    153.8916   2.9257575786e+02   5.8640607276e+00  0.009848876  0.008393937  16.53 0.0005182973    1.170    0.145
       248  -8.5770    112.2422     15.5291   2.9059508621e+02   6.8744883648e+00   0.01248034    0.0101611  74.03 0.0006051119    1.461    0.315
       249  -8.6883    133.6409    146.5986   2.9111275596e+02   5.2843391661e+00   0.02374448  0.008154164 -68.32  0.001646876    3.720    0.731
       250  -9.9206     66.9154    144.1156   2.9186802792e+02   5.6715176742e+00   0.02682806   0.01779211  73.41  0.002517956    2.123    0.529
       251  -8.0344    233.6560    146.3159   2.8995886733e+02   4.7472585691e+00  0.006851449   0.00483473  58.67 0.0007048242    1.715    0.417
       252  -6.7528    196.7266    145.7137   2.9038055480e+02   4.9537406723e+00   0.00655528  0.004713445 -28.42 0.0001847592    1.507    0.337
       253  -8.4384    112.4900    134.2164   2.9128459796e+02   5.5377562670e+00   0.01426766  0.009494474  57.53  0.001173289    1.855    0.461
       254  -8.3604    192.3136    133.3055   2.9035902021e+02   5.1172249457e+00   0.01036586  0.008973803 -26.17 0.0004084814    1.163    0.140
       255  -9.2672    135.6986    132.2310   2.9100534556e+02   5.4350063757e+00   0.01896279   0.01149319 -55.30  0.001547647    1.594    0.373
       256 -10.5607     70.2153    126.0674   2.9172500235e+02   5.8570560291e+00   0.03789014   0.02787378 -33.17  0.002045265    1.418    0.295
       257 -10.0252     58.2689    124.6165   2.9185446960e+02   5.9376086131e+00   0.03412587    0.0190118  64.67  0.002224323    2.939    0.660
       258  -9.5333     98.6713    128.9528   2.9141338563e+02   5.6714535020e+00    0.0263947   0.01417506  58.40   0.00223333    2.776    0.640
       259  -7.9781    160.5735    128.7581   2.9069828962e+02   5.3398691737e+00   0.01319306  0.005792685 -57.17  0.001154687    2.150    0.535
       260 -10.2524    108.5120    114.5048   2.9121570150e+02   5.7811267447e+00    0.0389489   0.02278145 -81.47  0.001846125    2.328    0.570
       261 -10.0186     15.9300     70.8455   2.9203079095e+02   6.7703307154e+00    0.0237035   0.01325164 -62.91  0.001144404    1.809    0.447
       262 -10.1220    123.4234     91.4491   2.9090923789e+02   5.9602630772e+00   0.02718601    0.0211711 -44.12  0.001274638    1.263    0.208
       263 -10.0158    127.7654    102.4618   2.9092335350e+02   5.8128995683e+00   0.03359634   0.01758582  44.40    0.0025287    2.099    0.524
       264  -9.1224    124.9274    128.1864   2.9110601261e+02   5.5386226784e+00   0.01242589    0.0108243  18.90            0    1.140    0.123
       265  -9.5598    117.2679    125.6284   2.9117946915e+02   5.6087086047e+00   0.02771159   0.01817693  84.56  0.002114785    2.165    0.538
       266 -10.3089    131.7870    119.8119   2.9097809512e+02   5.5959133703e+00   0.03850046    0.0204365  61.94  0.002380493    3.146    0.682
       267 -10.8921    133.2922    110.1386   2.9090434780e+02   5.6966817235e+00   0.03746993   0.02092037 -64.33  0.002908069    1.846    0.458
       268 -11.2254    120.3296    109.8530   2.9105223382e+02   5.7698022988e+00   0.05924962   0.04121891 -74.46  0.004282961    1.621    0.383
