#   1 NUMBER                 Running object number                                     
#   2 MAG_AUTO               Kron-like elliptical aperture magnitude                    [mag]
#   3 X_IMAGE                Object position along x                                    [pixel]
#   4 Y_IMAGE                Object position along y                                    [pixel]
#   5 X_WORLD                Barycenter position along world x axis                     [deg]
#   6 Y_WORLD                Barycenter position along world y axis                     [deg]
#   7 A_WORLD                Profile RMS along major axis (world units)                 [deg]
#   8 B_WORLD                Profile RMS along minor axis (world units)                 [deg]
#   9 THETA_WORLD            Position angle (CCW/world-x)                               [deg]
#  10 FWHM_WORLD             FWHM assuming a gaussian core                              [deg]
#  11 ELONGATION             A_IMAGE/B_IMAGE                                           
#  12 ELLIPTICITY            1 - B_IMAGE/A_IMAGE                                       
         1 -13.9810    175.2746     33.7684   7.3102341133e+01   3.7401428371e+01      1.03997    0.8389828  14.70  0.003948614    1.588    0.370
         2 -12.6028    179.3861     26.6786   7.0509678622e+01   3.7249325278e+01    0.4629726    0.3896001  -2.74  0.001221168    1.504    0.335
         3 -14.2048     73.2651     29.6904   9.6076370499e+01   6.0058270949e+01    0.8847283    0.7996318 -37.04  0.004181629    1.407    0.289
         4 -12.9455     70.7874      6.9362   8.7790609563e+01   6.3086677623e+01    0.6734608    0.3505308  18.95  0.002901288    2.190    0.543
         5 -12.5894    193.6276      2.5969   6.2417481156e+01   3.6340604820e+01      0.71338    0.2680868  70.87  0.003059856    2.272    0.560
         6 -10.2915     23.6943    227.8993   1.4751403310e+02   2.4726841252e+01    0.1423955    0.1070324  87.65   0.00031147    1.143    0.125
         7 -11.4466    248.5869    249.7792   1.0861271012e+02  -1.4053697817e+01    0.3742344    0.1849146  32.33  0.002099008    1.722    0.419
         8 -14.0679    242.7698    222.2347   1.0486585299e+02  -9.6250225815e+00     1.955196     1.035635  12.25  0.008439098    2.857    0.650
         9 -12.2743    223.3007    214.6909   1.0706936692e+02  -5.2966507795e+00     1.177174    0.7813431 -34.54  0.005676902    1.578    0.366
        10 -17.1863    201.4477    237.9169   1.1522873152e+02  -5.0416181589e+00      3.49238     1.947554  32.61   0.01821323    1.628    0.386
        11 -19.6119     45.0011    147.0494   1.3501286407e+02   4.0002129478e+01     19.60797     3.192596 -65.96   0.05160203    6.059    0.835
        12 -11.6923    250.4388    202.8769   9.9882487907e+01  -8.0719900448e+00    0.6000211    0.1913123 -33.94  0.002312806    3.183    0.686
        13 -11.9783    249.2989    192.8356   9.8128869584e+01  -6.3651300696e+00    0.5206482    0.3030035 -35.87   0.00241461    1.654    0.396
        14 -10.3945     16.1686    206.2857   1.4730498310e+02   2.9875387198e+01    0.1479579    0.1152404  81.03  0.001089721    1.107    0.097
        15 -11.0347     11.8298    205.6777   1.4803739073e+02   3.0431319856e+01    0.2113156    0.1543449  74.24 0.0007232015    1.110    0.099
        16 -16.2551    169.4973    225.5233   1.1943398449e+02   2.6056614068e+00     2.682182     1.773901 -53.76    0.0143472    1.799    0.444
        17 -12.4674     86.4085    203.5292   1.3331230054e+02   2.1499963165e+01      0.37629    0.2756394  25.71  0.002048404    1.901    0.474
        18 -10.6124     91.9595    194.0348   1.3086682638e+02   2.2695225371e+01    0.1647724    0.1412896  76.16 0.0004343316    1.013    0.013
        19 -11.2550     31.4741    184.4603   1.4252439376e+02   3.2946515842e+01    0.1856863    0.1510024  85.29 0.0002312471    1.073    0.068
        20 -10.5016     99.6244    180.8384   1.2719990642e+02   2.4394083890e+01    0.2183225    0.1910373  41.98 0.0005719735    1.260    0.206
        21 -10.8407    197.8666    175.5400   1.0441674598e+02   6.2707223019e+00    0.3332839    0.2350201 -48.30  0.001497592    1.512    0.339
        22 -12.1805     94.0225    173.0099   1.2723716527e+02   2.7119205253e+01    0.7325848    0.3168492 -41.60  0.002506013    3.741    0.733
        23 -16.4556     77.3734    112.0698   1.1980763844e+02   4.4006867212e+01     2.892689     1.923742  81.28   0.01253633    2.424    0.587
        24 -11.1185    114.5728    170.6618   1.2201520773e+02   2.4095818680e+01    0.3521425    0.2314849 -78.20  0.001391466    1.826    0.452
        25 -10.2575    203.2198    168.0199   1.0174141406e+02   6.6073447315e+00    0.2406919    0.1726781 -70.21  0.001040472    2.033    0.508
        26 -11.7961     94.2717    208.0662   1.3226377955e+02   1.9290441175e+01    0.4037436    0.2232351  88.25  0.001773399    2.493    0.599
        27 -10.7706    100.2067    161.9679   1.2388227030e+02   2.8652902098e+01    0.2246269    0.2026272  60.51 0.0004116191    1.110    0.099
        28 -12.6677     89.7848    156.4506   1.2544627418e+02   3.1680921653e+01    0.3579368    0.2851442 -33.73 0.0009646725    1.576    0.366
        29 -10.7050    139.9002    156.3888   1.1321228849e+02   2.2429133221e+01    0.2408805    0.2062705 -72.44 0.0003652408    1.212    0.175
        30 -11.5214    104.1552    155.1908   1.2166292129e+02   2.9556720891e+01    0.4956223    0.3154574 -42.16  0.001554822    1.787    0.440
        31 -10.6633     80.8733    209.1311   1.3513824271e+02   2.1149355317e+01    0.2054704    0.1471888  73.71  0.000502119    1.263    0.208
        32 -11.9084    133.9680    145.0530   1.1219965177e+02   2.6218853540e+01    0.9451632    0.2210697 -54.04  0.002157781    5.929    0.831
        33 -10.6289     91.6293    148.1684   1.2346708896e+02   3.3339647849e+01    0.2966204    0.1864535  55.91 0.0009340431    1.743    0.426
        34 -12.3175    207.6340    145.6538   9.5910618720e+01   9.9980868540e+00    0.4461048    0.3949788 -82.86  0.001855436    1.315    0.240
        35 -13.9618    197.0807    137.2221   9.6077703289e+01   1.3999404096e+01     1.079603    0.6408579  62.81  0.003031255    2.131    0.531
        36 -11.5461    102.5173    139.9993   1.1904912258e+02   3.3418938483e+01    0.2739439      0.24799 -61.77 0.0003662911    1.057    0.054
        37 -13.3879    235.3470    111.7933   8.3038025209e+01   1.0306341178e+01    0.7768986     0.528201  59.18  0.002295219    1.606    0.377
        38 -14.0230    240.6768    121.9253   8.4485073533e+01   7.3544516098e+00     1.111429     0.845992  47.36  0.005865704    1.428    0.300
        39 -13.3712    245.7148    137.0392   8.7033302971e+01   3.6404168719e+00    0.7941853    0.6062187  51.68  0.003420972    1.448    0.309
        40 -13.2836    236.9644    132.6612   8.7534633855e+01   6.1954841773e+00    0.5729944     0.536095  44.13  0.003267061    1.147    0.128
        41  -8.8320     30.5996    213.5145   1.4525130145e+02   2.6842886235e+01    0.1150987   0.08768584  86.17 0.0002389984    1.072    0.067
        42 -13.8763    219.0023     92.4598   8.1145547219e+01   1.7464288422e+01     1.178689     1.051003 -60.04  0.006463404    1.061    0.057
        43 -14.3093    208.3036    131.5009   9.2495993524e+01   1.2608282577e+01     1.130516    0.8457373 -68.83  0.004273737    1.660    0.398
        44 -15.5848    208.8644    117.5888   8.9064387409e+01   1.5171888394e+01     2.116498       1.6514  22.06  0.007159048    1.615    0.381
        45 -11.1219    118.6200    130.0692   1.1267831816e+02   3.2736965340e+01    0.2666945    0.2219436   1.94  0.001303975    1.557    0.358
        46 -10.9686    105.9764    130.9698   1.1619504430e+02   3.4913414821e+01    0.3847151    0.2890863 -69.06  0.001531153    1.406    0.289
        47 -12.7852    236.0524    208.6250   1.0356953965e+02  -6.5498158259e+00    0.6362779    0.4528562  48.91  0.002525332    1.632    0.387
        48 -10.6616    169.0211    113.9684   9.6364279717e+01   2.5255772313e+01    0.2527179    0.1944723 -83.78 0.0006599579    1.659    0.397
        49 -10.4849    106.7884    126.4301   1.1495057513e+02   3.5818156343e+01     0.285968    0.2003606 -37.86 0.0007071971    1.546    0.353
        50 -11.8186    194.4310     89.9123   8.4856549494e+01   2.3818015045e+01    0.4184892    0.3063489 -59.22  0.001960089    1.457    0.314
        51 -11.7904     73.2507     88.7254   1.1526910710e+02   4.9738770143e+01    0.3998778    0.2576858 -45.81  0.001919066    1.396    0.284
        52 -14.1276    141.0963     73.2664   9.1611839100e+01   3.9746007946e+01     1.511424    0.9777857  51.04  0.005356756    1.511    0.338
        53 -13.2937    215.9220     73.0273   7.6881315271e+01   2.1532215694e+01    0.9121446    0.7464159  77.88  0.003063312    1.215    0.177
        54 -13.7758    145.7526     55.5855   8.5191446436e+01   4.1587702137e+01     1.059665    0.7752014 -11.22  0.005155694    1.689    0.408
        55 -10.8672    108.7520    207.4413   1.2916625503e+02   1.7026198295e+01    0.1862887    0.1255201  35.34 0.0009325799    1.643    0.391
        56 -12.8701    162.3703     48.6989   7.9667398549e+01   3.8584740752e+01    0.4094455    0.3976246  40.68   0.00109484    1.079    0.074
        57 -11.1655     11.6194    248.7985   1.5070258431e+02   2.2095787920e+01    0.1317309   0.09247778 -86.30 0.0009341171    1.293    0.227
        58  -9.9322      1.4683    249.3768   1.5224954184e+02   2.3041179636e+01   0.09970603   0.06996577  76.55 0.0004997192    1.099    0.090
        59 -11.7935    124.9900    228.5692   1.2874827994e+02   1.0024709267e+01    0.3920606    0.2783157  79.33  0.001196574    1.579    0.367
        60 -13.6773    247.7939    176.2124   9.5045532950e+01  -3.4590567047e+00     1.279029    0.5795352 -43.44  0.005526746    2.262    0.558
        61 -12.2128    116.5936    249.1017   1.3288536300e+02   7.7080643588e+00    0.3023926    0.2541238  53.46 0.0008197429    1.129    0.114
