#   1 NUMBER                 Running object number                                     
#   2 MAG_AUTO               Kron-like elliptical aperture magnitude                    [mag]
#   3 X_IMAGE                Object position along x                                    [pixel]
#   4 Y_IMAGE                Object position along y                                    [pixel]
#   5 X_WORLD                Barycenter position along world x axis                     [deg]
#   6 Y_WORLD                Barycenter position along world y axis                     [deg]
#   7 A_WORLD                Profile RMS along major axis (world units)                 [deg]
#   8 B_WORLD                Profile RMS along minor axis (world units)                 [deg]
#   9 THETA_WORLD            Position angle (CCW/world-x)                               [deg]
#  10 FWHM_WORLD             FWHM assuming a gaussian core                              [deg]
#  11 ELONGATION             A_IMAGE/B_IMAGE                                           
#  12 ELLIPTICITY            1 - B_IMAGE/A_IMAGE                                       
         1 -19.3628    200.5094    160.7468   4.6916770555e+01   1.2140654530e+01     4.378975     3.748516 -29.83   0.02184771    1.059    0.056
         2 -16.0148    145.6741     35.7459   2.9451536316e+01   4.3066256381e+01     1.227453    0.5040697  50.23  0.005494591    2.707    0.631
         3 -14.8900    157.2455      8.4972   2.1663452144e+01   4.3521290659e+01    0.4695445    0.2315172  49.35  0.002493043    2.649    0.623
         4 -16.6654    140.2202     25.4805   2.7703014025e+01   4.5441478230e+01     1.097198    0.6458511  35.75  0.005487654    2.816    0.645
         5 -15.9227    150.9173     17.2237   2.4339912288e+01   4.3998932860e+01    0.7558286    0.4593468 -21.72  0.004341448    2.468    0.595
         6 -14.3856    172.4531     24.9810   2.3715946782e+01   3.8667394136e+01    0.8784115    0.2718467  67.79  0.004020281    2.784    0.641
         7 -16.6260     72.2782     22.6115   4.0979227895e+01   6.0836554918e+01    0.7273884    0.5558531  47.44  0.004541248    1.075    0.070
         8 -16.4582    168.0988    142.2732   4.9412922473e+01   2.0720981254e+01    0.7236564    0.6045229  58.65  0.002885036    1.379    0.275
         9 -16.2303     40.7630    248.0725   9.8695615363e+01   1.4431169988e+01     1.019083    0.6104016  21.64  0.005276933    1.508    0.337
        10 -15.6641      3.9537    243.0737   1.0748789229e+02   1.8913584494e+01     1.027965    0.4272783 -77.48  0.004756051    2.490    0.598
        11 -13.9720    242.5730    138.9900   3.6977130911e+01   1.0224867901e+01    0.6296695    0.2290941 -37.99  0.002982559    2.553    0.608
        12 -18.6261    128.3816    175.9653   6.5236076126e+01   2.0042209358e+01     3.118413     1.827667  28.25   0.01371286    1.722    0.419
        13 -17.6923    124.6718    122.4414   5.5069100070e+01   3.2825371837e+01     1.998662     1.668957 -42.36   0.01048676    1.210    0.173
        14 -17.0669    156.4933    140.6290   5.1498149332e+01   2.3063659076e+01      1.09766    0.7800048 -83.53  0.004368113    2.199    0.545
        15 -16.9653    156.8953    112.9700   4.5524673516e+01   2.8495089678e+01     2.287744    0.9329132 -36.88  0.008416947    2.992    0.666
        16 -14.5905    223.1191    110.8625   3.4568067708e+01   1.7403532502e+01    0.7132577    0.3191704 -51.12  0.003712131    1.930    0.482
        17 -13.5603    190.0682     93.3128   3.5682361854e+01   2.5739702351e+01     1.102957    0.4507038  52.96  0.005079768    2.652    0.623
        18 -15.9352    214.1770     98.9755   3.3534358438e+01   2.0688795316e+01    0.9958576    0.6314925 -62.00  0.006017372    1.524    0.344
        19 -15.4633    205.7177     97.6987   3.4379155891e+01   2.2291375106e+01      1.09427    0.4033793 -53.20  0.004692422    2.763    0.638
        20 -15.0214    102.5533    111.1613   5.8540112516e+01   3.9582255687e+01    0.6603451    0.5656368  73.64  0.003390422    1.353    0.261
        21 -15.9311     18.8606    109.8404   8.9858886379e+01   5.2266067088e+01      1.23749    0.5107895 -16.48  0.003923503    3.778    0.735
        22 -15.2478     77.2154    104.9571   6.5225894826e+01   4.5700570299e+01    0.7978415    0.4715588  43.30   0.00343079    1.677    0.404
        23 -15.0738    126.0637     91.7457   4.7327203922e+01   3.8746752986e+01    0.7427834    0.7095543 -84.66  0.004390855    1.044    0.042
        24 -14.7199    144.5094     92.4033   4.3376798512e+01   3.4783708988e+01     1.697899    0.5296299  47.05  0.005899129    3.284    0.696
        25 -16.5645    156.7504     81.3416   3.8453549433e+01   3.4167125520e+01     1.814695    0.9000481  39.43  0.007508333    2.959    0.662
        26 -14.1988    185.5805     82.7582   3.4187286912e+01   2.8259208194e+01    0.7843277    0.6240457  -7.83  0.004589896    2.049    0.512
        27 -15.5792    173.9092     78.4255   3.4989231435e+01   3.1185221010e+01     1.538635    0.6865191  45.27  0.006685878    2.930    0.659
        28 -16.6704     53.4137     88.5404   7.0027675615e+01   5.3347465272e+01     1.295806      0.92331 -82.67  0.005839859    2.230    0.552
        29 -16.5749     44.4262     70.1181   6.8622360585e+01   5.8606141921e+01     1.459625     0.572962 -43.60  0.005690086    2.675    0.626
        30 -13.3761     91.1216     97.1441   5.8495572138e+01   4.4820553312e+01    0.2384242    0.2080548   5.65  0.001250807    1.251    0.200
        31 -15.2436    241.6647     83.6524   2.7865843349e+01   1.8713870603e+01    0.9315659    0.4950886  85.28  0.005243998    2.843    0.648
        32 -15.5577    230.7735     72.6288   2.7031242267e+01   2.1924801819e+01    0.8687277    0.3765239 -67.77  0.003935259    3.519    0.716
        33 -16.3586     91.7358     81.9156   5.4126566402e+01   4.7757557313e+01     1.661289    0.5897043  37.72  0.005503204    3.080    0.675
        34 -15.0015    118.7312     80.4630   4.6209622107e+01   4.2355698808e+01    0.7202846    0.3772843  47.65  0.003161499    1.805    0.446
        35 -14.9939    107.0462     77.6847   4.8477297973e+01   4.5346429155e+01    0.6763924    0.4275184  40.77  0.003230283    1.565    0.361
        36 -16.1513    230.4366     60.1258   2.4918814908e+01   2.3673447499e+01    0.7494559    0.4864216 -89.57  0.005257992    1.555    0.357
        37 -14.8643    208.5960     51.8137   2.5434649425e+01   2.8473235889e+01    0.6223405    0.6104977 -76.59  0.004993754    1.464    0.317
        38 -13.8081    180.4178     59.2551   3.0019873871e+01   3.2752725509e+01    0.3031088    0.2095073 -33.23  0.001810607    1.752    0.429
        39 -13.7443    181.6344     46.4225   2.7205417570e+01   3.4241416265e+01    0.3055364    0.2778822  -5.35  0.002150749    1.688    0.408
        40 -16.6505      9.3465    204.2211   1.0383426433e+02   2.7794314626e+01     1.428077    0.5002032  87.27  0.004709355    3.879    0.742
        41 -14.7550    201.2057     36.3972   2.3243215894e+01   3.1752114016e+01    0.2787949     0.155407  89.05  0.001703602    1.747    0.427
        42 -17.4747    165.4785    201.0386   6.0924009100e+01   9.2116576305e+00      3.41357     1.937954  41.58   0.01631359    2.094    0.523
        43 -14.1528    112.9879    222.5735   7.6974078179e+01   1.1666189092e+01    0.4985831    0.2763542  52.46  0.002016685    2.673    0.626
        44 -15.9622    228.3616    134.2462   3.7992903841e+01   1.2858518259e+01     1.500153    0.5056264 -48.31  0.006771941    2.509    0.601
        45 -17.4183     69.5143    181.6126   8.3170549839e+01   2.7428260612e+01     1.681437     1.571361  83.37   0.00901921    1.175    0.149
        46 -14.2424    202.0851     25.3270   2.1102190777e+01   3.2880420845e+01    0.3099388    0.1363072 -76.46  0.001590374    2.613    0.617
