#   1 NUMBER                 Running object number                                     
#   2 MAG_AUTO               Kron-like elliptical aperture magnitude                    [mag]
#   3 X_IMAGE                Object position along x                                    [pixel]
#   4 Y_IMAGE                Object position along y                                    [pixel]
#   5 X_WORLD                Barycenter position along world x axis                     [deg]
#   6 Y_WORLD                Barycenter position along world y axis                     [deg]
#   7 A_WORLD                Profile RMS along major axis (world units)                 [deg]
#   8 B_WORLD                Profile RMS along minor axis (world units)                 [deg]
#   9 THETA_WORLD            Position angle (CCW/world-x)                               [deg]
#  10 FWHM_WORLD             FWHM assuming a gaussian core                              [deg]
#  11 ELONGATION             A_IMAGE/B_IMAGE                                           
#  12 ELLIPTICITY            1 - B_IMAGE/A_IMAGE                                       
         1 -16.5941    226.1986    148.3955   4.2143033552e+01   7.7617094850e+00     4.734025     2.843721 -18.99   0.02407888    1.708    0.415
         2 -16.0372    225.0804     52.8904   1.9172019767e+01   2.2187239807e+01     2.057115     1.121912 -24.20  0.008921418    1.827    0.453
         3 -18.6035    240.9243     77.6186   2.3601455966e+01   1.5332766928e+01     8.490917      4.68233  52.29   0.04153609    2.064    0.515
         4 -17.1570    244.8366     39.4854   1.3764928121e+01   1.9558165455e+01     3.946485     1.626968 -52.35   0.01662557    2.453    0.592
         5 -13.4485    168.4137     33.8204   2.0957549889e+01   3.8809030757e+01    0.9656327    0.4256252 -33.14  0.002084437    2.106    0.525
         6 -13.0619    153.2268     18.2843   1.7868137936e+01   4.4719344079e+01     0.951674    0.4687897   5.58  0.003049085    4.061    0.754
         7 -12.5604    190.9015     14.7385   1.2081231595e+01   3.5215211982e+01    0.6789373    0.4060081 -41.99  0.003291812    1.529    0.346
         8 -11.0743     81.5347     10.1590   2.9691039018e+01   6.3627646316e+01    0.2285773    0.1846049  49.29   0.00038261    1.222    0.182
         9 -11.4331    225.0850      7.4914   7.2080123513e+00   2.7606003999e+01    0.2105842    0.2056663  51.71 0.0004777276    1.252    0.201
        10 -12.2470    105.7150      9.5210   2.2972661599e+01   5.7991897434e+01    0.3354333     0.196578  -5.79  0.001481376    2.013    0.503
        11 -11.4459    181.6313      3.5586   9.5420488198e+00   3.8721234959e+01    0.2521577    0.2148525  74.65 0.0007681954    1.157    0.136
        12 -11.4219    204.5564      8.7096   9.0758902354e+00   3.2407469467e+01     0.363326    0.2692065  45.14  0.001827382    1.610    0.379
        13 -10.9041    247.4344      3.4783   4.8514324760e+00   2.3024398430e+01    0.3185027    0.1170134  86.60   0.00134289    3.139    0.681
        14 -11.3591    126.7516      2.5598   1.5875264503e+01   5.3277407603e+01    0.1963992     0.131008  87.57 0.0009434721    1.623    0.384
        15  -9.8999    232.6120      1.2409   5.1419128575e+00   2.6505361160e+01     0.137206   0.07582357 -61.73 0.0006929034    1.651    0.394
        16 -11.8973    172.9828    150.7160   5.2476838709e+01   1.7350788108e+01     0.291902    0.1791369 -40.50  0.001386615    1.665    0.400
        17 -11.2436    132.3645    138.2150   5.8893572790e+01   2.7832267081e+01    0.3805227    0.2022356 -50.52  0.001093275    1.927    0.481
        18 -12.0758    134.0000    147.5453   6.0428755777e+01   2.5543209777e+01    0.5755105    0.2014577 -51.67  0.001984894    3.066    0.674
        19 -11.0492    133.0000    143.0066   5.9744250655e+01   2.6689592928e+01    0.3995242    0.1697388 -48.56  0.001444659    2.412    0.585
        20 -14.7207    170.5803     89.8740   3.8006458033e+01   2.9242710434e+01      1.69288    0.8520963 -27.43  0.003732159    2.333    0.571
        21 -11.5954    163.9487    149.1644   5.4041611018e+01   1.9401334335e+01      0.21215     0.193451  78.33 0.0005049683    1.273    0.214
        22 -11.9096    143.6742    145.6466   5.7791395128e+01   2.4067140705e+01     0.440589    0.2584727 -67.93  0.001728724    2.680    0.627
        23 -11.9029    147.6432    144.2942   5.6602780177e+01   2.3561735406e+01    0.3109238    0.2504115  76.85  0.001306208    1.526    0.345
        24 -13.4451     67.7248    144.2560   7.6753961518e+01   3.7457955566e+01      2.16042     1.073274 -61.33  0.007451781    1.900    0.474
        25 -13.5871     41.0560    137.4517   8.3153895320e+01   4.2430980302e+01    0.3978099    0.3696506  71.99  0.001029538    1.171    0.146
        26 -15.2211     49.6516    134.9825   8.0429156485e+01   4.2043840445e+01     2.170249     1.396039  -3.64  0.007807596    2.982    0.665
        27 -10.3995     86.2774    146.0753   7.2104125165e+01   3.4275007370e+01    0.1888226    0.1666797 -89.26 0.0003287052    1.056    0.053
        28 -14.3189     57.0301    134.4479   7.8267731296e+01   4.1258240919e+01    0.8225285    0.6221402 -37.82  0.001708559    1.706    0.414
        29 -11.8384    194.2542    137.5066   4.5400811857e+01   1.5485309810e+01    0.3386797    0.2952906 -59.97  0.001116205    1.381    0.276
        30 -14.4467    186.3874    126.3513   4.4332532809e+01   1.9037634047e+01     1.179683    0.8430983 -38.95  0.005332028    1.363    0.266
        31 -11.2168    202.1817    143.2774   4.5208059534e+01   1.2974052652e+01     0.242629    0.1794255 -21.89  0.001172419    1.334    0.251
        32 -14.1985    242.7791    196.0405   4.8615064187e+01  -1.1338845065e+00    0.8940837    0.5702531   4.79  0.005594173    1.491    0.329
        33 -12.1551    231.9460    207.8958   5.2360313769e+01  -9.8763469841e-01     0.280865    0.2091519  -8.50  0.001302441    1.202    0.168
        34 -13.0945    161.1008    128.5079   5.0070098923e+01   2.3960258729e+01    0.4753388    0.4355322  63.45  0.002031544    1.164    0.141
        35 -15.0655     10.7589    146.2147   9.2084916851e+01   4.3211794641e+01    0.9748486    0.7922639 -73.33  0.003862508    1.266    0.210
        36 -11.4069    197.0931    126.8731   4.2427005960e+01   1.6728273161e+01    0.2201403    0.1983473 -53.75  0.001164173    1.245    0.197
        37 -12.8068    171.6449    123.9108   4.6718720989e+01   2.2607619644e+01    0.4946014    0.3080116 -52.30  0.001412799    1.806    0.446
        38 -13.0548    175.5083    173.4760   5.6448427690e+01   1.2902739007e+01    0.5445243    0.3290707 -28.01  0.002675746    1.938    0.484
        39 -11.2209     93.9750    122.4666   6.5581003457e+01   3.8584869543e+01    0.2323726    0.1911463 -62.64 0.0005204987    1.168    0.144
        40 -10.9602    210.5553    156.0829   4.6419050072e+01   9.3923163096e+00    0.2208809    0.1856689  58.19 0.0006577419    1.524    0.344
        41 -12.3611    192.8087    166.3510   5.1734857508e+01   1.0970312832e+01    0.3811484    0.2652311  63.97  0.001894499    2.164    0.538
        42 -13.5464    165.7120    116.4259   4.6130177197e+01   2.5326770818e+01      0.55857    0.4487996   2.01  0.002731364    1.518    0.341
        43 -10.7530    226.2020    114.7834   3.4633313452e+01   1.2816645880e+01    0.1880509    0.1466352  -5.03  0.000385507    1.332    0.249
        44 -11.5071    204.9666    110.1314   3.6974667513e+01   1.7907685295e+01     0.510421    0.2695671  42.90  0.002202106    2.046    0.511
        45 -11.7561    196.6512    110.0493   3.8418791365e+01   1.9706727855e+01    0.2905139    0.2310686   9.96 0.0008686957    1.452    0.312
        46 -11.2282    199.9858    106.0406   3.6814576945e+01   1.9665002015e+01    0.2935369    0.2304897  31.15 0.0009407878    1.393    0.282
        47 -10.0725    221.2385    110.5985   3.4411634677e+01   1.4453269573e+01    0.1433772   0.09759158 -51.50 0.0004352562    1.676    0.403
        48 -14.3270    232.7550    198.0154   5.0559627996e+01   6.4254736195e-02    0.9137132    0.4668282 -16.05  0.004784136    2.242    0.554
        49 -10.1656    113.4982     87.4686   5.1055803226e+01   4.2906307227e+01    0.1542197    0.1488246 -54.03 0.0001922692    1.015    0.015
        50 -12.0168    198.8808    162.7684   4.9890541011e+01   1.0449430244e+01    0.5668662    0.3698637 -74.24   0.00205035    4.724    0.788
        51 -13.6430    192.4759    154.3239   4.9373183141e+01   1.2994356420e+01    0.8008041    0.6197583 -66.07  0.004195916    1.879    0.468
        52 -11.2799    170.9178     74.7307   3.3526110233e+01   3.1865342018e+01     0.259194    0.2439151 -87.68 0.0002708883    1.106    0.096
        53 -11.3443    169.4785     71.5031   3.2828038987e+01   3.2778322870e+01    0.3453162    0.2443421 -24.11  0.001389944    1.507    0.337
        54 -12.6612    185.1829    144.3903   4.8671465480e+01   1.6089855757e+01    0.4079453    0.3233486  46.81  0.001383375    1.303    0.233
        55 -12.1529    246.4333    151.4860   3.9595866699e+01   3.9102476412e+00    0.3876172    0.2606264  55.65  0.001544625    2.096    0.523
        56 -10.8502    207.0426    161.9649   4.8241630947e+01   9.1175012942e+00    0.1932546     0.171454   5.83 0.0003124187    1.020    0.019
        57  -9.9266    119.2224     58.6140   3.9931601482e+01   4.7485562278e+01    0.1576911    0.1125447 -59.21 0.0006737369    1.618    0.382
        58 -11.9181    163.9210     51.6615   2.7599114183e+01   3.7432920539e+01    0.2900357    0.2120942 -39.57 0.0004963352    1.310    0.237
        59 -12.3545    152.0930     47.8184   2.8524152236e+01   4.1087082164e+01    0.4180669    0.3571504  80.83  0.001986521    1.228    0.186
        60 -11.4559    158.9061     41.6813   2.5159278584e+01   4.0225206025e+01    0.2595597    0.2050916 -19.03 0.0008939422    1.355    0.262
        61 -12.3235    155.1605     39.1200   2.4940801143e+01   4.1571571645e+01    0.3535022    0.2538161 -12.84 0.0009793331    1.611    0.379
        62 -11.8682    146.8034     40.2046   2.6876847267e+01   4.3603063762e+01    0.2176124     0.181836  25.89  0.001086352    1.354    0.261
        63 -11.9219    137.0028     38.6853   2.8296245283e+01   4.6368882001e+01    0.2224943    0.2014509  63.90  0.001143467    1.107    0.096
        64 -11.5697    132.0208     38.6931   2.9368527612e+01   4.7647916116e+01    0.2187464      0.19878  55.86 0.0008937189    1.101    0.092
        65 -12.7142    225.8926    203.7315   5.2657198402e+01   3.6852749519e-01    0.4973913    0.3064938   0.24  0.002929384    1.745    0.427
        66 -10.8607    123.9688     38.2919   3.1048656209e+01   4.9748882255e+01    0.2113597    0.1967548  47.19 0.0005466025    1.077    0.072
        67 -10.8309    115.5149     29.4922   2.9505451572e+01   5.3136958507e+01    0.2618984    0.1458802 -13.29  0.001029062    2.314    0.568
        68 -13.4469    152.7329     26.5692   2.0922764705e+01   4.3876748708e+01    0.7439364    0.2124764  58.91  0.002424071    3.051    0.672
        69 -13.6497    192.2789    194.4729   5.6959222583e+01   6.7670934430e+00    0.9312818    0.4924518 -60.36  0.003212217    5.964    0.832
        70 -13.8355    209.4873    187.2394   5.2599720429e+01   5.0131361853e+00     0.637929    0.5393195  78.22  0.003875314    2.037    0.509
        71 -14.3832    213.9658    185.8773   5.1572005844e+01   4.4837678183e+00    0.7374674    0.4855036  16.28  0.004242671    1.525    0.344
        72 -12.4767    228.8086    186.9996   4.9260987258e+01   2.0191283850e+00    0.2551616    0.1597639  34.09 0.0004598921    1.486    0.327
        73 -11.7076    188.1192    175.4708   5.4365438350e+01   1.0347584997e+01    0.2513727    0.1773238 -56.16  0.001330045    1.949    0.487
        74 -13.0940    233.7134    187.2278   4.8499275702e+01   1.2492274694e+00    0.3233606    0.2283636 -11.78 0.0007029878    1.282    0.220
        75 -12.9132    247.3988    185.1697   4.5957933084e+01  -5.0865311684e-01    0.3656881    0.3392175  12.71  0.002182873    1.420    0.296
        76 -12.6574    248.4617    176.6341   4.4217861956e+01   3.7002761072e-01     0.501031    0.2283909 -23.67  0.002532465    2.121    0.529
        77 -12.0474    249.8948    168.1953   4.2393589952e+01   1.2036761897e+00    0.4954036    0.1661617 -30.50  0.002161802    2.719    0.632
        78 -12.2568    183.5866    212.1010   6.1381592894e+01   5.6444144037e+00    0.2660166    0.1376759  25.83  0.001350086    2.016    0.504
