#   1 NUMBER                 Running object number                                     
#   2 MAG_AUTO               Kron-like elliptical aperture magnitude                    [mag]
#   3 X_IMAGE                Object position along x                                    [pixel]
#   4 Y_IMAGE                Object position along y                                    [pixel]
#   5 X_WORLD                Barycenter position along world x axis                     [deg]
#   6 Y_WORLD                Barycenter position along world y axis                     [deg]
#   7 A_WORLD                Profile RMS along major axis (world units)                 [deg]
#   8 B_WORLD                Profile RMS along minor axis (world units)                 [deg]
#   9 THETA_WORLD            Position angle (CCW/world-x)                               [deg]
#  10 FWHM_WORLD             FWHM assuming a gaussian core                              [deg]
#  11 ELONGATION             A_IMAGE/B_IMAGE                                           
#  12 ELLIPTICITY            1 - B_IMAGE/A_IMAGE                                       
         1 -13.1935    161.4424     44.9628   7.6121856738e+01   3.9365554350e+01     1.262725     1.133117 -14.49  0.004272432    1.294    0.227
         2 -13.3039    176.4798     12.0452   6.4602146663e+01   3.9504968263e+01     1.569857     0.976336  67.85  0.006262063    1.340    0.254
         3 -11.2312    187.6097    237.7385   1.1530456207e+02  -3.1349193146e+00     0.412396    0.2273305 -45.05 0.0007764446    2.148    0.535
         4  -8.5679    176.1780    249.8450   1.1947293563e+02  -3.0682549864e+00    0.1705201    0.1375132  13.96 0.0005591066    1.314    0.239
         5 -10.4309    160.4949    248.5111   1.2239999234e+02  -1.4788930880e-01    0.4525199    0.2543418  42.63  0.001953631    1.457    0.314
         6 -19.0029     71.5515    228.0857   1.3778282244e+02   1.8415061449e+01     5.434338     4.211293  59.32    0.0222648    1.108    0.097
         7  -9.3259    150.5906    241.1595   1.2334862918e+02   2.8312560751e+00    0.2723382    0.2137422 -89.66  0.001568528    1.649    0.394
         8  -8.4622    167.7732    241.0123   1.1983171206e+02  -1.8132377538e-01      0.17445    0.1564821  37.41 0.0003503796    1.076    0.070
         9 -10.0815    151.8406    183.0580   1.1336767907e+02   1.4047730054e+01    0.2341028    0.2041209  82.60 0.0008327486    1.268    0.212
        10 -11.1747    204.5195    177.2578   1.0052011369e+02   4.4148875353e+00    0.5128996    0.4387367 -65.00  0.001853209    1.430    0.301
        11 -11.1526    203.7693    168.6691   9.8850932217e+01   6.2265158903e+00     0.925251    0.6519752 -45.45  0.004446061    1.464    0.317
        12 -11.6012    194.9587    169.3080   1.0084334850e+02   7.9325487140e+00     0.501151    0.4318264 -34.03 0.0008791116    1.176    0.150
        13 -10.5565    192.4225    164.7883   1.0040825851e+02   9.3773778269e+00    0.4558959    0.3251911  30.14  0.001536329    1.502    0.334
        14  -9.3059    198.9148    178.8717   1.0202841539e+02   5.2359042846e+00    0.2472525    0.2206659 -57.95 0.0005345052    1.278    0.217
        15 -11.6842    138.0985    172.2165   1.1451101239e+02   1.9244114335e+01    0.7438053    0.5095111  65.05  0.002140705    1.725    0.420
        16 -10.4622    143.6509    169.1436   1.1254948604e+02   1.8807321510e+01    0.7027454    0.4315967  79.54  0.002409969    3.181    0.686
        17 -10.8274    176.0337    230.1905   1.1643651440e+02   1.7435961362e-01    0.4850505    0.2468284 -33.24  0.002115258    2.650    0.623
        18 -10.6740    125.7083    172.8131   1.1765050703e+02   2.1562868665e+01    0.3919077    0.3768927 -32.15 0.0008181425    1.170    0.145
        19  -9.2655      1.3615    198.0768   1.4887718577e+02   3.2948890210e+01    0.2431039   0.07026836 -69.80  0.001091769    2.646    0.622
        20  -9.7457    230.4945    168.4722   9.3514674861e+01   9.4035319990e-01    0.2735271    0.1245748 -49.28  0.001041043    2.609    0.617
        21  -9.9453    121.9249    166.2636   1.1732689590e+02   2.3821325945e+01    0.4497569    0.2730305  65.23  0.001365802    2.167    0.539
        22  -9.3420     17.5421    154.9624   1.4179678773e+02   4.1142169488e+01    0.4031474    0.1785405 -80.30  0.001939438    2.072    0.517
        23  -8.7455     14.1790    163.1380   1.4341800320e+02   3.9553193792e+01    0.1860334    0.1315574  86.48 0.0003570982    1.208    0.172
        24  -8.9775     16.9809    159.9934   1.4246025591e+02   4.0034012561e+01    0.1816126    0.1413797 -64.13 0.0005007283    1.227    0.185
        25  -8.7229    129.9703    162.1909   1.1449798439e+02   2.3189594036e+01    0.2435737    0.1966631  70.17 0.0007592438    1.342    0.255
        26  -9.3298    190.2855    158.9664   9.9587505077e+01   1.1023978058e+01    0.4800832    0.2714224  26.97  0.001782605    2.459    0.593
        27  -9.8384    122.0082    158.2059   1.1569690548e+02   2.5701642124e+01    0.3608853    0.2980009 -85.22 0.0008452006    1.327    0.246
        28  -9.1806     22.6743    156.9022   1.4079015535e+02   4.0247601796e+01    0.2006034    0.1659001  58.19 0.0003696579    1.290    0.225
        29 -11.3635    133.9377    146.8713   1.1021416948e+02   2.5949053333e+01     1.327573    0.3686198 -55.51  0.003175592    5.306    0.812
        30 -10.2424    168.7929    196.3731   1.1205742853e+02   7.8538295529e+00    0.4911771     0.128317  44.22   0.00145571    3.558    0.719
        31  -8.5406    178.3539    148.0278   9.9747068102e+01   1.5946239709e+01    0.2136397    0.1957278 -49.21 0.0003086074    1.112    0.100
        32 -10.0122    143.9033    146.7091   1.0765392053e+02   2.3872249808e+01    0.4364092    0.2396951 -58.31  0.001647032    2.125    0.529
        33  -9.8507     27.1485    146.6572   1.3846899879e+02   4.2229702734e+01    0.2959669    0.2345203 -38.12  0.001022893    1.503    0.335
        34 -10.3123    224.7171    142.0118   8.8816475128e+01   6.9980466459e+00     0.257538    0.2107994  48.03 0.0004209099    1.286    0.222
        35 -11.7444    108.5438    136.2812   1.1457509798e+02   3.3496344105e+01    0.6297942    0.4218871 -65.19   0.00185971    1.639    0.390
        36  -9.1867    250.6668    231.7550   1.0212902789e+02  -1.2488633380e+01    0.1950662    0.1028942 -29.80 0.0003072925    1.864    0.464
        37 -11.4179    117.1426    136.4671   1.1227858630e+02   3.1800417738e+01    0.5965905    0.4787734 -54.18  0.001733413    1.235    0.190
        38 -10.6624    180.2546    193.7839   1.0904293042e+02   6.0839638085e+00    0.3628338    0.2955238  76.80  0.001650008    1.593    0.372
        39  -8.4728     10.7595    137.3606   1.4148227557e+02   4.5712700348e+01    0.1293221    0.1140093 -14.91 0.0002047903    1.487    0.327
        40 -10.0166     46.9431    135.0196   1.3153184767e+02   4.2995828223e+01    0.2048352    0.1763418 -71.17 0.0004974687    1.017    0.016
        41 -11.2154    135.6621    128.6483   1.0549735446e+02   2.9783100891e+01    0.8849957    0.2335723 -51.55  0.002230579    4.568    0.781
        42 -10.7607    135.3389    122.3323   1.0401203994e+02   3.1280267377e+01    0.5385697    0.2152206 -49.91  0.001781688    2.623    0.619
        43  -9.3222      6.8580    150.4988   1.4385405840e+02   4.3001818656e+01    0.3125636    0.1531654 -45.83  0.001155495    2.350    0.574
        44 -10.5806    153.8385    194.1057   1.1499196851e+02   1.1292973280e+01    0.3685395     0.251574 -49.89  0.001759951    1.584    0.369
        45 -10.1129    160.6118    128.8350   9.9289098343e+01   2.4143004555e+01     0.391416    0.3329544 -72.45  0.001797893    1.311    0.237
        46 -10.7127    121.2740    128.2358   1.0922962033e+02   3.2898790991e+01     0.351322    0.2923136 -52.67  0.001183283    1.196    0.164
        47 -10.8853    170.1634    184.0837   1.0937216334e+02   1.0081233104e+01    0.5570868    0.3234533  39.47  0.001704525    1.649    0.394
        48 -10.7155    110.5294    123.8713   1.1114203154e+02   3.6037446486e+01    0.4348756    0.2974085 -40.04 0.0005378993    1.520    0.342
        49 -10.0351    114.7663    118.2540   1.0857087241e+02   3.6501500186e+01    0.2777329    0.2648947  -4.79 0.0004450537    1.104    0.094
        50  -9.1882    243.1478    123.6323   8.1496748891e+01   6.5738387478e+00    0.2300647     0.176939 -48.90 0.0003398019    1.223    0.182
        51 -11.7483    172.2508    189.4895   1.0997058237e+02   8.5481984146e+00     0.630624    0.4834307  -0.05  0.003018245    1.702    0.413
        52 -10.1537     79.2509    120.2931   1.1935328072e+02   4.2279121151e+01    0.3509976    0.2442907 -33.87  0.001475604    1.598    0.374
        53  -9.1768    139.9261    121.1069   1.0250604219e+02   3.0543988735e+01    0.2462737    0.2131497  80.48 0.0005275398    1.300    0.231
        54 -11.9757     70.9181    114.8063   1.2062712825e+02   4.4781358312e+01    0.8113341    0.6097816   5.61  0.004205347    1.681    0.405
        55 -12.3851     60.4661    109.4151   1.2263974378e+02   4.7420533123e+01     1.066195    0.6456959 -20.57  0.003711841    2.429    0.588
        56  -8.6929    167.0549    112.8397   9.3718271552e+01   2.6036471665e+01     0.268786    0.1902804  83.20  0.001085322    2.003    0.501
        57 -10.8474    117.5657    109.1838   1.0544778416e+02   3.7972260274e+01     0.352349    0.2714813 -19.59  0.001298126    1.564    0.361
        58 -10.0748    106.5706    109.6953   1.0872422129e+02   4.0030841767e+01    0.2983458    0.1409626 -43.86  0.001133023    2.104    0.525
        59 -10.0644    134.3828    106.4828   1.0012941217e+02   3.4966694981e+01    0.4833726    0.1877881 -44.93  0.001614162    2.605    0.616
        60  -8.6663    124.5152     95.9420   9.9891935975e+01   3.9342512788e+01    0.2289564    0.1515047 -43.18  0.000702716    1.527    0.345
        61  -9.8661    112.8350     95.0496   1.0293862272e+02   4.1969421846e+01     0.270348    0.2191835  40.81 0.0009511194    1.234    0.189
        62 -10.7191    175.9073    187.3219   1.0873236616e+02   8.2452646068e+00    0.4388523    0.2752369 -55.52   0.00137125    1.881    0.468
        63  -9.0819    144.4558     80.8191   9.0329353520e+01   3.7767947903e+01    0.2946601    0.2313185  19.83 0.0009031132    1.519    0.342
        64  -8.9138    182.2727     78.5663   8.1390575458e+01   2.8872765866e+01    0.2507376    0.1751605  49.95 0.0003231644    1.412    0.292
        65 -11.2325     66.7846    109.5926   1.2071828373e+02   4.6554985631e+01    0.4394268    0.3714157  22.06  0.001650955    1.307    0.235
        66  -9.8135    237.9902     67.8014   6.9799053473e+01   1.7243850356e+01    0.2255534    0.2069778 -86.91 0.0004158839    1.105    0.095
        67 -10.8837    164.3625    189.5287   1.1174633474e+02   1.0136463774e+01    0.5098955    0.3756214  12.25  0.001673358    1.784    0.440
        68 -11.5602    165.6734     36.2430   7.2859564996e+01   3.9457450934e+01    0.4189869    0.3960928  54.06 0.0008138323    1.112    0.101
        69  -8.5664    123.9668     63.8068   9.0435616549e+01   4.5479849618e+01    0.1955412    0.1768775  40.23  0.001076502    1.047    0.045
        70 -12.8023    150.5860     59.4726   8.2612649228e+01   3.9925279774e+01     1.238469     1.025798   0.11  0.001029314    1.455    0.313
        71 -10.4519    135.2593     40.8833   8.0363654831e+01   4.6294184228e+01     0.244089    0.2201998  54.25 0.0002095093    1.050    0.047
        72  -9.2595    230.1191     19.2946   6.0140889196e+01   2.5809457034e+01    0.2709225      0.17374 -39.68   0.00116991    1.636    0.389
