#   1 NUMBER                 Running object number                                     
#   2 MAG_AUTO               Kron-like elliptical aperture magnitude                    [mag]
#   3 X_IMAGE                Object position along x                                    [pixel]
#   4 Y_IMAGE                Object position along y                                    [pixel]
#   5 X_WORLD                Barycenter position along world x axis                     [deg]
#   6 Y_WORLD                Barycenter position along world y axis                     [deg]
#   7 A_WORLD                Profile RMS along major axis (world units)                 [deg]
#   8 B_WORLD                Profile RMS along minor axis (world units)                 [deg]
#   9 THETA_WORLD            Position angle (CCW/world-x)                               [deg]
#  10 FWHM_WORLD             FWHM assuming a gaussian core                              [deg]
#  11 ELONGATION             A_IMAGE/B_IMAGE                                           
#  12 ELLIPTICITY            1 - B_IMAGE/A_IMAGE                                       
         1 -14.8469      7.9637    149.7876   1.4374587767e+02   4.2812886362e+01     10.68785     4.549662  72.59    0.0463032    3.396    0.706
         2 -13.2051    196.1011     29.7440   6.8720514043e+01   3.2779446705e+01     1.391163     1.229115  60.77  0.007094617    1.164    0.141
         3 -13.4000    211.2838     10.2302   6.2157662295e+01   3.1379414834e+01     1.252437    0.9016873  42.88  0.007193819    1.746    0.427
         4 -12.1049      2.2224     11.9425   1.1673025074e+02   7.0617879691e+01     0.935226    0.1823614 -48.02  0.003728665    4.666    0.786
         5 -12.2208      2.6906      3.3168   1.1292495559e+02   7.1772300413e+01    0.4662578    0.4497533 -29.22  0.004057973    1.906    0.475
         6 -11.2953    237.4757    246.6453   1.1001641381e+02  -1.1933351409e+01    0.3231269    0.2075327 -47.37  0.001876049    2.272    0.560
         7 -11.5108    248.8606    248.4347   1.0832179055e+02  -1.3819158838e+01     0.346346    0.3226998 -27.55  0.002593493    1.538    0.350
         8  -9.8142    156.5110    249.9784   1.2543042697e+02   8.4143837774e-01    0.1639726    0.1261158 -51.43  0.001026383    1.572    0.364
         9 -11.7367    139.6050    249.3412   1.2850484647e+02   3.8073154382e+00    0.4783247    0.2772398  50.77   0.00263806    1.462    0.316
        10 -11.3101    124.8348    249.8768   1.3131111483e+02   6.1765972493e+00    0.5687606    0.1343242  43.26  0.002058789    3.435    0.709
        11 -10.2107    112.4638    250.5408   1.3365531030e+02   8.0715261088e+00    0.2616021    0.1023342  42.52   0.00120962    2.184    0.542
        12 -11.1353    105.8758    246.7801   1.3444150850e+02   9.7879654088e+00    0.2504419    0.2344766  78.47  0.001789993    1.266    0.210
        13 -10.7491     99.2462    248.7484   1.3585729485e+02   1.0474971696e+01    0.3938525    0.2127101  68.76  0.002044824    2.044    0.511
        14 -11.0865    100.9826    245.9862   1.3524915776e+02   1.0702414738e+01    0.3293132    0.2178522  88.36  0.001279025    1.635    0.388
        15  -8.5466     66.6772    250.2762   1.4172355786e+02   1.4984671089e+01    0.1212474   0.06696215  66.80 0.0002256806    1.581    0.367
        16  -9.5062     28.8465    249.8054   1.4790303656e+02   1.9887024817e+01    0.1880177    0.1261459 -72.43  0.000640853    1.568    0.362
        17 -10.4751     34.4979    244.3098   1.4663688551e+02   2.0239539244e+01    0.4032663    0.2574309  30.20  0.002522875    2.421    0.587
        18  -8.5531     19.4833    242.4821   1.4892892564e+02   2.2301099601e+01    0.1104923   0.07554495  75.91 0.0008101015    1.020    0.020
        19  -8.9396      5.7952    240.8999   1.5097117352e+02   2.4042561548e+01    0.1436627    0.1067435  88.02 0.0003390227    1.219    0.180
        20 -11.3896    119.8783    237.8816   1.3078249990e+02   9.1230328355e+00    0.3703174    0.2162201 -84.96  0.001783752    2.491    0.599
        21 -10.0223    183.6344    238.5742   1.1863194951e+02  -2.0256275131e+00    0.2531656    0.1081488  38.18 0.0008138227    2.073    0.518
        22 -10.8764    230.0190    231.0377   1.0869535133e+02  -8.7083216777e+00    0.4913468    0.2865069 -61.23  0.001849634    5.225    0.809
        23  -9.9175     50.3828    234.6482   1.4322946915e+02   2.0118306707e+01    0.2103211    0.1861435 -61.91 0.0009012651    1.607    0.378
        24  -9.3696    204.3358    249.6720   1.1648875273e+02  -7.1390275016e+00    0.1160627   0.09271169  63.92 0.0007051877    1.725    0.420
        25  -9.0493     34.7212    215.4229   1.4442997121e+02   2.5895924661e+01    0.1717836    0.1138456 -77.95 0.0005330367    1.306    0.234
        26  -8.6289    152.4674    212.9051   1.2071630222e+02   8.0523697086e+00    0.1804363    0.1371509 -56.04 0.0004276368    1.456    0.313
        27 -12.3861      9.9744    206.6633   1.4819251332e+02   3.0332689708e+01    0.6426163    0.3930149  40.90  0.002911974    1.827    0.453
        28 -11.4348     60.5281    198.2891   1.3779209251e+02   2.6323119366e+01    0.2737952    0.2253333 -61.32 0.0005630125    1.383    0.277
        29  -9.6251    193.2896    195.6618   1.0925844378e+02   3.4946530077e+00     0.736881    0.3284327 -61.29  0.001668791    9.025    0.889
        30 -11.5799     15.1782    196.9683   1.4653387866e+02   3.1849004425e+01    0.2871128    0.1733688  64.05  0.001052215    1.464    0.317
        31 -11.7334     66.8497    190.0077   1.3549085893e+02   2.7296817424e+01    0.2879352    0.2223721 -62.45 0.0004608677    1.329    0.247
        32 -10.6447      2.4128    183.2928   1.4787710459e+02   3.5920635826e+01    0.3639444    0.1320002 -69.22  0.001906333    2.100    0.524
        33 -10.4430      1.9998    191.7305   1.4857452623e+02   3.4169608257e+01    0.2606927    0.1595899 -76.52  0.001117126    1.294    0.227
        34 -10.9707      5.8998    188.2174   1.4759251966e+02   3.4570277741e+01    0.3484066    0.2427225  45.08  0.002466969    1.607    0.378
        35 -13.1148     63.7763    175.2081   1.3423814191e+02   3.1085096847e+01    0.5125541    0.2749245 -46.79  0.001872264    2.281    0.562
        36 -10.5422     76.9781    177.3287   1.3155928258e+02   2.8731918455e+01    0.2349255    0.2037551 -78.46 0.0003392954    1.082    0.076
        37  -8.9683     97.4680    173.6410   1.2628484759e+02   2.6365647573e+01    0.2802601    0.1321791 -59.16 0.0007938609    2.046    0.511
        38 -11.6081     84.7020    168.1708   1.2837492823e+02   2.9691382904e+01    0.6123974    0.5824971  40.45  0.003747063    1.253    0.202
        39 -13.7905     39.2214    224.7479   1.4438348121e+02   2.3467757773e+01    0.9143203    0.8013511 -57.01  0.004885126    1.661    0.398
        40  -9.7829     97.4762    152.1668   1.2246391301e+02   3.1392087712e+01    0.2918354    0.2536658 -58.79 0.0008650692    1.119    0.106
        41 -11.9535     85.9744    151.2756   1.2516861895e+02   3.3476942257e+01    0.3056392    0.2461886 -46.62 0.0005777818    1.314    0.239
        42  -8.6678    100.3020    148.0181   1.2094961865e+02   3.1889504627e+01    0.2014259     0.174746 -61.24 0.0003426397    1.093    0.085
        43 -12.1729     67.3697    143.6920   1.2851928937e+02   3.8000913655e+01    0.6793047    0.4516809  70.25    0.0032766    1.809    0.447
        44 -10.8020    146.7443    229.6361   1.2444666362e+02   5.9888606605e+00    0.4024155    0.1149445  36.95   0.00125481    4.212    0.763
        45  -8.2180    192.1973    144.0156   9.8515166991e+01   1.3805061808e+01    0.1933991    0.1188531 -41.58 0.0003543336    1.605    0.377
        46  -9.4820    109.3534    137.2285   1.1639326011e+02   3.2815098798e+01    0.4397182    0.2609361 -28.83  0.001506927    2.655    0.623
        47 -10.2437     96.4153    134.4394   1.1915841856e+02   3.5756959072e+01    0.2636361    0.2269063 -30.52 0.0005567846    1.319    0.242
        48 -10.4866     55.4819    128.9872   1.2901574429e+02   4.2992820498e+01      0.23975    0.1785048  69.98 0.0008413672    1.556    0.357
        49 -10.5621     31.9644    132.1112   1.3573673624e+02   4.4789629644e+01    0.3030313    0.1630968  50.91  0.001496403    2.204    0.546
        50  -8.8083     79.2237    131.4550   1.2310500755e+02   3.9206456167e+01     0.200171    0.1258225  53.24 0.0009430458    1.819    0.450
        51  -9.3682     87.9552    129.1766   1.2028424277e+02   3.8389580120e+01    0.2100956    0.1791256  84.52 0.0003895923    1.267    0.211
        52 -11.3404     22.4391    126.7423   1.3740627942e+02   4.6866914938e+01    0.3522883    0.2184286  53.26  0.001084151    1.910    0.477
        53  -8.6771    106.3809    123.8888   1.1414741020e+02   3.6456528749e+01    0.1963529    0.1717704 -52.53 0.0003497671    1.084    0.078
        54  -9.5304    172.0071    222.5131   1.1833039799e+02   2.6953010438e+00    0.2125944     0.119115  42.01 0.0006215018    1.578    0.366
        55  -9.9388    167.7624    112.8476   9.6136326476e+01   2.5822299934e+01    0.3279658     0.268304 -82.19  0.000790025    1.444    0.308
        56  -9.3413    203.7591    111.1970   8.8311998400e+01   1.7685747959e+01    0.2124013    0.1848561   3.71   0.00106775    1.381    0.276
        57  -9.9248    241.0000     94.0044   7.7945560435e+01   1.2358491805e+01    0.2404527   0.07495483 -37.83 0.0008030612    2.947    0.661
        58 -12.5509     33.7041    232.0974   1.4590444202e+02   2.2669320350e+01    0.2827478    0.2191257 -77.75 0.0007597043    1.355    0.262
        59  -9.9080    242.5138     84.9863   7.5660874481e+01   1.3553629049e+01    0.1902345    0.1253316 -11.82 0.0008100785    2.512    0.602
        60  -9.4458     54.7348    229.5271   1.4202214887e+02   2.0559670797e+01    0.3021636    0.1333905  64.17  0.001482152    2.285    0.562
        61  -8.6165    184.3251     77.3291   8.3244705107e+01   2.8605320242e+01    0.1536091    0.1195293  19.96 0.0007050209    1.701    0.412
        62  -8.8419    157.6738     76.6850   8.8503093472e+01   3.5219454264e+01    0.1553103    0.1190019  18.08 0.0004356141    1.670    0.401
        63  -9.5046     43.3311     67.7123   1.1879941027e+02   5.7714114572e+01    0.2995363    0.1697505  48.84  0.001482095    2.733    0.634
        64 -11.1919      2.0831     64.6365   1.3248337888e+02   6.1536745614e+01    0.4916359    0.1114176 -65.43  0.001636853    5.242    0.809
        65  -9.2863     32.5036     62.5105   1.2114604152e+02   5.9784897199e+01    0.1831355    0.1057058  37.74  0.001025538    2.191    0.544
        66 -10.9273     13.9051     54.8810   1.2584487502e+02   6.2705912774e+01    0.2203397    0.1748967  30.94  0.000834107    1.638    0.390
        67 -11.5934      2.7795     39.1103   1.2575469714e+02   6.6245934195e+01    0.3850885    0.1829112 -59.74  0.002200247    2.126    0.530
        68 -10.9448    198.1946    245.8015   1.1701946853e+02  -5.5833888940e+00    0.2364153    0.1608275  22.01   0.00137115    1.477    0.323
        69  -9.9139     81.5304    248.9950   1.3903724201e+02   1.3104252069e+01    0.2403944    0.1271885  57.64  0.001131641    1.580    0.367
        70  -8.7923      2.2979    249.3622   1.5193080839e+02   2.2848544124e+01   0.08985801   0.06772137 -69.63 0.0007033636    1.715    0.417
