#   1 NUMBER                 Running object number                                     
#   2 MAG_AUTO               Kron-like elliptical aperture magnitude                    [mag]
#   3 X_IMAGE                Object position along x                                    [pixel]
#   4 Y_IMAGE                Object position along y                                    [pixel]
#   5 X_WORLD                Barycenter position along world x axis                     [deg]
#   6 Y_WORLD                Barycenter position along world y axis                     [deg]
#   7 A_WORLD                Profile RMS along major axis (world units)                 [deg]
#   8 B_WORLD                Profile RMS along minor axis (world units)                 [deg]
#   9 THETA_WORLD            Position angle (CCW/world-x)                               [deg]
#  10 FWHM_WORLD             FWHM assuming a gaussian core                              [deg]
#  11 ELONGATION             A_IMAGE/B_IMAGE                                           
#  12 ELLIPTICITY            1 - B_IMAGE/A_IMAGE                                       
         1 -11.6176    192.4916     55.4617   6.1900277199e+01   2.9411709519e+01     1.012974    0.2367478 -35.45  0.002948117    3.646    0.726
         2 -11.8717    209.2073     20.7800   4.9380878370e+01   2.9527166694e+01     0.623383    0.3487729   2.37  0.002469925    2.781    0.640
         3 -10.1364    221.4726     14.5227   4.6356114568e+01   2.7092214118e+01    0.2893469    0.1336954 -23.28   0.00121797    2.206    0.547
         4 -10.1265      6.6212     11.9364   1.0530152957e+02   7.2592629152e+01    0.1929063    0.1259167 -23.59 0.0005661349    1.458    0.314
         5  -9.0496    148.2068      7.9166   5.3468537693e+01   4.7048739325e+01    0.1887879    0.1144898 -22.80  0.000862071    1.722    0.419
         6 -10.3815      1.5671      7.0115   1.0623532625e+02   7.3813414098e+01    0.2549995    0.1141557 -57.59  0.001036388    1.885    0.469
         7 -10.0031    116.6714      5.4036   5.8448098645e+01   5.5337547736e+01    0.2247734    0.2067873  -6.94 0.0002706481    1.113    0.101
         8  -9.6776    161.9403     13.8397   5.3406657083e+01   4.2802333014e+01    0.3052838    0.2021991  -6.90  0.001016515    1.757    0.431
         9 -10.0717    111.0022      4.9881   5.9540746400e+01   5.6747185283e+01      0.20768    0.1832547  27.91  0.001209898    1.039    0.038
        10  -9.7684     51.0147      3.3634   7.8044999691e+01   6.9039511249e+01    0.1980127    0.1436768 -12.42  0.000337367    1.221    0.181
        11  -9.2569    158.9810      1.9876   4.9694315038e+01   4.4737890315e+01    0.2280588    0.1600898 -59.87 0.0008305907    1.594    0.373
        12  -9.6697     14.7547      1.9611   9.5959673033e+01   7.3738742855e+01    0.1592136    0.1160947 -33.16 0.0003191631    1.070    0.065
        13 -10.3764    177.5014    242.4971   1.0406790870e+02   3.5911536645e+00    0.3427779    0.2152585 -57.46  0.002164528    2.595    0.615
        14 -12.7108    228.8643    146.6056   7.8865073823e+01   7.2683566844e+00     3.410223    0.8690299 -26.89  0.008646016    6.870    0.854
        15 -13.5944    245.5361    230.1548   9.1259000504e+01  -5.2728829700e+00     1.799542    0.9429277 -29.63   0.01145936    2.196    0.545
        16 -13.0905    245.5898    177.3222   8.2261005714e+01   3.0543642223e-01     1.240276     0.808331 -29.76  0.007418708    1.600    0.375
        17 -12.6545    236.1288    162.6805   8.0963692700e+01   3.7530006293e+00      3.04955     1.573958 -49.64   0.01276887    3.449    0.710
        18 -11.6291    235.2716    146.9101   7.7854476515e+01   6.0068280076e+00    0.4977195    0.3368521 -38.25  0.001524413    1.607    0.378
        19 -12.6712    235.2700    135.1983   7.5316800669e+01   7.6222822488e+00      2.59593     1.122268 -48.41  0.009191591    3.889    0.743
        20 -12.8168    233.9365    182.9711   8.5228950565e+01   1.5841227441e+00     1.593372     1.169521 -52.86  0.009163612    2.230    0.552
        21 -12.7780    246.7287    210.5048   8.7955029080e+01  -3.5297640063e+00     1.436722    0.4214282 -38.97  0.005768254    4.991    0.800
        22 -12.4835    246.7243    194.4050   8.5202118048e+01  -1.8249055374e+00    0.9624829    0.5645618 -48.82  0.004819141    3.312    0.698
        23 -13.7813    233.6886     91.1388   6.5156988039e+01   1.4254868810e+01      2.55215     1.446848 -31.55   0.01181892    1.632    0.387
        24 -14.4956    243.7161    133.5749   7.3599895898e+01   6.2140213216e+00     13.33735     1.234066 -38.78   0.02349495   14.080    0.929
        25 -14.3990    247.5110     66.0774   5.6992578226e+01   1.4650348321e+01     3.821549     1.296727 -23.86   0.01310032    3.241    0.691
        26 -15.2040    247.7365     34.3401   4.8994485554e+01   1.8567226272e+01     4.720311     2.249789 -33.26   0.02165923    1.820    0.451
        27 -10.5382    228.1550    221.7534   9.2742167211e+01  -1.8836102406e+00    0.3105334    0.2755666  35.16  0.001825244    1.408    0.290
        28  -9.5248    228.0000    216.8777   9.2007480744e+01  -1.3424082021e+00    0.2278755    0.1451531 -23.50  0.001038378    1.736    0.424
        29  -9.2723    224.4936    237.3782   9.5650037530e+01  -2.9257895065e+00    0.1627569    0.1042654 -34.69 0.0009095062    2.028    0.507
        30  -8.9671    228.6870    248.7123   9.6564170567e+01  -4.6020294532e+00    0.1974351    0.1150125  12.85  0.001062393    1.773    0.436
        31 -10.0006    224.6970    248.4389   9.7152274019e+01  -4.0140504876e+00    0.2502528    0.1961879 -45.51  0.001889962    2.132    0.531
        32 -10.1755    224.8662    242.8961   9.6366340424e+01  -3.5155305673e+00    0.2277542    0.1814246 -19.00  0.001122289    1.525    0.344
        33  -9.4911    202.1861    249.8020   1.0091824966e+02  -9.0030816955e-01    0.2680844    0.1428174   8.51  0.001335917    3.477    0.712
        34 -10.3401    202.4012    242.3724   9.9918900081e+01  -1.6150081083e-01    0.2357787    0.2080798 -52.21  0.001266601    1.755    0.430
        35 -10.0153    206.7391    248.1106   9.9966850202e+01  -1.3951092679e+00    0.2498314    0.2017393 -59.21  0.001845734    2.204    0.546
        36 -10.4572    210.5037    249.0458   9.9484366563e+01  -2.0365112891e+00    0.2887492    0.2000044 -29.76  0.002145125    1.848    0.459
        37  -9.9287    209.7745    243.1967   9.8827600127e+01  -1.3432043813e+00    0.2837178    0.1681616  -6.04  0.001446508    2.358    0.576
        38 -11.3403    193.7449    247.1864   1.0195843267e+02   6.1858255824e-01    0.3837345    0.3187308 -29.24  0.002644382    1.586    0.369
        39  -9.1308    184.0213    250.5023   1.0395932578e+02   1.7056537734e+00    0.1711724   0.08038004  39.81 0.0006678973    1.549    0.355
        40 -10.4238    167.6082    249.8996   1.0659558799e+02   4.2187325779e+00     0.265188    0.1357514  32.51  0.001086035    1.747    0.428
        41 -10.9218    163.7692    246.8553   1.0688874094e+02   5.1547609863e+00    0.2632015    0.1924263 -60.44  0.001593747    2.010    0.503
        42 -10.2153    150.8667    249.9274   1.0938610399e+02   6.7076619813e+00     0.165853    0.1226236  32.03  0.001220495    1.273    0.214
        43 -11.0727    156.8650    246.9587   1.0805897794e+02   6.1795859939e+00    0.2267643    0.1541762 -48.62  0.001608878    2.005    0.501
        44 -10.0450    146.5958    246.8162   1.0977244642e+02   7.7329850763e+00    0.1290699    0.1021242 -84.77 0.0009515468    1.748    0.428
        45  -9.4013    123.5333    247.4589   1.1372588583e+02   1.1032365914e+01    0.1100098   0.08061793  48.19 0.0001601505    1.023    0.023
        46 -10.3593    169.8256    241.2632   1.0521248946e+02   4.9102748543e+00     0.233263    0.1439958 -20.41  0.001382881    2.687    0.628
        47  -9.5589    214.0666    240.6052   9.7780802118e+01  -1.7139254906e+00    0.1547028    0.1401955   7.65 0.0006690181    1.350    0.259
        48  -9.8615    193.3336    238.6647   1.0092852455e+02   1.6124869521e+00    0.2162566    0.1542452  49.01  0.001054324    1.422    0.297
        49 -10.8506    190.0699    234.7546   1.0095861466e+02   2.5592522125e+00    0.3619176    0.2969679 -49.81  0.002286174    1.744    0.427
        50  -9.6282    148.4085    238.4082   1.0854462985e+02   8.5510265488e+00    0.1818545   0.09745615 -32.22 0.0009595774    3.368    0.703
        51 -10.7069    206.6379    235.6266   9.8309138639e+01  -8.1103029924e-02    0.3866376    0.2633201 -29.48  0.002700909    1.812    0.448
        52  -9.4378    170.4983    234.4919   1.0426520208e+02   5.6389377050e+00    0.1856326    0.1157341 -43.46  0.001008871    2.107    0.525
        53  -9.8938    201.8723    231.6409   9.8547725650e+01   1.0859068261e+00    0.1810126    0.1643768 -24.25  0.001081442    1.442    0.306
        54 -10.5864    198.7377    226.2602   9.8317854490e+01   2.1894404471e+00    0.2757045    0.2254883 -45.71  0.001768349    1.710    0.415
        55  -9.4976    158.2929    230.4942   1.0589242476e+02   8.0687122651e+00    0.1659011    0.1067501 -47.74  0.001063069    2.029    0.507
        56 -10.1775    211.9234    226.6601   9.6155893290e+01   8.2903419939e-02    0.3020595    0.1770361 -24.94  0.001875719    2.053    0.513
        57 -10.1531    205.8514    225.1065   9.6946677032e+01   1.2027364093e+00    0.2607174    0.1887154 -45.69  0.001370092    1.973    0.493
        58  -9.5742    201.8619    221.2276   9.7055830718e+01   2.2828697702e+00    0.2610754    0.1470758 -40.59  0.001541614    2.270    0.560
        59 -10.0317    190.5381    225.6429   9.9634115255e+01   3.5625722696e+00     0.252464    0.1519425 -32.06  0.001338049    2.086    0.521
        60  -9.2860    184.5171    227.0319   1.0086567357e+02   4.3521303434e+00    0.1468572    0.1157571 -32.36  0.001033095    1.592    0.372
        61  -9.2392    180.4080    222.3024   1.0093090950e+02   5.6042911907e+00    0.1856003    0.1143932 -33.76  0.001124511    2.062    0.515
        62  -9.9108    186.2274    220.7397   9.9690756708e+01   4.8598626006e+00    0.3151591    0.1565224 -44.84  0.001717649    2.637    0.621
        63  -9.2407    185.5378    214.9741   9.8980379069e+01   5.7095033218e+00    0.1509717    0.1196851 -37.24 0.0006694526    1.564    0.360
        64 -10.1293    193.1108    218.3004   9.8136134077e+01   4.0466633382e+00    0.2926829    0.1773996 -44.24  0.001752597    2.165    0.538
        65 -10.0740    211.0410    218.0864   9.5023002741e+01   1.1850444889e+00     0.233904    0.1672835 -27.98  0.001568143    1.640    0.390
        66  -9.9811    206.2895    207.5787   9.4200040327e+01   3.2080343118e+00    0.2858621    0.1713617 -28.72  0.001671118    1.941    0.485
        67  -9.0241    205.6376    216.8693   9.5757822092e+01   2.1920153769e+00     0.223732    0.1681707  -9.93  0.001506864    1.485    0.326
        68  -9.3805    204.7841    212.3233   9.5206984275e+01   2.8753718489e+00    0.1923279    0.1793175 -24.57 0.0007487527    1.381    0.276
        69  -9.1894    170.5916    216.2043   1.0183067980e+02   8.0143486534e+00    0.1470326    0.1131039 -21.63 0.0008173221    1.663    0.399
        70  -8.9484    138.2251    214.9489   1.0759775128e+02   1.3485904001e+01    0.1309978    0.1004493 -58.92 0.0004445553    1.613    0.380
        71 -10.8470     35.9281    214.1631   1.2633188801e+02   2.7675881910e+01    0.1748221     0.104017  63.78 0.0009429312    1.266    0.210
        72  -9.8105    192.1661    208.8764   9.6887164621e+01   5.3985990010e+00     0.260044    0.1994241 -77.90  0.001508766    2.423    0.587
        73  -9.4474    176.6320    210.2044   9.9879385870e+01   7.8304089424e+00    0.1515006    0.1131216 -23.12 0.0009513446    1.670    0.401
        74 -10.1140    224.7447    207.4098   9.1024591202e+01   2.1756703160e-01    0.2961036    0.1458907 -36.22  0.001509777    2.391    0.582
        75 -10.2044    222.7481    200.6032   9.0228050976e+01   1.3327454422e+00    0.3269406    0.2215859  52.24  0.001510467    1.796    0.443
        76  -9.3750    183.0633    206.4577   9.8151508089e+01   7.2566034818e+00    0.1967551    0.1592409 -13.03   0.00129293    1.446    0.309
        77  -9.8360    202.3603    204.0016   9.4314345583e+01   4.3127330657e+00    0.2389497    0.1411003 -34.67 0.0008539499    1.977    0.494
        78  -9.8430    197.4256    203.3890   9.5089773870e+01   5.2260694854e+00    0.2457404    0.1437234 -29.48  0.001265294    2.037    0.509
        79  -9.9195    187.0619    202.8991   9.6875214603e+01   7.0596377985e+00    0.2518034    0.1708751 -61.03  0.001383267    2.412    0.585
        80  -9.9133    172.8849    203.6335   9.9588923861e+01   9.3892375075e+00     0.205816    0.1820288 -55.43 0.0007432575    1.438    0.305
        81  -9.1114    178.5122    203.4977   9.8529865656e+01   8.4431912731e+00    0.1254296    0.1024462  35.80 0.0008105655    1.002    0.002
        82 -10.0323    215.5140    197.4595   9.0933822415e+01   2.9181380534e+00    0.3492664    0.1150468 -38.12  0.001481299    3.502    0.714
        83  -9.7105    215.1986    186.9010   8.9149627222e+01   4.3124211903e+00    0.2369329    0.1623169 -39.73 0.0007372556    1.758    0.431
        84 -10.0351    202.0841    197.0272   9.3219574693e+01   5.2629329263e+00    0.2538146    0.1817761 -32.14  0.001224433    1.600    0.375
        85  -9.5553    176.4707    197.4638   9.7969983082e+01   9.6599886036e+00    0.2156552    0.1264426 -43.72 0.0009263408    2.050    0.512
        86 -10.2835    184.8391    194.8252   9.5989667253e+01   8.5714128609e+00    0.3141784    0.1346653 -39.02   0.00145463    2.750    0.636
        87  -9.4180    219.1394    194.4153   8.9786351228e+01   2.6835371736e+00    0.1727613    0.1665012  17.46 0.0009943413    1.342    0.255
        88  -9.6478    209.2910    194.2701   9.1476274581e+01   4.3813916686e+00     0.243031    0.1658565 -22.28  0.001180764    1.625    0.385
        89  -9.2115    198.6574    190.5574   9.2741026615e+01   6.7300733755e+00    0.1987273    0.1183831 -36.56  0.001076934    1.920    0.479
        90  -9.4393    172.5732    190.3007   9.7558479123e+01   1.1415436894e+01    0.2145405    0.1273623 -47.34  0.001131216    2.037    0.509
        91  -9.7635    210.4162    187.8030   9.0152484149e+01   5.0305568068e+00    0.2857338    0.1230685 -35.71  0.001332791    2.588    0.614
        92 -10.0085    210.7192    181.8850   8.9036826689e+01   5.7672145039e+00    0.4548246    0.1835198 -24.51  0.001737555    3.759    0.734
        93 -10.3726    210.5258    175.8549   8.7957932121e+01   6.6260799904e+00    0.3254717    0.1898406 -44.64 0.0008920803    2.149    0.535
        94  -9.8380    220.3427    187.1449   8.8298079218e+01   3.3890175592e+00    0.2229661    0.1514065 -22.19 0.0008346849    1.560    0.359
        95  -9.5178    217.8049    182.6186   8.7920203112e+01   4.4136555207e+00    0.2203714    0.1733934 -21.27  0.001242424    1.336    0.252
        96 -10.4579    219.0389    177.4271   8.6744609335e+01   4.8780865664e+00    0.3858316    0.1824162 -29.77  0.001269458    2.299    0.565
        97  -9.6887    189.8593    184.5089   9.3313684120e+01   9.1613000253e+00    0.2180678    0.1846161 -39.87 0.0009117195    1.396    0.284
        98  -9.8588    190.6984    179.3252   9.2238852304e+01   9.7697285097e+00     0.297391    0.1488285 -42.86  0.001233096    2.325    0.570
        99 -10.1353    166.1161    186.6555   9.8208779535e+01   1.3140458075e+01    0.2016892    0.1812514 -69.97  0.001015094    1.373    0.272
       100  -9.1148    173.7701    184.9863   9.6449194409e+01   1.2015511875e+01    0.1545266    0.1098593 -40.00 0.0008733355    1.627    0.385
       101 -10.1391    197.5327    182.1837   9.1479938987e+01   8.1028705063e+00    0.3388836    0.1466413 -42.59  0.001345941    2.733    0.634
       102  -9.9734    197.5170    176.4814   9.0448209268e+01   8.9275932271e+00    0.2945774     0.169194 -41.29 0.0009794895    1.997    0.499
       103  -9.7097     77.6741    185.8285   1.1607986760e+02   2.7780377776e+01    0.1888398    0.1488148  43.92  0.000577693    1.289    0.224
       104  -9.4950    183.1218    182.1479   9.4171452708e+01   1.0741217627e+01    0.1980947    0.1649383  17.88 0.0007324689    1.187    0.157
       105  -9.4623    176.7606    181.4438   9.5267961766e+01   1.2017797186e+01    0.2477182    0.1587519 -56.12  0.001268329    2.136    0.532
       106  -8.7789    214.7424    176.6363   8.7352717053e+01   5.7547537436e+00    0.1309092   0.08946753   7.37 0.0003758607    1.631    0.387
       107 -10.1301    188.1803    171.9045   9.1359375384e+01   1.1360780334e+01    0.3229147    0.1848456 -39.46  0.001544688    1.947    0.486
       108 -10.1528    205.4241    169.3139   8.7640669608e+01   8.4943365484e+00    0.4172351     0.217533 -48.69  0.001865107    2.674    0.626
       109  -9.2819    200.9855    171.0182   8.8783480081e+01   9.0791879654e+00    0.2119467    0.1480042  10.75 0.0008426025    1.650    0.394
       110 -10.6025    218.6487    167.6515   8.4942699898e+01   6.2685662357e+00    0.3550816    0.2380968 -30.20  0.001414026    1.559    0.359
       111  -9.3744    211.9121    169.1177   8.6426273434e+01   7.3110162068e+00    0.1821301    0.1793768 -28.27 0.0009247251    1.294    0.227
       112 -10.8935    212.6569    161.3987   8.4771475148e+01   8.2697828414e+00     0.692629    0.2296419 -37.20  0.002651667    3.166    0.684
       113  -9.9193    215.9717    156.0069   8.3082422426e+01   8.4125060189e+00    0.2981683    0.1918732 -35.59 0.0009931388    1.639    0.390
       114  -9.5163    179.5804    168.8033   9.2446691762e+01   1.3486381525e+01    0.1791272    0.1299103 -52.97 0.0009556959    1.705    0.414
       115  -9.8766    199.2222    164.7400   8.7901090670e+01   1.0346406684e+01    0.3266105    0.1777328 -35.75    0.0011257    1.983    0.496
       116 -10.0270    191.2646    165.2683   8.9509761221e+01   1.1797343327e+01    0.3315344    0.1818274 -30.94  0.001357509    2.081    0.520
       117 -10.4273    205.2692    161.2412   8.6085685021e+01   9.7070103087e+00    0.4006839    0.2413451 -42.37   0.00200295    1.895    0.472
       118  -9.0190    172.3171    163.6729   9.2924784085e+01   1.5731630271e+01    0.1340177    0.1074872  79.71  0.000617942    1.676    0.403
       119  -9.1598    165.4509    167.5203   9.5030641572e+01   1.6405622599e+01    0.1358175    0.1217103  41.71 9.628155e-05    1.022    0.021
       120  -9.7253    158.4964    159.9942   9.5067449291e+01   1.9056896720e+01    0.1984559    0.1386067 -45.90 0.0006931318    1.581    0.367
       121  -9.7900    197.0855    156.6100   8.6682127092e+01   1.2007949436e+01    0.2710927    0.1992028 -22.13  0.001461184    1.468    0.319
       122  -9.8618    187.5909    155.3296   8.8250626641e+01   1.4097646503e+01    0.3423546    0.1347691 -39.02  0.001341384    2.734    0.634
       123 -10.0397    205.5190    153.8992   8.4546079037e+01   1.0759940047e+01    0.2675828    0.2328278 -33.57  0.001122009    1.260    0.206
       124  -9.5632    202.5067    151.4915   8.4605496870e+01   1.1725611799e+01    0.3367146    0.1756379 -37.93  0.001533761    2.023    0.506
       125  -9.4739    192.6922    153.4555   8.6877019248e+01   1.3379463416e+01    0.2354576    0.1261372 -35.88  0.001067927    1.994    0.499
       126 -10.0885    191.1231    148.0367   8.6051027963e+01   1.4571780902e+01    0.3685944    0.2064216 -56.12  0.001497985    2.796    0.642
       127 -10.5331    232.7629    247.3546   9.5742811257e+01  -5.0496955373e+00    0.3639447    0.2370409 -27.25  0.002296766    1.884    0.469
       128  -9.8805    157.4069    153.1866   9.3988960273e+01   2.0497497965e+01    0.1931573    0.1335502 -59.22 0.0009480368    1.758    0.431
       129  -9.8014    214.2721    142.5761   8.0545044410e+01   1.0724508526e+01     0.272911    0.1767349 -42.19 0.0008535563    1.713    0.416
       130 -10.0782    211.9231    150.8384   8.2735768280e+01   9.9572781531e+00    0.2955514    0.1905388 -24.17 0.0007801414    1.634    0.388
       131 -10.0461    215.1947    148.1638   8.1581543599e+01   9.7084850657e+00    0.3687345    0.1790675 -38.92  0.001524622    2.176    0.540
       132  -9.4515    176.2900    151.6265   8.9747763131e+01   1.6987735499e+01    0.1379727     0.111831 -86.44 0.0004877932    1.724    0.420
       133  -9.1219    196.3929    150.2299   8.5496730343e+01   1.3149743645e+01    0.1854609     0.130025 -45.54 0.0009427392    1.634    0.388
       134 -10.3846    207.9274    146.0415   8.2446171276e+01   1.1476763685e+01    0.5394136    0.2224812 -35.48  0.002183605    2.496    0.599
       135  -9.2988    200.5098    145.0436   8.3613133732e+01   1.3136227614e+01    0.2056216    0.1361574 -34.33  0.000940545    1.568    0.362
       136  -9.9603    155.8488    144.0235   9.2479213421e+01   2.2502392682e+01    0.2303095    0.1665343 -76.27 0.0009328562    1.984    0.496
       137  -8.4691    194.0000    142.9839   8.4411426081e+01   1.4804837231e+01    0.2202592   0.08013599 -37.27 0.0007929712    2.877    0.652
       138  -9.9477    182.1485    142.2010   8.6580184892e+01   1.7398260121e+01    0.3626509    0.2120047 -56.62   0.00152176    2.450    0.592
       139  -9.1212    203.6001    140.9059   8.2133713288e+01   1.3155397938e+01    0.1897362    0.1276146 -47.08 0.0009219794    1.741    0.426
       140  -9.6747    198.0512    140.2188   8.3029783034e+01   1.4413185042e+01    0.2874044    0.2141634 -82.24  0.001329317    2.308    0.567
       141  -9.6153    198.6676    136.5076   8.2089100448e+01   1.4884177708e+01    0.2881116    0.1901914 -43.58  0.001012559    1.657    0.396
       142 -10.0845    198.1201    131.6346   8.1091107715e+01   1.5793245241e+01    0.3234955    0.2021402 -35.74 0.0009072942    1.634    0.388
       143  -9.7633    166.5717    140.5936   8.9452922560e+01   2.0930045452e+01    0.2843857    0.2114356 -87.88  0.001323508    2.048    0.512
       144  -8.6743    187.2620    140.3634   8.5158819249e+01   1.6641572575e+01    0.1445626    0.1077712   4.14 0.0006980972    1.638    0.390
       145 -10.2108    218.6910    137.8778   7.8728130207e+01   1.0535057672e+01    0.3408808    0.2423287 -26.30  0.001228277    1.395    0.283
       146  -9.9406    172.8085    138.2339   8.7629911346e+01   2.0049249424e+01    0.3692259    0.2493493 -69.10  0.001603302    2.344    0.573
       147 -10.3217    207.9245    136.6603   8.0392862242e+01   1.2926919450e+01    0.5748001     0.219667 -45.47  0.002022836    3.322    0.699
       148  -9.5316    192.9106    136.6528   8.3228962238e+01   1.6073247638e+01    0.2502026    0.1783904 -47.61  0.001170575    1.594    0.373
       149  -9.4171    163.1665    136.1702   8.9220925877e+01   2.2453350161e+01    0.1982676    0.1738073 -83.13 0.0006685282    1.356    0.262
       150 -10.2441    224.4885    133.4553   7.6735342857e+01   1.0014994325e+01    0.4000739    0.3058034  68.06  0.002097165    1.784    0.439
       151 -10.0968    220.7890    128.9688   7.6356383260e+01   1.1435934090e+01    0.2977104    0.2387189 -46.81  0.001109123    1.444    0.307
       152 -10.2138    179.7486    132.7211   8.4967682151e+01   1.9548615748e+01    0.2882692    0.2007727 -48.88  0.001081632    1.606    0.377
       153 -10.4239    143.0008    131.7469   9.2749027132e+01   2.7491415795e+01    0.2651064     0.190197 -63.63  0.001184677    1.642    0.391
       154 -10.4148    137.2285    131.9561   9.4134791103e+01   2.8618777536e+01     0.279041    0.1311034 -54.15 0.0008684316    2.428    0.588
       155  -9.5896    187.7436    135.7551   8.4042470390e+01   1.7317990705e+01    0.2774487    0.1885568 -44.13 0.0008505101    1.593    0.372
       156  -9.5378    172.1526    129.9734   8.5916608445e+01   2.1673725528e+01    0.2371824    0.1697085 -68.98 0.0007496769    2.005    0.501
       157  -9.3804    211.9831    128.9422   7.7904780744e+01   1.3279183680e+01      0.21679    0.1732634 -65.34  0.001078109    1.729    0.422
       158  -9.2955    186.3017    129.0000   8.2790758299e+01   1.8780072821e+01    0.2061769    0.1836911 -34.58 0.0007522141    1.166    0.142
       159  -9.1748    169.3776    135.7235   8.7796979902e+01   2.1225211609e+01    0.1891797    0.1480138 -58.26 0.0004898733    1.500    0.333
       160 -10.0770    199.7100    125.8997   7.9461454566e+01   1.6389396391e+01    0.3499035    0.2261428 -53.32  0.001018042    1.983    0.496
       161  -9.9587    179.6610    124.8034   8.3153609999e+01   2.0962632592e+01    0.3289134    0.2215418 -50.97  0.001525399    1.701    0.412
       162  -9.1981    217.4736    125.0540   7.6030868931e+01   1.2719718394e+01    0.2106872    0.1341246 -31.40 0.0006066931    1.543    0.352
       163 -10.0159    146.5742    124.7940   9.0369408274e+01   2.8128818897e+01    0.2074003    0.1402991 -57.13  0.000949237    1.673    0.402
       164  -9.7720    169.6462    123.8816   8.5030375484e+01   2.3329620764e+01    0.2130479    0.1352568 -49.99 0.0009444487    1.755    0.430
       165  -9.5794    212.6599    122.4803   7.6278531319e+01   1.4140301803e+01     0.327042    0.2005245 -27.25  0.001358577    1.653    0.395
       166 -10.6427    212.8798    116.4163   7.4794402863e+01   1.5039363124e+01    0.5032328    0.1934386 -46.12  0.001693037    3.346    0.701
       167  -9.1135    203.1580    121.2175   7.7708080434e+01   1.6400680717e+01    0.1960062    0.1695542 -56.18 0.0006615915    1.359    0.264
       168  -9.3851    194.0514    121.0126   7.9384170142e+01   1.8438896833e+01    0.2242787    0.1789409 -68.30 0.0006351824    1.662    0.398
       169  -9.6390    157.5033    120.0032   8.6760089286e+01   2.6717862585e+01    0.2115805    0.1287005 -64.99 0.0008104076    2.535    0.605
       170 -10.8939    140.7287    118.9790   9.0385218466e+01   3.0520447966e+01     0.347492    0.1774647 -58.86   0.00128298    2.650    0.623
       171  -9.2388     19.0349    119.2436   1.2259751604e+02   4.8543560457e+01    0.1291983   0.09921043  33.61  0.000483753    1.552    0.356
       172 -13.2246    234.8056    204.5557   8.8884450182e+01  -1.0628874129e+00     2.008357     1.079221 -39.24   0.01124416    2.396    0.583
       173  -9.6831    191.5522    114.3204   7.8239208875e+01   2.0128355184e+01    0.2754124    0.1392433 -40.30 0.0007998431    2.007    0.502
       174  -9.6225    185.9973    114.7918   7.9450028132e+01   2.1303764157e+01    0.2777392    0.1847915 -49.09  0.001262968    1.681    0.405
       175  -9.2212    181.0000    114.9618   8.0499992051e+01   2.2405073305e+01    0.2417877   0.08489488 -37.46 0.0007964114    2.901    0.655
       176  -9.3477    153.3144    115.6344   8.6649093106e+01   2.8478048498e+01    0.1555204    0.1193245 -83.40 0.0007039155    1.768    0.434
       177  -8.9843     70.7110    115.3107   1.0786010945e+02   4.3808062313e+01    0.1354774   0.09634227  78.68 0.0002346805    1.581    0.367
       178  -9.4010    194.5951    113.3105   7.7401752867e+01   1.9611146088e+01    0.2882786    0.1347675 -40.50  0.001124446    2.170    0.539
       179  -9.3463    173.5139    114.0874   8.1834149073e+01   2.4256714348e+01    0.2252024    0.1474239 -39.94 0.0008873487    1.559    0.359
       180  -8.9367    208.3677    113.1395   7.4802688999e+01   1.6549887990e+01     0.208135    0.1281109 -42.43 0.0007736737    1.699    0.411
       181  -9.5241    168.4079    112.2032   8.2449872854e+01   2.5758628014e+01    0.2158872    0.1403209 -49.72 0.0009502125    1.685    0.407
       182 -13.7816    248.7164    125.9745   7.1135987177e+01   6.2813721768e+00     4.317676    0.2600181 -32.83  0.009092718    9.309    0.893
       183  -9.4359    188.0562    123.0410   8.1042459080e+01   1.9419569268e+01    0.2290821     0.183808 -76.53  0.001122674    1.708    0.415
       184  -9.7610    176.8779    110.5628   8.0246700993e+01   2.4126664813e+01    0.3103693    0.1949641 -54.74  0.001314171    1.964    0.491
       185  -9.5021    155.3818    110.2306   8.4833796856e+01   2.9066699982e+01    0.2129306    0.1402464 -51.64 0.0007621402    1.655    0.396
       186 -10.8262    133.9292    109.8088   8.9813006963e+01   3.3819114439e+01    0.2891116    0.1981128 -74.68  0.001232836    2.084    0.520
       187  -9.4703    218.0859    108.9983   7.2086755857e+01   1.5046803180e+01    0.2537354     0.212467  76.84  0.001343903    1.505    0.335
       188  -9.0830    201.3797    109.2023   7.5101352613e+01   1.8754868498e+01    0.2142932    0.1311292 -43.48 0.0009459211    1.717    0.418
       189  -9.6366    189.8522    107.3076   7.6810132699e+01   2.1711176679e+01     0.525723    0.1833696 -32.94  0.001714462    3.070    0.674
       190  -9.6106    183.1169    108.6911   7.8496701343e+01   2.3025041170e+01    0.2762041    0.1930048 -45.56  0.001274716    1.510    0.338
       191 -10.1729    160.7042    108.0807   8.3089228056e+01   2.8278131986e+01    0.3244666     0.176605 -43.59  0.001129815    1.880    0.468
       192  -9.7275    205.6627    105.2308   7.3321953143e+01   1.8424423663e+01    0.2618235     0.219434 -50.19  0.001121319    1.312    0.238
       193  -9.4065    213.5183    104.9453   7.1865805062e+01   1.6690486266e+01    0.2229545    0.1388807 -31.17 0.0006817025    1.561    0.359
       194  -9.2980    218.3876    104.1950   7.0848610531e+01   1.5716181596e+01    0.2097822     0.125336 -41.39  0.000941504    1.704    0.413
       195 -10.6088    141.0173    103.5134   8.6478824397e+01   3.3573417185e+01    0.3317243    0.1872417 -60.20  0.001260088    2.417    0.586
       196  -9.8506    119.4918    103.9916   9.2029244444e+01   3.8003378547e+01    0.2122723    0.1284684 -70.88 0.0008103522    2.534    0.605
       197  -9.4600    200.8156    103.0741   7.3653861160e+01   1.9886214987e+01    0.2248165    0.1962299 -51.76 0.0006160428    1.253    0.202
       198  -9.1320    195.1971    102.9620   7.4670697126e+01   2.1206631637e+01    0.2003174    0.1153364 -34.45 0.0006067728    1.722    0.419
       199  -9.9318    150.2341    103.2214   8.4212525863e+01   3.1581385105e+01    0.2498661    0.1169551 -50.99 0.0008906205    2.484    0.597
       200 -10.0616    166.9756    100.2736   7.9669936950e+01   2.8289759343e+01     0.345949    0.2031378 -46.24  0.001273021    1.792    0.442
       201  -9.9846    160.1883    100.1366   8.1123621148e+01   2.9895864240e+01    0.3682916    0.1944007 -45.85  0.001461776    1.979    0.495
       202  -9.1365    209.4031     99.6810   7.1248290584e+01   1.8452282598e+01    0.2780282    0.1325506 -36.81  0.000881322    2.023    0.506
       203 -11.2493    211.8484     94.1410   6.9400855301e+01   1.8755981896e+01    0.9997674    0.4480969 -53.48  0.003161473    3.832    0.739
       204  -9.6798    215.4971     94.4766   6.8873855885e+01   1.7861730829e+01    0.2812115    0.1793204 -34.73 0.0007574644    1.505    0.335
       205 -12.4184    244.5392    154.5929   7.7946114191e+01   3.2893149805e+00     1.274366    0.4302823 -39.38  0.004949388    3.363    0.703
       206  -9.6779    202.6385     97.7243   7.1941659178e+01   2.0332118141e+01    0.3091354    0.1717607 -39.91  0.001105087    1.790    0.441
       207  -9.6987    194.9812     97.5145   7.3292083962e+01   2.2163954618e+01    0.2966917    0.2010662 -48.89    0.0011559    1.624    0.384
       208 -10.6227    128.9824     97.9913   8.8016955388e+01   3.7296169125e+01    0.2442992    0.1881011 -86.05  0.001134873    1.705    0.413
       209  -9.3214    207.0902     94.4632   7.0303306986e+01   1.9813268275e+01    0.2460015    0.1929459 -52.62 0.0008770231    1.420    0.296
       210  -9.6164    164.4906     94.0934   7.8534700757e+01   3.0010135078e+01    0.2403335    0.1509835 -37.92  0.001035836    1.600    0.375
       211  -9.4147    177.3733     93.2514   7.5587961845e+01   2.7086894202e+01    0.2251304    0.1371624 -45.35 0.0009483112    1.718    0.418
       212 -10.1610    157.9987     90.4859   7.8967161306e+01   3.2214246086e+01    0.3148754    0.2096702 -53.76  0.001366165    1.707    0.414
       213  -9.3893    153.3246     95.6576   8.1466324874e+01   3.2334517550e+01    0.1589245    0.1221512 -79.20  0.000705089    1.733    0.423
       214 -11.1091    151.0306     88.1850   7.9906796463e+01   3.4288028782e+01    0.3507704    0.2184055 -43.99  0.001511565    1.625    0.385
       215 -10.0977    125.1495     88.7619   8.6476849671e+01   4.0002993678e+01    0.2557862    0.1682003 -85.91  0.000887581    2.836    0.647
       216  -9.7245    213.4935     87.1939   6.7311583620e+01   1.9443805710e+01     0.497467    0.2159779 -52.25  0.001584374    3.642    0.725
       217  -9.7601    188.3448     86.9548   7.1698196691e+01   2.5511673335e+01    0.3004303    0.2031195 -38.19 0.0009883137    1.464    0.317
       218  -9.3300    197.6392     86.5578   6.9871876363e+01   2.3323590320e+01    0.2639971    0.1391009 -33.59  0.001070214    1.852    0.460
       219  -9.6257    163.8653     86.9188   7.6662110863e+01   3.1466425075e+01    0.2837753    0.2060841 -42.20 0.0009307401    1.389    0.280
       220  -9.2485    217.8362     84.5525   6.5913952222e+01   1.8826060848e+01    0.2478631    0.1558394 -34.47 0.0007549281    1.509    0.337
       221  -9.5833    206.0806     84.6945   6.7889332566e+01   2.1588394679e+01    0.2731861    0.1891868 -41.28  0.001045782    1.438    0.304
       222  -9.3745    178.8313     84.9989   7.3002998813e+01   2.8163993632e+01    0.2578994    0.1676927 -58.28  0.001068818    1.956    0.489
       223  -8.9503    200.4471     83.1911   6.8456000511e+01   2.3182424082e+01    0.2125672    0.1333253 -44.41 0.0007211681    1.643    0.391
       224  -9.2018    185.4815     82.9654   7.1132928836e+01   2.6875934289e+01    0.2356412    0.1486055 -34.04 0.0007213817    1.568    0.362
       225 -10.2299    159.0535     81.8115   7.6241992484e+01   3.3552021238e+01    0.4181286    0.2116951 -42.32  0.001620071    1.990    0.497
       226  -9.5538    210.6139     71.7580   6.3628461400e+01   2.2463016776e+01    0.2984301    0.1291292 -35.59 0.0008177933    2.151    0.535
       227  -9.0657    209.7913     81.0047   6.6274442769e+01   2.1268810698e+01    0.2893529    0.1814645 -39.40  0.001309258    1.554    0.356
       228  -9.8919    211.0165     76.4819   6.4852593293e+01   2.1659643231e+01    0.3699253    0.2011295 -27.13  0.001033839    1.847    0.459
       229  -8.5233    214.6845     80.3123   6.5295060166e+01   2.0205439409e+01    0.1502664    0.1119142 -63.22 0.0007033578    1.639    0.390
       230 -10.1705    150.8151     79.5220   7.7428003328e+01   3.5953972163e+01    0.3227983    0.1944257 -52.18  0.001316145    1.902    0.474
       231  -9.8105    200.9700     77.7900   6.6880579568e+01   2.3903817426e+01    0.3541724    0.1729031 -46.56  0.001343399    2.260    0.558
       232  -8.8311    179.6857     79.7117   7.1330315060e+01   2.8849981940e+01    0.1563437    0.1179762  20.84 0.0004611847    1.587    0.370
       233 -10.3714    166.8551     77.8340   7.3388411435e+01   3.2347665974e+01    0.3533251    0.2132889 -40.06  0.001358776    1.652    0.394
       234  -9.7929    119.3292     79.6686   8.5388374566e+01   4.3085350554e+01     0.154343    0.1197249 -83.28 0.0003029884    1.717    0.417
       235  -8.8990    206.5452     78.4932   6.6131383461e+01   2.2436043743e+01    0.1479854    0.1422168 -35.08 0.0008086286    1.037    0.035
       236  -9.2834    188.7995     78.0266   6.9114925355e+01   2.6868291452e+01     0.212127    0.1186882 -32.87 0.0008645384    1.763    0.433
       237  -9.8076    174.4873     77.5469   7.1735268046e+01   3.0505166324e+01    0.3181607    0.1491569 -35.33  0.001090514    2.104    0.525
       238 -11.0571    130.2592     77.8135   8.1933203901e+01   4.1060723507e+01    0.2816371    0.1869524 -43.63  0.001208883    1.496    0.332
       239  -9.4502    183.5083     77.0625   6.9831376638e+01   2.8340626977e+01    0.2345925    0.1482776 -34.98 0.0009040577    1.559    0.358
       240  -9.6795    157.2409     75.5131   7.4770243649e+01   3.5121230548e+01    0.3009523     0.216213 -35.76  0.001121843    1.393    0.282
       241  -9.4770    206.2901     73.9086   6.4915689014e+01   2.3196945234e+01    0.3125289    0.2193584 -68.12  0.001399784    1.871    0.466
       242 -10.0480    189.6165     73.2501   6.7601999089e+01   2.7431858716e+01    0.3790986    0.2298533  23.91  0.001454665    2.423    0.587
       243  -9.1706    184.8582     72.8342   6.8355249176e+01   2.8691209784e+01    0.2102441    0.1793397 -61.38 0.0006813349    1.284    0.221
       244 -10.6953    163.4911     71.6764   7.2254146341e+01   3.4244803262e+01    0.4608248    0.2530537 -43.10  0.001854421    1.858    0.462
       245  -9.5660    150.4840     72.4579   7.5359536191e+01   3.7314414179e+01     0.285683    0.1341466 -46.57  0.001028518    2.318    0.569
       246  -9.3017    194.0000     76.9023   6.7852737150e+01   2.5760252694e+01    0.2475297   0.08507349 -32.04 0.0007914628    2.867    0.651
       247  -9.0226    135.2919     78.3328   8.0810520687e+01   3.9818741726e+01    0.1549092     0.121262   5.09 0.0004927844    1.633    0.388
       248  -9.6586    170.5002     70.4682   7.0439175321e+01   3.2692498372e+01    0.3161696    0.1496173 -34.67  0.001184515    2.087    0.521
       249  -9.5562    135.3158     71.6589   7.8744041515e+01   4.1073804651e+01    0.1579644    0.1212663 -74.71 0.0007048214    1.707    0.414
       250  -9.2636    214.4292     69.9318   6.2535836318e+01   2.1803882940e+01    0.3027228    0.1605421 -43.03 0.0008789432    1.882    0.469
       251  -9.2781    212.4795     66.0296   6.1763897467e+01   2.2846212413e+01    0.2935278     0.131276 -35.04 0.0008563872    2.073    0.518
       252  -9.5179    157.0111     69.7834   7.3068912353e+01   3.6181770635e+01    0.2918594    0.1888334 -47.42  0.001139366    1.639    0.390
       253 -10.3447    187.4763     68.5552   6.6628389227e+01   2.8712175675e+01    0.3103379    0.1474738 -32.32 0.0008526839    2.066    0.516
       254 -10.2886    182.5025     62.0189   6.5589344354e+01   3.0996613183e+01    0.3033004    0.1386076 -36.70  0.001102407    2.108    0.526
       255  -9.8934    122.4021     68.2261   8.0997316149e+01   4.4656992473e+01    0.2169408    0.1382645 -49.05 0.0009463373    1.644    0.392
       256  -9.4449    203.3155     66.4318   6.3312748896e+01   2.5054177935e+01     0.273267    0.1609505 -47.52  0.001158376    1.804    0.446
       257  -9.9942    138.6245     66.7775   7.6372625999e+01   4.1188426165e+01     0.227662    0.1378578 -45.96 0.0009530567    1.716    0.417
       258 -10.3588    163.8325     65.0359   7.0139298421e+01   3.5276987297e+01    0.3225983    0.1981449 -37.47   0.00113755    1.614    0.380
       259  -9.2562    197.1849     64.1485   6.3666219502e+01   2.6933455800e+01    0.2163614    0.1726566 -58.82 0.0009399017    1.369    0.270
       260  -9.4708    171.0107     63.9988   6.8366635153e+01   3.3623736349e+01    0.2512019    0.1863745 -66.39  0.001129642    1.660    0.398
       261  -9.9577    111.6096     63.8515   8.2551718982e+01   4.7830939316e+01    0.2214458    0.1334906 -50.43  0.000950493    1.775    0.437
       262  -9.8170    197.3646     59.2479   6.2217422535e+01   2.7613280981e+01    0.3575812    0.2296797  88.81 0.0008001439    2.173    0.540
       263  -9.7779    191.4721     59.4781   6.3260474128e+01   2.9083239755e+01     0.516361    0.2012473 -43.81  0.001760968    2.706    0.630
       264  -9.9920    218.3881    246.8573   9.7936561868e+01  -2.9629087149e+00    0.2997269    0.1695537 -32.14  0.002013299    2.233    0.552
       265  -8.6687     25.6826     60.2733   1.1112809905e+02   6.1319687604e+01    0.1137454   0.08812313  76.63 0.0001881143    1.565    0.361
       266  -9.8730    223.1168    226.2716   9.4251126478e+01  -1.5914826552e+00    0.2187536    0.1557053 -20.99   0.00112619    1.589    0.371
       267  -9.2069    152.6083     66.2262   7.2929869825e+01   3.7886270032e+01    0.2163252    0.1491547 -22.17 0.0008566321    1.613    0.380
       268  -9.9559    182.3464     67.4985   6.7255635020e+01   3.0178609616e+01     0.376939    0.2414553 -26.85  0.001544505    1.614    0.380
       269  -9.6971    193.8510     67.6529   6.5241803692e+01   2.7243051942e+01    0.2592745    0.2079215 -18.66 0.0007132517    1.300    0.231
       270  -9.3761    175.5806     55.7349   6.4933551458e+01   3.3742454329e+01    0.2200175    0.1373767 -41.99 0.0009435511    1.616    0.381
       271  -9.7428    157.7270     55.7376   6.8448802665e+01   3.8338001874e+01     0.276002    0.1920982 -27.66  0.001147203    1.477    0.323
       272 -10.0014    139.5982     54.8086   7.2174146828e+01   4.3027976082e+01    0.2260444    0.1372686 -43.98 0.0009549941    1.707    0.414
       273 -10.9887    230.0567    236.1322   9.4583166770e+01  -3.6152828160e+00    0.3473583    0.2650796 -48.67  0.001727898    2.305    0.566
       274 -10.7445    152.8125     52.7397   6.8501221208e+01   4.0064160167e+01    0.3440716    0.2642774 -21.71  0.001647832    1.370    0.270
       275  -9.0532    185.4837     52.9653   6.2321922698e+01   3.1585483065e+01    0.2347304    0.1478004 -30.37 0.0007634124    1.577    0.366
       276  -9.5612    178.4976     50.4521   6.2757738485e+01   3.3769550816e+01    0.2764223    0.1255686 -40.93  0.001023842    2.199    0.545
       277 -10.4660    157.9688     61.8194   7.0358727500e+01   3.7289786772e+01    0.4068773    0.2113088 -38.99  0.001255096    1.907    0.476
       278  -9.0266    172.5409     50.5037   6.3848413964e+01   3.5315751737e+01    0.1506122    0.1485201 -70.84 9.784091e-05    1.026    0.025
       279  -9.8749    225.6902    231.3919   9.4592129895e+01  -2.5050133576e+00    0.1978111    0.1539569 -34.35 0.0009268325    1.746    0.427
       280  -9.1996    158.2768     48.6375   6.5996407778e+01   3.9298623897e+01    0.1597074    0.1149507 -60.84 0.0005101181    1.667    0.400
       281  -8.9485    198.3175     47.6785   5.8675528162e+01   2.9007645667e+01    0.1578409    0.1095679 -62.23 0.0007042593    1.664    0.399
       282  -9.9276    181.4869     46.9851   6.1158023345e+01   3.3485104329e+01    0.2294769    0.1466638 -31.44 0.0007928565    1.551    0.355
       283  -9.0231    213.5015     61.9877   6.0494239513e+01   2.3174280135e+01     0.224305    0.1392766 -31.01 0.0007115406    1.539    0.350
       284 -10.4469    153.1049     59.2771   7.0590231997e+01   3.8934102296e+01    0.3756427    0.2290299 -30.26  0.001060772    1.680    0.405
       285  -8.8432    200.4689     43.4717   5.7117118976e+01   2.9019188739e+01    0.1464801    0.1414302 -61.00 9.796707e-05    1.014    0.014
       286  -9.6754     95.3827     47.1746   8.1534665379e+01   5.4257367114e+01    0.2117618    0.1268061 -47.51 0.0009520926    1.753    0.429
       287  -8.5048    204.3009     46.3229   5.7398263690e+01   2.7653861063e+01    0.1510534    0.1117236  25.23 0.0004947897    1.631    0.387
       288  -9.5239    165.2679     39.5074   6.1605173117e+01   3.8793888691e+01    0.2716717    0.1320416 -28.35 0.0009196423    2.085    0.520
       289  -8.9151    185.4470     39.5001   5.8178914804e+01   3.3468785166e+01    0.1467309    0.1451652 -82.83 0.0001081866    1.008    0.008
       290 -10.8496    168.3824     36.9570   6.0199069782e+01   3.8318714318e+01    0.4000898    0.1878518 -34.57  0.001558642    2.072    0.517
       291  -8.9085    160.6600     39.3216   6.2401040126e+01   4.0029859124e+01    0.1602728    0.1148836 -66.36  0.000705044    1.719    0.418
       292  -9.6542    146.6267     39.2095   6.5170960534e+01   4.3685616809e+01    0.2125295    0.1452079 -14.84 0.0009372416    1.652    0.395
       293 -11.4577    199.4955     34.9691   5.4738048952e+01   3.0368447036e+01    0.5955797    0.4296801 -74.07  0.002138118    1.579    0.367
       294  -9.6548    149.3554     34.0256   6.2769658204e+01   4.3705272698e+01    0.3340278    0.1417567 -27.86  0.001065667    2.401    0.584
       295  -9.3265    144.2124     35.2707   6.4273985064e+01   4.4859742422e+01    0.2416108    0.1017218 -38.60 0.0008751111    2.383    0.580
       296 -10.2078    133.4540     34.5631   6.6380064568e+01   4.7675791428e+01    0.2750217     0.147328 -14.08  0.001040214    2.450    0.592
       297 -10.4547    229.4982    228.1285   9.3493789587e+01  -2.7418564673e+00    0.2674412    0.1860868 -42.53  0.001200729    2.172    0.540
       298  -9.0398    173.2719     34.6469   5.8601807824e+01   3.7328012109e+01    0.1573607    0.1093111 -57.98 0.0003721408    1.636    0.389
       299  -9.3333    179.6800     38.1025   5.8660698396e+01   3.5176532995e+01     0.244896    0.1702086 -47.19 0.0007813452    1.492    0.330
       300  -9.5082    164.0084     32.7787   5.9571961080e+01   4.0026884810e+01    0.2235435    0.1457272 -45.44 0.0006999301    1.618    0.382
       301  -9.7038    169.9479     30.5780   5.7814540231e+01   3.8731570435e+01    0.4158028    0.2057321  -1.43  0.001302678    3.848    0.740
       302  -9.8552    216.2773     30.6410   5.1364359777e+01   2.6588361696e+01    0.1537435   0.09688322 -55.31  0.000700941    1.660    0.398
       303  -9.1066    125.6014     30.2095   6.6560574546e+01   5.0218327839e+01    0.2085914    0.1406018 -13.34 0.0008203678    1.652    0.395
       304 -10.2892    220.8650     29.1427   5.0424606961e+01   2.5613619833e+01    0.2197868    0.1770016 -53.46 0.0006613859    1.195    0.163
       305  -9.8619    173.0905     25.8307   5.5735912507e+01   3.8475687185e+01    0.5656836    0.1756473 -45.97  0.001650923    4.021    0.751
       306  -8.7967    152.6623     28.6910   6.0228776741e+01   4.3542860583e+01    0.1602923    0.1078912  31.07 0.0006736818    1.683    0.406
       307 -11.6007    208.9986     27.2402   5.1259915588e+01   2.8844056722e+01    0.4287573    0.3285833  84.77   0.00223509    1.344    0.256
       308 -10.4377    211.3636    202.3491   9.2471156184e+01   3.0092658855e+00    0.7920412    0.3732659 -53.70  0.002762008    6.407    0.844
       309  -9.4392    118.4976     24.4928   6.6017782240e+01   5.2703440163e+01    0.1446347    0.1356804  20.42 -6.046753e-05    1.001    0.001
       310  -9.3411    140.3852     21.2543   5.9885234382e+01   4.7652314115e+01    0.2102721    0.1303318 -36.27    0.0009492    1.658    0.397
       311  -9.5036    140.6159     16.7714   5.8142790588e+01   4.8109954957e+01    0.2030493    0.1308379 -34.78 0.0007506134    1.599    0.375
       312  -9.3729    155.5953     15.7681   5.5100782953e+01   4.4287287222e+01    0.2738647    0.1470358 -16.03  0.001134759    2.103    0.524
       313 -10.2840    217.1605    204.6343   9.1850274190e+01   1.7716028408e+00    0.2837814    0.1665825 -26.48  0.000970877    1.919    0.479
       314  -9.4306     29.8603     12.8902   9.3129501284e+01   7.0409192600e+01    0.1801784     0.131668 -20.58 0.0003511482    1.212    0.175
       315 -10.0484    219.8221    239.3537   9.6678709241e+01  -2.4363895443e+00    0.2408137    0.1489781 -38.33  0.001333039    2.206    0.547
       316  -8.9338    142.4875     11.4973   5.5793725074e+01   4.8190547477e+01    0.1451556    0.1347974  44.75 3.625991e-06    1.018    0.018
       317  -9.0271     42.4432     27.5527   9.3651491647e+01   6.6363754300e+01    0.1256434    0.1045683 -29.78 9.865099e-05    1.006    0.006
       318 -11.0513    216.4516    232.4900   9.6253384606e+01  -1.2340476245e+00    0.4119229    0.3010096 -19.51  0.002979605    1.579    0.367
       319 -11.2280    216.8439    222.5083   9.4719932428e+01  -2.2432250889e-01    0.3766266    0.2401775 -38.70  0.001611398    2.042    0.510
       320 -10.4628    219.3738    216.5614   9.3386370265e+01   3.8384906552e-02    0.2710768    0.2219091 -47.20  0.001308508    1.841    0.457
       321 -10.7164    217.2572    211.0594   9.2874623336e+01   1.0009944936e+00    0.3438839    0.2902113  86.90  0.002202053    2.225    0.551
       322  -9.7616    140.1699    248.7668   1.1105637611e+02   8.4346941112e+00    0.1877974   0.08300742 -60.96  0.001002264    3.586    0.721
       323  -9.9354    187.1244    246.9446   1.0301553343e+02   1.6331157837e+00    0.2080735    0.1600559 -29.86  0.001579933    1.698    0.411
       324  -9.5020    136.6974     25.0345   6.2072567758e+01   4.8134334553e+01    0.2079711    0.1805277 -13.57 0.0003994674    1.181    0.154
       325 -11.0123    175.5040    246.0159   1.0482884665e+02   3.4849948468e+00    0.4591781    0.2247468 -44.51  0.002766723    2.782    0.641
