#   1 NUMBER                 Running object number                                     
#   2 MAG_AUTO               Kron-like elliptical aperture magnitude                    [mag]
#   3 X_IMAGE                Object position along x                                    [pixel]
#   4 Y_IMAGE                Object position along y                                    [pixel]
#   5 X_WORLD                Barycenter position along world x axis                     [deg]
#   6 Y_WORLD                Barycenter position along world y axis                     [deg]
#   7 A_WORLD                Profile RMS along major axis (world units)                 [deg]
#   8 B_WORLD                Profile RMS along minor axis (world units)                 [deg]
#   9 THETA_WORLD            Position angle (CCW/world-x)                               [deg]
#  10 FWHM_WORLD             FWHM assuming a gaussian core                              [deg]
#  11 ELONGATION             A_IMAGE/B_IMAGE                                           
#  12 ELLIPTICITY            1 - B_IMAGE/A_IMAGE                                       
         1 -10.1424     62.2507     51.0006   4.8863252317e+01   6.0458467018e+01    0.5815645     0.176812 -41.14  0.001831729    3.231    0.691
         2 -10.5581     92.0751     47.5437   3.6070422230e+01   5.5423258194e+01     0.777398    0.1997292 -40.38  0.002244279    3.643    0.726
         3 -10.8714     41.0246     13.8828   4.0708065342e+01   7.0844421715e+01    0.2178983    0.1784222   6.37 0.0002741359    1.122    0.109
         4  -9.6075     97.5200     12.4602   1.8580845034e+01   5.9419186646e+01    0.2529514    0.1343248  -6.30  0.001032558    2.439    0.590
         5  -8.9962     67.5001      1.3725   2.1420086878e+01   6.7406276242e+01     0.132316    0.1125236  27.27 -0.001760534    1.047    0.044
         6  -9.8552     16.5944    237.7832   9.0758631260e+01   2.0079881820e+01    0.1526838   0.07884943  77.01 0.0007200536    1.667    0.400
         7 -10.1599     52.8610    249.5497   8.4651487698e+01   1.4131825145e+01    0.2401542    0.1310242  39.78  0.001112532    1.453    0.312
         8 -10.4005     20.3859    249.2784   9.0510664397e+01   1.7622089387e+01    0.1903106    0.1068102  75.59  0.001291952    1.526    0.345
         9 -10.1724     13.6368    250.2748   9.1725812338e+01   1.8104986315e+01    0.2067211   0.08100754  44.67  0.001249749    1.752    0.429
        10 -10.3951      4.1206    249.4563   9.3338913948e+01   1.9142838931e+01    0.2110423    0.1017479  59.62 0.0007588498    1.459    0.315
        11 -10.3815     90.1224    235.3288   7.6409159677e+01   1.2134696377e+01    0.1828662    0.1384565  22.43  0.001181139    1.459    0.314
        12  -9.8010    231.0050    234.0667   4.9615444436e+01  -6.1341716965e+00    0.1756912    0.1293167   2.11  0.001019658    1.021    0.020
        13 -10.5358     91.4490    230.4662   7.5689336865e+01   1.2839367299e+01    0.1937559    0.1854401  84.91  0.001422151    1.203    0.169
        14  -9.5241    237.3909    229.7894   4.7892841171e+01  -6.3645694435e+00    0.1569081   0.08326952 -19.95  0.000895615    1.706    0.414
        15 -11.1224    162.3895    225.2434   6.0743300184e+01   3.9269762788e+00    0.3586871    0.2461028  14.22  0.002149376    1.451    0.311
        16  -9.6568    116.6842    227.3289   7.0204244229e+01   9.9975672066e+00    0.1250523    0.0839252  59.88 0.0006608344    1.678    0.404
        17 -10.9918     87.5047    227.2225   7.6188507135e+01   1.3954315754e+01    0.2906324    0.1476353  31.74   0.00151567    1.835    0.455
        18 -11.1262     98.6545    225.3243   7.3699468588e+01   1.2826569402e+01    0.3430831    0.2065648  33.10  0.001213671    1.497    0.332
        19 -10.0499    115.3066    221.1359   6.9768155693e+01   1.1300059962e+01    0.2272293    0.1026469 -49.77   0.00108206    2.539    0.606
        20 -11.2569    126.2523    220.8112   6.7449410562e+01   9.8067469875e+00    0.2793348    0.2111135  53.96 0.0007690686    1.367    0.269
        21 -10.9018     95.5225    217.6759   7.3550991893e+01   1.4699308074e+01    0.2868534    0.2112472  80.34 0.0009590348    1.525    0.344
        22  -9.7313     74.8475    219.1777   7.8080581960e+01   1.7140171511e+01    0.2000339    0.1391754  57.52 0.0008336807    1.262    0.207
        23  -9.6872    143.5167    216.9614   6.3370141479e+01   7.9900524367e+00    0.1722745     0.125461 -50.45   0.00099442    1.572    0.364
        24  -9.7195     99.8682    217.1463   7.2568320370e+01   1.4204418652e+01    0.1944908    0.1480383  54.12 0.0005494181    1.205    0.170
        25 -10.2651    170.4975    215.2729   5.7681011473e+01   4.3501012686e+00    0.2385233    0.1951777  14.49 0.0008008659    1.060    0.056
        26  -9.4302    151.6792    216.6422   6.1655325266e+01   6.8550695130e+00    0.1297847   0.09098887  -4.18 0.0007044758    1.764    0.433
        27  -9.9689     76.8494    211.6598   7.6950595461e+01   1.8397366250e+01    0.1890797    0.1572499  20.77  0.001189949    1.422    0.297
        28 -10.3366    124.0348    205.9847   6.5973352589e+01   1.2877849795e+01    0.1842938    0.1660034  40.88  0.001168238    1.024    0.023
        29 -10.8544    165.4784    203.0567   5.6763576313e+01   7.1219088772e+00    0.2945589    0.2375451  89.56  0.001647425    2.046    0.511
        30  -9.9869    130.7003    202.6902   6.4058895497e+01   1.2506711538e+01    0.2564555    0.1664338 -84.54  0.001182504    2.634    0.620
        31 -12.3974    178.5533    197.7973   5.3245090622e+01   6.0294682342e+00    0.4945011    0.3711278  44.05  0.002874184    1.499    0.333
        32 -11.0929    125.7390    197.2831   6.4363905277e+01   1.4327479079e+01    0.3478902    0.2377919  20.25  0.001311994    1.635    0.388
        33  -9.3754    113.0149    194.2870   6.6801827250e+01   1.6891153890e+01    0.1886242    0.1636541  40.25 0.0003734564    1.073    0.068
        34  -9.4318    105.0833    197.9028   6.9099316592e+01   1.7324520678e+01    0.2009805    0.1597073 -18.56  0.001116029    1.672    0.402
        35 -11.5622    164.0363    194.7006   5.5676284741e+01   8.8170557048e+00    0.4731931    0.2561921  50.05  0.002138387    2.334    0.572
        36  -9.6989    112.9599    198.1164   6.7346014475e+01   1.6106059992e+01    0.3478226    0.2016122  69.01  0.001481731    2.727    0.633
        37  -9.9483     66.4756    194.3435   7.7562790716e+01   2.3460430041e+01    0.3283208     0.172939  73.22    0.0014828    2.294    0.564
        38 -10.1056     14.8949    193.0554   8.9121881131e+01   2.9445059759e+01    0.1737215       0.1365 -50.10  0.001123227    1.720    0.419
        39 -11.0638    204.8336    187.4305   4.6308450437e+01   3.7558513406e+00    0.5138615    0.2244897 -42.95  0.002310787    2.377    0.579
        40 -12.0807    172.8791    195.7761   5.4040769314e+01   7.2472597722e+00    0.5546259    0.2724779 -44.14  0.002141046    2.121    0.529
        41  -9.7269    148.8182    198.2224   5.9467628040e+01   1.0556661729e+01    0.2141083    0.1434305  73.28 0.0009494512    2.816    0.645
        42  -9.9967    138.9722    189.2890   6.0176565351e+01   1.3840265841e+01    0.2889875    0.1955657 -62.34  0.001178088    1.774    0.436
        43  -9.6914     21.5217    190.5016   8.7519105246e+01   2.9400204108e+01    0.1272117   0.09661162  71.38 5.235944e-05    1.031    0.030
        44 -11.3380     98.0227    188.0431   6.9420772033e+01   2.0493037203e+01    0.4720491    0.2333768  46.98  0.001016849    1.942    0.485
        45 -11.4395     94.6417    182.6297   6.9488726546e+01   2.2210839554e+01    0.4785799    0.3632099 -86.82  0.001896562    1.419    0.295
        46  -9.5687    129.3944    188.2734   6.2168105998e+01   1.5582237061e+01    0.1820388    0.1324048 -68.52 0.0006074308    1.642    0.391
        47 -10.9399     11.6772    187.3788   8.9538408536e+01   3.1025198507e+01    0.2114512    0.1748813  84.02 0.0003738437    1.144    0.126
        48 -11.7118      6.4781    185.1018   9.0580544264e+01   3.1997312200e+01    0.5423484    0.1824477  73.94  0.002244168    2.929    0.659
        49 -10.3449    109.8138    184.8619   6.6183740344e+01   1.9400999862e+01    0.3556029    0.2681503  56.19  0.001916197    1.343    0.255
        50  -9.9453    120.3890    184.6361   6.3667979905e+01   1.7784309652e+01    0.2618995    0.1362945 -61.73  0.001132438    2.205    0.546
        51  -9.1939    183.3197    184.6528   4.9947415182e+01   7.5487255366e+00    0.1246413    0.1099967  86.41 0.0007049006    1.733    0.423
        52 -10.5559    175.0255    184.0548   5.1520171750e+01   8.9869346804e+00    0.2625656    0.2229378  75.78  0.001470528    1.759    0.432
        53  -9.3263    197.4863    182.4944   4.6767756345e+01   5.6861246364e+00    0.1324637     0.115191  -6.16 0.0001092287    1.044    0.042
        54  -9.8585     44.3563    181.4689   8.1558321499e+01   2.9121406476e+01    0.3177973    0.1161537 -80.40  0.001233085    2.896    0.655
        55 -10.4960     20.1609    181.2800   8.7267260960e+01   3.1670038579e+01    0.3175136    0.1729071  88.43   0.00136576    1.590    0.371
        56  -9.2755     83.3235    181.6415   7.2103405863e+01   2.4086319491e+01    0.1502848   0.09493161  67.74 0.0007044193    1.773    0.436
        57 -10.1737    147.9583    179.9949   5.6588454614e+01   1.4231866441e+01    0.2202049    0.1735629  72.15  0.001135093    1.727    0.421
        58  -9.7444    139.0132    179.8334   5.8577603496e+01   1.5757650973e+01    0.2409139    0.1571397  61.99   0.00108531    2.123    0.529
        59 -10.9870     10.1059    180.1287   8.9517467546e+01   3.2844010961e+01    0.1774654    0.1472377 -85.50  0.000351253    1.208    0.172
        60 -10.8615     13.9477    178.3888   8.8536421696e+01   3.2919769216e+01    0.2494149    0.1567574 -77.33  0.001080088    1.418    0.295
        61 -12.0089      3.5858    177.2424   9.0863465387e+01   3.4062854637e+01     0.428139    0.3229654  85.17  0.002832087    1.085    0.078
        62  -9.6221    144.3096    198.0057   6.0401290355e+01   1.1300932405e+01    0.2102513   0.09174299 -31.64 0.0007030647    4.141    0.759
        63 -10.6094     77.8193    175.7704   7.2704801177e+01   2.6247028121e+01    0.3375313    0.1723817  60.49  0.001399617    2.323    0.570
        64  -9.4791    105.7712    175.1601   6.5681797935e+01   2.2210881777e+01    0.2499022    0.1425087  70.50 0.0009509319    2.855    0.650
        65  -9.4758     24.2325    174.4417   8.5846930638e+01   3.2917920449e+01    0.1786447   0.09838977  47.24 0.0009394735    1.633    0.388
        66 -10.0445    135.0112    171.5011   5.8027789619e+01   1.8197638973e+01    0.2684101    0.2086313 -75.89 0.0009654823    1.596    0.374
        67 -10.5319    177.4446    169.9471   4.8324847567e+01   1.1194161879e+01    0.3958972    0.3022783 -53.28  0.002101394    1.529    0.346
        68 -11.0477    122.0689    168.5049   6.0587299863e+01   2.1062231417e+01     0.558524    0.3768425 -73.27  0.002223166    1.851    0.460
        69 -10.4002    206.7399    169.4181   4.2462600373e+01   6.4289856270e+00    0.2441826    0.1541993 -43.75  0.001004946    1.653    0.395
        70  -9.2401    168.3955    169.2000   5.0083247093e+01   1.2893708357e+01    0.1957351    0.1319312 -53.97 0.0007527237    1.710    0.415
        71  -9.2498     55.3141    169.6311   7.7661641847e+01   3.0707669675e+01    0.1522964   0.08919127  67.93  0.000703657    1.776    0.437
        72 -10.7578    139.6145    165.0246   5.5739922005e+01   1.8804939483e+01    0.4272533    0.2996174  85.21  0.001836154    2.371    0.578
        73 -10.1502     99.0630    165.7264   6.5862578363e+01   2.5487621982e+01    0.3391482    0.1870174  65.25  0.001296323    2.653    0.623
        74  -9.3931     19.3066    166.6919   8.6504419305e+01   3.5272616226e+01    0.1387793   0.07697779  64.75 0.0002245214    1.611    0.379
        75 -10.2605    220.0679    165.5097   3.9263947930e+01   4.9727705163e+00     0.189881    0.1267448  34.08  0.001039243    1.609    0.379
        76 -11.0162    214.2844    164.3950   4.0062342872e+01   6.0679201680e+00    0.2743321     0.196042 -63.73  0.001268843    2.512    0.602
        77 -10.2807     80.2016    164.1949   7.0509600010e+01   2.8727106765e+01    0.3815877    0.2035039  80.04  0.001395688    2.998    0.666
        78 -10.9806    150.5434    162.8324   5.2773474008e+01   1.7336368414e+01    0.5257859    0.2742393 -28.52  0.001946141    2.780    0.640
        79  -9.6193     37.5127    164.4748   8.1708248131e+01   3.4037936430e+01    0.1377141    0.1124496  79.64 9.210297e-05    1.026    0.025
        80  -9.8692    177.7546    160.3234   4.6300964509e+01   1.2981619342e+01    0.3270128    0.1895906 -55.66  0.001243356    2.243    0.554
        81 -10.5619     93.0569    159.5744   6.6417901456e+01   2.7932251599e+01    0.4749038    0.2654959 -76.57   0.00162159    2.216    0.549
        82 -10.4826    146.8139    159.3676   5.2940795483e+01   1.8748819694e+01    0.2698603    0.2175931  48.84 0.0005736198    1.322    0.244
        83 -10.3538    142.5015    158.5137   5.3781380316e+01   1.9715153410e+01    0.2174215    0.1429764  27.46 0.0002102972    1.683    0.406
        84  -9.7000    128.4953    158.6543   5.7191094198e+01   2.2194129085e+01    0.2958969    0.2075778  88.87  0.001271794    2.155    0.536
        85 -12.0729    205.2477    154.2035   3.9573746604e+01   9.3151849269e+00    0.4669068    0.2585106 -45.70  0.001908502    1.869    0.465
        86 -10.8711    197.1980    157.3930   4.1779410807e+01   1.0124985473e+01    0.2493686    0.2207228 -78.86 0.0009908514    1.637    0.389
        87 -10.7062    188.6001    156.8675   4.3355849006e+01   1.1722057129e+01    0.3781763    0.2373133 -53.02  0.001602962    1.928    0.481
        88 -12.0989    189.0493    148.7614   4.1506844999e+01   1.3176870189e+01    0.6988972    0.3887846 -53.97  0.002889957    2.318    0.569
        89 -10.3506    167.9545    157.3085   4.7754420938e+01   1.5339033200e+01    0.3207123    0.2082442 -58.78  0.001273726    1.953    0.488
        90 -10.4221    105.3718    157.3216   6.2805525693e+01   2.6494455046e+01     0.380109    0.2688356  84.31   0.00115186    1.809    0.447
        91  -9.5778    157.8127    155.7339   4.9668389121e+01   1.7518385759e+01    0.2732946    0.1960447 -72.64  0.001149122    2.054    0.513
        92  -9.8463    119.3202    154.4497   5.8675687874e+01   2.4795453569e+01    0.3322916    0.2174149  86.73  0.001309701    2.502    0.600
        93 -10.2672     81.8472    154.2270   6.8552342673e+01   3.0990189814e+01    0.3269393    0.2028302 -84.41 0.0009791235    1.884    0.469
        94 -10.8600     68.1485    153.3758   7.2176535456e+01   3.3167595014e+01    0.4987916    0.3000416  82.55  0.001564072    1.987    0.497
        95 -10.1782     49.3209    154.2899   7.7478049188e+01   3.5322511782e+01    0.3881838    0.2017377  79.49  0.001605171    2.285    0.562
        96 -10.8868    133.4907    152.8760   5.4812799544e+01   2.2619645390e+01    0.4910741    0.3256207  77.89  0.001927594    2.612    0.617
        97 -10.1436    248.6731    153.6771   3.2150862461e+01   2.5137273768e+00    0.1329647   0.08451798  -6.60 0.0004043501    1.690    0.408
        98 -10.2469    183.5609    151.1997   4.3151138613e+01   1.3707359640e+01    0.3632163    0.2673203 -72.61     0.001661    2.221    0.550
        99  -9.7398     98.8516    151.2273   6.3433725557e+01   2.9076198202e+01    0.4557672     0.213752 -77.19  0.001312524    4.337    0.769
       100 -10.7841    200.3272    148.6269   3.9284549359e+01   1.1175947094e+01    0.2829414    0.2378927 -70.78  0.001501639    1.699    0.411
       101  -9.7138     28.2193    148.8201   8.2693723592e+01   3.8991744504e+01    0.2497959    0.1031554  64.68 0.0009484407    2.825    0.646
       102  -9.3074    142.4387    148.2333   5.1661131029e+01   2.2015982471e+01     0.218405    0.1437024 -60.43 0.0009470254    1.730    0.422
       103 -10.1567     39.4445    147.1990   7.9392011098e+01   3.8285138481e+01    0.4243762    0.1734737  62.08  0.001520942    3.142    0.682
       104 -10.7106     56.1029    145.2561   7.4404038420e+01   3.6869818866e+01    0.5883867    0.2846233  70.15  0.002116738    2.995    0.666
       105 -11.0755    106.7991    143.9022   5.9892060948e+01   2.9560282474e+01    0.7133136    0.3722685 -69.97  0.002580983    2.549    0.608
       106  -9.4936     13.3424    145.7049   8.6509935152e+01   4.1096286087e+01    0.1419162   0.07960119  63.64 0.0003232993    1.662    0.398
       107  -9.9782    165.9713    144.0010   4.5287529173e+01   1.8453366733e+01    0.2350022    0.1908972 -83.17  0.001132131    1.723    0.419
       108  -9.4540    138.3796    144.1819   5.1771994237e+01   2.3704718050e+01    0.2237523    0.1425393 -58.94 0.0009491206    1.722    0.419
       109 -10.9469    124.8569    142.0052   5.4712115893e+01   2.6763139975e+01    0.6684724     0.372085 -69.86  0.002378218    2.722    0.633
       110 -10.4002     88.0602    143.4543   6.4988815207e+01   3.2799158210e+01    0.3749458    0.2357031 -89.61  0.001534478    2.111    0.526
       111 -10.0059    182.4515    141.6344   4.1239049324e+01   1.5788763290e+01    0.3088842    0.2337103 -71.08  0.001160235    1.946    0.486
       112 -11.4134    149.2571    142.8327   4.8847240795e+01   2.1925959632e+01    0.9330943    0.4246387 -53.64  0.003358672    2.440    0.590
       113 -10.7906     68.4384    138.0888   6.9710456559e+01   3.7144043524e+01    0.5298733    0.2433993 -84.18  0.001657439    3.601    0.722
       114 -10.3234     23.4380    138.0779   8.2992882068e+01   4.2257381751e+01     0.382457    0.1486901  66.92  0.001351267    3.327    0.699
       115 -10.6306    198.0394    136.9222   3.7077613534e+01   1.3763073076e+01    0.3865122    0.2002167 -41.94  0.001663871    1.762    0.432
       116  -9.9091    172.2946    137.5892   4.2436780983e+01   1.8563487403e+01    0.3334944    0.2223216 -65.03  0.001314402    2.169    0.539
       117 -10.0321    138.4959    137.5184   5.0254784415e+01   2.5220129349e+01    0.2815981    0.1466828 -58.75  0.001028376    2.285    0.562
       118 -10.6074    188.2933    135.3794   3.8610409418e+01   1.5903775287e+01    0.3420154    0.2343968 -49.94  0.001026064    1.532    0.347
       119 -10.2078    162.5172    135.5701   4.4112437783e+01   2.0915283775e+01    0.2803186    0.1394172 -53.39  0.001028418    2.302    0.566
       120 -10.9550     40.0990    131.0059   7.7182411418e+01   4.2547352099e+01    0.3051652    0.2008873  64.59 0.0009399475    1.574    0.365
       121  -9.5546    249.3307    135.3170   2.8182088517e+01   5.2310152802e+00    0.1337686   0.08873135  -6.64 0.0007046876    1.685    0.406
       122 -10.0444    179.8362    133.2822   3.9830478708e+01   1.7964070487e+01    0.3479442    0.2010401 -52.54  0.001331518    1.948    0.487
       123 -10.0662    112.7886    132.9869   5.5956722446e+01   3.1213833790e+01    0.3550991    0.2698261  88.65  0.001167852    1.654    0.395
       124 -11.2048    111.7211    128.7342   5.5293707973e+01   3.2477056347e+01    0.5951894    0.3991809  -5.82  0.002050959    2.699    0.630
       125 -10.9944    117.0208    124.5048   5.2834014645e+01   3.2527319252e+01    0.5608982    0.3436096  65.13  0.002098602    2.421    0.587
       126 -10.2053    116.6227    120.1657   5.1889175862e+01   3.3681316678e+01    0.3799741    0.2428858 -50.17  0.001090853    1.472    0.321
       127 -11.6015     83.4371    129.4060   6.3640403745e+01   3.7214389645e+01     1.036385    0.3520952 -62.50  0.003234759    3.027    0.670
       128 -10.0473    142.9283    131.1097   4.7661362809e+01   2.5823556919e+01    0.3912951    0.2166248 -56.56  0.001432072    2.013    0.503
       129 -10.9496    131.9530    129.7746   5.0107689471e+01   2.8323265691e+01    0.7486078    0.3488757 -58.87  0.002516366    2.661    0.624
       130  -9.8210    192.7919    129.8047   3.6409760271e+01   1.6116557978e+01    0.2050917    0.1719276 -56.38 0.0008577869    1.352    0.260
       131 -10.3436    168.5362    128.8408   4.1163455266e+01   2.1138506375e+01    0.3463982    0.2469363 -53.32  0.001285366    1.476    0.323
       132 -10.5242    153.0070    128.0553   4.4495159911e+01   2.4473695378e+01    0.6594379    0.2589369 -51.90  0.002112399    2.857    0.650
       133 -11.8685     98.4797    125.1801   5.8272824681e+01   3.5792649638e+01     1.091147     0.469975 -59.79  0.003772228    2.382    0.580
       134 -10.6354    102.9851    118.5130   5.5395137037e+01   3.6695370325e+01    0.3065938    0.2612827  29.27 0.0007922042    1.308    0.236
       135  -9.8410    186.8300    128.5901   3.7286552143e+01   1.7521154203e+01    0.3047377    0.1805725 -51.05  0.001081388    1.825    0.452
       136 -10.1511     72.9866    128.5425   6.6639178982e+01   3.9046876369e+01    0.3942477    0.2334966 -89.64  0.001538227    2.268    0.559
       137 -10.1927     12.4493    128.5997   8.5329440582e+01   4.5660390260e+01    0.3577983    0.1308517  71.17  0.001229515    3.552    0.718
       138 -11.1338     59.0335    123.0602   6.9989062631e+01   4.2472784331e+01     0.758946    0.3603538  89.62   0.00230453    3.911    0.744
       139 -10.2987    180.2284    124.2900   3.7569179706e+01   1.9703166975e+01    0.3649777     0.219368 -49.75  0.001561692    1.704    0.413
       140  -9.8856    188.4829    123.5076   3.5722013523e+01   1.8192024778e+01    0.2976927      0.19811 -44.58  0.001144648    1.407    0.289
       141 -11.2950     43.1557    121.2101   7.4789657148e+01   4.4887180301e+01    0.8217859    0.3613901  87.78  0.002602297    3.692    0.729
       142 -11.1149     28.3381    121.8213   7.9655537406e+01   4.6198540464e+01    0.5395866    0.2874722  75.12  0.002333117    2.115    0.527
       143  -9.8812    105.0199    123.4880   5.5982016180e+01   3.5047479043e+01    0.2252675    0.1591471  39.10 -2.230733e-05    1.505    0.336
       144  -9.6644    172.8291    120.5847   3.8186884441e+01   2.1984453339e+01    0.3210596    0.1913365 -54.04  0.001243058    1.882    0.469
       145  -9.9433    158.4948    120.2364   4.1262902910e+01   2.5060341048e+01     0.424951    0.2127982 -47.95  0.001608619    1.937    0.484
       146 -11.0946    141.6658    117.8236   4.4670027751e+01   2.9143714582e+01    0.8923373    0.3366246 -52.74  0.002714441    3.020    0.669
       147 -10.5289     70.8120    119.1297   6.5464423370e+01   4.1903445773e+01    0.4037254    0.2041674 -73.85  0.001482167    2.312    0.568
       148 -10.6034    130.6720    117.3665   4.7371809050e+01   3.1538636870e+01    0.5934846    0.3282935 -60.12  0.002184783    2.159    0.537
       149 -10.4655      3.1185    116.9837   8.7171006494e+01   4.9363606196e+01    0.4245838    0.1544998  75.57  0.001535803    3.246    0.692
       150 -10.0207    185.9762    114.9503   3.4070802281e+01   2.0389183435e+01    0.3378219    0.1943789 -38.78  0.001447158    1.552    0.356
       151  -9.8698     12.9841    115.7394   8.3894093631e+01   4.9070502837e+01    0.1820372    0.1612348 -79.00 0.0004788705    1.128    0.113
       152  -9.6917    192.9871    113.9744   3.2479223116e+01   1.9131287049e+01     0.240822    0.1788027 -63.28  0.001044773    1.678    0.404
       153 -11.2200     79.1735    112.3028   6.1285958853e+01   4.2451814773e+01    0.6415633    0.3782198 -84.78  0.002334656    2.575    0.612
       154  -9.8872    174.6912    110.6463   3.5230409342e+01   2.3640684787e+01    0.4460641    0.1679714 -42.68  0.001506129    2.409    0.585
       155 -10.1450    159.2078    110.9048   3.8661045397e+01   2.6935292511e+01    0.3504307    0.2023772 -51.03  0.001388209    1.761    0.432
       156 -10.9174    122.1813    110.6641   4.7904204068e+01   3.4898749296e+01    0.6213562    0.2795826 -45.39  0.002188927    2.098    0.523
       157 -10.5627     18.2262    103.2451   8.0603197707e+01   5.2083796677e+01    0.3137891    0.2195169 -32.88   0.00145784    1.704    0.413
       158 -10.9491     14.6523    111.3253   8.2852915865e+01   5.0146921428e+01    0.4399426    0.1788172  64.44  0.001616524    3.229    0.690
       159 -11.3888     14.2587    106.8861   8.2459338276e+01   5.1376101664e+01     0.375721     0.292609   5.68  0.002169782    1.673    0.402
       160 -10.9697     66.1912    108.8764   6.4807874125e+01   4.5349278947e+01    0.6507185    0.2708652 -68.47  0.002179527    2.692    0.629
       161 -10.1176    133.3717    108.5502   4.4325678998e+01   3.3054851168e+01    0.4373524    0.2536322 -52.32  0.001723011    1.712    0.416
       162 -11.6738    108.8461    111.9999   5.2047147486e+01   3.7238466069e+01    0.9506198    0.3519167 -54.49  0.002978232    2.730    0.634
       163 -11.3744     92.5092    109.8140   5.6437996546e+01   4.0847100729e+01     1.090464     0.336756 -56.43   0.00316773    3.216    0.689
       164 -10.3457    139.5930    102.9315   4.1167263364e+01   3.3000784502e+01    0.6057336    0.2555581 -46.69  0.002057198    2.241    0.554
       165 -11.3378     45.5689    101.9132   7.0550696044e+01   4.9905269639e+01    0.7953755    0.3775372  69.14  0.002404173    4.401    0.773
       166 -10.5449    149.9766    100.6324   3.7974847788e+01   3.1205556059e+01    0.7928038    0.2051027 -46.38  0.002070791    3.847    0.740
       167 -11.0020     23.1210    101.6359   7.8621383037e+01   5.2148411804e+01      0.72555    0.2927104  65.88  0.002268471    4.427    0.774
       168 -10.8488    128.6630    100.0158   4.3184486420e+01   3.6061296411e+01    0.6263974    0.3168233 -40.15  0.002300875    1.939    0.484
       169  -9.3987    175.5296    101.0111   3.2474919424e+01   2.5412206791e+01    0.2538273    0.1428588 -39.45  0.001034592    1.601    0.375
       170 -11.6243    108.8111     96.8258   4.7902656956e+01   4.1011807865e+01     1.027663    0.5750559 -60.04  0.003389206    2.037    0.509
       171  -9.6352    159.5884     99.3017   3.5387936976e+01   2.9329778284e+01    0.3321439    0.1418527 -44.55  0.001147384    2.175    0.540
       172 -10.8793     81.8109     98.1357   5.6895535921e+01   4.5755646616e+01    0.6376949    0.2165744 -58.81  0.001902131    3.114    0.679
       173 -10.8144     95.0868     94.4021   5.1470968012e+01   4.4316645255e+01    0.7848499    0.2774404 -45.27  0.002461349    2.710    0.631
       174 -11.0265     63.5728     95.2290   6.2523774566e+01   4.9393075177e+01    0.5634464     0.324764 -84.37   0.00205922    2.664    0.625
       175 -10.3005     63.8095     87.7903   6.0500140507e+01   5.1321630959e+01    0.4681543    0.1810732 -37.17  0.001297227    4.293    0.767
       176 -10.4521     20.7271     93.0832   7.8171277906e+01   5.4656196169e+01    0.4621262    0.1369427 -45.25  0.001526335    3.625    0.724
       177  -9.4381    164.5800     92.7021   3.2420665557e+01   2.9562208826e+01    0.3239705    0.1477913 -35.30  0.001143429    2.144    0.534
       178 -10.2002     43.6358     92.6037   6.9322370589e+01   5.2651832968e+01    0.2357721    0.1560035 -38.99  0.001034403    1.603    0.376
       179  -9.5078    177.0000     91.9552   2.9674616970e+01   2.6876200191e+01    0.2714415   0.08241221 -38.06  0.000805433    2.963    0.663
       180 -10.4075    138.6552     90.3672   3.7735118966e+01   3.6015814483e+01    0.5797454    0.2176232 -46.16  0.001844087    2.548    0.608
       181 -11.2259    124.8755     88.0044   4.0630207235e+01   3.9654320367e+01    0.8894118     0.385607 -38.82  0.002999095    2.318    0.569
       182 -10.6130     34.7340     87.1063   7.1596764266e+01   5.5065408536e+01    0.9463815    0.2237408 -63.61  0.002954882    3.235    0.691
       183 -10.9157     86.2909     86.1210   5.1945561534e+01   4.8026545742e+01    0.4954354    0.3358009 -86.95  0.001805919    2.361    0.576
       184 -10.9663     85.6770     81.6380   5.0771105996e+01   4.9245152605e+01     0.453731    0.3092229  -1.34  0.001784436    2.399    0.583
       185 -10.5345     48.1885     83.7726   6.5465696628e+01   5.4479977260e+01    0.4070375    0.2460713  89.71  0.001603473    2.432    0.589
       186 -10.2235     48.9874     77.0126   6.3345535859e+01   5.6146697270e+01    0.5131163      0.19572 -37.02   0.00154139    3.938    0.746
       187  -9.3518    116.5537     83.4728   4.1545087847e+01   4.2522678447e+01    0.2868177    0.1472111 -34.40 0.0006581391    2.168    0.539
       188 -11.0920    104.1776     82.1999   4.4851429154e+01   4.5465952332e+01     0.623425    0.3239897 -56.85   0.00219448    2.197    0.545
       189  -9.7569    166.5118    102.5624   3.4781152420e+01   2.7096982531e+01    0.3463923    0.1464938 -40.18  0.001209214    2.160    0.537
       190 -10.3303    140.7687     81.5532   3.4492530595e+01   3.7415611121e+01    0.4615628    0.1982014 -40.12  0.001589709    2.175    0.540
       191  -9.3809    158.4781     81.9911   3.0566509680e+01   3.3142947533e+01    0.2579979    0.1484578 -38.56 0.0006501119    1.603    0.376
       192 -10.0377    119.2145     78.8300   3.9280607063e+01   4.2969790016e+01    0.4614149     0.226964 -40.82  0.001694476    1.928    0.481
       193  -9.9403     74.2729     79.0860   5.4058662466e+01   5.1891346647e+01     0.527555    0.1388042 -56.48  0.001321844    4.540    0.780
       194  -9.7386    150.4437     78.5360   3.1273832457e+01   3.5742841269e+01    0.3573226    0.1493045 -38.57  0.001220226    2.225    0.551
       195  -9.2633    174.7644     77.0345   2.5805639002e+01   3.0238221173e+01     0.222298    0.1206913 -37.54 0.0008901745    1.660    0.398
       196  -9.0278    167.6596     76.6737   2.7064750381e+01   3.1991905530e+01    0.1597548    0.1239996   8.85 0.0007051401    1.732    0.423
       197 -10.5839    128.0096     72.8968   3.4909316866e+01   4.2217483508e+01    0.7862747    0.3069737 -37.57  0.002563206    2.516    0.602
       198 -10.5379     24.4542     80.2903   7.4355438240e+01   5.7802535862e+01     0.346932    0.2001579  80.45  0.001506023    2.277    0.561
       199  -9.9534    140.2981     73.7579   3.2108618614e+01   3.9127938721e+01    0.3831057    0.2084344 -42.97  0.001495274    1.717    0.418
       200 -10.1149     10.0147     74.1513   7.9318121344e+01   6.0407559147e+01    0.2036887    0.1636967 -64.84 0.0003721926    1.019    0.019
       201 -10.5903     82.0308     71.8326   4.8842259559e+01   5.2272576865e+01    0.4195819    0.2669877 -67.77  0.001681967    2.111    0.526
       202 -11.1262     82.4654     65.9037   4.6600556722e+01   5.3559016988e+01    0.5711618    0.3028495 -26.76  0.001968796    2.835    0.647
       203  -9.9105    115.6232     71.0299   3.7675976608e+01   4.5468033240e+01    0.3818125    0.1469414 -41.28  0.001248665    2.446    0.591
       204 -10.6930    105.6092     69.7589   4.0215013455e+01   4.7967913996e+01    0.5897406    0.2194061 -42.85  0.001925881    2.519    0.603
       205 -10.7250     94.8393     68.5509   4.3243103554e+01   5.0515611099e+01    0.8845807    0.2111015 -46.92  0.002299044    4.097    0.756
       206 -10.7206     27.5134     71.2484   7.1029624391e+01   5.9923677473e+01    0.5163478    0.1966877 -27.57   0.00139172    6.152    0.837
       207 -10.8071     62.6006     69.5023   5.5492280268e+01   5.6134909874e+01    0.5556018    0.1199803 -50.98  0.001528574    3.849    0.740
       208  -9.7348      5.3386     91.6814   8.3796914196e+01   5.6007377083e+01    0.1391681   0.08735824  67.49 0.0007049345    1.708    0.414
       209 -10.7266     50.8721     66.9900   5.9564615282e+01   5.8437519927e+01     0.795606    0.2106251 -60.29  0.002093589    4.677    0.786
       210  -9.8185    146.8990     66.4733   2.8191806530e+01   3.8948557298e+01    0.5248728    0.1732324 -31.12  0.001452259    3.688    0.729
       211  -9.9690    138.5357     64.8093   2.9547966811e+01   4.1307105848e+01    0.4140603    0.1437668 -39.33  0.001313133    2.648    0.622
       212 -10.1263    121.7908     63.9082   3.3459149519e+01   4.5504559309e+01    0.5863065    0.2035624 -33.74  0.001722928    3.245    0.692
       213  -8.9576    203.4783     65.5183   1.7807136987e+01   2.5576948053e+01    0.1489086    0.1286101 -43.70 0.0001898798    1.013    0.013
       214  -9.9295    110.0000     62.9934   3.6459562645e+01   4.8416578738e+01    0.3186242     0.209834 -46.41  0.001322136    1.473    0.321
       215  -9.7739    110.3432     59.3375   3.5008733755e+01   4.9073045010e+01     0.360894     0.233893  14.86  0.001348668    2.564    0.610
       216 -10.1499     17.7303     62.2673   7.3353393787e+01   6.3000256988e+01    0.3058193   0.09236983 -50.36  0.001051596    2.493    0.599
       217 -10.3080    100.0789     57.5160   3.7447941950e+01   5.1739361779e+01    0.6633726    0.2110384 -40.27  0.002051525    2.973    0.664
       218 -10.3997     72.9262     58.6105   4.7489138187e+01   5.6952786168e+01    0.4558455    0.2056067 -54.13  0.001641091    2.467    0.595
       219  -9.4847    130.5762     56.2569   2.8465851356e+01   4.4846419203e+01    0.3195139    0.1417043 -39.43  0.001150514    2.111    0.526
       220  -9.5377    139.6706     54.5039   2.5724803945e+01   4.2912719426e+01    0.2985126    0.1396441 -34.78  0.001102428    2.041    0.510
       221 -10.1492    118.9476     54.4208   3.0758445192e+01   4.7998685864e+01    0.4030102    0.1884947 -44.61  0.001480031    2.124    0.529
       222 -11.8730    166.2901    248.2514   6.3069801416e+01   4.5533305687e-02    0.3601237    0.1288714  31.24  0.001725943    2.366    0.577
       223 -11.7211     45.4090     49.2307   5.5790411613e+01   6.3370000805e+01    0.3759198    0.2254095 -40.20 0.0006652944    1.490    0.329
       224  -9.7531    105.5497     51.2324   3.3315276486e+01   5.1730330138e+01    0.4024686    0.1496001 -35.04  0.001321446    2.698    0.629
       225  -8.8248    247.6883    247.3687   4.8936607823e+01  -9.4279195304e+00   0.08674386   0.07756304   0.54 0.0007036505    1.768    0.435
       226 -10.2785    113.3128     42.6574   2.7699808249e+01   5.1418529308e+01    0.5439689    0.2862677 -14.67  0.001842289    3.091    0.676
       227  -9.8654     83.8236     40.1814   3.5742938772e+01   5.8529636144e+01    0.2874152    0.1913122  -6.92 0.0009780601    2.023    0.506
       228  -9.0635     23.4916     46.5254   6.5928275713e+01   6.6419282510e+01    0.1388518     0.111729 -44.15 0.0008099584    1.025    0.024
       229  -9.4573    122.0000     44.0147   2.6002959632e+01   4.9079329887e+01    0.3247458    0.1829193 -33.14  0.001347453    1.727    0.421
       230  -9.5407    123.5137     40.4827   2.4263732631e+01   4.9275883209e+01     0.271669    0.2018743  18.55 0.0007222424    1.686    0.407
       231 -10.5574      4.8243     40.4798   7.4431544570e+01   6.9129755319e+01     0.416617    0.1616982 -77.01  0.001591968    3.189    0.686
       232 -10.3093    105.8079     38.5141   2.8055791507e+01   5.3889078846e+01    0.3776115    0.2045945 -27.73  0.001544753    1.916    0.478
       233 -10.2696     53.7249     51.1250   5.2662724758e+01   6.1772025698e+01    0.7212482     0.202895 -54.76  0.002025906    4.359    0.771
       234  -9.0513     26.3333     36.6702   6.0698666839e+01   6.8400850166e+01    0.1251139    0.1047506  80.18 0.0007052026    1.723    0.420
       235  -9.8173    111.8552     32.5724   2.3938632153e+01   5.3354578370e+01    0.4226012    0.2052132 -19.48  0.001546648    2.610    0.617
       236  -9.8677      6.3658     34.2892   7.1633117832e+01   7.0495316324e+01    0.1394154    0.0725598 -36.47 0.0005673054    1.703    0.413
       237  -9.5879    101.4534     27.5151   2.4501421845e+01   5.6589452365e+01    0.2608611    0.1418464 -15.27  0.001033021    2.307    0.567
       238  -9.3099    110.4083     24.7323   2.0960889461e+01   5.4803417090e+01    0.2019541    0.1391532 -11.17 0.0009451539    1.637    0.389
       239  -9.5295     44.2019     25.2294   4.5462249912e+01   6.8441666010e+01    0.2026856    0.1599394  -9.12 0.0005353077    1.204    0.169
       240  -8.9273    118.5105     24.5260   1.8994596516e+01   5.2819069150e+01    0.1432644    0.1395809  31.07 0.0002450904    1.022    0.022
       241  -9.5657    130.2417     46.7352   2.5061055752e+01   4.6588536208e+01    0.2462879    0.1304261 -20.87 0.0008926324    2.407    0.585
       242 -10.0633     12.8804     21.0121   6.2140948352e+01   7.2954567165e+01    0.2060401    0.1680063  -7.75 0.0007134022    1.229    0.186
       243 -10.3872     29.1211    243.4195   8.8702806107e+01   1.7787452683e+01      0.20461    0.1260087  74.87 0.0008164836    1.399    0.285
       244 -11.5023    167.1879    241.9995   6.2101624313e+01   7.9333132667e-01    0.2116832     0.141553  27.96 0.0007883219    1.220    0.180
