#   1 NUMBER                 Running object number                                     
#   2 MAG_AUTO               Kron-like elliptical aperture magnitude                    [mag]
#   3 X_IMAGE                Object position along x                                    [pixel]
#   4 Y_IMAGE                Object position along y                                    [pixel]
#   5 X_WORLD                Barycenter position along world x axis                     [deg]
#   6 Y_WORLD                Barycenter position along world y axis                     [deg]
#   7 A_WORLD                Profile RMS along major axis (world units)                 [deg]
#   8 B_WORLD                Profile RMS along minor axis (world units)                 [deg]
#   9 THETA_WORLD            Position angle (CCW/world-x)                               [deg]
#  10 FWHM_WORLD             FWHM assuming a gaussian core                              [deg]
#  11 ELONGATION             A_IMAGE/B_IMAGE                                           
#  12 ELLIPTICITY            1 - B_IMAGE/A_IMAGE                                       
         1 -14.8236    238.4672     76.4978   6.7536008757e+01   1.6899324743e+01     1.893458    0.7530867 -43.87  0.008349807    2.218    0.549
         2 -13.9994    242.1115     53.1794   6.2372463050e+01   1.9539586103e+01     1.043721    0.5271579 -51.28   0.00545116    1.800    0.444
         3 -13.4702    247.5569     41.6843   5.9585286721e+01   1.9985169213e+01     1.168461    0.6089518 -33.79  0.006282929    2.099    0.523
         4 -14.8690    235.2585     28.8846   5.8286993206e+01   2.4038765416e+01     2.220653    0.6216494 -33.65  0.008851674    3.868    0.741
         5 -13.1304    249.2063     60.2520   6.3008715528e+01   1.7154678610e+01     1.407311    0.4632972 -34.89  0.005644646    3.254    0.693
         6 -14.2576    246.8777     15.9668   5.4868362950e+01   2.3211283329e+01     1.807598    0.7611016 -35.94  0.009647618    2.435    0.589
         7 -13.2820    226.6063     50.8182   6.3615685795e+01   2.3043323952e+01    0.5853576    0.4264557 -22.61  0.003387561    1.795    0.443
         8 -13.1277    222.3141     18.8990   5.7539967327e+01   2.7859825149e+01    0.4719442    0.3113889 -37.24  0.002956887    1.634    0.388
         9 -10.8441      1.7048      7.5045   1.0621167081e+02   7.0414825264e+01    0.1957152    0.1099173 -29.48  0.001362832    1.458    0.314
        10 -11.6233    217.9966      4.5475   5.5093894707e+01   3.0257092892e+01    0.3305748    0.1803797 -25.87  0.001878471    2.404    0.584
        11  -9.6457     50.9386      3.7346   8.4456786901e+01   6.4830914943e+01    0.1361049   0.07942934  36.86 0.0003126711    1.414    0.293
        12  -9.8084    219.9882    240.4868   1.0410493758e+02  -7.7769405817e+00    0.1534187    0.1061186  54.04 0.0008055932    2.292    0.564
        13 -11.1452    193.4497    249.0957   1.1069116425e+02  -5.0891523156e+00    0.3066084    0.2320701 -44.79  0.001860108    1.590    0.371
        14 -11.4265    191.5404    236.5329   1.0897062478e+02  -2.7818638060e+00    0.5396506    0.3992501  87.36  0.002535062    3.068    0.674
        15 -11.0310    230.6030    237.1435   1.0152592378e+02  -8.8168424702e+00    0.2747554    0.2377485 -78.26  0.001393568    2.215    0.549
        16 -10.8262    206.6164    236.9631   1.0606414701e+02  -5.2222767819e+00     0.288639    0.2345887  65.72  0.001652544    2.007    0.502
        17 -11.2726    216.3308    233.9852   1.0366083381e+02  -6.2402629321e+00    0.3392868    0.2774276  42.60  0.001771162    1.483    0.326
        18 -10.1643    170.5089    235.0034   1.1298772856e+02   9.0886359395e-01    0.1908994     0.131904 -44.50  0.001031915    1.594    0.373
        19 -10.1492    240.7965    232.0535   9.8747326974e+01  -9.5056829634e+00    0.1753558    0.1441513 -58.40  0.001060426    2.039    0.510
        20  -9.9675    225.5671    231.7988   1.0151533869e+02  -7.2833398873e+00    0.1626921    0.1160265 -43.25 0.0007663177    1.653    0.395
        21  -9.5603    245.4781    231.5236   9.7808701724e+01  -1.0074120095e+01    0.1231677    0.1004293  -4.28 0.0002645318    1.053    0.050
        22 -10.9309    235.3382    229.6965   9.9318691385e+01  -8.3856055749e+00    0.3011417    0.2085671 -34.97  0.001210196    1.453    0.312
        23  -9.9850    158.3147    231.6482   1.1497107524e+02   3.5459485795e+00    0.1332911    0.1049852  71.62 0.0007046348    1.731    0.422
        24 -10.4510    229.6591    228.6441   1.0017985074e+02  -7.4027651351e+00    0.2103132     0.185663 -74.80 0.0009867667    1.966    0.491
        25 -10.2413    211.8569    227.8481   1.0342821517e+02  -4.5805660210e+00    0.2265631    0.1705577 -37.13  0.001327127    1.404    0.288
        26 -10.9450    199.0473    226.7330   1.0575345411e+02  -2.3596440078e+00    0.2716143    0.1921651 -55.65  0.001362647    1.946    0.486
        27 -10.9982    247.0040    226.3158   9.6593051115e+01  -9.5223760391e+00    0.3247688    0.2372256  47.73  0.001893347    1.976    0.494
        28 -11.6695    240.3477    221.7534   9.6952427252e+01  -7.9011746978e+00    0.5034428    0.3509622  60.92  0.002503903    2.985    0.665
        29 -10.2601    223.1554    226.8827   1.0108323052e+02  -6.1615485007e+00    0.1844537    0.1705905  -3.41 0.0007755319    1.235    0.190
        30 -10.5683    205.9876    225.7606   1.0420087928e+02  -3.3131921756e+00    0.2750407    0.1911399 -48.24  0.001441062    1.738    0.425
        31 -11.3960    217.1337    223.0321   1.0153066141e+02  -4.6239746884e+00    0.4093151    0.2711076 -49.96  0.001610955    1.940    0.485
        32 -10.9734    212.5941    211.3299   1.0022759056e+02  -1.9499651291e+00    0.4595623    0.1833079 -39.64  0.001899588    2.456    0.593
        33 -10.8846    219.4277    217.2342   1.0001594701e+02  -4.0359692760e+00    0.2589402    0.2248772 -51.79  0.001410341    1.524    0.344
        34 -11.9749    217.0746    212.1259   9.9507758940e+01  -2.8112045327e+00    0.5245067    0.3723081 -59.05   0.00214538    2.151    0.535
        35  -9.9036    186.2155    222.2451   1.0754969851e+02   5.3341762058e-01    0.2012768    0.1079971 -52.98  0.000726854    2.427    0.588
        36 -10.2023    190.5575    226.2586   1.0737882219e+02  -8.9083177292e-01    0.2411249    0.1298783 -46.09  0.001135035    2.060    0.515
        37 -11.9546    248.1681    217.7014   9.4801148368e+01  -8.3961318554e+00    0.4270479    0.3026586 -38.23  0.001846876    1.468    0.319
        38 -10.8360    193.4802    219.3326   1.0553734136e+02  -1.7237154782e-01    0.3027591    0.2294202 -73.62  0.001512406    2.279    0.561
        39 -10.2265    210.8451    218.8668   1.0198389750e+02  -2.9429989409e+00    0.2314698    0.1757585 -38.33  0.001092561    1.380    0.275
        40  -9.5735    205.4796    217.9784   1.0287697148e+02  -1.9235370596e+00    0.1666446    0.1204561 -65.52 0.0008072426    2.355    0.575
        41 -11.0680    232.8741    213.2914   9.6741365650e+01  -5.4721797012e+00    0.3517151     0.214773 -40.18  0.001411964    1.643    0.391
        42 -11.4864    240.6150    208.5428   9.4427897605e+01  -5.8758609302e+00    0.5272833    0.3326498 -59.50  0.002386503    3.109    0.678
        43 -10.8247    231.1553    194.3845   9.3407647116e+01  -2.0674832534e+00    0.3307347    0.1760522 -38.02  0.001447136    1.735    0.423
        44 -11.1232    235.1259    203.2392   9.4407662475e+01  -4.1809503837e+00    0.3584047    0.2543819 -56.08  0.001307938    2.039    0.510
        45 -10.5887    231.5108    199.4661   9.4339357551e+01  -2.9857222378e+00    0.3448416     0.169921 -46.27   0.00133691    2.233    0.552
        46 -10.3274    192.9894    210.0047   1.0390499863e+02   1.5752360950e+00    0.2063244    0.1783482  89.68 0.0009928646    1.720    0.419
        47 -10.9402    247.1535    207.2455   9.3015564900e+01  -6.6340308652e+00    0.3355376    0.1609677 -45.91  0.001384038    2.384    0.581
        48 -10.9642    243.4534    201.2480   9.2522296108e+01  -5.1277290858e+00    0.3929937    0.2598405 -42.64  0.001871913    1.567    0.362
        49 -10.8185    229.3024    207.0296   9.6212920636e+01  -3.9004123866e+00    0.3211637     0.158156 -40.66   0.00150742    1.970    0.492
        50  -9.9348    224.6604    207.8596   9.7243930200e+01  -3.3067726641e+00    0.1879071    0.1149478 -45.82  0.000940542    1.814    0.449
        51 -10.6617    206.1750    208.1539   1.0088835787e+02  -3.3591491173e-01     0.177928    0.1708614 -64.46   0.00108666    1.365    0.267
        52 -10.8344    228.4130    222.1448   9.9224401544e+01  -6.2079516450e+00    0.3359261    0.1973442  42.76  0.001713318    1.933    0.483
        53  -9.9547    197.4785    204.0050   1.0184136442e+02   1.8915952379e+00    0.2140239    0.1319932 -39.11  0.001038013    1.608    0.378
        54 -10.2872    187.4682    203.9797   1.0390002018e+02   3.6489371171e+00    0.1884394    0.1264005 -67.49 0.0008094996    2.543    0.607
        55  -9.7056    172.9939    203.9977   1.0696910414e+02   6.2265243469e+00    0.1726697     0.160278 -14.37 0.0007022432    1.063    0.059
        56 -10.8332    250.1143    201.0339   9.1311306614e+01  -6.0829585925e+00    0.3373566    0.1633644 -39.44  0.001294038    1.892    0.472
        57 -11.8367    246.8715    193.6878   9.0454473351e+01  -4.4130782208e+00    0.4162726    0.3432396 -65.55   0.00168282    1.869    0.465
        58 -10.4194    243.6983    188.1644   8.9924803930e+01  -3.0096208298e+00    0.2281116    0.1690153 -41.75 0.0009172326    1.362    0.266
        59  -9.9825    223.5106    201.5121   9.6234716072e+01  -2.0481145861e+00     0.135511    0.1176808  -8.26 0.0008104454    1.012    0.012
        60  -9.9151    236.8532    198.8045   9.3233133381e+01  -3.7154916883e+00    0.1651849    0.1569692 -34.19 0.0006428423    1.318    0.241
        61  -9.9273    215.5020    197.9606   9.7073950372e+01  -1.0619217880e-01    0.2103149    0.1271248 -39.77   0.00103192    1.602    0.376
        62 -10.5257    202.1767    197.7335   9.9664633031e+01   2.2213092975e+00    0.2639507    0.1608343 -53.68  0.001198867    2.088    0.521
        63  -9.7414    176.3988    198.1445   1.0511594291e+02   6.7538320048e+00    0.2001204    0.1361303 -55.19 0.0009459389    1.741    0.426
        64 -11.8704    224.7163    193.5411   9.4439043563e+01  -8.6962398170e-01    0.5405375    0.2650181 -53.81  0.002083419    3.219    0.689
        65  -9.9273    209.4860    194.5332   9.7572028719e+01   1.5338384415e+00     0.139767    0.1248534  -6.57 5.165128e-05    1.005    0.005
        66  -9.8858    172.4817    190.9894   1.0455808356e+02   8.8957864109e+00     0.198555    0.1311032 -69.91 0.0008099158    2.514    0.602
        67 -11.0897    237.0700    187.6412   9.0995534515e+01  -1.8695759916e+00    0.3512948    0.1794245 -40.73  0.001254034    1.816    0.449
        68 -10.7702    230.0929    187.2028   9.2174414330e+01  -6.5561733548e-01    0.2913179    0.1820439 -42.78 0.0009815363    1.571    0.364
        69  -9.8681    215.3710    187.1942   9.4947989385e+01   1.8437656425e+00    0.1958529    0.1235549 -47.74 0.0007517525    1.712    0.416
        70 -10.5446    249.6870    184.8576   8.8237524951e+01  -3.3881089848e+00    0.3915884    0.1597202 -43.82  0.001673777    2.381    0.580
        71 -11.3608    247.7507    178.4551   8.7297470069e+01  -2.0149300554e+00    0.5330893    0.2112737 -44.69  0.002008991    2.488    0.598
        72 -10.5285    223.9264    183.9444   9.2661099988e+01   9.5454275957e-01    0.3089653    0.1850826 -49.96  0.001256341    1.913    0.477
        73 -10.1604    203.4895    183.9887   9.6634230491e+01   4.5445633745e+00    0.1962228    0.1240385 -62.55 0.0008104108    2.549    0.608
        74 -11.1824    183.7255    183.0534   1.0052854011e+02   8.3791165166e+00    0.3440347    0.2304747 -53.41   0.00160708    1.703    0.413
        75 -11.4402    241.3869    180.6888   8.8841702384e+01  -1.3775611781e+00    0.4592218    0.2255101 -46.53   0.00206778    2.134    0.531
        76 -10.6226    218.8074    178.6437   9.2542566126e+01   2.7981002670e+00    0.3749847    0.1489581 -39.42  0.001467297    2.355    0.575
        77 -10.1214    210.3934    183.2171   9.5106614396e+01   3.4484786163e+00    0.2006651    0.1274563 -48.09  0.000951282    1.688    0.407
        78 -10.8811    235.5197    181.0072   8.9943678049e+01  -4.7494882869e-01    0.3114449    0.2014299 -49.08  0.001095538    1.718    0.418
        79  -9.7817    219.5291    194.5099   9.5615412106e+01  -1.7448351089e-01    0.1365114    0.1221995 -11.77 0.0008094264    1.048    0.045
        80 -10.2840    231.3201    178.7044   9.0233353357e+01   6.2878452543e-01    0.1903357    0.1081603 -37.52  0.000504293    1.597    0.374
        81 -10.0006    225.6150    179.2088   9.1381829561e+01   1.5111051806e+00    0.2018021    0.1180821 -29.65 0.0009470519    1.674    0.403
        82 -10.4062    204.5248    177.0008   9.4980811425e+01   5.6781011200e+00     0.224349    0.1343271 -40.40  0.001033433    1.596    0.373
        83  -9.8479    197.5988    176.7628   9.6327814851e+01   7.0091022900e+00    0.2050052    0.1332625 -49.95 0.0009487501    1.665    0.399
        84 -11.1119    182.3625    176.4178   9.9439917336e+01   9.9654372850e+00    0.2974147     0.181734 -44.63  0.001139099    1.630    0.386
        85  -9.9245    210.5125    175.9960   9.3590138532e+01   4.7722796460e+00    0.2209419    0.1322577 -41.73  0.001028097    1.598    0.374
        86 -10.1345    232.6230    174.4731   8.9134678753e+01   1.1554657597e+00    0.2339852    0.1186396 -38.22  0.001060569    1.783    0.439
        87 -10.2340    223.5508    173.3411   9.0556372020e+01   2.9279856895e+00    0.2682188    0.1247529 -44.76   0.00112128    2.107    0.525
        88  -9.9875    227.5185    171.4318   8.9431364845e+01   2.5776059826e+00    0.2487902    0.1197578 -49.24  0.001020264    2.340    0.573
        89 -11.0348    237.5122    169.3358   8.7217034055e+01   1.2321138335e+00    0.3885292    0.1579525 -44.05  0.001322865    2.334    0.572
        90 -10.2525    205.3031    169.4676   9.3239311250e+01   6.9706219450e+00    0.2555587    0.1736942 -57.78  0.001184654    1.854    0.461
        91 -10.6849    218.5959    168.1405   9.0395190274e+01   4.7669306656e+00    0.3501846    0.2262864 -48.32  0.001456543    1.612    0.380
        92  -9.7865    229.3697    166.2061   8.8011264373e+01   3.1945625061e+00    0.2023374    0.1185337 -46.56 0.0009494381    1.707    0.414
        93 -10.2008    191.3985    166.1829   9.5352086079e+01   1.0269305032e+01    0.2137331    0.1354992 -51.12 0.0009516627    1.710    0.415
        94 -10.6434    245.8938    169.2578   8.5763644762e+01  -1.4935111299e-01     0.297695    0.1717805 -49.58   0.00143944    1.897    0.473
        95 -10.2887    239.9631    164.1253   8.5723698308e+01   1.7317564622e+00     0.204549    0.1775504 -54.06 0.0009761988    1.317    0.241
        96 -10.6849    212.8463    163.3967   9.0478375205e+01   6.7120676819e+00    0.3350936    0.1918567 -42.98  0.001241196    1.658    0.397
        97 -11.0180    245.9122    157.6313   8.3392107609e+01   1.8577762856e+00    0.4008659      0.18952 -44.74    0.0014351    1.968    0.492
        98 -10.5707    241.8321    153.5530   8.3225588909e+01   3.2692008630e+00    0.2631512    0.1932354 -54.99  0.001327354    1.526    0.345
        99 -11.0572    243.9701    149.0396   8.1939292374e+01   3.6895308172e+00    0.3671785    0.2174506 -46.66  0.001523221    1.602    0.376
       100 -11.1164    205.4846    161.2002   9.1430873091e+01   8.5234146531e+00    0.4175442    0.2431755 -44.38  0.001575218    1.662    0.398
       101 -10.0109    221.4789    161.9025   8.8541192180e+01   5.3951117588e+00    0.2180495    0.1286067 -39.98 0.0008443562    1.559    0.358
       102 -10.6103    237.6093    158.7132   8.5007769428e+01   3.0919104815e+00    0.2763987    0.1915574 -43.95  0.001049449    1.356    0.263
       103 -10.5030    199.4129    164.7685   9.3408587336e+01   8.9974930303e+00    0.2826923    0.1347804 -45.34  0.001057997    2.071    0.517
       104 -10.4521    226.4290    156.8107   8.6563143605e+01   5.4268325847e+00    0.2690959    0.1241338 -43.23  0.001124304    2.010    0.503
       105  -9.7333    222.2226    156.9254   8.7346359532e+01   6.1775285718e+00    0.1919514    0.1069683 -40.91 0.0005359214    1.647    0.393
       106 -10.2336    196.9644    157.1775   9.2248337279e+01   1.0961831613e+01    0.2166358    0.1611517 -58.30 0.0008611078    1.575    0.365
       107  -9.6477    216.2896    156.6447   8.8379550317e+01   7.3362819672e+00    0.1413041    0.1112218 -68.51 0.0007026572    1.679    0.404
       108 -10.0219    187.5872    155.6621   9.3838710775e+01   1.3128591227e+01    0.2982378    0.1390278 -37.92  0.001137121    2.148    0.534
       109  -9.6388    154.4913    156.4930   1.0135573050e+02   1.9647469536e+01    0.1511378    0.1484306 -20.71 4.740055e-05    1.027    0.026
       110 -11.2630    205.7730    154.7231   8.9964588793e+01   9.7148548852e+00    0.3041801    0.2461775 -11.19  0.001296676    1.338    0.253
       111 -10.1887    250.7311    153.1918   8.1704976188e+01   1.8146719297e+00    0.3982714    0.1006489 -38.03  0.001301284    3.602    0.722
       112 -10.3816    233.2463    153.8162   8.4733083654e+01   4.7371717521e+00     0.262712    0.1956277 -55.88  0.001217729    1.523    0.344
       113  -9.8429    228.2275    151.9436   8.5210434097e+01   5.9858625213e+00    0.1905156    0.1056131 -40.48  0.000781088    1.632    0.387
       114  -9.8163    221.4780    152.4865   8.6530665437e+01   7.1369664244e+00    0.1415476    0.1288415 -32.40 9.071017e-05    1.035    0.034
       115 -10.0742    157.2906    152.6474   9.9840056051e+01   1.9911029608e+01    0.1538714    0.1233941 -83.62 0.0006944211    1.675    0.403
       116 -11.5530    235.2395    147.2498   8.3009121250e+01   5.5558230512e+00    0.4610827    0.2991364 -50.65  0.001522267    1.586    0.369
       117 -10.3117    223.6358    146.7267   8.4902941601e+01   7.7949434160e+00    0.2854228    0.2091392 -48.08  0.001394687    1.342    0.255
       118 -10.3429    207.5574    145.0207   8.7480683028e+01   1.1227019081e+01    0.2313325    0.1347751 -40.09  0.001031526    1.607    0.378
       119  -9.6153    200.4742    145.4897   8.8952075803e+01   1.2551031501e+01    0.1466191    0.1380198 -32.69 0.0001688857    1.025    0.025
       120 -10.1689    247.4671    144.0224   8.0342162940e+01   3.9558370121e+00    0.2120403    0.1163053 -40.22 0.0009865505    1.581    0.368
       121 -10.6933    163.3753    144.1431   9.6490708686e+01   2.0470436816e+01    0.2242222    0.1408515 -53.56 0.0009450783    1.743    0.426
       122 -11.1265    243.4902    140.0533   8.0148406001e+01   5.3473068555e+00    0.4345484    0.1643853 -40.75  0.001509487    2.305    0.566
       123 -10.9459    242.2440    133.8905   7.9056393371e+01   6.6494022764e+00    0.3930827     0.177401 -41.02  0.001286048    1.939    0.484
       124 -10.4981    230.1170    141.1898   8.2586456720e+01   7.5878471329e+00    0.3231968    0.1767064 -44.13  0.001283756    1.680    0.405
       125  -9.7138    214.2952    142.6447   8.5697018162e+01   1.0349779053e+01    0.1449408    0.1109105 -69.07 0.0005119453    1.692    0.409
       126 -11.2299    247.7379    112.7017   7.3815802705e+01   9.2741119835e+00     0.305647     0.149304 -45.39 0.0008780335    1.802    0.445
       127 -10.2951    248.6025    135.3472   7.8374987833e+01   5.2578373569e+00    0.3443915    0.1671833 -43.50  0.001284589    1.805    0.446
       128 -11.2651    247.9795    129.8988   7.7342769892e+01   6.3066030857e+00     0.361391    0.2935704 -68.46  0.001427292    1.423    0.297
       129 -10.8979    249.4254    123.7426   7.5855426168e+01   7.0995672218e+00    0.3599737    0.1905977 -43.66  0.001282149    1.641    0.390
       130 -11.3982    247.8695    118.5809   7.5014396865e+01   8.2588730435e+00    0.3825601    0.1975238 -44.77  0.001428024    1.699    0.411
       131 -10.2781    238.5117    140.1071   8.0960282816e+01   6.2339261754e+00    0.2476445    0.1551944 -44.56  0.001054829    1.451    0.311
       132 -11.3438    234.9071    135.7992   8.0635591333e+01   7.6616507109e+00     0.442663    0.2504385 -49.70   0.00147661    1.767    0.434
       133 -10.7337    224.1064    140.1833   8.3403565855e+01   8.9074276754e+00    0.3138777    0.1848662 -42.74  0.001138836    1.555    0.357
       134 -11.3944    219.0384    137.8678   8.3789133637e+01   1.0313029730e+01    0.3281906    0.1968014 -34.98  0.001527274    1.593    0.372
       135 -10.4758    208.4594    137.4868   8.5628950921e+01   1.2481410783e+01    0.2709496    0.1253718 -49.82  0.001032791    2.338    0.572
       136  -9.8121    198.6957    136.3407   8.7228357885e+01   1.4688321255e+01    0.1489698    0.1158131 -73.68 0.0007040302    1.679    0.404
       137  -9.5876    192.7054    136.6656   8.8483974077e+01   1.5864375985e+01    0.1509155    0.1161174  -3.51  0.000702709    1.642    0.391
       138  -9.8591    187.6319    135.8295   8.9315474717e+01   1.7088281709e+01    0.2187086    0.1340399 -50.10 0.0009439295    1.694    0.410
       139 -10.4051    162.7734    135.9537   9.4698996859e+01   2.2313599660e+01    0.2129134    0.1244193 -41.90 0.0007942136    1.679    0.404
       140 -10.2840    225.3487    133.5957   8.1756604711e+01   9.8705188655e+00    0.2855033    0.1638349 -37.37  0.001144896    1.610    0.379
       141 -10.3703    233.5742    129.2471   7.9451935475e+01   9.0765412075e+00    0.2761545    0.1175051 -44.29  0.001129042    2.136    0.532
       142 -12.5849    240.4979    124.7667   7.7407619752e+01   8.5610058109e+00    0.8574376    0.2858993 -45.07  0.003190837    2.746    0.636
       143 -12.4314    242.2086    116.7375   7.5457678331e+01   9.6238267349e+00    0.6391333    0.2051069 -40.54  0.002393853    2.719    0.632
       144 -10.3393    220.6158    128.8577   8.1527721539e+01   1.1658730990e+01    0.2135975    0.1206665 -48.54 0.0009544035    1.739    0.425
       145  -9.7447    186.3591    129.1572   8.8013094836e+01   1.8672335162e+01    0.2193174    0.1328624 -49.99 0.0009151938    1.711    0.415
       146 -10.4173    227.7152    125.3360   7.9561282428e+01   1.0899296436e+01    0.2672722    0.1502424 -47.78 0.0009995754    1.698    0.411
       147 -10.3493    199.8389    126.0537   8.4644386688e+01   1.6422013490e+01     0.243343    0.1617995 -63.57 0.0008669323    1.952    0.488
       148  -9.1755    217.3118    125.3263   8.1314334662e+01   1.2962921835e+01    0.1420687    0.1107837  -1.11 0.0004751523    1.662    0.398
       149 -10.8276    180.0684    123.6483   8.7991723046e+01   2.1101467271e+01    0.3961014    0.2178995 -33.87  0.001616796    1.928    0.481
       150  -9.8565    188.0000    122.9994   8.6226546041e+01   1.9519282294e+01    0.2495978   0.08218062 -40.77 0.0008003058    2.928    0.658
       151  -9.8581    212.6113    122.1896   8.1430285304e+01   1.4491989358e+01    0.2087513     0.129898 -30.84 0.0009521221    1.685    0.407
       152 -10.6525    230.8533    116.1383   7.7059119377e+01   1.1909842852e+01    0.2148492    0.1740996 -59.75 0.0008052305    1.251    0.200
       153 -10.7068    234.9052    123.3301   7.7971791520e+01   9.8669902757e+00    0.2437452     0.167857 -48.47 0.0007657328    1.353    0.261
       154  -9.6634    194.6849    113.3273   8.2637398069e+01   1.9907664145e+01    0.1498728     0.113507 -74.46  0.000704419    1.672    0.402
       155 -11.5744    248.2637    107.0682   7.2578489940e+01   1.0114880555e+01    0.4404666    0.2254003 -63.31  0.001768099    3.065    0.674
       156 -11.9679    246.7422    102.5740   7.1859003000e+01   1.1141972335e+01    0.3573346    0.1668643 -49.21  0.001618782    2.007    0.502
       157 -10.9196    243.6561    109.3181   7.3691423928e+01   1.0606847366e+01    0.2212918    0.1199797 -44.63 0.0008695968    1.623    0.384
       158 -11.6845    241.6943    106.3390   7.3346427777e+01   1.1479850294e+01    0.2566437    0.1397671 -48.33 0.0007248096    1.683    0.406
       159  -9.7094    160.6543    108.3268   8.8349396317e+01   2.8336761046e+01    0.1555227    0.1204655 -82.81 0.0007050296    1.747    0.428
       160 -10.0561    236.2685    107.6374   7.4407167616e+01   1.2311449051e+01    0.1396726   0.09487693 -62.89 0.0006757565    1.650    0.394
       161 -12.2157    229.1907    103.3960   7.4547772294e+01   1.4433776856e+01    0.4016316    0.2842503 -21.55  0.002059656    1.733    0.423
       162  -9.7196    205.7454    105.0246   7.8696197333e+01   1.9030560449e+01    0.1932272    0.1166976 -40.57 0.0008893301    1.572    0.364
       163 -10.9887    238.4863    101.9870   7.2885007675e+01   1.2826582368e+01    0.2098372    0.1182514 -41.76 0.0007837572    1.581    0.367
       164 -10.2580    166.9952    100.4779   8.4977723761e+01   2.8405420957e+01       0.2779    0.1491837 -46.01  0.001145006    1.905    0.475
       165 -13.1077    247.7700     85.8414   6.8291365560e+01   1.3627563359e+01     1.295766     0.405258 -39.95  0.005105332    2.791    0.642
       166 -10.1019    224.4267    248.6775   1.0467836456e+02  -9.6119722234e+00      0.20354    0.1126658 -40.07 0.0009379569    1.978    0.495
       167 -10.2195    218.6750    248.6454   1.0575357731e+02  -8.7869636209e+00    0.2102619    0.1814215  66.88  0.001077288    2.002    0.500
       168 -10.4378    210.5085    247.9814   1.0719566818e+02  -7.4973580511e+00    0.2327565     0.163283  42.74  0.001359524    1.604    0.376
       169 -11.4506    175.9892    246.8565   1.1379678523e+02  -1.9925039806e+00    0.3452242     0.254731 -53.44  0.001698685    1.715    0.417
       170 -10.4869    210.6285     91.8041   7.4836152856e+01   2.0258619458e+01    0.3404042    0.2021468 -55.00  0.001580145    1.798    0.444
       171  -9.8283    232.8140    247.5750   1.0293504958e+02  -1.0625219920e+01    0.1575402    0.1047047  38.58 0.0009328449    1.661    0.398
       172 -11.9907    235.0207     95.0448   7.1900302991e+01   1.4656623971e+01    0.3257553    0.2156219 -55.93  0.001421398    1.481    0.325
       173 -12.1116    231.2575     90.7472   7.1509455313e+01   1.6114670980e+01    0.3764062    0.2091185 -47.45  0.001088678    1.652    0.395
       174 -10.5697    241.9871     93.1653   7.0548250523e+01   1.3587128537e+01    0.2391819    0.1691207 -44.30 0.0008585113    1.258    0.205
       175  -9.7949    215.4714     94.4758   7.4678348249e+01   1.8776822001e+01    0.1380624    0.1266828 -61.54 0.0006078547    1.018    0.017
       176 -10.5082    188.7975     92.9121   7.8816613023e+01   2.4866129910e+01    0.3296672    0.1810717 -45.84  0.001175119    1.811    0.448
       177 -11.6665    226.2162     87.0407   7.1420755991e+01   1.7747587369e+01    0.6095463    0.4081032  -3.30  0.002667333    2.929    0.659
       178 -10.8124    175.7536     88.0594   8.0051106531e+01   2.8637985605e+01     0.222422    0.1908393 -65.21 0.0007750792    1.240    0.194
       179 -11.4283    224.5898     82.2052   7.0595730892e+01   1.8857527563e+01    0.3920175    0.2855467   5.73  0.001922866    2.362    0.577
       180 -10.0847    188.4582     86.9990   7.7434039895e+01   2.5949038082e+01    0.2183636    0.1373172 -38.36  0.001027251    1.584    0.369
       181  -9.7700    206.0000     84.9197   7.3986205676e+01   2.2400090933e+01    0.2262352   0.07575627 -37.76 0.0007970921    2.906    0.656
       182 -10.6247    158.8717     81.5829   8.1749494838e+01   3.3568579801e+01    0.2521414    0.1682989 -42.18  0.001203996    1.533    0.348
       183  -9.6732    214.7836     80.0080   7.1519149858e+01   2.1284052062e+01    0.1814508    0.1042202 -39.49 0.0008664019    1.673    0.402
       184  -9.3200    238.3040    245.6227   1.0159455235e+02  -1.1101540176e+01    0.1030214   0.09963164 -69.26  0.000428195    1.771    0.435
       185  -9.7314    206.4932     78.0547   7.2320420583e+01   2.3393449195e+01    0.2073162     0.129602 -39.32  0.001003489    1.566    0.361
       186 -10.3569    201.0000     77.9844   7.3161165847e+01   2.4616451193e+01    0.2266094   0.07608146 -37.07 0.0008032708    2.948    0.661
       187  -9.7240    174.4903     77.4880   7.7602430484e+01   3.0682119952e+01    0.1400434    0.1354807  78.50 3.586519e-05    1.001    0.001
       188 -10.3746    157.5644     75.7575   8.0463115650e+01   3.4824226909e+01    0.2033127    0.1322442 -47.93 0.0009537904    1.654    0.395
       189  -9.2912    223.6138     75.7039   6.9312563648e+01   2.0076342707e+01    0.1296397    0.1026039  25.82 0.0007015814    1.773    0.436
       190  -9.9013    206.1148     73.9005   7.1419389008e+01   2.4124833061e+01    0.2143674    0.1729777 -69.19 0.0006790336    1.250    0.200
       191 -10.2677    163.2320     71.7161   7.8250520776e+01   3.4173498693e+01    0.2621874    0.1709846 -40.35  0.001273483    1.577    0.366
       192 -12.3568    223.5184     66.2507   6.7274598854e+01   2.1518065464e+01    0.4752559    0.2121667 -25.83  0.001790167    3.595    0.722
       193  -9.4827    187.2847     68.6440   7.3141266405e+01   2.9145629136e+01    0.1435875    0.1011272 -68.84  0.000465918    1.670    0.401
       194 -10.1381    203.2096     66.5621   7.0156767889e+01   2.5878148969e+01    0.2575937    0.1481455 -48.71  0.001248031    1.725    0.420
       195 -10.5219    212.7300     96.4703   7.5565786195e+01   1.9022241023e+01    0.4215913    0.2010304 -60.43  0.001472323    3.414    0.707
       196 -10.6866    157.5938     61.3223   7.6569972401e+01   3.7031294688e+01    0.2596784    0.1300015 -38.46  0.001133794    2.074    0.518
       197 -10.3626    153.1711     59.3412   7.6896387437e+01   3.8326946948e+01    0.1887423    0.1749492 -13.16 0.0007443057    1.168    0.144
       198 -10.2911    225.3370    243.8990   1.0368899193e+02  -9.0539618242e+00    0.2054564    0.1570978  32.18 0.0009810313    1.351    0.260
       199 -11.0784    192.5334     54.7589   6.8965380795e+01   2.9961973426e+01    0.2370385    0.1334705 -30.29      0.00113    2.008    0.502
       200  -9.9982    191.6862     40.5039   6.5718448205e+01   3.2020593591e+01    0.2114947    0.1167985 -34.22  0.001059783    1.939    0.484
       201 -12.5221    223.5475     35.4611   6.0770911432e+01   2.5670790097e+01     0.319793    0.2069234 -49.03  0.001899817    1.455    0.312
       202 -10.5080    168.5847     36.8016   6.8185978395e+01   3.7727448919e+01    0.1783934    0.1163353 -46.09 0.0008722653    1.654    0.395
       203 -10.4666    242.2679    242.5834   1.0034796678e+02  -1.1212467843e+01    0.2192401    0.2103235 -71.92  0.001525181    1.820    0.451
       204 -10.2562    155.5421     16.0147   6.4807001008e+01   4.2893940668e+01    0.1704112    0.1248162 -26.25   0.00103352    1.603    0.376
       205 -10.3897    202.0977    242.4787   1.0789466205e+02  -5.3913908269e+00    0.2289336    0.1744689 -57.70  0.001308329    1.954    0.488
       206  -9.5808    248.5647    240.5457   9.8863509380e+01  -1.1766035770e+01    0.1204792    0.0953487  -2.90 0.0002898236    1.034    0.033
