#   1 NUMBER                 Running object number                                     
#   2 MAG_AUTO               Kron-like elliptical aperture magnitude                    [mag]
#   3 X_IMAGE                Object position along x                                    [pixel]
#   4 Y_IMAGE                Object position along y                                    [pixel]
#   5 X_WORLD                Barycenter position along world x axis                     [deg]
#   6 Y_WORLD                Barycenter position along world y axis                     [deg]
#   7 A_WORLD                Profile RMS along major axis (world units)                 [deg]
#   8 B_WORLD                Profile RMS along minor axis (world units)                 [deg]
#   9 THETA_WORLD            Position angle (CCW/world-x)                               [deg]
#  10 FWHM_WORLD             FWHM assuming a gaussian core                              [deg]
#  11 ELONGATION             A_IMAGE/B_IMAGE                                           
#  12 ELLIPTICITY            1 - B_IMAGE/A_IMAGE                                       
         1 -13.6355    177.3055     38.0986   6.9251147945e+01   3.5585783909e+01    0.9785354    0.5691344 -16.06  0.001072333    2.130    0.531
         2 -14.1803    186.8457     30.0209   6.5550423364e+01   3.4126633070e+01     1.014949    0.9499373 -39.64   0.00402993    1.116    0.104
         3 -14.7083    195.3183     17.6704   6.1045737779e+01   3.3382520196e+01     1.412874     1.040416   6.66  0.002092637    1.843    0.457
         4 -12.7525     41.9016     16.0457   1.0163233317e+02   7.2226959312e+01    0.3995402    0.2472937  -6.83  0.001824229    2.174    0.540
         5 -10.4174     49.3244      2.3246   8.7668509700e+01   7.3001758369e+01    0.1438662   0.09297559  17.22 0.0004140252    1.688    0.408
         6 -11.6709    191.5514    232.0995   1.1053993223e+02   2.0349729955e+00     0.250961    0.2079405 -58.08  0.001438518    2.263    0.558
         7 -19.5860     17.3681    146.6058   1.4324425277e+02   4.2301862625e+01     19.42372     4.392663 -84.54   0.06061748    4.614    0.783
         8 -12.2806     79.8896    182.9705   1.2898796482e+02   2.6752461862e+01    0.4204758    0.2981398 -34.24  0.001511272    1.958    0.489
         9 -12.1990     83.5204    177.1991   1.2735678801e+02   2.7497086895e+01     0.327748    0.2697693 -38.02 0.0009783861    1.514    0.339
        10 -10.7956    199.4074    179.2313   1.0049352899e+02   8.0594133680e+00    0.2965171    0.2201091 -54.19  0.001412533    2.118    0.528
        11 -16.0423     73.8476    152.3506   1.2683437145e+02   3.4644577266e+01     13.65279     5.775712  72.36    0.0121658   13.299    0.925
        12 -10.1119     72.9136    175.6897   1.3001370397e+02   2.9318851621e+01    0.1949531    0.1535485  43.52 0.0003766587    1.098    0.089
        13 -11.0375    119.1235    173.8709   1.1758778999e+02   2.2622987586e+01    0.2293797    0.1834737  53.81  0.001245104    1.268    0.211
        14 -11.5299    137.2878    170.6125   1.1250630797e+02   2.0154421372e+01    0.3584713     0.161227  41.58  0.001462693    1.996    0.499
        15 -12.6330     96.3458    159.3089   1.2136948045e+02   2.9562535925e+01    0.6623187    0.4170879 -30.68  0.002856338    2.339    0.573
        16 -12.0601     58.6662    153.6561   1.3152083546e+02   3.6366319407e+01    0.2840014    0.2173599  57.44 0.0009334943    1.192    0.161
        17 -11.4250    133.5128    143.0411   1.0819591774e+02   2.6526278830e+01    0.6028985    0.1884836 -54.26   0.00171631    4.358    0.771
        18 -10.8326    179.9471    147.9041   9.8224687273e+01   1.6524397883e+01    0.2198014    0.1985489  13.21 0.0006126615    1.033    0.032
        19 -11.7855    107.6035    142.7208   1.1528266566e+02   3.1476129972e+01       0.6084    0.3187386 -34.08  0.002187689    2.912    0.657
        20 -12.3663     95.8166    143.6062   1.1889764024e+02   3.3325711429e+01    0.2857879    0.2659959  14.30 0.0005134572    1.165    0.142
        21 -12.1769    199.2087    199.6041   1.0410462836e+02   5.1854036938e+00    0.3325978    0.2082894  23.69  0.001494166    1.344    0.256
        22  -9.4422     92.7615    206.9847   1.2840658781e+02   2.0065727714e+01    0.1438073    0.1104011 -69.29 0.0007097084    1.571    0.363
        23 -11.2956    114.9432    132.1487   1.1101166874e+02   3.2564303777e+01     0.364208    0.2835655 -10.99 0.0008917433    1.676    0.403
        24 -11.6874    103.9346    129.5131   1.1371919197e+02   3.5266628121e+01    0.6236025    0.3562138  56.03  0.002096899    2.080    0.519
        25 -10.4901    136.0000    128.9697   1.0444244425e+02   2.9057298286e+01    0.2521879   0.08968442 -46.81  0.000804633    2.958    0.662
        26 -10.9332    119.5125    125.9708   1.0832069612e+02   3.3090725699e+01    0.2227773    0.1328014 -27.08 0.0008099838    2.527    0.604
        27 -10.3382    110.2097    120.5699   1.0983139944e+02   3.6200967387e+01    0.2578009    0.2180386 -54.43 0.0002939212    1.234    0.190
        28 -12.4725    190.8759    190.1139   1.0410691471e+02   7.7975994763e+00     1.111514    0.5580407 -56.37  0.003767487    5.942    0.832
        29 -10.1960    135.0000    119.9743   1.0256697958e+02   3.1219137334e+01    0.2577523   0.09071324 -45.99 0.0008046766    2.958    0.662
        30 -12.1627    109.7274    203.9031   1.2406308092e+02   1.8207002435e+01    0.4103794    0.2669165   3.06  0.001988045    2.328    0.570
        31 -10.3770    168.1049    112.9707   9.2655113564e+01   2.5379333063e+01    0.3395719    0.2563102 -80.62  0.001089162    2.021    0.505
        32 -10.7621     65.2777    114.4308   1.2350506691e+02   4.5479420541e+01    0.2093258    0.1325877  43.20 0.0009380882    1.544    0.353
        33 -10.0173    204.8237    110.3701   8.4769242999e+01   1.7958286341e+01    0.2543081    0.1766099  36.67  0.001281749    1.523    0.343
        34 -12.3681     62.4643    104.8829   1.2267480194e+02   4.8377279440e+01    0.5424894    0.3116682 -49.55  0.002332384    1.767    0.434
        35 -11.2209     82.5708    203.8476   1.3051028155e+02   2.2071671690e+01    0.3228775    0.1656006  59.80  0.001524033    2.193    0.544
        36 -11.4766     52.5827     89.6037   1.2337896657e+02   5.3715016282e+01     0.283941    0.2500341  59.33  0.000790267    1.178    0.151
        37 -11.3642    208.9296    188.1762   1.0031123424e+02   5.3123698624e+00    0.2177357    0.1671572 -14.47  0.001051415    1.213    0.175
        38 -10.7732    172.3273    220.3383   1.1259681729e+02   6.2222571024e+00    0.1281145   0.08084006   6.01 0.0007051705    1.729    0.422
        39 -12.0291    194.7640    241.7724   1.1127501200e+02   4.7132293234e-01    0.2113114    0.2011104 -26.94  0.001144057    1.751    0.429
        40 -13.2028    178.2018    241.3187   1.1430085233e+02   2.6632910383e+00    0.4368524    0.1864078  34.21  0.002369755    1.785    0.440
        41 -11.9296    103.0882    236.2269   1.2896264542e+02   1.3525601732e+01    0.2768858    0.1766306  39.51 0.0003767441    1.173    0.148
        42 -11.5941    107.4964    236.9173   1.2809390803e+02   1.2830175376e+01    0.1887146    0.1755042 -56.04 0.0007956745    1.430    0.301
