#   1 NUMBER                 Running object number                                     
#   2 MAG_AUTO               Kron-like elliptical aperture magnitude                    [mag]
#   3 X_IMAGE                Object position along x                                    [pixel]
#   4 Y_IMAGE                Object position along y                                    [pixel]
#   5 X_WORLD                Barycenter position along world x axis                     [deg]
#   6 Y_WORLD                Barycenter position along world y axis                     [deg]
#   7 A_WORLD                Profile RMS along major axis (world units)                 [deg]
#   8 B_WORLD                Profile RMS along minor axis (world units)                 [deg]
#   9 THETA_WORLD            Position angle (CCW/world-x)                               [deg]
#  10 FWHM_WORLD             FWHM assuming a gaussian core                              [deg]
#  11 ELONGATION             A_IMAGE/B_IMAGE                                           
#  12 ELLIPTICITY            1 - B_IMAGE/A_IMAGE                                       
         1 -14.8608      7.0981    147.0191   1.4514500653e+02   4.3540138514e+01     5.803246     1.806854 -85.70   0.02325366    3.472    0.712
         2 -12.0986      2.5183     38.5014   1.2990908557e+02   6.7438317120e+01    0.8319272    0.1779201 -63.63  0.002900551    4.706    0.787
         3 -12.1374      2.2456     12.2999   1.2115107252e+02   7.2262674598e+01     1.235576    0.1951198 -42.04  0.004786281    3.995    0.750
         4 -13.2050    193.3407     29.7216   7.0206272713e+01   3.3074283429e+01     1.404691     1.236329 -43.55  0.007587183    1.143    0.125
         5 -13.4854    206.7861     10.3464   6.3255913355e+01   3.1845988592e+01     1.472033     1.019377  37.53   0.00771014    1.786    0.440
         6 -10.1140      2.2702      3.5132   1.1724152009e+02   7.3693352488e+01    0.4261016    0.1529545 -42.24  0.002336433    2.039    0.510
         7  -9.8192     11.4245    239.6514   1.4996538369e+02   2.4850370604e+01    0.3045844    0.1171495  58.96  0.001372746    1.905    0.475
         8 -11.3372    139.6187    248.7696   1.2897864990e+02   6.4862470033e+00    0.3125233    0.2646293 -56.05  0.002310736    1.505    0.335
         9 -10.9613    125.5709    249.8247   1.3156219808e+02   8.4882480537e+00    0.3725773    0.1416271  37.31  0.001763052    2.466    0.594
        10  -9.3120    111.9942    250.5582   1.3400276085e+02   1.0409941586e+01    0.1777654   0.08849628  43.33 0.0006045261    1.585    0.369
        11 -11.1114     97.6502    247.1188   1.3616772801e+02   1.3035480057e+01    0.3984848    0.2622505  87.22  0.002630921    1.699    0.411
        12 -10.1187    101.4845    246.4993   1.3544359990e+02   1.2582044062e+01    0.1831361    0.1084375 -72.25 0.0007902784    2.006    0.502
        13 -10.7623     35.1253    244.8842   1.4648344333e+02   2.1445929559e+01    0.3690716    0.2394056 -63.10  0.002697287    1.981    0.495
        14 -10.6125      1.7480    239.6675   1.5145420108e+02   2.5784824939e+01    0.5337154    0.1053452 -79.62  0.002409528    4.471    0.776
        15 -10.0143      2.0066    249.2634   1.5177641698e+02   2.4154848244e+01    0.2781414    0.1266016 -84.84  0.001960752    1.879    0.468
        16  -9.2918      5.3317    248.3049   1.5124836010e+02   2.3992776453e+01     0.142949     0.107692  67.21 0.0006566903    1.224    0.183
        17 -13.5192      8.4334    203.9409   1.4871955420e+02   3.1640012094e+01     2.434036    0.8054487 -88.87  0.008393291    2.918    0.657
        18 -10.2398    249.0635    248.9940   1.1029486762e+02  -1.0145888306e+01    0.1781766    0.1302681  17.25  0.001326447    1.011    0.011
        19 -10.2434    173.9089    222.4422   1.1928356138e+02   4.7804013678e+00    0.2860025    0.1925638  45.05  0.001688641    1.283    0.221
        20  -9.0787     69.2400    234.4859   1.4004454763e+02   1.9072884346e+01    0.1580361    0.1437843  84.26  0.001235815    1.346    0.257
        21 -10.2470    230.6214    231.8347   1.1064361197e+02  -5.6618031278e+00    0.2461593    0.2123795 -50.51  0.001530218    1.839    0.456
        22  -8.7381    152.6684    212.9545   1.2192069603e+02   9.9204801612e+00    0.1624814    0.1538105  60.32 0.0004103252    1.130    0.115
        23  -9.2822     34.6853    202.5807   1.4384534609e+02   2.9251612393e+01    0.1791505    0.1423194  62.75 0.0005895292    1.175    0.149
        24 -11.3263     64.4533    198.1667   1.3767978248e+02   2.6542469839e+01    0.3079227    0.2251642 -50.63 0.0007433205    1.789    0.441
        25  -8.1002     51.6360    197.2897   1.4014513680e+02   2.8344277187e+01    0.1280317    0.0699511  65.71 0.0007025523    1.700    0.412
        26 -12.4153     38.8658    232.4246   1.4513287921e+02   2.3180646386e+01    0.2719922    0.2212482 -80.93 0.0007651777    1.404    0.288
        27  -9.5545    192.5816    194.2682   1.1110667380e+02   5.8153579410e+00    0.4574751    0.2352117 -62.64   0.00134745    6.726    0.851
        28 -14.4669     44.7155    224.0842   1.4357204341e+02   2.4006840873e+01      4.99811     1.363372  39.16   0.01298608    3.146    0.682
        29 -11.5258     70.1243    190.2893   1.3569413263e+02   2.7391133520e+01    0.2501557    0.2190232 -72.48 0.0005067521    1.268    0.211
        30 -12.9588     66.7526    175.5697   1.3471492426e+02   3.0958443250e+01    0.4575828    0.2665406 -46.77  0.001488371    2.239    0.553
        31 -10.7250     79.7199    177.5971   1.3211550952e+02   2.8713678562e+01    0.2249588    0.2024006 -86.96 0.0003436271    1.124    0.111
        32  -8.3465    101.4924    177.6030   1.2730471880e+02   2.5362930694e+01    0.1357254    0.1145888  68.98 0.0001935283    1.074    0.069
        33 -11.4985     86.9551    168.2844   1.2920559926e+02   2.9653162854e+01    0.5632691    0.5154473  84.66  0.003578105    1.078    0.072
        34  -9.8310     99.3575    152.1275   1.2367946948e+02   3.1253534944e+01     0.286344    0.2452043 -69.88 0.0007460886    1.126    0.112
        35  -8.9459    102.0176    147.9807   1.2228324772e+02   3.1734264800e+01     0.209429    0.1701045 -24.12 0.0004422686    1.649    0.393
        36 -11.6437     87.9281    151.4034   1.2633584256e+02   3.3259113592e+01    0.2778275    0.2451497 -48.19 0.0006075478    1.275    0.216
        37 -12.2923     67.2032    143.9283   1.3026313086e+02   3.7979642816e+01    0.7302102    0.4816208  75.42  0.003792481    1.704    0.413
        38 -11.3778     58.4344    133.7916   1.3091101948e+02   4.1462458349e+01    0.8408666    0.3349581 -79.53  0.002566468    4.886    0.795
        39  -9.4774    110.5534    137.0221   1.1802089834e+02   3.2694532215e+01    0.3635719    0.2296463 -30.40  0.001542068    2.291    0.564
        40 -10.2276     97.6813    134.4766   1.2078220763e+02   3.5528691718e+01    0.2574663    0.2247367 -31.88 0.0008011527    1.340    0.254
        41 -10.1481     84.0917    134.7858   1.2436680553e+02   3.7653888030e+01    0.2665006    0.2068352  65.55  0.000627952    1.350    0.259
        42  -9.7319     36.1327    133.6617   1.3668386918e+02   4.3999279542e+01    0.1477147    0.1201116  11.27 0.0004019153    1.697    0.411
        43  -9.2893    107.2528    123.9617   1.1605781189e+02   3.6237266354e+01    0.2154662    0.2000216  53.66  0.000298812    1.105    0.095
        44 -10.1128    228.4964    228.0168   1.1038846834e+02  -4.8911543186e+00    0.2802023    0.2034642 -58.29  0.001617473    2.690    0.628
        45 -10.2448    168.0137    113.0577   9.8561846572e+01   2.5765809569e+01    0.3420913    0.2967768 -78.13 0.0007025672    1.332    0.249
        46  -9.0473    203.4630    111.4931   9.0993654424e+01   1.7862304129e+01    0.1502976    0.1421859  -5.97 0.0001386522    1.051    0.048
        47 -10.8058    141.2469    230.3759   1.2647842727e+02   9.0138207648e+00     0.376907    0.1024297  36.80  0.001270533    4.182    0.761
        48  -9.6490     73.4220     86.2912   1.1657908380e+02   5.0345276931e+01    0.2333648     0.203629  66.73 0.0005627761    1.345    0.256
        49  -8.6479    156.6793     76.2898   9.0774093673e+01   3.5424273223e+01      0.15524    0.1217738 -76.85 0.0003379862    1.603    0.376
        50  -8.8598     36.7121     63.9052   1.2309045863e+02   5.9703755175e+01    0.1707891     0.138987 -51.52 0.0003822842    1.073    0.068
        51 -10.4936      5.7356    226.7211   1.5029278540e+02   2.7664965611e+01    0.3881515    0.2143495  31.94  0.002630753    2.319    0.569
        52 -10.3260     29.5483     60.8962   1.2496482311e+02   6.1002482751e+01    0.3314725    0.1954652  38.44  0.001226345    2.100    0.524
        53 -10.1246    107.5655    248.4070   1.3456465150e+02   1.1394420415e+01     0.290736    0.1506596  76.15  0.001417517    3.098    0.677
        54  -8.8177     88.7000    249.2998   1.3789977336e+02   1.3948843649e+01    0.1144922   0.06548775  64.21 0.0002395368    1.581    0.367
        55  -9.5684     46.1435    248.2697   1.4490811238e+02   1.9605654333e+01    0.3202968    0.1118066  65.10  0.001169829    3.055    0.673
        56  -9.8125    234.6570    239.1676   1.1112708102e+02  -7.0864176639e+00    0.1881602   0.09844267 -40.25  0.001066479    2.536    0.606
