#   1 NUMBER                 Running object number                                     
#   2 MAG_AUTO               Kron-like elliptical aperture magnitude                    [mag]
#   3 X_IMAGE                Object position along x                                    [pixel]
#   4 Y_IMAGE                Object position along y                                    [pixel]
#   5 X_WORLD                Barycenter position along world x axis                     [deg]
#   6 Y_WORLD                Barycenter position along world y axis                     [deg]
#   7 A_WORLD                Profile RMS along major axis (world units)                 [deg]
#   8 B_WORLD                Profile RMS along minor axis (world units)                 [deg]
#   9 THETA_WORLD            Position angle (CCW/world-x)                               [deg]
#  10 FWHM_WORLD             FWHM assuming a gaussian core                              [deg]
#  11 ELONGATION             A_IMAGE/B_IMAGE                                           
#  12 ELLIPTICITY            1 - B_IMAGE/A_IMAGE                                       
         1 -14.2494    208.9123     10.0676   4.2146356311e+01   3.1360801262e+01     4.121084      2.17396  26.40   0.01561793    3.781    0.735
         2 -13.1831    172.6464     53.6384   5.9830416694e+01   3.5051850609e+01     1.777711     1.207901  24.21  0.005232895    1.964    0.491
         3 -10.5732    245.3448      1.8722   3.7084510377e+01   2.3615669626e+01    0.6927769    0.1468945  77.85  0.002086483    5.628    0.822
         4  -9.2219    167.8881    231.0032   1.0136004840e+02   3.4467652476e+00    0.1791444    0.1543777  36.40 0.0005130841    1.054    0.051
         5 -13.0575    249.3024    231.4446   8.6852351284e+01  -9.4093944018e+00    0.9296901     0.480725 -24.62  0.005434066    1.969    0.492
         6 -10.6811     57.4070    213.9285   1.2061840742e+02   2.3458425840e+01    0.2247614     0.145756  60.33 0.0008291182    1.261    0.207
         7 -11.2683     44.4356    211.2141   1.2284108421e+02   2.5580239533e+01    0.3230297    0.1724589 -81.34  0.001297126    1.722    0.419
         8  -9.5933    184.1508    213.1087   9.5523335484e+01   3.4055175643e+00    0.1707367    0.1514995  60.59 0.0007987069    1.342    0.255
         9  -9.7475     39.0407    212.6089   1.2394646628e+02   2.5932839656e+01    0.1529018   0.08832353  49.25 0.0009589415    1.489    0.328
        10 -13.0260     49.8176    207.4935   1.2152480895e+02   2.5674954984e+01    0.4927573    0.1921535  58.33  0.002348116    2.459    0.593
        11 -11.3196     70.1540    206.9099   1.1750557493e+02   2.3173243284e+01    0.5058706    0.2795712  25.85  0.001848591    2.776    0.640
        12 -10.9627     60.3285    203.4962   1.1912358944e+02   2.5164298346e+01    0.2421855    0.2176119 -15.66  0.001475671    1.801    0.445
        13  -9.0781     87.8921    202.4491   1.1344795969e+02   2.1546002456e+01    0.1821663    0.1131123  41.17 0.0007338803    1.534    0.348
        14 -10.7402    193.0952    195.0339   9.0655767594e+01   4.6783104030e+00    0.8913223    0.4456228 -60.75  0.002759086    5.887    0.830
        15  -9.2959    205.0162    199.4716   8.9165917831e+01   1.8398086397e+00    0.1913331    0.1006719  22.39   0.00078903    2.455    0.593
        16 -11.4745    151.2576    195.7822   9.9268330087e+01   1.2232175087e+01    0.4798709    0.3810425  20.11  0.002688196    1.428    0.300
        17 -11.4894     62.8473    196.0170   1.1788943115e+02   2.6376668503e+01    0.3296478    0.2222139 -44.22  0.001394523    2.175    0.540
        18  -8.9455     82.5407    194.8021   1.1366584388e+02   2.3901260870e+01    0.2975655    0.1842749  81.16  0.001564225    1.779    0.438
        19  -8.8547     78.7191    193.5765   1.1432678864e+02   2.4710002721e+01    0.1780408    0.1120547  46.12 0.0005164297    1.459    0.315
        20  -8.4242    159.3387    194.6785   9.7404996353e+01   1.0955440305e+01    0.1384578    0.1037809  71.81  0.000705043    1.716    0.417
        21  -9.6366    156.6790    190.0509   9.7166962591e+01   1.2297231920e+01    0.1798136    0.1760709 -26.26 0.0003665783    1.124    0.110
        22 -11.2584    150.4195    188.3738   9.8200694322e+01   1.3775506031e+01    0.3741006    0.2671031  85.02  0.001805751    2.064    0.516
        23 -10.8757    141.3500    188.4647   1.0015271587e+02   1.5427507687e+01    0.2642043    0.1792634 -55.96  0.001359521    1.630    0.387
        24 -11.4665    133.6168    186.1545   1.0144077631e+02   1.7287694452e+01    0.4453153    0.2059806 -59.53  0.001821821    2.620    0.618
        25  -9.7841     62.6590    220.8038   1.2021484144e+02   2.1457870493e+01      0.30194    0.1517611  65.58  0.001642975    1.903    0.475
        26 -10.1836    238.3872    185.1776   8.0333088939e+01  -1.8385435220e+00    0.1780132    0.1141966 -40.07 0.0009485747    1.737    0.424
        27 -11.7406    145.2582    181.7353   9.8158704836e+01   1.6025090738e+01    0.3664305    0.3495948 -78.47  0.001422293    1.116    0.104
        28 -11.9020    142.0939    175.9733   9.7828991564e+01   1.7773381724e+01    0.4641682    0.3698705 -77.11   0.00160394    1.473    0.321
        29 -11.0453     99.2026    180.8561   1.0822104244e+02   2.4299648432e+01    0.2806785    0.2699642  14.49 0.0007073599    1.311    0.237
        30 -12.4941    248.7505    244.6449   8.9087998177e+01  -1.0751953065e+01    0.6011174    0.5734812 -31.67  0.004726515    1.809    0.447
        31  -9.8682    189.2459    178.5317   8.8296658933e+01   8.1832451431e+00    0.3729227    0.2648176  64.89  0.001034702    1.946    0.486
        32  -9.8201    187.7947    173.2739   8.7546176988e+01   9.3951399758e+00    0.4451074    0.2619862 -57.94  0.001616349    2.489    0.598
        33  -8.6382     80.8191    220.3956   1.1675657726e+02   1.9070223758e+01    0.1453739    0.1035745  39.84 0.0003027989    1.440    0.306
        34 -10.3781    240.2982    169.0075   7.6731231297e+01   2.0274197975e-01    0.1911139    0.1577192 -14.29 0.0005427169    1.089    0.082
        35  -9.2472      2.9531    161.7858   1.2743561705e+02   4.0045612697e+01    0.1636713    0.1102262  73.18 0.0004505788    1.239    0.193
        36 -10.9632     92.4582    158.0133   1.0626618867e+02   3.0470116544e+01    0.2621584    0.2503059 -65.80 0.0004281144    1.161    0.139
        37 -11.7407     97.8594    151.3975   1.0380324745e+02   3.1113884140e+01    0.5831819    0.4408187 -33.38  0.002966134    1.701    0.412
        38  -9.3298    149.2383    155.8945   9.2333709821e+01   2.0526063196e+01    0.3036051    0.1796917 -69.84  0.001140987    2.739    0.635
        39 -10.8072    134.2938    147.6139   9.4114556250e+01   2.5299642368e+01    0.8705738    0.2667519 -53.99   0.00256521    3.858    0.741
        40 -10.0048    133.0000    140.9782   9.3007787263e+01   2.7023908656e+01    0.5175191    0.2099184 -55.91  0.001740256    2.894    0.654
        41  -9.3422    187.4129    152.2125   8.3176624598e+01   1.3348413487e+01    0.2073971    0.1397487 -49.80 0.0006446616    1.640    0.390
        42  -9.8323    113.4477    151.5927   9.9985899773e+01   2.8363438416e+01    0.3208437    0.2188421  85.31   0.00111896    1.979    0.495
        43  -9.4067    174.6890    148.9861   8.5158588033e+01   1.6651388764e+01     0.212021    0.1942681 -39.18 0.0005056377    1.116    0.104
        44 -10.4277    142.6891    143.0343   9.1118661616e+01   2.4606203410e+01    0.5458724     0.256708 -65.88   0.00147411    5.005    0.800
        45  -9.0144     92.7963    147.5699   1.0438884291e+02   3.2834087416e+01    0.2323053    0.1631827 -69.03  0.001063574    1.400    0.286
        46 -11.3819    108.6572    138.3758   9.8569335558e+01   3.2261894477e+01    0.6269677    0.3978263 -43.07  0.002858039    1.694    0.410
        47 -11.8209     97.2688    137.3141   1.0130847288e+02   3.4498221532e+01    0.3228651    0.2892076 -84.44 0.0003573837    1.071    0.066
        48 -10.8939    106.0369    130.7843   9.7653696600e+01   3.4499530836e+01    0.4113401    0.3371331 -68.93  0.001206796    1.216    0.178
        49 -10.0405    135.7567    128.8574   8.9571354478e+01   2.9153398971e+01    0.3665513    0.1293243 -49.10  0.001178209    2.870    0.652
        50 -10.4252    115.5312    128.9604   9.4757354304e+01   3.3164703682e+01    0.3405884    0.2857178 -28.71 0.0006423995    1.366    0.268
        51  -9.6536    161.4316    128.7937   8.3408322860e+01   2.3634809148e+01     0.391509    0.2962619  74.75  0.001762334    1.710    0.415
        52 -10.5386    103.4003    124.5847   9.6998653863e+01   3.6420453081e+01    0.2855907    0.2463221 -15.21 0.0005571933    1.419    0.296
        53 -10.4548    120.9794    122.5867   9.1853467404e+01   3.3566098831e+01     0.463043    0.2852323 -18.56  0.001617932    3.185    0.686
        54  -9.2178    152.0536    119.1629   8.3205447635e+01   2.7745627525e+01    0.3006072    0.2031501 -69.56  0.000805237    2.078    0.519
        55 -10.0612     75.1774    249.1121   1.2027333309e+02   1.4747626787e+01     0.280466    0.0810606 -58.29  0.001282188    4.085    0.755
        56  -9.4395    110.8003    118.1747   9.3510586444e+01   3.6548107720e+01    0.2167953    0.1981569 -88.70  0.000349545    1.136    0.120
        57  -9.9424    231.3186    113.7390   6.5834622401e+01   1.0874590692e+01    0.2607515    0.2472708  -0.46 0.0007719881    1.071    0.066
        58  -9.5749    167.4623    112.4476   7.7894585861e+01   2.5628501935e+01    0.3399189    0.2590646 -79.95  0.001493025    1.785    0.440
        59 -10.2842    134.7256    107.5483   8.4464523205e+01   3.4061215869e+01     0.843014    0.1335094 -45.62   0.00179971    6.288    0.841
        60 -11.3071    119.3806    110.0960   8.9177067723e+01   3.6712402141e+01    0.5136336    0.4174449  83.75  0.001832468    1.503    0.335
        61  -9.6154    205.2686    110.0339   6.9497406081e+01   1.7294057023e+01    0.3226956    0.2195859  39.22  0.001084658    1.581    0.368
        62  -9.2926    185.1300     84.9017   6.6630010896e+01   2.6658652536e+01    0.2466802    0.2131477 -70.60  0.001226409    1.270    0.213
        63 -10.9161     71.9641    245.1655   1.2051915947e+02   1.5841177020e+01    0.2217146    0.1614224 -73.95  0.001497824    1.520    0.342
        64 -12.6443    192.1715     33.7052   5.0679041435e+01   3.2829903462e+01     0.567028    0.4956846  35.39  0.001474495    1.284    0.221
        65 -19.4734     28.0068    147.4261   1.2053084218e+02   4.1134317350e+01      19.1792      4.85546 -74.30    0.0678025    3.764    0.734
        66 -13.0792    187.3734     39.7962   5.3160827546e+01   3.3257893873e+01    0.8664816    0.7864217  78.56  0.002863997    1.065    0.061
