#   1 NUMBER                 Running object number                                     
#   2 MAG_AUTO               Kron-like elliptical aperture magnitude                    [mag]
#   3 X_IMAGE                Object position along x                                    [pixel]
#   4 Y_IMAGE                Object position along y                                    [pixel]
#   5 X_WORLD                Barycenter position along world x axis                     [deg]
#   6 Y_WORLD                Barycenter position along world y axis                     [deg]
#   7 A_WORLD                Profile RMS along major axis (world units)                 [deg]
#   8 B_WORLD                Profile RMS along minor axis (world units)                 [deg]
#   9 THETA_WORLD            Position angle (CCW/world-x)                               [deg]
#  10 FWHM_WORLD             FWHM assuming a gaussian core                              [deg]
#  11 ELONGATION             A_IMAGE/B_IMAGE                                           
#  12 ELLIPTICITY            1 - B_IMAGE/A_IMAGE                                       
         1 -14.1875    175.1072     33.9063   7.3297437375e+01   3.7379482123e+01     1.117232    0.8993344  14.66   0.00396575    1.590    0.371
         2 -12.7734    178.9344     26.7651   7.0725712443e+01   3.7303952064e+01    0.5420403    0.4343077  30.83  0.001500904    1.493    0.330
         3 -12.7773    119.9266     14.5199   7.7695079662e+01   5.2669079079e+01    0.9640749    0.3968938  41.87  0.004167885    2.296    0.564
         4 -11.6361    189.7197     14.7572   6.6047375919e+01   3.5998263616e+01    0.2160565    0.1717787 -27.63 0.0009041872    1.479    0.324
         5 -12.9664    192.9620      3.0715   6.2717855141e+01   3.6403503035e+01    0.7861743     0.350736  70.87  0.003670424    1.909    0.476
         6 -10.4758      4.1113      2.0533   1.1246560984e+02   7.1849400318e+01    0.3020635    0.1083112  15.29  0.001545968    3.460    0.711
         7 -10.3990    100.3500    231.2171   1.3408435826e+02   1.3593364622e+01     0.168396    0.1321571  81.77 0.0005626048    1.175    0.149
         8 -15.9789    239.4214    160.6237   9.3540140370e+01   6.2187044995e-01     4.597343     1.495402 -36.06  0.005401499    3.044    0.671
         9 -16.2709    150.2112    181.1264   1.1601907393e+02   1.4843107928e+01     2.631873     1.851764 -73.32   0.01073153    1.779    0.438
        10 -16.7644    194.1476    192.5422   1.0887554102e+02   3.7535087386e+00     3.821224     2.044631 -50.70   0.01624289    2.185    0.542
        11 -17.6037    183.3625    232.6521   1.1812780374e+02  -1.1388238205e+00     4.505346     2.709465  57.64   0.02233684    1.999    0.500
        12 -10.5953    116.8113    248.9005   1.3303924170e+02   7.6720435520e+00    0.1708497    0.1556371 -62.89 0.0006352986    1.387    0.279
        13 -19.5565     45.6036    144.4039   1.3457528751e+02   4.0536707640e+01     20.64391     2.504861 -64.84   0.04720321    7.921    0.874
        14  -9.7826     70.1071    207.0794   1.3723247951e+02   2.3134236208e+01    0.1741575    0.1537571  67.33 0.0006450261    1.198    0.166
        15  99.0000     12.1588    205.4309   1.4806366076e+02   3.0446144624e+01     0.320825     0.278953  66.77   0.00253537    1.365    0.267
        16 -10.3783     82.6978    194.0626   1.3303456980e+02   2.4103892419e+01     0.337061    0.3060444  22.41  0.001475683    1.502    0.334
        17  -9.8276     84.4469    187.3018   1.3173285226e+02   2.5343781228e+01    0.6147913    0.5494517  56.34  0.003803187    1.198    0.165
        18  -9.7454     23.4089    227.8351   1.4767833750e+02   2.4762161353e+01    0.1212029   0.08489798 -81.09 0.0003195378    1.285    0.222
        19  -9.5407     99.5372    180.5405   1.2735432502e+02   2.4434058728e+01    0.1404079    0.1260542  83.79 0.0001400479    1.024    0.023
        20 -11.8509     94.3126    172.8938   1.2732317724e+02   2.7058048448e+01    0.7308412    0.2962736 -43.04  0.002456063    3.789    0.736
        21 -10.0733     87.0771    224.6458   1.3587889264e+02   1.6973447378e+01    0.2026916    0.1404725  45.47 0.0006181991    1.395    0.283
        22  -9.7390      1.6242    177.2598   1.4792557876e+02   3.7329106512e+01    0.1015292   0.07965736  86.16 0.0007432898    1.109    0.099
        23 -10.4691    100.6200    161.8566   1.2393698308e+02   2.8565683978e+01    0.2058188    0.1978719  50.46 0.0004518476    1.171    0.146
        24  -9.8819     14.1382    160.0803   1.4383929775e+02   4.0038619055e+01    0.1762413    0.1297888 -64.92 0.0005703361    1.268    0.211
        25 -12.6481     90.0681    156.3643   1.2552057585e+02   3.1617854634e+01    0.3606555    0.2906909 -29.34  0.001145505    1.628    0.386
        26 -13.2663    162.5962    153.8436   1.0761362703e+02   1.8128663911e+01     0.696577    0.4792977 -66.79  0.003020269    1.799    0.444
        27 -10.9471    140.0090    156.5201   1.1342990824e+02   2.2320796212e+01    0.2631242    0.2088205 -72.58 0.0003446667    1.375    0.273
        28 -11.0358    104.4759    154.9721   1.2171776944e+02   2.9508157416e+01    0.5258695    0.3056938 -42.16  0.001820535    1.991    0.498
        29 -12.6778    133.8153    144.7341   1.1236947998e+02   2.6269957243e+01     1.116351    0.2780144 -54.18  0.002675934    5.377    0.814
        30 -13.0270    174.8844    148.8897   1.0375305715e+02   1.6492852791e+01    0.4268912    0.3897156 -59.31  0.001538295    1.120    0.107
        31 -13.0717    145.0424    145.8443   1.0990857607e+02   2.3671172811e+01    0.5338236    0.3896111  68.37  0.002407039    1.612    0.380
        32  -9.9479     91.6064    148.1150   1.2361949867e+02   3.3318440671e+01    0.2359662    0.1839836  58.78 0.0006809893    1.327    0.247
        33 -15.9539    216.0962    194.0605   1.0482262956e+02  -7.3680413235e-01     2.111217     1.624173 -30.51  0.008210833    1.318    0.242
        34 -11.2484    113.5295    139.4113   1.1626484894e+02   3.1504223300e+01    0.4786279    0.2458027 -37.12  0.001772427    2.559    0.609
        35 -11.2906    102.7097    139.9055   1.1914475334e+02   3.3366116574e+01     0.271138    0.2581524 -57.21 0.0004679217    1.086    0.079
        36 -16.1822    156.3688    217.1567   1.2099904676e+02   6.4668697683e+00     1.768406     1.365469  65.14  0.009185388    1.369    0.270
        37 -10.1403     21.7326    222.9876   1.4762911943e+02   2.5901580714e+01    0.1114833   0.07498487  89.86  0.000386206    1.151    0.131
        38 -16.2507    232.5569    178.9503   9.8652569449e+01  -1.2413799302e+00     2.972378     2.059955 -51.14  0.009186776    1.711    0.416
        39 -10.6126    105.9704    130.9720   1.1636003670e+02   3.4873294558e+01    0.3429553    0.2851479  74.78  0.001294314    1.327    0.246
        40 -10.5308    106.8991    126.6172   1.1512495842e+02   3.5714339372e+01    0.3630567    0.2113611 -39.41 0.0008907693    1.891    0.471
        41 -11.2013    118.7425    130.3042   1.1287825978e+02   3.2613788513e+01    0.3060583    0.2762237  19.90 0.0008915173    1.265    0.209
        42 -13.4798    160.0463    129.0920   1.0242667279e+02   2.4070942899e+01    0.6718119    0.5271055 -14.14  0.003053578    1.650    0.394
        43 -12.1080    135.6024    122.4889   1.0669610807e+02   3.0927130194e+01    0.5745032    0.2238911 -50.82  0.001902336    2.680    0.627
        44 -10.1261     81.5637    220.3610   1.3646461745e+02   1.8678187018e+01    0.2581493    0.1328547  46.32  0.001331172    1.739    0.425
        45 -11.1781     85.0949    121.4900   1.1987433484e+02   4.0632431013e+01    0.2671512    0.2345278 -69.81  0.001087884    1.102    0.092
        46  -9.9902    113.0916    119.1578   1.1170348338e+02   3.6259232481e+01    0.2219624    0.2052792 -15.84 0.0004428056    1.194    0.162
        47  -9.5485     30.5800    213.5440   1.4537870202e+02   2.6826717180e+01    0.1154312   0.08756127  84.79 0.0008028651    1.058    0.055
        48 -11.3208    168.6906    113.6667   9.6570827659e+01   2.5336708516e+01    0.3460823    0.2644013 -84.05  0.001107083    1.685    0.407
        49  -9.3982     81.2074    209.5598   1.3529235816e+02   2.0974972590e+01    0.1333408   0.08270162  84.62 0.0003752311    1.703    0.413
        50 -11.5977    205.3742    110.3653   8.8185658403e+01   1.7290698440e+01    0.3708374    0.2600072  39.69  0.001193731    1.594    0.373
        51 -13.8933    182.0738    103.5543   9.1059831281e+01   2.4176569171e+01     0.959119     0.903117  28.88  0.002559212    1.147    0.128
        52 -12.5674    180.7851     94.0885   8.8833320777e+01   2.6315583387e+01    0.6969326    0.4169608 -51.78  0.002886043    1.787    0.440
        53 -11.4319    220.3921    103.7647   8.3871542199e+01   1.5026392804e+01    0.4224783    0.2535236  37.07  0.001769624    2.140    0.533
        54 -11.7139    125.0178    127.3850   1.1057629882e+02   3.2030789385e+01    0.4020709    0.2540824  68.31   0.00159146    2.253    0.556
        55 -12.7892    166.4970     87.3145   9.0002454161e+01   3.1080341001e+01    0.8371878    0.7120683  49.67  0.002516303    1.170    0.145
        56 -11.5953    193.5986     86.2904   8.4268885143e+01   2.4616261100e+01     0.527588    0.3976491  26.33  0.002226203    1.734    0.423
        57 -12.0038    180.9815     70.2103   8.2336116158e+01   3.0547056185e+01    0.5270901    0.4126911  87.88  0.002106934    1.421    0.296
        58 -11.9458     74.9675     67.6728   1.0872119637e+02   5.3659507578e+01    0.7295167    0.3821861 -24.73  0.002876381    2.566    0.610
        59 -11.6584    190.7525     63.9151   7.8861524669e+01   2.9141799566e+01    0.7716617    0.3314329 -48.22  0.002847028    2.519    0.603
        60 -12.3075    182.1280     61.4630   7.9725568531e+01   3.1687906381e+01    0.5577195    0.4648983  41.58   0.00239661    1.292    0.226
        61 -12.0952     77.1605    203.6892   1.3541067973e+02   2.2834892730e+01    0.5780016    0.2549481 -51.16  0.002365679    2.744    0.636
        62 -12.9064    161.9191     49.1183   8.0015201124e+01   3.8592162248e+01    0.4890563    0.4682178 -61.71  0.000992132    1.092    0.084
        63 -11.2651     11.5955    248.6933   1.5081859108e+02   2.2114449056e+01    0.1142451   0.07677427 -76.00 0.0008559664    1.518    0.341
        64 -10.7980    244.1677    246.5733   1.0918291505e+02  -1.3100030300e+01     0.379284    0.1892297  24.48   0.00199009    1.992    0.498
        65 -10.1339      1.5542    248.7540   1.5231769491e+02   2.3145226210e+01   0.09241796   0.06716364  68.53 0.0007433307    1.212    0.175
        66  -9.7157    250.4078    237.7204   1.0658293578e+02  -1.2926062500e+01    0.1589022    0.1003767 -16.77 0.0009449884    1.592    0.372
        67 -11.5881     93.9414    237.6096   1.3600662034e+02   1.3388128812e+01    0.2134615    0.1650183  66.16 0.0002967242    1.037    0.035
