#   1 NUMBER                 Running object number                                     
#   2 MAG_AUTO               Kron-like elliptical aperture magnitude                    [mag]
#   3 X_IMAGE                Object position along x                                    [pixel]
#   4 Y_IMAGE                Object position along y                                    [pixel]
#   5 X_WORLD                Barycenter position along world x axis                     [deg]
#   6 Y_WORLD                Barycenter position along world y axis                     [deg]
#   7 A_WORLD                Profile RMS along major axis (world units)                 [deg]
#   8 B_WORLD                Profile RMS along minor axis (world units)                 [deg]
#   9 THETA_WORLD            Position angle (CCW/world-x)                               [deg]
#  10 FWHM_WORLD             FWHM assuming a gaussian core                              [deg]
#  11 ELONGATION             A_IMAGE/B_IMAGE                                           
#  12 ELLIPTICITY            1 - B_IMAGE/A_IMAGE                                       
         1  -9.7202     11.0373     34.2070   1.1293605748e+02   6.7887674669e+01    0.5498971    0.2991952 -37.51  0.002980746    1.758    0.431
         2 -10.4017     50.2851     35.9241   9.6549546267e+01   6.3805126507e+01     0.829169    0.5168831 -67.95  0.004039487    2.361    0.576
         3  -9.4972     39.4251      7.4735   8.8450200209e+01   7.0232222380e+01    0.4113838    0.2761542 -17.94  0.001757734    1.417    0.294
         4 -10.7390     39.5197     29.9820   9.8754359589e+01   6.6250878739e+01     0.844089    0.3138828 -51.51  0.003727942    2.319    0.569
         5 -11.9256     44.6217     21.8905   9.3126682504e+01   6.7144137594e+01     1.137046    0.9221205 -74.33  0.006649949    1.839    0.456
         6 -11.8592    129.4568     15.5726   6.3152316680e+01   5.1516647650e+01     1.601781     1.371517  39.94  0.008798837    1.131    0.116
         7 -11.4095    109.3402      4.5487   6.2830545194e+01   5.7585618098e+01      1.95164    0.5469666  64.18   0.00608819    4.151    0.759
         8 -11.2310    131.3531      3.3928   5.7730685577e+01   5.2328608887e+01     1.455903    0.3920237  64.10  0.004711321    3.407    0.706
         9 -10.5840    121.1099      3.9532   5.9974817425e+01   5.4826779957e+01    0.6116598    0.4900908  75.57  0.002696431    1.384    0.278
        10 -13.7322    166.8246     11.5523   5.5035509385e+01   4.2229238399e+01       3.2253     2.151442  68.84   0.01516516    1.472    0.321
        11  -9.7506    116.3649     16.5026   6.6486222765e+01   5.4582656333e+01    0.8538342    0.3094611 -36.00  0.003148046    2.661    0.624
        12  -9.5118     70.4571     13.5000   7.8686050842e+01   6.4560493017e+01    0.3744158    0.3111736   1.38  0.002303487    1.126    0.112
        13 -11.1403     78.0841     15.5197   7.7005371040e+01   6.2881266928e+01    0.9584293    0.5055691 -27.29  0.004557277    1.784    0.439
        14 -10.2550     71.7170      5.9122   7.4341616443e+01   6.5358794020e+01    0.5631384    0.4570124  31.74  0.002930779    1.235    0.191
        15 -11.2435     84.1538      3.9972   6.9289422016e+01   6.3170856056e+01    0.8117327    0.5070095  47.21  0.003143199    1.587    0.370
        16  -9.5523     93.7943     17.7454   7.3069350256e+01   5.9456500275e+01    0.4231308    0.3722974 -46.81  0.001690489    1.297    0.229
        17 -10.2915    244.3205      3.0008   4.4397668368e+01   2.3038217654e+01    0.3748206    0.3215825  74.91   0.00229767    1.230    0.187
        18 -10.6588    249.2668     13.7376   4.6789115877e+01   2.0783784328e+01     0.679717    0.3884347 -14.46  0.003241915    1.943    0.485
        19  -9.7965    250.0130      5.7716   4.4696461118e+01   2.1426043664e+01    0.6753316    0.1866085 -31.39   0.00256939    2.749    0.636
        20  -8.1316     19.8068     14.7025   1.0177215041e+02   7.1103770524e+01    0.5132346     0.225961 -30.18   0.00244756    2.644    0.622
        21  -8.5120      8.7679     16.2449   1.0816901521e+02   7.1652796558e+01     0.328133     0.120836 -33.24  0.001477741    3.144    0.682
        22  -9.2371     62.5475     15.3835   8.2592558098e+01   6.5625918475e+01    0.4189128    0.3552313  72.44  0.002534451    1.780    0.438
        23  -8.4172     49.6013      6.2785   8.3184764594e+01   6.9001143817e+01    0.2332618    0.1374889 -14.88 0.0009195145    1.856    0.461
        24  -8.8791     52.0176      2.6272   8.0121323226e+01   6.9147958831e+01    0.3000338    0.2375247 -23.05  0.001602929    1.119    0.106
        25  -9.2121     55.3646      7.9212   8.1633682645e+01   6.7883639982e+01    0.4735722    0.2791974  63.85  0.002068032    3.722    0.731
        26 -10.1484     60.3506      2.8944   7.6893798958e+01   6.7757474371e+01    0.6119857    0.4175364  16.32  0.003510206    1.537    0.349
        27  -9.5187    103.8688     11.7267   6.7487307905e+01   5.8042120672e+01    0.4635573    0.3058085 -13.73  0.001846625    1.533    0.347
        28 -11.4509    155.5718     20.7096   6.0140067946e+01   4.4204620815e+01    0.9523448    0.5512004  64.51  0.002983443    1.715    0.417
        29  -9.9030    230.6535      6.4055   4.6362108723e+01   2.6015966177e+01    0.3771185     0.232558 -26.38  0.001885069    1.551    0.355
        30 -11.0008    200.6775      8.0188   4.9648074968e+01   3.3540881338e+01    0.5596549    0.2749407  77.27  0.002319786    2.112    0.526
        31 -10.2706    221.3328      2.5555   4.6077316596e+01   2.8726044839e+01    0.5523467    0.3495212 -89.02  0.002731324    1.642    0.391
        32  -9.0277     17.3014      2.4321   9.7245645321e+01   7.3501888996e+01    0.3397842    0.2222346 -57.55  0.002073817    1.840    0.457
        33  -8.6949     26.8732      3.0114   9.2315335365e+01   7.2441394447e+01    0.2778566    0.2257868  -4.55  0.001983534    1.202    0.168
        34  -8.7432     40.3370      1.6451   8.4788980942e+01   7.0992328530e+01     0.277371    0.1332659  35.88  0.001448629    2.304    0.566
        35 -10.0126    213.0194      4.8447   4.7471240654e+01   3.0630916453e+01    0.3459728    0.1975488  72.95  0.001611441    1.727    0.421
        36  -9.2636    227.9874     79.0204   6.6607275550e+01   1.7610273346e+01    0.4742636    0.3005362  -2.50  0.001868529    2.060    0.514
        37  -8.3170     44.2952     66.3288   1.0830657598e+02   5.8106426261e+01    0.1310205   0.08458079 -38.51 0.0004142371    1.631    0.387
        38  -9.2964     48.9402     61.6966   1.0544845798e+02   5.8608744724e+01    0.3509515    0.2655918  26.82  0.002113276    1.596    0.373
        39  -7.8600     75.6667     60.6835   9.5914264624e+01   5.5173344571e+01    0.1397552    0.1031618 -18.76 0.0007047409    1.690    0.408
        40  -9.2943    199.0278     55.2443   6.4344237416e+01   2.8154820326e+01    0.3033502    0.2416957  36.05 0.0005673554    1.357    0.263
        41  -8.9946     66.1438     53.7352   9.6909988449e+01   5.8061197243e+01    0.3966907    0.1760709 -59.26  0.001548147    2.739    0.635
        42  -8.4516     22.9244     52.1861   1.1269249250e+02   6.3211612054e+01    0.2276026    0.1458254 -51.98  0.001069669    1.260    0.206
        43 -10.3236     84.7588     48.0211   8.8560829441e+01   5.6189588912e+01    0.7674571    0.4615536 -56.64  0.003507643    1.962    0.490
        44  -9.8488     82.5232     38.8977   8.5807690354e+01   5.8281804405e+01    0.4820839    0.2903887 -55.07  0.002215355    2.028    0.507
        45  -8.7146     97.5426     44.0020   8.3010545299e+01   5.4525578990e+01    0.2223819    0.1321515 -38.10 0.0004751242    1.566    0.362
        46 -10.2096      3.2933     40.3495   1.1790329138e+02   6.7032250650e+01    0.3841553    0.3285848  80.03   0.00223318    1.376    0.273
        47  -9.9162    183.9903    246.8858   1.0662074721e+02   2.8800629270e+00     0.303257    0.1056144  50.00  0.001454113    2.834    0.647
        48  -9.9854    169.4122    242.1146   1.0838586412e+02   5.5917754124e+00    0.2096081    0.1420659 -47.51  0.001507452    2.003    0.501
        49  -9.5191    160.1683    240.1718   1.0966009890e+02   7.2149896000e+00    0.1675618    0.1246039  34.71  0.001239829    1.214    0.176
        50 -10.5073    202.4273    225.4244   1.0091800132e+02   2.4208318472e+00    0.2821902    0.1502139  42.54  0.001710808    1.486    0.327
        51  -8.6424    211.6516    224.6894   9.9327301509e+01   1.0664913956e+00    0.1171627   0.07060945  20.79  0.000152928    1.713    0.416
        52  -8.8194     68.0904     37.1605   9.0175209589e+01   6.1029734292e+01    0.3865004    0.2854443  82.05  0.001914558    2.424    0.587
        53  -9.4211     66.6958     29.6284   8.7576470094e+01   6.2611875804e+01    0.4463472    0.2061078 -37.10  0.002008505    1.953    0.488
        54  -9.4087     86.3985     31.4957   8.1480156336e+01   5.8847246206e+01    0.5355517    0.3264635  18.24  0.002338363    2.402    0.584
        55 -10.3813    225.3666     29.1330   5.3192925523e+01   2.4864693233e+01    0.4832545     0.391104  28.50   0.00148501    1.434    0.303
        56  -9.3909    246.8640    205.8783   9.0872551247e+01  -2.4217649402e+00     0.202171    0.1250753 -11.35   0.00128325    1.675    0.403
        57  -9.8674    123.9971    205.9903   1.1196122093e+02   1.7620920839e+01    0.1670618    0.1346001  55.44            0    1.006    0.006
        58  -8.7731    238.5916    202.7703   9.1646406960e+01  -8.1946994280e-01    0.1415867    0.1044206 -32.88 0.0009482935    1.665    0.399
        59 -11.6495      9.9159    140.5682   1.2865534564e+02   4.4609508130e+01    0.6025699    0.4798184  72.01  0.004635348    1.160    0.138
        60 -12.6815    241.0212    132.9281   7.7730621974e+01   7.2053829454e+00     1.530102      1.03046  45.85  0.005774795    1.514    0.340
        61  -8.2917     97.3645     28.4828   7.6772774881e+01   5.7151192728e+01    0.4957513    0.2466144 -12.57  0.001661889    3.676    0.728
        62  -8.6983     27.4487     35.3712   1.0598635561e+02   6.6396008990e+01     0.234583    0.1850871   7.80  0.001517244    1.527    0.345
        63  -9.9901     75.8398     26.7197   8.2983667367e+01   6.1569630059e+01    0.4968666    0.2615502  49.63  0.002315797    2.212    0.548
        64  -8.9364    104.6597     26.1928   7.3689348914e+01   5.5942584676e+01    0.3887703    0.2777424  74.39  0.001878303    1.917    0.478
        65  -8.4227     19.2682     22.4225   1.0517736470e+02   6.9680669711e+01    0.2257829    0.1767546  55.81 0.0008737029    1.863    0.463
        66  -8.1379     24.4176     26.1231   1.0410239475e+02   6.8520045810e+01    0.3060511    0.1079068  37.99    0.0013735    3.656    0.726
        67  -9.1681    182.1166     40.8947   6.2603103449e+01   3.4583263904e+01    0.2481661    0.2031767 -60.84 0.0007790907    1.307    0.235
        68  -9.6204     11.4401    127.8160   1.2731810771e+02   4.7210286337e+01    0.2928189   0.08149951 -73.47   0.00131751    2.705    0.630
        69  -8.7937    111.1782     16.3738   6.7701456316e+01   5.5809871645e+01    0.3653385    0.2467822  53.74  0.001398413    1.486    0.327
        70  -8.0632     22.4739    125.4873   1.2443366935e+02   4.6812837647e+01    0.1174477   0.09112108 -86.55 0.0001249727    1.034    0.033
        71  -8.9709     40.4927    142.5204   1.2189549538e+02   4.1357979437e+01    0.2178081     0.112275  35.27  0.001172793    2.137    0.532
        72 -10.2364     10.7713    117.8322   1.2660963633e+02   4.9434967383e+01    0.3267441    0.1603614  51.35  0.001903214    2.032    0.508
        73  -7.9037    192.5354    116.5376   8.2323024462e+01   1.9872409422e+01    0.1458973     0.137803  12.51 0.0001550986    1.026    0.026
        74  -8.1004     24.9520    117.0000   1.2290668296e+02   4.8475988600e+01    0.1635752   0.06688998  28.90   0.00060861    2.933    0.659
        75  -9.2283     20.0921    108.1460   1.2317554245e+02   5.0864574389e+01    0.3264364    0.1656599 -77.64  0.001803733    1.591    0.372
        76  -9.0869     16.4855    104.1614   1.2369561971e+02   5.2040346799e+01    0.3454939    0.1965686 -75.59  0.002078013    1.370    0.270
        77  -9.3536     29.9876    102.1040   1.1965920407e+02   5.1385653220e+01    0.3132643    0.1619949 -56.45  0.001302144    1.736    0.424
        78  -9.1289     47.1555     99.2919   1.1428710802e+02   5.0313442887e+01    0.2356612    0.1476887 -58.22 0.0008999715    1.400    0.286
        79 -11.9294     43.3394     82.3180   1.1224574638e+02   5.4604460158e+01    0.9127261    0.8674632  58.08  0.006347902    1.235    0.190
        80 -10.1319     24.6417     65.8865   1.1515365437e+02   6.0048927643e+01    0.6364946    0.2225056 -59.22   0.00265684    2.098    0.523
        81 -10.9365      4.7379     76.5250   1.2372966943e+02   5.9017770022e+01    0.7058896    0.4063137  56.09  0.004291735    2.002    0.500
        82 -11.3433     14.7707     72.9736   1.1988837508e+02   5.9187829308e+01    0.8791789     0.568005  85.89  0.005379965    1.581    0.367
        83  -7.9113     71.3188     80.3469   1.0293148571e+02   5.1564239180e+01     0.139463   0.09960338 -29.87 0.0001365489    1.729    0.422
        84  -8.8773      2.3931     88.7596   1.2595925081e+02   5.6425120482e+01    0.2546277    0.1663055  84.42  0.001682332    1.346    0.257
        85  -9.2783    226.2922     14.1667   4.8892422927e+01   2.6305487989e+01    0.3693252    0.1861929  78.54  0.001593792    2.135    0.532
        86  -8.3445    139.0205     78.7067   8.3552099978e+01   3.9085197862e+01    0.2138504    0.2043227  65.14 0.0006456735    1.078    0.073
        87  -7.5446    135.6653     76.3372   8.3650721595e+01   4.0302136430e+01    0.2194584    0.1613798  70.54  0.001001206    1.648    0.393
        88  -7.4098     77.3314     78.3250   1.0053802409e+02   5.1116522342e+01    0.1395185    0.1038199 -24.68 0.0007050717    1.706    0.414
        89  -7.4144     63.3213     77.3118   1.0468902457e+02   5.3354862421e+01    0.1340287   0.09658937 -31.47 0.0004188493    1.651    0.394
        90  -8.4779    125.4739     29.5338   6.9703193802e+01   5.0684541656e+01    0.2671331    0.2569516   1.48  0.001514407    1.013    0.013
        91  -9.2543     40.0764     15.1279   9.2029649738e+01   6.8893397033e+01    0.2325858    0.1819219  31.11  0.001498337    1.496    0.331
        92  -8.0628    101.3025     83.6766   9.4911441373e+01   4.5892891528e+01    0.1456834    0.1115266 -85.24 0.0004054634    1.635    0.388
        93  -8.6788     83.3330     69.3614   9.6125606130e+01   5.2103409394e+01    0.2762001    0.1993228 -89.09  0.001323974    2.010    0.502
        94  -8.1768     43.8964     38.7668   1.0019552126e+02   6.4020887251e+01    0.2442633    0.1635278 -76.50  0.001252228    2.240    0.554
        95  -9.4037     73.7244     68.7471   9.9006715032e+01   5.3758391747e+01    0.3496458    0.2731039  33.20  0.001802639    1.471    0.320
        96  -8.1909     33.5332     68.9546   1.1268354944e+02   5.8595665521e+01    0.2162349    0.1694239 -22.76  0.001219156    1.582    0.368
