#   1 NUMBER                 Running object number                                     
#   2 MAG_AUTO               Kron-like elliptical aperture magnitude                    [mag]
#   3 X_IMAGE                Object position along x                                    [pixel]
#   4 Y_IMAGE                Object position along y                                    [pixel]
#   5 X_WORLD                Barycenter position along world x axis                     [deg]
#   6 Y_WORLD                Barycenter position along world y axis                     [deg]
#   7 A_WORLD                Profile RMS along major axis (world units)                 [deg]
#   8 B_WORLD                Profile RMS along minor axis (world units)                 [deg]
#   9 THETA_WORLD            Position angle (CCW/world-x)                               [deg]
#  10 FWHM_WORLD             FWHM assuming a gaussian core                              [deg]
#  11 ELONGATION             A_IMAGE/B_IMAGE                                           
#  12 ELLIPTICITY            1 - B_IMAGE/A_IMAGE                                       
         1 -13.8970      2.5516     89.6356   1.4948304929e+02   5.7737444300e+01     4.104065    0.5875549 -85.59  0.009164185    9.502    0.895
         2 -14.5308      6.0980    144.5528   1.5141074143e+02   4.4774058708e+01     4.224407     1.296101  84.38   0.01761729    3.173    0.685
         3 -13.5270    193.6091     26.3556   7.2679007486e+01   3.2691567836e+01     1.632182     1.461087  23.30  0.007922924    1.271    0.213
         4 -13.4417    209.2813      6.6992   6.5420459242e+01   3.0662314763e+01     1.304517    0.9269958  56.70  0.005002806    1.512    0.339
         5 -13.1101      3.0778      6.9478   1.3483015142e+02   7.7123737799e+01     1.310464      0.60813 -67.20  0.006843924    1.929    0.481
         6  -9.5641    218.3154    248.6453   1.1657260813e+02  -7.8529685676e-01    0.0908675    0.0718284  41.21 0.0007045568    1.741    0.426
         7 -11.8374    174.2938    248.8327   1.2393291427e+02   4.9892771550e+00    0.4211462     0.236296  46.74   0.00271535    1.796    0.443
         8 -13.2376    124.7354    249.1605   1.3282751243e+02   1.1688216054e+01    0.7854997    0.4530446  32.91  0.005244759    1.339    0.253
         9 -13.0999    140.1835    247.7807   1.2988095835e+02   9.7697365151e+00     0.612488    0.5849634 -19.09  0.005306769    1.456    0.313
        10 -10.0189     81.7735    248.5930   1.4070682495e+02   1.7315672260e+01    0.1685188   0.06328095  43.62 0.0009559747    1.758    0.431
        11  -9.8027    237.3325    247.3119   1.1343103545e+02  -3.0213576027e+00    0.1073018   0.05556029  14.93 0.0007044126    1.677    0.404
        12 -11.9952    185.4754    238.5355   1.2076535264e+02   4.5700115062e+00    0.3493738     0.289826 -76.52  0.002400571    2.471    0.595
        13  -9.8717    198.3116    246.3303   1.1954610382e+02   2.0232110498e+00    0.1094991   0.06322943  15.39  0.000326384    1.671    0.402
        14 -11.3951    179.4499    245.7807   1.2268706318e+02   4.6170415054e+00    0.2773664    0.1496374  28.91  0.001798547    1.398    0.285
        15  -9.4190     34.3247    244.3087   1.4920036692e+02   2.3329953472e+01   0.08377526   0.07500879  19.59 0.0007037318    1.652    0.395
        16  -9.2911     73.7907    250.3804   1.4228688555e+02   1.8024919821e+01    0.1476417   0.07819219  32.39 0.0007512319    1.620    0.383
        17 -12.8579     54.9410    210.1739   1.4350301935e+02   2.6731809888e+01     2.450659    0.2694075  51.88   0.00542789   11.695    0.914
        18 -11.8502     32.8948    217.6742   1.4842139363e+02   2.7836782072e+01     1.512984    0.1585387  43.59  0.006429698    3.314    0.698
        19 -12.5230     50.7845    217.8151   1.4482210618e+02   2.5874401829e+01     1.249242    0.4795154  48.00  0.006914989    1.838    0.456
        20 -12.7480     36.7210    236.2289   1.4845106134e+02   2.4349854029e+01    0.2476821    0.2232707  51.43 0.0007682941    1.396    0.284
        21 -13.8979     42.2703    229.1380   1.4709101586e+02   2.4910647568e+01    0.8873686    0.4512259  43.23  0.002689417    1.372    0.271
        22  -9.4301      3.4970    227.8440   1.5436931899e+02   2.8887081752e+01     0.216146    0.1301263  28.06  0.001577433    1.756    0.431
        23 -12.5202     86.5462    226.0233   1.3816189970e+02   2.0118906086e+01     1.440104          nan  44.10  0.003728404    7.868    0.873
        24 -10.2414    173.0877    222.1504   1.2088506543e+02   8.2458671844e+00    0.1894179    0.1310968  20.16  0.001252598    1.309    0.236
        25 -13.0222    105.5092    230.4513   1.3478287904e+02   1.6896967780e+01     1.211342    0.1575664  39.97   0.00418687    4.254    0.765
        26 -13.5605    126.1074    231.9725   1.3092621618e+02   1.3808535139e+01     1.595411    0.2632646  36.87  0.005322402    4.555    0.780
        27 -12.3513     10.4062    206.6352   1.5254666283e+02   3.1944915786e+01    0.5684348    0.3682753  27.25  0.002758655    1.681    0.405
        28  -9.7132     52.7281    203.7266   1.4355830543e+02   2.8152974109e+01     0.264699    0.1300115  52.28  0.001527637    1.579    0.367
        29 -11.5024     62.5925    201.3480   1.4125276380e+02   2.7407349152e+01     0.218454    0.1993206  59.60  0.000484022    1.243    0.195
        30  -9.5476    192.4860    193.9653   1.1317902678e+02   8.8090956902e+00     0.376817    0.2080242 -59.32  0.001383418    6.070    0.835
        31 -10.1497     11.5571    195.8106   1.5198802968e+02   3.3836916321e+01    0.1812201   0.09934803  41.97  0.001124572    1.418    0.295
        32 -11.8200     68.7868    192.7365   1.3918233352e+02   2.8232801996e+01    0.2334993    0.2162796  59.45 0.0004711442    1.230    0.187
        33 -11.5603    133.5701    246.4187   1.3095375645e+02   1.0843473928e+01    0.3543535    0.2604324 -45.71  0.002669466    1.925    0.480
        34 -11.2822     99.1650    248.9170   1.3751438679e+02   1.5084393835e+01    0.3372084     0.127596  33.91  0.001800254    2.076    0.518
        35  -8.7519    102.7736    179.0112   1.2985080003e+02   2.6006037973e+01    0.2003137    0.1284793  71.55 0.0007190951    1.928    0.481
        36 -11.6204      2.6223    152.6654   1.5262680958e+02   4.3257028136e+01    0.9217148    0.2215278 -83.16  0.002700998    3.651    0.726
        37 -11.6621     85.9850    170.1924   1.3278492635e+02   3.0288122534e+01    0.5564629    0.4807193  20.60  0.003478858    1.376    0.273
        38 -13.0008     65.5766    177.7851   1.3858658928e+02   3.1572736813e+01    0.4390474    0.2778433 -44.77  0.001500513    2.279    0.561
        39 -10.0664     98.4103    153.7124   1.2738492650e+02   3.1758686934e+01    0.2707772     0.260384  89.59 0.0008216132    1.150    0.130
        40 -11.8595     87.0994    152.9254   1.3022553257e+02   3.3724881337e+01    0.2606161      0.24922   0.10 0.0005230752    1.296    0.228
        41  -9.5041    134.0000    146.4611   1.1718620140e+02   2.6884133806e+01     0.377589    0.1468208 -46.66  0.001432964    2.876    0.652
        42  -8.9648    101.0877    149.3557   1.2600407512e+02   3.2230919989e+01    0.1965902    0.1575052  43.99 0.0004853783    1.121    0.108
        43 -12.2391     67.1759    143.6344   1.3438031988e+02   3.8680620028e+01    0.6949149    0.3888341  56.20  0.002870306    1.739    0.425
        44  -9.7488    109.6745    138.3146   1.2182569615e+02   3.3074921252e+01     0.404364     0.240228 -29.58  0.001337475    2.850    0.649
        45  -8.6636    209.4810    180.0008   1.0775453517e+02   7.8281540550e+00    0.1342546    0.1096256 -61.36  0.000339091    2.149    0.535
        46 -10.3777     97.1804    135.4745   1.2470556088e+02   3.5889153277e+01     0.237859    0.2230396 -33.60 0.0004236209    1.261    0.207
        47  -9.1849     83.2283    134.2463   1.2843467190e+02   3.8454244109e+01     0.197172    0.1429601  61.67 0.0004867903    1.359    0.264
        48 -10.7544     78.8182    179.4455   1.3557631141e+02   2.9462146654e+01    0.2162077    0.1860092  57.93  0.000330702    1.070    0.065
        49  -8.8772    107.0017    124.4729   1.1985420352e+02   3.6556779163e+01    0.2050171    0.1371955  40.38  0.000331024    1.412    0.292
        50  -9.7906    167.8580    112.9683   1.0197009582e+02   2.6087802754e+01    0.3124938    0.2610224 -67.90 0.0009518467    1.486    0.327
        51  -9.0915    203.4762    111.4995   9.4671367942e+01   1.8527321012e+01    0.1413211    0.1284018   7.81 0.0001744804    1.028    0.027
        52 -12.4569      4.4568    170.6646   1.5277355607e+02   3.9354764015e+01    0.9770821    0.3984989 -80.44  0.005315282    2.272    0.560
        53  -9.7720     19.7448    247.5360   1.5190241625e+02   2.4277994467e+01    0.2861895    0.1502855  31.29  0.002010585    1.757    0.431
        54  -9.0962      2.1939    249.1600   1.5496775630e+02   2.5630884296e+01    0.1355543    0.1011191  55.01 0.0007397325    1.198    0.165
