#   1 NUMBER                 Running object number                                     
#   2 MAG_AUTO               Kron-like elliptical aperture magnitude                    [mag]
#   3 X_IMAGE                Object position along x                                    [pixel]
#   4 Y_IMAGE                Object position along y                                    [pixel]
#   5 X_WORLD                Barycenter position along world x axis                     [deg]
#   6 Y_WORLD                Barycenter position along world y axis                     [deg]
#   7 A_WORLD                Profile RMS along major axis (world units)                 [deg]
#   8 B_WORLD                Profile RMS along minor axis (world units)                 [deg]
#   9 THETA_WORLD            Position angle (CCW/world-x)                               [deg]
#  10 FWHM_WORLD             FWHM assuming a gaussian core                              [deg]
#  11 ELONGATION             A_IMAGE/B_IMAGE                                           
#  12 ELLIPTICITY            1 - B_IMAGE/A_IMAGE                                       
         1 -14.2710     66.6956    145.8722   7.8654783417e+01   3.7309403468e+01     2.573808     1.642925 -85.15  0.002367137    2.237    0.553
         2 -12.9942    215.1826     42.7581   2.3763629246e+01   2.8598117651e+01    0.5457281    0.4687096 -82.96  0.001322379    1.233    0.189
         3 -12.4299      2.3971     26.3663   7.6885082120e+01   7.1923255200e+01    0.7801893    0.3610072 -50.62  0.003574703    2.322    0.569
         4 -11.2677      2.4791      9.2144   6.9047823327e+01   7.4568306945e+01     0.670693    0.1826004 -45.19  0.002827008    4.090    0.755
         5 -12.5219    245.7340     21.7203   1.8105815908e+01   2.6000825919e+01     0.704976    0.3414159  75.35  0.004950523    2.077    0.519
         6 -12.0937    244.4093     15.4991   1.7200111762e+01   2.6885466845e+01     0.620738    0.2829754  71.52   0.00427244    2.255    0.557
         7  -9.5198     33.0000      5.0010   4.8408084922e+01   7.0572883864e+01    0.1626476   0.06736074 -29.37 0.0007970491    2.905    0.656
         8  -9.1735     45.3105    205.7065   9.4171590081e+01   2.4080437595e+01    0.3057818      0.17849  76.46 0.0008416937    2.225    0.551
         9 -16.2510    120.4229    235.5213   7.7775140346e+01   7.9235506634e+00      17.2827     2.837649  28.58   0.04801724    4.882    0.795
        10 -13.0131     32.6375    182.6952   9.5460431730e+01   3.1448420334e+01      2.40478     1.017688  59.33  0.005696905    3.455    0.711
        11 -10.2948     43.2140    201.9335   9.4374374076e+01   2.5275855673e+01    0.3026179    0.2736925 -44.88  0.001303575    1.161    0.139
        12  -9.8080     35.9228    204.5565   9.6757411135e+01   2.5360265074e+01    0.1866843    0.1755743  56.88 0.0004999824    1.028    0.028
        13  -9.6985     91.9303    213.6569   8.2046807913e+01   1.6429458892e+01    0.2392238    0.1945878 -36.35  0.000536639    1.266    0.210
        14  -9.4451     61.9508    203.4835   8.9104998939e+01   2.2738581160e+01    0.3657323    0.1914746  84.99  0.001272521    3.289    0.696
        15 -10.7042     82.6942    196.2036   8.2107964803e+01   2.1919868958e+01    0.4514787    0.2899518 -52.71  0.001640099    1.577    0.366
        16  -9.8273    191.0476    191.5447   5.5015551887e+01   7.6391171763e+00    0.2466808    0.1681549 -80.29  0.001045166    3.661    0.727
        17 -11.5466    128.5915    189.8461   6.8541239365e+01   1.6816630130e+01    0.3442963    0.2483954  30.61  0.001710524    1.370    0.270
        18 -10.1324     76.5085    183.1849   8.1946525618e+01   2.6087258041e+01    0.3808112    0.2789012  68.70  0.001150416    1.721    0.419
        19 -10.1974     39.5242    172.5693   9.2052066425e+01   3.3483796219e+01    0.5436544     0.250242 -86.65  0.001818373    3.176    0.685
        20  -9.9075     49.3566    183.1661   9.0295523773e+01   2.9533592306e+01     0.233424    0.2081506 -72.17 0.0004774565    1.147    0.128
        21 -12.4547     49.2665    176.5939   8.9448156841e+01   3.1308470508e+01     0.885181    0.7644796  11.04  0.003439341    1.178    0.151
        22 -10.9216     98.9439    180.9291   7.4973864614e+01   2.3423348228e+01    0.3285747    0.3149987  -6.20 0.0006873563    1.017    0.016
        23  -9.8306    121.7638    179.9934   6.8537612472e+01   2.0142097375e+01    0.2017341     0.123322 -51.52 0.0008833404    1.631    0.387
        24  -9.7618    128.5040    179.5491   6.6707593594e+01   1.9193170154e+01    0.1476675    0.1393751  -8.43 4.878202e-05    1.024    0.023
        25 -10.3490    179.3791    175.2013   5.4359489988e+01   1.2376773187e+01    0.2313205      0.20243  51.43 0.0008280532    1.427    0.299
        26 -10.4837    182.3143    173.6826   5.3504838747e+01   1.2252220247e+01    0.2340895    0.1801232 -49.97 0.0008316127    1.285    0.222
        27 -10.9443    113.2888    173.0814   6.9537830384e+01   2.3125946701e+01    0.3883535    0.2198414  32.47  0.001634243    1.739    0.425
        28 -10.7460    103.2634    170.9392   7.1948235904e+01   2.5240814107e+01     0.358792    0.2040703  45.27  0.001455129    1.921    0.479
        29  -9.7168     66.9163    169.8126   8.2793006728e+01   3.0910852078e+01     0.240144    0.2167643 -55.62 0.0003326348    1.121    0.108
        30  -9.4661    197.5789    168.4729   4.9722180866e+01   1.1087696314e+01    0.1295661    0.1081413 -34.93 4.519077e-05    1.012    0.011
        31 -10.0875    180.1501    168.1529   5.2902878574e+01   1.3654912883e+01    0.1825717    0.1602623 -65.51 0.0008843354    1.344    0.256
        32 -10.7400     90.2432    165.2078   7.4720542260e+01   2.8722978343e+01    0.4735047    0.4048248  -5.27  0.002372505    1.229    0.186
        33 -10.8618    246.9979    163.4738   4.1304768535e+01   5.7289174898e+00    0.4144206    0.1329567 -45.19  0.001280437    2.385    0.581
        34 -10.2344    245.4146    158.6410   4.0721423376e+01   6.6837926106e+00    0.2877764    0.1477645 -49.35  0.001254212    1.653    0.395
        35 -11.8149     85.4881    147.2342   7.2720824299e+01   3.4075041159e+01    0.8206153     0.514124 -25.65  0.001564579    2.085    0.520
        36 -13.0573     62.3199    123.2256   7.5566791957e+01   4.3830990141e+01     1.680209     0.702035  50.63  0.001849867    3.736    0.732
        37 -12.2260     77.4357    153.7920   7.6592902108e+01   3.3639819053e+01    0.9691659    0.7433469  83.70  0.001267047    1.680    0.405
        38 -15.9364      8.0305    138.6225   9.8774296139e+01   4.5520877137e+01     17.59274     4.501948 -82.87    0.0383538    7.721    0.870
        39  -9.9393     50.8785    158.4670   8.6253096542e+01   3.6030933455e+01    0.4602705    0.2304767  38.77  0.001804164    1.989    0.497
        40  -9.1193     54.6723    162.3138   8.5585071928e+01   3.4519477116e+01     0.239903    0.2191616  72.20 0.0006948672    1.175    0.149
        41  -8.8522     56.5411    159.4886   8.4506398096e+01   3.5047046116e+01    0.2368001    0.1746703 -30.13 0.0006976734    1.471    0.320
        42 -10.5966    133.9687    147.3499   5.8963680463e+01   2.5657894778e+01    0.5623426    0.2174831 -55.82  0.001864472    3.040    0.671
        43 -10.5399     39.2778    146.9734   8.8486532588e+01   4.0505777184e+01    0.4629587    0.3115001 -28.24  0.001600849    1.648    0.393
        44  -9.4645     36.5380    144.4865   8.9084553437e+01   4.1478982010e+01    0.2381302    0.1964358   4.11 0.0005625787    1.255    0.203
        45  -9.9309     47.2330    146.0523   8.5489753410e+01   3.9842180803e+01    0.2471279    0.1996327 -35.98 0.0007396658    1.248    0.199
        46 -10.9093     29.6973    143.1451   9.1376236732e+01   4.2537687190e+01    0.5254158    0.3854104   8.90  0.001744746    1.431    0.301
        47 -10.3701    101.6088    134.0899   6.4922494404e+01   3.4577889491e+01    0.5727144    0.3352107 -14.12  0.001832106    3.614    0.723
        48 -10.0100    105.1275    130.1393   6.2988476326e+01   3.4875387543e+01    0.3651856    0.3274263 -48.18  0.001252499    1.123    0.109
        49 -11.6040     87.6751    133.7617   6.9172497111e+01   3.7103183979e+01    0.3043678    0.2833356 -34.86 0.0003921032    1.074    0.069
        50 -11.9733     45.0914    131.4976   8.3682598400e+01   4.4009960602e+01    0.6441683    0.4337129 -69.86  0.002916199    1.598    0.374
        51  -9.3174     28.1298    128.1850   8.9618941231e+01   4.6739161700e+01    0.2052767    0.1742284  55.97 0.0004686541    1.316    0.240
        52  -9.1340    110.1133    127.1404   6.0859397990e+01   3.4645765927e+01    0.2317384    0.2013238  -2.76 0.0004959432    1.288    0.223
        53 -11.5918     64.4932    164.5995   8.2720014811e+01   3.2628393974e+01    0.6530029    0.3913242  -0.13    0.0017775    2.249    0.555
        54  -9.8968     97.4237    122.4488   6.3515554646e+01   3.8097348886e+01    0.2966122    0.2484434  -5.48 0.0005761282    1.366    0.268
        55  -9.0335    106.8630    116.8530   5.9359646708e+01   3.7596805378e+01    0.2130779     0.196899  -2.35  0.000284298    1.154    0.133
        56  -8.7418    183.5333    116.5055   4.2150421778e+01   2.2997101730e+01    0.1306782    0.1163954 -51.58 8.944798e-05    1.035    0.034
        57  -9.7462    205.2616    110.2834   3.7587614903e+01   2.0364937297e+01    0.2185854    0.1937955  78.02 0.0007986125    1.253    0.202
        58 -11.4723     69.1570    160.1912   8.0450220492e+01   3.3161915089e+01    0.4237144    0.3847383  -4.06   0.00102722    1.115    0.103
        59 -13.6153      8.2469    184.6313   1.0313491060e+02   3.3035562609e+01     1.020506    0.8366657  73.04  0.005736373    1.192    0.161
        60 -10.7002     29.7805    107.9340   8.5210077502e+01   5.1871941734e+01    0.3635262     0.192317  27.06 0.0005046586    1.847    0.459
        61 -11.2287     24.1183    105.9411   8.7244780509e+01   5.2933997433e+01    0.3944033    0.2963191 -55.38  0.001328593    1.276    0.217
        62  -9.3637     68.1269    106.1314   6.9397287557e+01   4.7103825493e+01    0.2424515    0.1820742  63.81  0.001115837    1.717    0.417
        63  -9.9777    133.2310    103.4140   4.9196121449e+01   3.5157619971e+01    0.2686848    0.2393209  80.11 0.0009669144    1.165    0.142
        64  -9.5490     44.5993    102.1119   7.7659869036e+01   5.1580084831e+01    0.2733195    0.1466748 -61.54  0.001126302    2.028    0.507
        65 -11.1103     15.1464     97.3000   8.9545629252e+01   5.5877077306e+01    0.4916586     0.219976 -41.05  0.001555713    2.111    0.526
        66 -10.3023    230.1527    165.3461   4.3942556456e+01   7.3955676680e+00    0.2005424    0.1086327  27.86   0.00109747    2.546    0.607
        67 -10.2124     17.7194     89.9780   8.6844066029e+01   5.7460340023e+01     0.261785    0.2008614  59.06 0.0009367003    1.685    0.407
        68  -8.7945    160.7023     86.3235   3.9569282938e+01   3.2669386141e+01    0.1368585   0.09633786 -75.95 0.0003137245    1.625    0.385
        69 -15.0617      9.3357    206.9784   1.0446096548e+02   2.7147807539e+01     1.290757    0.8211491 -17.69  0.005518352    2.030    0.507
        70 -11.2865     23.9430     65.5055   7.7515856937e+01   6.2382090783e+01    0.5233136    0.1670271  35.02  0.001759125    3.057    0.673
        71  -9.3560     73.0287     64.1102   5.5518587803e+01   5.4918658435e+01    0.2195837    0.1691787  73.23 0.0009833256    1.752    0.429
        72 -12.1812     11.9615     60.1979   8.2395913393e+01   6.4678658873e+01    0.6037956    0.3034888  11.80  0.001652451    1.926    0.481
        73 -11.8821    193.4478     58.4491   2.8897750610e+01   3.0500732501e+01    0.3563457    0.3345894 -86.41 0.0008810557    1.279    0.218
        74 -12.7074    205.0160     50.5708   2.6139375099e+01   2.9416377079e+01     0.711251    0.5733318 -60.24  0.002939372    1.132    0.117
        75  -9.6100     10.3084     54.6191   8.1699615656e+01   6.5972121931e+01    0.1252239   0.09821887  53.29 0.0001181405    1.793    0.442
        76 -14.8161     12.5258    246.2662   1.0603253386e+02   1.7513772749e+01     1.148503    0.5338252 -46.56   0.00384727    2.814    0.645
        77 -14.9010     10.2477    238.6320   1.0616512686e+02   1.9432268420e+01    0.5523967    0.4725381 -49.31  0.001643485    1.361    0.265
        78 -11.2156    141.8849    214.2201   6.9393229412e+01   9.6066080603e+00    0.4511037    0.1996779 -57.30  0.001432333    2.756    0.637
        79 -10.8121     26.6507     32.6113   6.4421832373e+01   6.8066594042e+01    0.2367819    0.1850684  29.02 0.0006311713    1.191    0.161
        80 -10.3914     32.0647     26.2948   5.8845883646e+01   6.8180878093e+01    0.1848693    0.1380119  29.92  0.000864516    1.118    0.105
        81 -16.9885      6.6184    229.7696   1.0657420495e+02   2.1793397807e+01     2.156386     1.556639 -44.51   0.01231059    1.636    0.389
        82  -9.0971    168.1306    206.9292   6.2279618481e+01   7.6401909226e+00    0.1913906    0.1726913 -46.78 0.0009273594    1.298    0.229
        83  -9.8531     60.2347     21.0437   4.4535558751e+01   6.3677756663e+01    0.2216736    0.1517313  47.08 0.0004784742    1.186    0.157
        84  -8.5684    189.6452     14.7052   2.0551364832e+01   3.6553555333e+01   0.09915143   0.07691677  56.77  0.000703233    1.690    0.408
