#   1 NUMBER                 Running object number                                     
#   2 MAG_AUTO               Kron-like elliptical aperture magnitude                    [mag]
#   3 X_IMAGE                Object position along x                                    [pixel]
#   4 Y_IMAGE                Object position along y                                    [pixel]
#   5 X_WORLD                Barycenter position along world x axis                     [deg]
#   6 Y_WORLD                Barycenter position along world y axis                     [deg]
#   7 A_WORLD                Profile RMS along major axis (world units)                 [deg]
#   8 B_WORLD                Profile RMS along minor axis (world units)                 [deg]
#   9 THETA_WORLD            Position angle (CCW/world-x)                               [deg]
#  10 FWHM_WORLD             FWHM assuming a gaussian core                              [deg]
#  11 ELONGATION             A_IMAGE/B_IMAGE                                           
#  12 ELLIPTICITY            1 - B_IMAGE/A_IMAGE                                       
         1 -12.4532     42.8437     81.5732   9.0467744708e+01   5.6135284650e+01     1.124582    0.8017558 -27.50  0.005661862    1.371    0.271
         2 -10.7419     38.9388      8.3312   6.4534060751e+01   6.9063250256e+01    0.5502814     0.328707 -14.32   0.00329281    1.707    0.414
         3 -11.4665     39.6688     29.5978   7.3940893210e+01   6.6231193900e+01    0.5490572    0.3557446 -39.16  0.003204876    1.646    0.393
         4 -11.9259     47.3496     24.8512   6.8501380638e+01   6.5762397244e+01    0.5514166    0.4708411 -57.94  0.003483881    1.867    0.464
         5 -12.4330     42.5948     21.3906   6.9036123968e+01   6.6945355887e+01    0.8761199    0.6285306 -13.28  0.005297228    1.308    0.235
         6 -11.0042     76.8226     22.8319   5.6757516158e+01   6.0761365696e+01    0.6309531    0.3187733 -10.06  0.002733182    2.984    0.665
         7 -11.7532     78.0812     14.1608   5.2867932381e+01   6.1426616926e+01     0.511614     0.366634   5.31  0.003072877    1.522    0.343
         8 -11.6227    173.6915     19.5033   3.6372151782e+01   3.9207397639e+01    0.4143338    0.3564861  31.35  0.002664224    1.514    0.339
         9 -10.5293    116.0755     16.7176   4.4534372540e+01   5.2926767761e+01    0.6453443    0.2650222 -43.20  0.002774841    2.952    0.661
        10  -9.7691    129.0250     12.9783   4.0936977932e+01   5.0291487889e+01    0.3119052    0.2050577  41.10  0.001655902    1.581    0.368
        11 -12.4179    180.7903     10.0991   3.3277619896e+01   3.8560924497e+01    0.7916853    0.6244462 -57.89  0.005233094    1.233    0.189
        12 -13.0853    167.1424      8.4387   3.4343881311e+01   4.1838848475e+01     1.161162    0.8313528  44.71  0.007035598    1.638    0.390
        13 -12.0323    155.7701     11.5532   3.6542269858e+01   4.4177743311e+01    0.5203322    0.4334457 -78.15  0.003392693    1.150    0.130
        14 -11.8593    158.2844      3.9426   3.4203409100e+01   4.4293891558e+01    0.8499422    0.3526308  66.22  0.004115337    1.964    0.491
        15  -9.8239     20.8452     13.7497   7.6098953720e+01   7.0868971713e+01    0.3540751    0.1678034 -26.31  0.001900272    2.089    0.521
        16 -10.6885    250.3535      9.0938   2.7574553780e+01   2.4211327353e+01    0.7377957          nan -44.73  0.002609966    5.061    0.802
        17 -11.9270     83.9145      3.8443   4.7113374138e+01   6.1141752585e+01    0.8049306    0.3316248  58.19  0.003138241    2.045    0.511
        18 -11.0378     71.1207      5.8012   5.1464623229e+01   6.3589982745e+01    0.4390035    0.2415915  54.27  0.002225774    1.610    0.379
        19 -10.4443    223.3564      5.0272   2.8564380060e+01   2.9907067997e+01    0.3693672    0.1535305 -56.54  0.001945709    2.107    0.525
        20 -11.2118    143.9072      4.1187   3.6053489508e+01   4.7612170002e+01    0.6242521     0.377516  82.15  0.003458693    1.548    0.354
        21 -10.8761    130.9419      3.8262   3.7819352769e+01   5.0645615091e+01    0.7076949    0.2159433  58.07  0.002834057    2.469    0.595
        22 -11.0086    121.2417      4.4268   3.9561191107e+01   5.2833902514e+01    0.5707123    0.3504063  68.82  0.002979431    1.404    0.288
        23 -10.4665    111.6733      5.2747   4.1548996808e+01   5.4947866364e+01    0.3848266    0.1999037  66.95  0.001764574    1.697    0.411
        24 -10.7405    106.4478      4.9647   4.2455097118e+01   5.6150136231e+01    0.3863533    0.2513155  85.51  0.002116116    1.830    0.454
        25  -9.3653    192.3988      5.2364   3.1042501706e+01   3.6450110871e+01    0.1638686   0.09453892 -48.15 0.0009501316    1.641    0.391
        26 -10.8612     60.9909      2.1417   5.3053390292e+01   6.5857472157e+01     0.501431    0.1793315  45.89  0.002375889    2.182    0.542
        27  -9.8140    217.8122      2.0113   2.8354408368e+01   3.1350419944e+01    0.2054325    0.1368427  88.61   0.00102987    1.257    0.204
        28 -10.5374    204.2589      3.9091   2.9757381355e+01   3.4006359033e+01    0.3304689    0.1851774  88.46  0.001670078    1.574    0.365
        29 -10.8652     50.2747     36.9535   7.2332760402e+01   6.3584090512e+01    0.8977357    0.6509023 -73.95   0.00417327    3.444    0.710
        30  -8.8689     17.5993      1.8066   7.1814326251e+01   7.2752092517e+01    0.1377085   0.09581539 -32.12 0.0008464447    1.624    0.384
        31  -9.2879    108.5156    108.4903   7.5241471880e+01   3.9470356854e+01    0.1540477    0.1489006 -16.27 9.957714e-05    1.028    0.027
        32  -9.2437     69.2068    105.4091   8.6993137280e+01   4.7126941542e+01    0.2087357    0.1352889  43.28 0.0009551884    1.687    0.407
        33 -10.3055     16.8314    104.6758   1.0555449582e+02   5.3146830213e+01    0.3157903    0.2632537  16.03  0.001951102    1.378    0.274
        34  -9.7868     30.3811    102.1114   1.0013521887e+02   5.2656268680e+01    0.3743572    0.1838331 -34.81  0.001613247    2.248    0.555
        35  -9.0750    148.5217    111.9976   6.5545579620e+01   3.0260243926e+01    0.2207757    0.1318866 -65.57 0.0008089188    2.474    0.596
        36  -9.0553    208.6712     94.8210   4.9626858923e+01   2.0492210252e+01    0.2110491     0.165585 -30.41 0.0007884007    1.367    0.268
        37  -9.2852    178.8751     93.1928   5.4302982665e+01   2.7205052294e+01    0.2313112    0.1958556 -77.57 0.0009608517    1.242    0.195
        38 -10.5210      2.5737     86.9909   1.0776940256e+02   5.8227075132e+01    0.6793029    0.2090329 -69.95  0.002629084    3.021    0.669
        39 -12.0277      4.9708     76.7333   1.0483931185e+02   6.0440552943e+01    0.7271894    0.5539243  76.27  0.004401521    1.756    0.430
        40 -12.2065     12.8535     72.6104   1.0059514268e+02   6.0874407406e+01    0.6808388    0.5238521 -74.57  0.004157364    1.484    0.326
        41 -10.0819    177.4929    240.4953   8.5109086385e+01  -1.3717270483e+00    0.1979338     0.108194  39.76  0.000995914    1.802    0.445
        42  -9.5509    194.0114     87.2900   5.0204868168e+01   2.4914351216e+01    0.1989962    0.1813943 -78.20 0.0007380203    1.056    0.053
        43  -8.7182    164.5164     87.4827   5.5628783549e+01   3.1490548174e+01    0.1462231    0.1404395 -75.98  0.000810205    1.006    0.006
        44  -9.1841    100.9927     83.7113   7.0467150554e+01   4.6266874891e+01    0.2108804    0.1987795  33.60  0.001128551    1.057    0.054
        45  -9.7823    144.8048     80.8552   5.8038431246e+01   3.7224081231e+01    0.3727901     0.245914  47.37  0.001730845    1.510    0.338
        46  -9.2100    215.5166     79.9705   4.5282766489e+01   2.1567487323e+01    0.2878085    0.1578294 -41.00  0.001132283    1.654    0.395
        47  -9.9601    219.1847     77.3467   4.4210038068e+01   2.1234510433e+01    0.4856456    0.2291097  72.64  0.002030398    2.866    0.651
        48  -9.5519    169.9718     76.4100   5.1678059033e+01   3.2186448455e+01    0.2900249     0.189615 -55.31  0.001369984    1.601    0.375
        49  -9.7700     74.8712     69.4134   7.4579047023e+01   5.3986108013e+01     0.327941    0.2390311  30.62  0.001554919    1.352    0.260
        50 -10.7872     25.3194     65.2543   9.3236700711e+01   6.1460673994e+01    0.4742259     0.220461 -52.33  0.001806538    1.877    0.467
        51 -10.2265    215.1359     66.5839   4.2353190265e+01   2.3749769589e+01    0.2176709    0.1523111 -37.10  0.001208179    1.441    0.306
        52  -9.1323     83.4905     69.0327   7.1468195811e+01   5.2506000315e+01    0.2149799    0.1377238 -39.85 0.0007125062    1.570    0.363
        53 -10.0763    233.0804     64.1088   3.9703472807e+01   2.0471337813e+01    0.2867166    0.1660545  54.28  0.001540507    2.026    0.506
        54 -11.4777     18.7077     74.0758   9.8450318349e+01   6.0127764027e+01    0.4687145    0.2925383 -42.63  0.002384941    1.340    0.254
        55  -8.8411    178.8045     66.5872   4.7604484386e+01   3.1761377580e+01    0.1991082    0.1289676  76.29 0.0009479499    1.705    0.413
        56  -9.4663    208.9933     59.2616   4.1487334318e+01   2.6149892622e+01     0.293357    0.1246622 -56.85  0.001173767    2.723    0.633
        57  -9.3421    138.4276     56.6899   5.2466345309e+01   4.2739619924e+01    0.3353142    0.1715468 -41.27  0.001453671    2.028    0.507
        58  -9.1348     16.3190     58.6545   9.5409095659e+01   6.3583199530e+01    0.1141834   0.09742764  69.10 0.0007049167    1.727    0.421
        59  -8.6646    160.6585     56.2880   4.8003373160e+01   3.7567439844e+01    0.1446177     0.102943 -78.00 0.0007021459    1.644    0.392
        60 -10.3431    198.4056     52.4352   4.1268447912e+01   2.9449315054e+01    0.5607851    0.1286023 -38.02  0.001890495    3.807    0.737
        61  -9.7352    165.0116     53.5150   4.6496810841e+01   3.6951210261e+01    0.2540804    0.2052103 -13.73  0.001319422    1.585    0.369
        62  -9.7603     34.2962     52.8914   8.5334711485e+01   6.2994378849e+01    0.3623929    0.1545758  27.17  0.001653228    2.381    0.580
        63  -9.5392    215.7422     50.5473   3.8743789487e+01   2.5962325011e+01    0.2374371    0.1117824  61.31  0.001145295    2.148    0.534
        64 -11.0668     81.4192     37.9686   6.1183148754e+01   5.7955707517e+01    0.5575714    0.3699339 -40.37  0.002983045    1.703    0.413
        65 -10.5261     85.0048     47.8382   6.3664588174e+01   5.5817854239e+01    0.4707097    0.3352571  52.16  0.002503312    1.473    0.321
        66  -8.7697    242.3385     43.3137   3.4586566709e+01   2.1579493118e+01    0.1037577   0.09394596  31.18 0.0007046884    1.696    0.410
        67 -10.9913      3.1746     40.8330   9.6495973767e+01   6.7995543683e+01    0.4346169    0.3685475 -50.27  0.002635402    1.307    0.235
        68 -11.4273    185.1444     40.2723   4.0083815599e+01   3.4097210164e+01      0.44554    0.3227618 -73.23   0.00225186    1.354    0.261
        69 -10.7771    159.4252    231.7118   8.7532661295e+01   2.8375249052e+00    0.2339136    0.1323662 -52.70  0.001133528    2.094    0.522
        70  -9.5582      3.9864    230.5021   1.2130384909e+02   2.3874744228e+01    0.1786957    0.0545603  50.68 0.0008104814    2.610    0.617
        71  -9.9410    248.8617    224.0641   6.8890273225e+01  -8.2690961968e+00    0.3215298    0.2018358 -43.77  0.001926519    1.851    0.460
        72 -12.6413    203.9562    221.0515   7.6561838674e+01  -1.9343555039e+00    0.8591624    0.5491495  11.07  0.004602345    1.654    0.396
        73  -9.0856    162.3085     38.3210   4.2846565968e+01   3.9657836087e+01     0.131953   0.09956966  35.24   0.00070344    1.643    0.391
        74 -10.8422    196.9900     34.7259   3.7311432723e+01   3.2136045447e+01    0.3647991    0.2189333  60.03  0.001983861    1.665    0.399
        75  -9.6881     12.0542     33.0827   8.9131701538e+01   6.8758650794e+01    0.2095715     0.148171 -36.08 0.0009926857    1.218    0.179
        76 -10.3369     86.0811     31.8453   5.7413441115e+01   5.7823264211e+01    0.2449268    0.1916786 -21.17  0.001444799    1.366    0.268
        77 -10.8567     90.1073     28.2516   5.4881648999e+01   5.7426290631e+01     0.310809    0.2699389  30.17  0.001757948    1.041    0.039
        78  -9.8509     66.8737     29.4036   6.2777094999e+01   6.1858405819e+01    0.2612252     0.158008 -10.05  0.001314378    2.029    0.507
        79 -11.0226    162.5542    228.7786   8.6396875248e+01   2.8930412041e+00    0.3122659    0.1336455 -50.71  0.001313335    2.689    0.628
        80 -12.7392    182.6226    218.4727   8.0427827534e+01   1.6772762349e+00    0.7383755    0.4778512 -17.39   0.00373187    1.777    0.437
        81 -11.3342    178.4786     24.1478   3.6952979293e+01   3.7592101990e+01    0.4141059    0.3109238  57.71  0.002509012    1.367    0.268
        82  -9.4344     67.0313    217.0058   1.0658117222e+02   1.9758702332e+01    0.2319842     0.141538  64.49  0.001144475    1.745    0.427
        83  -9.1073    103.0030     26.0277   5.0655404710e+01   5.4901733995e+01    0.2210645     0.139091  32.55  0.001134773    1.688    0.407
        84  -9.3718     84.6426     23.3178   5.4574551757e+01   5.9128100775e+01    0.1233033    0.1011871 -83.80 0.0007044802    1.754    0.430
        85  -9.0258    141.3543    205.7861   8.7353382566e+01   1.0819015903e+01    0.2042684    0.1276627 -40.41 0.0009511805    1.711    0.416
        86  -9.4399    111.4880     16.5053   4.5404143581e+01   5.3992016556e+01    0.2481234    0.1590059  44.64  0.001366313    1.426    0.299
        87  -9.5300    187.1600     19.2782   3.4788236268e+01   3.6159773289e+01    0.2297801    0.1373036  69.51  0.001283235    1.498    0.332
        88  -9.3842    135.0211     19.4957   4.1913196806e+01   4.8256327775e+01    0.2046113    0.1114261  62.81  0.001023905    1.574    0.365
        89 -10.0442    128.2888     17.9551   4.2616410967e+01   4.9984377244e+01    0.3480274    0.2554308  63.09  0.001480683    1.175    0.149
        90  -9.0847    123.9183    206.0599   9.1512689714e+01   1.3652843880e+01    0.1923211    0.1736833  58.80            0    1.151    0.131
        91  -9.8794     94.1743     17.2238   4.9657091270e+01   5.7758254924e+01    0.3709646    0.2303704  77.91  0.001826155    2.238    0.553
        92 -10.3396    247.9084     16.3684   2.9045537152e+01   2.3850230671e+01    0.2013992       0.1177 -53.78 0.0009215825    1.352    0.260
        93 -10.3446    243.4286    200.8382   6.5701716715e+01  -4.0810752516e+00    0.3746966    0.3118686 -53.78  0.002405144    1.691    0.409
        94  -8.9463    202.5190    197.4716   7.2576291183e+01   2.3869911067e+00    0.1354559    0.1196087 -10.59 0.0005576434    1.030    0.029
        95  -9.9983    205.8340    192.3953   7.0962636907e+01   2.7876224505e+00    0.2495167    0.1238009  36.61  0.001130693    2.091    0.522
        96 -10.4931    196.4344    186.0831   7.1607652378e+01   5.4809305302e+00    0.3016835    0.1868596  41.67  0.001472871    1.738    0.425
        97  -9.6517    227.1459     15.4708   3.0349164803e+01   2.8007713374e+01    0.3144029    0.1439756  83.93  0.001649149    2.140    0.533
        98 -10.2247     64.3936     16.2258   5.8129827602e+01   6.3873881771e+01    0.1972544    0.1535248  66.17  0.001187386    1.738    0.425
        99  -8.7721     37.4934    185.4965   1.1033267791e+02   3.0880999534e+01     0.134285     0.118552  89.11 1.848644e-05    1.027    0.026
       100 -10.2290     69.8528     12.9029   5.4881404292e+01   6.3179961058e+01    0.2016216    0.1431883  25.66 0.0009933902    1.290    0.225
       101  -8.5485     33.5160    161.4866   1.0862516649e+02   3.7340213416e+01    0.1376401    0.1209561 -82.47 0.0008103236    1.003    0.003
       102 -10.7938    219.9346    155.9848   6.1072441639e+01   7.1766944275e+00    0.3574309    0.2413891 -31.39  0.001870541    1.369    0.269
       103 -12.1101     10.9006    142.1541   1.1278840404e+02   4.4225634549e+01    0.6277562    0.3031781 -75.85  0.002959458    1.804    0.446
       104 -13.0755    239.1671    125.4440   5.1669548843e+01   9.3496237071e+00     1.096689      1.01235  65.93  0.007196339    1.289    0.224
       105 -10.9753    249.9362    126.4128   5.0343757346e+01   7.3775254263e+00    0.7170974      0.17344 -41.40  0.002517113    3.328    0.700
       106  -9.4826     53.5020    143.6505   1.0014997662e+02   3.9689613930e+01     0.258856    0.2349449  59.14  0.001164112    1.157    0.136
       107 -10.1188     18.1746    127.4452   1.0868774692e+02   4.7394236054e+01    0.2275935    0.1468967 -75.94 0.0008627468    1.411    0.291
       108  -9.8037     39.8325    140.4846   1.0383232395e+02   4.2078214071e+01    0.2883747    0.2142322  77.88  0.001500162    1.494    0.331
       109 -11.9953    243.5125    109.6363   4.7830127469e+01   1.1284236641e+01     1.116635    0.6095961 -64.57  0.004996235    2.629    0.620
       110 -10.6596    189.3723    115.8220   5.7810441860e+01   2.0663814901e+01    0.5917515     0.330941 -22.63  0.002198868    2.855    0.650
       111  -9.1284      2.6544    116.3340   1.1220717398e+02   5.1193264680e+01    0.1314443    0.0873398  66.64 0.0007049528    1.767    0.434
       112  -8.7998    224.4835    112.4851   5.1122053999e+01   1.4264629393e+01    0.2455698      0.11934 -40.43 0.0007840294    1.803    0.445
       113 -10.1243    222.7001    107.3353   5.0277201756e+01   1.5507898149e+01    0.3738132    0.3160215  59.09   0.00223668    1.336    0.251
       114  -9.1980     95.1966    111.7033   8.0109228311e+01   4.1278266998e+01    0.2951955    0.1895646  78.57  0.001030875    3.171    0.685
