#   1 NUMBER                 Running object number                                     
#   2 MAG_AUTO               Kron-like elliptical aperture magnitude                    [mag]
#   3 X_IMAGE                Object position along x                                    [pixel]
#   4 Y_IMAGE                Object position along y                                    [pixel]
#   5 X_WORLD                Barycenter position along world x axis                     [deg]
#   6 Y_WORLD                Barycenter position along world y axis                     [deg]
#   7 A_WORLD                Profile RMS along major axis (world units)                 [deg]
#   8 B_WORLD                Profile RMS along minor axis (world units)                 [deg]
#   9 THETA_WORLD            Position angle (CCW/world-x)                               [deg]
#  10 FWHM_WORLD             FWHM assuming a gaussian core                              [deg]
#  11 ELONGATION             A_IMAGE/B_IMAGE                                           
#  12 ELLIPTICITY            1 - B_IMAGE/A_IMAGE                                       
         1 -13.6129    229.6806      3.6667   3.6523959926e+01   2.7303105785e+01     1.674503    0.8060638  56.64  0.005842542    2.457    0.593
         2 -14.0678    185.7509     46.6186   5.2913812875e+01   3.2742154362e+01     1.301138     1.048134  15.37 0.0009177391    1.493    0.330
         3 -14.1113    195.9838     38.4324   4.9123133461e+01   3.1331523946e+01     1.524449     1.086229 -30.38  0.003651119    1.278    0.217
         4 -14.6716    205.6949     28.1828   4.5065013859e+01   3.0244225112e+01     1.712903      1.32831  24.76  0.001692037    1.613    0.380
         5 -10.4624     64.1357      8.8924   6.4012899440e+01   6.7683602888e+01    0.1996396    0.1847075 -51.19 0.0005703951    1.261    0.207
         6 -11.5852     59.8706      2.8958   6.1846029792e+01   6.9307390516e+01    0.3387917    0.1937029  49.55  0.001686189    1.726    0.421
         7 -11.2894     33.2851      3.5626   7.5183803395e+01   7.4155822735e+01     0.230369    0.1240395  46.72  0.001153229    2.152    0.535
         8 -10.6717    113.4620    207.7553   1.0381156127e+02   1.8007302724e+01     0.285038    0.1693441  61.02  0.001357465    2.018    0.504
         9 -12.3032    139.3082    248.0035   1.0332996219e+02   8.6088996199e+00    0.3930548    0.3783228   4.10  0.003447909    1.300    0.231
        10 -14.5772     44.6924    223.7408   1.1888551122e+02   2.3799155513e+01     1.864181      1.21128  29.97  0.008210077    1.595    0.373
        11 -13.8440     58.8250    189.7328   1.1357052213e+02   2.8571337605e+01     0.963324    0.8702521  87.82  0.006923625    1.193    0.162
        12 -14.1977     86.4402    225.3503   1.1092695628e+02   1.8661304742e+01     1.339532     1.316586 -38.81  0.004579117    1.346    0.257
        13 -11.9938     74.1603    188.7715   1.1007338997e+02   2.6850152745e+01     0.427056    0.2188314  64.35  0.001421921    2.244    0.554
        14  -9.6152     94.5063    187.1070   1.0537594649e+02   2.4415128415e+01      0.16438    0.1216189 -68.32 0.0003687399    1.477    0.323
        15 -10.7896     98.9527    181.1367   1.0364061452e+02   2.4936580916e+01     0.357093    0.2615409 -23.45  0.001958816    2.053    0.513
        16 -10.8421    146.0308    182.4346   9.3678773611e+01   1.7415996947e+01    0.2728346    0.1940666  33.15 0.0008634301    1.282    0.220
        17 -16.5721     42.5127    249.5666   1.2059106181e+02   1.9789332864e+01     9.130479     2.549557  25.43    0.0232715   13.001    0.923
        18 -13.8861     72.8689    156.3372   1.0661826629e+02   3.3880104724e+01    0.6020454    0.5523106  44.72  0.001698059    1.169    0.145
        19 -11.6646    140.8180    173.7807   9.3364834204e+01   1.9774504734e+01    0.5578391    0.4086318  73.67  0.002183218    1.949    0.487
        20 -11.4606    131.9174    172.0694   9.4996421939e+01   2.1548266684e+01    0.4959298    0.2107098  34.14  0.002078057    2.394    0.582
        21 -10.2115    204.3871    176.3531   8.1562974716e+01   9.0136459935e+00    0.2648832     0.202979 -42.39  0.001215641    1.583    0.368
        22  -9.6922    197.1724    176.9524   8.2934162249e+01   1.0060327162e+01     0.221163    0.1638001  31.40  0.001371678    1.251    0.200
        23 -12.1975     72.3333    175.0800   1.0903233825e+02   2.9882507076e+01    0.4107483    0.2717789 -35.42  0.002143724    2.311    0.567
        24 -12.0821     76.2918    170.0562   1.0750852823e+02   3.0413790502e+01    0.2715813    0.2569198  -0.71 0.0007998088    1.342    0.255
        25  -9.6236    188.5436    174.9983   8.4136847332e+01   1.1719924180e+01    0.1798737    0.1179433 -34.19 0.0006926119    1.561    0.359
        26 -10.7618     46.9105    172.5229   1.1480433950e+02   3.3550827052e+01    0.3775059    0.2560461 -74.86  0.001758787    1.439    0.305
        27 -10.0659    229.9824    166.4708   7.5505276310e+01   6.3946589212e+00    0.1413882    0.1096688  67.39 0.0006657689    2.440    0.590
        28 -10.4813     52.4555    164.4375   1.1269513295e+02   3.4679958548e+01     0.356267    0.1761979 -51.23  0.001135419    2.455    0.593
        29 -10.6752    159.0563    162.0585   8.7484521122e+01   1.8762071629e+01    0.3573348    0.2670899 -75.14  0.001414349    2.069    0.517
        30 -10.0162    236.5347    158.4628   7.2954130751e+01   6.4206751017e+00    0.1230831   0.09762746  -3.57 7.030926e-05    1.028    0.027
        31 -12.2605     91.1311    154.1552   1.0168714573e+02   3.1714614589e+01    0.5984241    0.4449535 -23.55  0.003088251    1.973    0.493
        32 -11.8852    204.7317    199.5773   8.5475797570e+01   5.9009057147e+00    0.3829635    0.2162038  31.24   0.00227721    1.551    0.355
        33 -10.5910    187.8585    152.5803   7.9976405737e+01   1.5285160318e+01    0.2357724    0.1805512 -73.93  0.001207652    2.244    0.554
        34 -11.4559    133.7326    144.9376   8.9712877497e+01   2.6490428515e+01     1.056391    0.2919807 -54.37  0.002918144    5.261    0.810
        35 -10.7835    108.4315    203.7699   1.0437486101e+02   1.9394815690e+01    0.2369094    0.1476506  39.61   0.00131383    1.353    0.261
        36 -11.2716    112.5918    197.9059   1.0281170424e+02   1.9828990751e+01    0.3476485    0.2006954  52.56  0.001889073    1.715    0.417
        37 -10.9961    174.3652    148.8648   8.1805331120e+01   1.8313990922e+01    0.2961113    0.2516799  40.17 0.0009256219    1.195    0.163
        38 -10.6959    143.6726    145.8617   8.7640256821e+01   2.4493707804e+01     0.293307    0.1803317 -72.40   0.00116431    2.976    0.664
        39 -10.8588     85.3143    144.5628   1.0166752426e+02   3.4744421062e+01    0.3036336    0.2092448  57.38 0.0008390172    1.459    0.314
        40 -11.0309    104.2144    139.5228   9.5869861381e+01   3.2840195465e+01    0.5127458    0.3238519 -29.90  0.002238651    2.357    0.576
        41 -12.3578     91.7065    139.5154   9.9130328001e+01   3.4898951983e+01    0.2550452    0.2438873 -67.80 0.0003389148    1.105    0.095
        42 -11.4222    135.8828    128.2506   8.5687933529e+01   2.9476872724e+01     0.704439    0.1607109 -46.84   0.00197183    4.404    0.773
        43 -10.1273    152.0404    196.8139   9.4671451265e+01   1.4126107774e+01    0.1860836    0.1558025  48.96  0.001228723    1.251    0.201
        44 -10.6674    105.9550    130.7737   9.3713629618e+01   3.4489937143e+01    0.3406006       0.2963 -83.55  0.001288807    1.188    0.158
        45 -10.5980    112.7977    130.0388   9.1783551646e+01   3.3434305092e+01    0.3381135    0.2742264  -5.29  0.001087344    1.644    0.392
        46 -17.8874      5.9453    240.2505   1.2662047670e+02   2.4771943315e+01     11.10706     1.529654 -81.33   0.03689747    6.980    0.857
        47 -10.2298    160.6533    127.9961   8.0073463785e+01   2.4650865580e+01    0.3105272    0.2219261 -60.12   0.00149789    1.733    0.423
        48 -11.5261    118.9784    124.0495   8.8903184763e+01   3.3604995641e+01    0.7441956    0.3880364 -30.70  0.002642371    3.134    0.681
        49 -11.2538     99.5672    126.3271   9.4511703889e+01   3.6610362745e+01    0.4528657    0.3129027   9.35  0.001982361    2.336    0.572
        50 -10.0948    108.7609    119.0232   9.0449855985e+01   3.6627973078e+01    0.2261406    0.2022506  46.70 0.0004437329    1.136    0.120
        51  -9.8705    167.9329    112.6963   7.4877172234e+01   2.5993988094e+01    0.3196868    0.2337474 -73.95  0.001459622    2.030    0.507
        52 -10.5508    134.5168    106.0010   8.0622332613e+01   3.4355040513e+01    0.4143979     0.142825 -45.70  0.001359237    2.841    0.648
        53 -11.9146    117.8232    109.2854   8.5710575758e+01   3.7063206662e+01     0.595327    0.5220947  83.59  0.002116048    1.251    0.200
        54 -10.2100    205.4759    110.1538   6.7356035823e+01   1.8714780504e+01    0.2812971    0.1954757  37.12 0.0008203796    1.552    0.356
        55 -15.4484     10.0159    206.4301   1.2486058094e+02   3.0356360291e+01    0.6026936    0.5604369  22.76  0.002781357    1.525    0.344
        56 -10.2496     59.5083     97.0041   1.0048904452e+02   5.0024999883e+01    0.2768699    0.1832083  55.64  0.001113786    1.671    0.402
        57 -11.8095     53.0150     91.7913   1.0162019697e+02   5.2205486110e+01    0.5252649    0.2950161 -59.05  0.002440558    1.573    0.364
        58  -8.9132    160.7445     88.3414   6.9826891146e+01   3.2026047771e+01    0.1528421    0.1133771 -61.53 0.0003977758    1.581    0.367
        59 -10.2492    157.0404     81.0620   6.8466777011e+01   3.4200036583e+01    0.2373209    0.2199329 -42.73 0.0005936879    1.034    0.033
        60  -9.6244    184.5008     77.0327   6.2141261290e+01   2.8495895920e+01    0.2296558    0.1378106 -30.61 0.0006341065    1.559    0.359
        61 -10.4245     61.2235     68.5504   9.2403340894e+01   5.6745835750e+01    0.2896685    0.2507032  74.96   0.00159196    1.307    0.235
        62 -11.6520    207.5105    194.4748   8.4171159292e+01   6.1469351615e+00    0.3273731    0.1937692 -26.85  0.001835519    1.700    0.412
        63 -12.1582    194.3191    196.4950   8.6771804986e+01   7.8071220719e+00     1.011168    0.6751191 -60.99  0.005106474    3.067    0.674
        64 -15.2484     51.0033    202.6651   1.1627887966e+02   2.6950160252e+01     8.291008      1.35956  46.54   0.02079109    4.026    0.752
        65  -9.5199     81.8861    194.8220   1.0899777859e+02   2.4661309992e+01    0.1753859    0.1592735  37.56  0.001056075    1.202    0.168
        66 -11.3024    150.0941     53.6406   6.1105695218e+01   4.0586258141e+01    0.4997913    0.3164974 -68.98 0.0009931828    2.198    0.545
        67 -11.2045    151.9509     47.3477   5.8583749472e+01   4.1098597825e+01     0.345222    0.2726162 -74.75  0.001687761    1.439    0.305
        68  -8.9479     36.2872     37.6432   9.2517455717e+01   6.7312172671e+01    0.1312377    0.1039079 -86.89 0.0007023615    1.677    0.404
        69 -12.1567     20.1636     33.9894   1.0001037552e+02   6.9891059641e+01    0.3860564    0.2395128  40.67  0.001457267    1.955    0.488
        70  -9.7364    189.7769     14.8985   4.2618896882e+01   3.5563318765e+01    0.2015215    0.1875377   3.44 0.0006687603    1.212    0.175
        71  -9.1408     64.4129    222.4658   1.1498277820e+02   2.1812506743e+01    0.1589608   0.07857557  44.61 9.696157e-05    1.545    0.353
        72 -15.4329     68.4710    144.1581   1.0609338686e+02   3.7269383930e+01     6.602705      2.90481  62.86   0.02350891    3.507    0.715
