#   1 NUMBER                 Running object number                                     
#   2 MAG_AUTO               Kron-like elliptical aperture magnitude                    [mag]
#   3 X_IMAGE                Object position along x                                    [pixel]
#   4 Y_IMAGE                Object position along y                                    [pixel]
#   5 X_WORLD                Barycenter position along world x axis                     [deg]
#   6 Y_WORLD                Barycenter position along world y axis                     [deg]
#   7 A_WORLD                Profile RMS along major axis (world units)                 [deg]
#   8 B_WORLD                Profile RMS along minor axis (world units)                 [deg]
#   9 THETA_WORLD            Position angle (CCW/world-x)                               [deg]
#  10 FWHM_WORLD             FWHM assuming a gaussian core                              [deg]
#  11 ELONGATION             A_IMAGE/B_IMAGE                                           
#  12 ELLIPTICITY            1 - B_IMAGE/A_IMAGE                                       
         1 -17.1118    157.5034    149.5151   9.9999617588e+01   2.2769747372e+01     2.928726     2.757713  26.72   0.01351381    1.073    0.068
         2 -17.2461    210.6711    114.1865   8.1971016935e+01   1.7104528914e+01     5.636091     4.871378  17.08   0.02857723    1.059    0.055
         3 -13.6886    183.4793     32.8640   6.3495862684e+01   3.4861892374e+01    0.7096083    0.5272954  -0.46  0.003125681    1.452    0.311
         4 -12.7929    162.3760     11.9053   5.9687645203e+01   4.2695938728e+01    0.5376409    0.3615024  40.78  0.001927585    1.433    0.302
         5 -13.6158    150.6761      8.4830   6.0351490591e+01   4.6101920163e+01     1.226423    0.6357616  45.64  0.005120553    1.794    0.443
         6 -12.5564    159.1926      2.8727   5.6903415252e+01   4.4353705940e+01    0.4338365    0.3566525  71.40  0.002057602    1.229    0.186
         7 -11.6288    205.3541      2.0013   5.0895004029e+01   3.2101623124e+01    0.5670609    0.1675485  77.49  0.001702201    4.106    0.756
         8 -19.2183     27.2907     99.5579   1.2235594284e+02   5.1888113626e+01      16.0274    0.6937717 -67.94    0.0266927   19.328    0.948
         9 -16.8618    211.1990    238.9825   1.0468188042e+02   2.1181317015e+00     2.621425     2.130973  44.80   0.01835656    1.363    0.266
        10 -16.1435    174.5397    243.1573   1.1087042865e+02   7.2377979431e+00     1.422408      0.82506  46.15  0.007184634    1.295    0.228
        11 -15.3864    183.9193    228.0314   1.0754754688e+02   7.4205219952e+00    0.9314799    0.6707849   8.84  0.005450679    1.722    0.419
        12 -11.6894    117.5687    250.3243   1.2041239938e+02   1.4584162127e+01    0.1855141   0.09810428  46.67  0.001310261    1.342    0.255
        13 -17.6987     78.5761     12.6688   7.9603079755e+01   6.2172128500e+01     15.12567     5.798862 -22.61   0.05710453    3.002    0.667
        14 -11.8459     62.2197    228.7918   1.2738894905e+02   2.4480625825e+01    0.2778272    0.1179124  61.34  0.001265904    2.102    0.524
        15 -12.7458    132.0065    231.6331   1.1639979315e+02   1.4898390759e+01    0.2615706     0.156196  33.85  0.001718345    1.699    0.411
        16 -11.7517      1.3419    229.1458   1.3657607853e+02   3.0531191342e+01     0.248949    0.0645921 -81.21  0.001467874    3.505    0.715
        17 -13.4701    110.3221    228.5212   1.1963263726e+02   1.8392887550e+01    0.3053137    0.1990259  39.10  0.002191307    1.428    0.300
        18 -13.8445     98.9864    228.0977   1.2144348134e+02   1.9993479859e+01     0.646051    0.1565064  48.17  0.002168351    3.104    0.678
        19 -11.1279      5.8928    228.8525   1.3591224312e+02   3.0181157431e+01    0.1036452   0.07864603  31.93 0.0006170376    1.919    0.479
        20 -12.7796    123.6258    226.5319   1.1725462038e+02   1.6781887802e+01    0.2380529     0.203859 -87.12 0.0009582986    1.377    0.274
        21 -12.0166     77.7495    217.4214   1.2404950467e+02   2.4302362828e+01    0.1889854     0.134866  65.19 0.0002976949    1.116    0.104
        22 -10.7309     79.0852    211.1514   1.2330842355e+02   2.5093760900e+01    0.1469255    0.1265981  52.51 0.0006759355    1.275    0.216
        23 -10.7765     14.0234    209.7443   1.3393644389e+02   3.2369245024e+01    0.1232025   0.08089135  63.74 0.0001898682    1.090    0.083
        24 -12.3774     10.7646    207.1873   1.3433819584e+02   3.3064955347e+01    0.2257887    0.2013221  89.78  0.002197984    1.495    0.331
        25 -10.7757     59.9089    207.7431   1.2630094929e+02   2.7962646830e+01    0.1439334     0.118306  59.93 0.0008004852    1.192    0.161
        26 -12.0725     67.0114    204.5495   1.2483714641e+02   2.7632406489e+01    0.2630759    0.1877097 -48.78  0.001385177    2.090    0.522
        27 -11.7339     49.3007    205.4118   1.2793106605e+02   2.9537558181e+01    0.1741856    0.1164508  62.99 0.0002614151    1.137    0.120
        28 -12.8296    186.2285    201.8191   1.0351942094e+02   1.0067230277e+01     0.537881    0.2851632  46.30  0.002237868    1.560    0.359
        29 -11.4697     74.4992    192.4842   1.2245860358e+02   2.8688032905e+01    0.2901966    0.1572644 -76.67  0.001799364    1.992    0.498
        30 -10.9188     48.9265    189.6406   1.2685394848e+02   3.2202204934e+01    0.2005929    0.1261914 -60.60  0.001094574    1.850    0.459
        31 -11.0087     18.7513    185.4920   1.3193606012e+02   3.5942684388e+01    0.1221162   0.08138166  48.36 0.0006943598    1.392    0.282
        32 -11.3053     86.1244    175.9063   1.1853550795e+02   3.0009856517e+01    0.3287633    0.2075588 -35.41  0.001774313    2.894    0.654
        33 -11.4228     88.5587    171.5318   1.1753761813e+02   3.0450019700e+01      0.23055    0.1935779 -25.97  0.001547168    1.812    0.448
        34 -11.0750    145.5450    245.5362   1.1565066280e+02   1.1244179009e+01    0.1868868    0.1393994  47.63 0.0009318533    1.046    0.044
        35 -12.4219     92.3567    234.9089   1.2307171060e+02   1.9918642566e+01    0.1923162     0.147741  71.30  0.000497915    1.193    0.162
        36 -10.7169     99.0007    156.7545   1.1343243740e+02   3.1624034644e+01    0.1687499    0.1451496  57.26 0.0004305035    1.070    0.065
        37 -12.6766     68.3619    143.6331   1.1826928449e+02   3.8414604160e+01    0.5906459    0.2936457  65.21  0.002829682    2.593    0.614
        38 -11.3853     98.9421    140.2713   1.1089710560e+02   3.4757257267e+01    0.2005117    0.1758331 -58.35 0.0003721559    1.202    0.168
        39 -12.9463     61.3757    134.3897   1.1861974738e+02   4.1126140700e+01    0.3862427    0.2945718  77.10  0.001583144    1.240    0.193
        40 -13.0909     57.0626    127.8478   1.1873470495e+02   4.2969446892e+01    0.5267888    0.2499637 -70.28  0.002286862    2.024    0.506
        41 -12.9188    125.2277    125.2104   1.0209493085e+02   3.3191202888e+01    0.4805151    0.4202662  27.59  0.002014149    1.234    0.190
        42 -10.7905     95.0518    162.2307   1.1502553389e+02   3.1203558462e+01    0.1635675    0.1515158  51.46 0.0003916791    1.185    0.156
        43 -10.9394    108.1320    120.1729   1.0506928135e+02   3.7201453273e+01    0.1876759    0.1546544  85.56 0.0007848596    1.343    0.255
        44 -17.9021     45.2496    245.8610   1.3093179921e+02   2.3940520573e+01      3.42164     1.028346  43.27   0.02116676    2.366    0.577
        45 -12.7060     84.0576    157.3737   1.1667575005e+02   3.3675658330e+01    0.2840499    0.2232043 -38.72  0.001654469    1.727    0.421
        46 -14.3807    152.2692     51.4102   7.5505800066e+01   4.0442476899e+01     1.176199    0.7786086  -2.48  0.005094383    1.879    0.468
        47 -13.9592    155.9181     40.5023   7.1020726100e+01   4.1073076674e+01    0.9417007     0.667031  83.98  0.004103465    1.904    0.475
        48 -12.3245    169.5803     47.0134   7.0552036822e+01   3.6707634904e+01    0.3080895    0.2312472  57.21 0.0007919559    1.331    0.249
        49 -11.8772     84.9521    234.8352   1.2423504451e+02   2.0872254722e+01    0.1764141    0.1349952 -70.93  0.001485249    1.594    0.373
        50 -13.2565    187.9095     26.4853   6.0748798838e+01   3.4404929710e+01    0.5959488    0.4889333   9.67  0.001526898    1.271    0.213
        51 -12.4787    144.2216    233.2719   1.1459047774e+02   1.2897143330e+01    0.4379315    0.2296039  42.08  0.002001132    1.451    0.311
        52 -12.0639    135.6247    235.4020   1.1619878036e+02   1.3895979644e+01    0.2033469    0.1059626  45.23  0.001065956    1.414    0.293
        53 -11.4227    158.2306    232.5716   1.1224817354e+02   1.0877268146e+01    0.2240459    0.1924171  11.02  0.001339958    1.451    0.311
