#   1 NUMBER                 Running object number                                     
#   2 MAG_AUTO               Kron-like elliptical aperture magnitude                    [mag]
#   3 X_IMAGE                Object position along x                                    [pixel]
#   4 Y_IMAGE                Object position along y                                    [pixel]
#   5 X_WORLD                Barycenter position along world x axis                     [deg]
#   6 Y_WORLD                Barycenter position along world y axis                     [deg]
#   7 A_WORLD                Profile RMS along major axis (world units)                 [deg]
#   8 B_WORLD                Profile RMS along minor axis (world units)                 [deg]
#   9 THETA_WORLD            Position angle (CCW/world-x)                               [deg]
#  10 FWHM_WORLD             FWHM assuming a gaussian core                              [deg]
#  11 ELONGATION             A_IMAGE/B_IMAGE                                           
#  12 ELLIPTICITY            1 - B_IMAGE/A_IMAGE                                       
         1 -11.5031     31.0566     15.8523   6.1403242252e+01   7.3698972317e+01    0.2936826    0.1993193 -39.44  0.001569066    1.451    0.311
         2 -11.2868    214.5551     10.5341   1.7551782500e+01   3.0300678551e+01    0.2123322    0.1705233 -55.10 0.0005159003    1.043    0.041
         3 -11.3558     84.5844      8.9469   3.2926320283e+01   6.2894212070e+01    0.3851058    0.2207777 -39.77  0.001751571    1.864    0.463
         4 -10.4986     54.5708     11.0860   4.4610760851e+01   6.9882003623e+01    0.2821752    0.1903757  43.40  0.001449954    1.383    0.277
         5 -10.7660     44.2469     10.8280   4.9636983138e+01   7.2101764315e+01    0.2158913    0.1517821 -77.26 0.0009513079    2.789    0.641
         6 -10.5575     93.6439      9.2887   3.0911514492e+01   6.0515125521e+01    0.1479432    0.1035417 -68.41 0.0005758264    1.679    0.404
         7  -9.5863     78.6877      7.7194   3.3851596949e+01   6.4518480326e+01    0.1465038   0.09661176  36.29 0.0002556528    1.568    0.362
         8 -12.7675     20.7609      4.5722   6.1295018234e+01   7.7248249336e+01    0.4920995      0.31942  37.61   0.00271342    1.558    0.358
         9 -11.4010      3.8031      5.3186   7.9005998659e+01   7.9103279446e+01    0.2212733    0.1699609 -43.67  0.001379582    1.175    0.149
        10 -10.6631     88.2356      4.2213   2.9548597669e+01   6.2399880294e+01    0.1950239    0.1581651 -71.23 0.0005776143    1.352    0.261
        11 -10.1323    101.5360      2.5168   2.6048162303e+01   5.9043505264e+01    0.1400733    0.1282253  68.84 -5.493571e-05    1.013    0.013
        12 -10.1288    133.7751    241.2308   7.9949008444e+01   1.0254655130e+01    0.1569957    0.1099914   9.18 0.0007499097    1.341    0.254
        13 -10.5954    238.3001    249.2393   6.2634294123e+01  -2.0707717365e+00    0.1588753   0.09349276 -16.41  0.001135567    1.431    0.301
        14 -13.5243     32.7726    206.5276   9.9430685891e+01   2.7804668560e+01    0.5902954    0.4704568 -88.99  0.001881167    1.351    0.260
        15 -13.6981     65.3736    243.7493   9.4359595670e+01   1.7693118314e+01     0.774393    0.4636729  57.90  0.002777173    1.704    0.413
        16 -15.0867     55.6351    229.5323   9.5535856801e+01   2.1143247748e+01        2.227    0.8138831  37.78   0.01129776    1.944    0.486
        17 -13.9347      6.7807    206.5624   1.0559889893e+02   3.0055737685e+01    0.9654516    0.6837825 -54.81  0.004209334    1.835    0.455
        18 -15.3521     94.8584    194.3680   8.3077063156e+01   2.3050471646e+01     1.646635     1.169843  88.39  0.009072564    1.939    0.484
        19 -17.1496     67.3698    194.6649   8.9963926329e+01   2.6496917899e+01     3.959377     3.076767  33.95   0.02442894    1.113    0.102
        20 -12.0866    220.1059    230.9432   6.2924433679e+01   1.5756538117e+00     0.222497     0.159228  11.92 0.0004644519    1.137    0.121
        21  -9.9682    180.4820    232.5318   6.9930947262e+01   5.8421146558e+00     0.112446    0.0842305  13.24 0.0008092407    1.039    0.038
        22 -10.6173    130.9639    232.3002   7.9509026424e+01   1.1882303671e+01     0.221112    0.1167569  26.46  0.001096972    1.521    0.342
        23 -11.3477    192.7322    227.3034   6.7015725020e+01   5.0479371967e+00    0.3170161    0.2115627 -58.85  0.001708599    3.882    0.742
        24 -10.5370    230.2431    228.6246   6.0991687312e+01   7.5491687654e-01    0.1764981   0.09460788  -9.94 0.0004174164    1.706    0.414
        25 -10.2063     77.8573    228.6869   9.0539356945e+01   1.8850375086e+01    0.1689972    0.1572908   6.52 0.0008167189    1.251    0.201
        26  -9.4099    178.2971    228.7260   6.9814314194e+01   6.5790056459e+00   0.09905307   0.07875908  35.57 0.0002039284    1.528    0.345
        27 -11.2912    214.8270    226.4181   6.3130057231e+01   2.6421377959e+00     0.177124    0.1479434  14.22 0.0008203058    1.438    0.304
        28 -10.4495    152.2297    225.9685   7.4433451616e+01   1.0152286296e+01     0.132696   0.09536567 -38.65 0.0008764869    1.640    0.390
        29 -11.6501    125.4840    221.9996   7.9442828833e+01   1.4144624897e+01    0.2678334    0.2276865 -54.60  0.001515433    1.525    0.344
        30  -9.7733     99.3674    224.0632   8.5346066820e+01   1.7087328917e+01    0.1421696    0.1123596  85.61 0.0009247485    1.709    0.415
        31 -10.5248    159.6843    221.8921   7.2419993436e+01   9.7876471095e+00    0.2076516    0.1298643  16.64 0.0007781103    1.396    0.284
        32 -10.8658    223.2190    220.3978   6.0887125963e+01   2.3873675053e+00    0.1796979    0.1450496  -6.95 0.0005846456    1.315    0.239
        33 -11.0547    173.2708    219.9200   6.9526932912e+01   8.3465088438e+00    0.2007152    0.1618083 -45.71  0.001286545    1.742    0.426
        34 -10.3073    223.7820    216.2091   6.0166718523e+01   2.7909571689e+00    0.1969692    0.1250855  31.85 0.0008642778    1.659    0.397
        35 -11.4017    118.4748    215.5312   8.0179822205e+01   1.6097594649e+01    0.1750738    0.1222465 -52.65 2.309563e-05    1.755    0.430
        36 -14.5235     88.4511    205.2788   8.5879496299e+01   2.1798260061e+01      1.08564    0.7793797 -71.97  0.006536141    1.719    0.418
        37 -10.9551    184.1568    213.8695   6.6614657465e+01   7.7868867215e+00    0.1645375    0.1350721  14.58 0.0003183677    1.173    0.148
        38 -11.3974    125.0324    212.6054   7.8379770633e+01   1.5720244669e+01    0.3161433    0.1762688 -44.82  0.001589219    2.087    0.521
        39 -15.3762     20.5854    213.2103   1.0262403841e+02   2.7596474197e+01     1.792495    0.8546673  87.32  0.006539721    2.259    0.557
        40 -13.5607      4.2282    220.9751   1.0655561886e+02   2.7460991136e+01    0.4218451    0.3397231 -42.81  0.002228879    1.758    0.431
        41 -10.6811    136.4721    211.6508   7.5785333056e+01   1.4351122243e+01    0.2978559    0.1906235 -18.08  0.001657248    1.956    0.489
        42 -10.7765    210.1030    211.6944   6.1714617494e+01   4.8869035970e+00    0.1636752    0.1233592  28.86 0.0009450318    1.465    0.317
        43 -12.2732    153.7347    210.6287   7.2042979624e+01   1.2200389417e+01    0.3438436    0.2550811   4.79  0.002211686    1.257    0.205
        44 -11.6624    141.5020    211.3066   7.4672909906e+01   1.3732470831e+01    0.3106227    0.2463491  80.39   0.00186218    2.207    0.547
        45 -11.3420    229.0093    207.9783   5.8070542781e+01   3.1305137597e+00    0.2468944    0.1755012 -13.08  0.001839414    1.169    0.145
        46 -10.4698    248.6012    206.7807   5.4940947889e+01   1.1226064077e+00    0.1388152   0.08139112 -31.89 0.0009565435    1.749    0.428
        47 -10.7674    123.9349    205.7651   7.7734402858e+01   1.7015567820e+01    0.1924647    0.1785943 -15.65 0.0005949348    1.208    0.172
        48 -13.5276    145.6582    203.9985   7.2766585605e+01   1.4324581194e+01    0.6154977     0.495415  72.51  0.003707643    2.046    0.511
        49 -10.2562    212.3801    200.1696   5.9512229675e+01   6.0192482655e+00    0.1460595   0.09669735 -36.55 0.0006155295    1.727    0.421
        50 -12.5191    124.3940    195.4638   7.6217878389e+01   1.8746473565e+01    0.4905341    0.3074584 -26.52   0.00254951    2.026    0.506
        51 -10.6540    224.9108    198.9711   5.7276421753e+01   4.6470347642e+00    0.1934415    0.1340537 -25.15  0.001360186    1.370    0.270
        52 -11.8902    135.0202    198.6523   7.4288836480e+01   1.6688203832e+01    0.2919143    0.1910255  43.48    0.0012843    1.554    0.356
        53 -15.3960      9.1437    227.3807   1.0565012259e+02   2.5881308862e+01     1.013822    0.9219494 -20.52   0.00774212    1.534    0.348
        54 -10.7313    245.0140    197.8405   5.4035678862e+01   2.4698580261e+00    0.1777816    0.1198225 -16.70 0.0004245465    1.190    0.160
        55 -11.4738    189.9248    194.9888   6.2598354264e+01   9.5944031881e+00    0.3241531    0.2484182 -17.34  0.002182685    1.213    0.175
        56 -11.2835    193.7983    193.4051   6.1631981585e+01   9.2927915576e+00    0.3202564    0.2172239  13.22  0.002018872    1.302    0.232
        57 -16.8035     26.1747    236.6533   1.0231021667e+02   2.2757726632e+01     1.709844     1.297797  26.81   0.01261199    1.261    0.207
        58 -10.4776    218.2694    193.9842   5.7524871400e+01   6.0565728819e+00    0.1610746    0.1225778  -4.61 0.0008721122    1.042    0.041
        59 -10.6335    164.1218    192.9431   6.7243569204e+01   1.3473712425e+01      0.18271    0.1592944  32.06 0.0009327942    1.283    0.221
        60 -11.1856    111.3386    191.9665   7.8779262225e+01   2.1236530670e+01    0.2799219    0.2253675  49.47   0.00120428    1.292    0.226
        61 -11.5603    110.4671    187.9951   7.8437252656e+01   2.2113136514e+01      0.25078    0.2050312  36.40 0.0003684998    1.099    0.090
        62 -10.8920     11.6669    188.6599   1.0379982855e+02   3.3384801185e+01    0.2014977     0.166997 -24.18 0.0009933021    1.612    0.380
        63 -12.2457      6.6938    185.7899   1.0495980612e+02   3.4390488374e+01    0.5357182     0.236886  75.53  0.002673415    2.176    0.540
        64 -11.7261     11.5758    183.9161   1.0363211681e+02   3.4421770372e+01    0.4084675    0.2785719  70.16  0.001981581    1.307    0.235
        65 -11.0174    123.5882    187.7747   7.5284926262e+01   2.0252386225e+01    0.2750556    0.2113724  53.35 0.0007503595    1.496    0.332
        66  -9.6857    220.2587    187.6492   5.6136456834e+01   6.5947468550e+00   0.09814721   0.08570451 -33.19 0.0005425897    1.606    0.377
        67 -10.6406    136.3125    187.3176   7.2295123911e+01   1.8459061984e+01    0.1328422    0.0938323  -2.52 0.0007035636    1.644    0.392
        68 -10.6065    248.2822    185.8963   5.1593239115e+01   3.4277393976e+00    0.1904982    0.1278526  12.57 0.0005286057    1.311    0.237
        69 -12.1963    128.4597    184.8105   7.3699698158e+01   2.0075674433e+01    0.3425777    0.2555422   7.17  0.001428971    1.418    0.295
        70 -15.3255     15.1447    237.5096   1.0466235233e+02   2.3570284968e+01    0.7906395    0.5809234 -13.38  0.005456827    2.049    0.512
        71 -11.6379     36.1601    181.3307   9.6978138867e+01   3.2801612384e+01    0.3852882     0.211207  67.88  0.001403546    1.887    0.470
        72 -10.5435     38.1881    176.3661   9.6052911149e+01   3.3710713562e+01    0.2243192    0.1694426 -56.04 0.0005749621    1.518    0.341
        73 -10.9916      1.9748    182.8782   1.0607363108e+02   3.5369615316e+01    0.1835187    0.1469153  65.93 0.0003316141    1.076    0.070
        74 -11.7484    144.4818    182.0375   6.9622166356e+01   1.8158548945e+01    0.2921353    0.1608736  33.22  0.001461024    1.622    0.383
        75 -12.7411    119.6273    178.0590   7.4740429174e+01   2.2671262525e+01    0.4962201     0.311908  -7.27  0.002223635    2.471    0.595
        76 -11.4722     57.2578    248.3891   9.6344965197e+01   1.7781174705e+01    0.5593898    0.2845192   6.24  0.002659675    3.398    0.706
        77 -11.9712     45.4982    175.9969   9.4007747787e+01   3.3028927948e+01      0.41441    0.1682899  46.30  0.001806431    2.168    0.539
        78 -13.6210     47.6178    169.6678   9.2834522561e+01   3.4241078785e+01    0.8078631    0.5187917 -24.50  0.002861158    2.321    0.569
        79 -11.1197    191.3706    177.9223   5.9411687409e+01   1.1815918288e+01    0.2036689    0.1586788  31.68 0.0008969218    1.332    0.249
        80 -11.5658    137.2912    177.0123   7.0404946876e+01   2.0154571631e+01    0.1846041    0.1685944 -10.89 0.0005849793    1.119    0.106
        81 -11.7038     53.9877    246.4934   9.6916842189e+01   1.8420816153e+01    0.4676443    0.2477679  34.59  0.002803737    1.365    0.268
        82 -12.3793    116.1119    240.2981   8.3431251821e+01   1.2491779419e+01    0.2438006    0.1691316  28.13 0.0004120211    1.097    0.088
        83  -9.7683    174.3320    189.3069   6.4612365950e+01   1.2574636228e+01    0.1297334   0.08433746   1.53 0.0007039758    1.664    0.399
        84 -12.4663     96.5003    176.9219   8.0366924104e+01   2.6327044394e+01    0.3921268    0.3275589 -38.16  0.001572872    1.349    0.259
        85 -13.6633     91.2632    167.4704   8.0384759345e+01   2.9089276614e+01    0.7779416    0.5082521  89.72  0.003627941    2.232    0.552
        86 -10.4563      2.7108    170.4752   1.0547933499e+02   3.8084619591e+01    0.2372754    0.1646376 -39.46 0.0008783795    1.898    0.473
        87 -10.3651    196.6629    170.6703   5.7138892552e+01   1.2098316044e+01    0.1319719    0.0839498   0.48 0.0007052008    1.732    0.423
        88 -12.4619    152.6864    167.0194   6.5194663904e+01   1.9505697297e+01      0.54049    0.1626173 -42.98  0.001947365    3.457    0.711
        89 -13.3902    125.1722    168.4355   7.1813583742e+01   2.3675740531e+01    0.5920996    0.4043437  12.92  0.002978159    1.669    0.401
        90 -12.6322    131.1596    169.1798   7.0501178473e+01   2.2576979524e+01    0.4202325    0.2521756  35.64  0.002087565    1.517    0.341
        91 -11.7579     82.3314    169.3347   8.3078150508e+01   2.9956212658e+01    0.3909866    0.2031696  36.27  0.001026716    1.687    0.407
        92 -11.0419     91.1436    236.5145   8.8316609475e+01   1.6013543878e+01    0.2634021    0.2236548 -26.07  0.001392017    1.469    0.319
        93 -10.9325     88.4872    231.1900   8.8417578067e+01   1.7196190921e+01    0.3624171    0.2370805 -83.53  0.002211863    2.187    0.543
        94 -11.5919     28.1210    166.3763   9.8132910235e+01   3.6989506871e+01    0.4572299    0.2028489  23.14  0.002050082    2.198    0.545
        95 -10.7558     10.5664    167.7528   1.0319875238e+02   3.8141909327e+01    0.2994495    0.1562467  38.71 0.0009543757    1.616    0.381
        96 -11.3605    172.4435    167.0331   6.1053707358e+01   1.6344814867e+01    0.3594286    0.1221354 -41.52  0.001420501    3.002    0.667
        97 -10.0099     18.9469    167.0083   1.0079574039e+02   3.7648222701e+01      0.18625    0.1459455 -35.85  0.001107643    1.621    0.383
        98 -10.9611    205.3166    165.0194   5.4573125697e+01   1.1639731078e+01    0.2051392    0.1476601  13.16 0.0004625668    1.304    0.233
        99 -11.2603    103.8677    164.8341   7.6612471284e+01   2.7759385521e+01     0.209686     0.182927   5.43  0.000484582    1.207    0.172
       100 -11.0457     84.0005    228.0352   8.9123075632e+01   1.8252729116e+01     0.361146    0.1946451  65.33  0.001829277    2.712    0.631
       101 -12.8826     28.0400    160.2278   9.7701787222e+01   3.8452497281e+01    0.7218075    0.4683493   5.23 0.0004803966    1.921    0.480
       102 -12.3880     24.9341    144.9692   9.7440024138e+01   4.2460627686e+01    0.5430394    0.3294711 -40.59  0.001755022    2.056    0.514
       103 -13.6498     19.1927    154.6875   9.9955120083e+01   4.0558650296e+01    0.9312845    0.5665948 -89.43  0.004595703    1.590    0.371
       104 -13.0494     24.0148    153.3429   9.8392335107e+01   4.0476280975e+01    0.5965523    0.3889593 -60.57  0.002143299    1.617    0.382
       105 -10.9826     17.6543    179.6551   1.0183786980e+02   3.4869580399e+01    0.2258771    0.1839035 -74.17 0.0008299015    1.338    0.253
       106 -10.4734     35.9606    162.9480   9.5587678718e+01   3.7043259568e+01     0.205473    0.1706692  57.69 0.0004096001    1.069    0.064
       107 -10.1122      4.3194    163.5914   1.0477857353e+02   3.9560834010e+01    0.2394699   0.09960131  27.25  0.001137258    2.139    0.533
       108 -11.8998    170.6440    160.4901   6.0173383058e+01   1.7706366257e+01    0.3477099    0.2329908  -4.97  0.001791551    1.761    0.432
       109  -9.7845    209.6420    160.7273   5.3030558895e+01   1.1609815575e+01     0.126494   0.08207841   4.72 0.0007001466    1.648    0.393
       110 -11.2695     46.0329    158.9763   9.2230962332e+01   3.6926651514e+01    0.3975088    0.2174414 -16.14  0.001493404    3.624    0.724
       111 -10.7402    108.9002    237.9166   8.4688696453e+01   1.3707960947e+01    0.2446968    0.1467668 -39.94  0.001146817    2.125    0.529
       112 -11.6741    127.0110    156.1837   6.9165905396e+01   2.5796342187e+01    0.2350308    0.2279305 -52.77 0.0002908918    1.161    0.138
       113 -12.2284    130.9987    155.7595   6.8105089047e+01   2.5206976005e+01    0.3658075    0.2630455 -37.47 0.0004154129    1.465    0.318
       114 -12.6148    113.1521    156.7351   7.2795849673e+01   2.7987986117e+01    0.3946649    0.2987742  78.48  0.001964377    1.854    0.461
       115 -11.5118    109.5301    157.4823   7.3879498965e+01   2.8420023426e+01    0.1967032    0.1885938  21.57 0.0007102296    1.042    0.040
       116  -9.3750      4.6884    158.7163   1.0447516901e+02   4.0681394824e+01    0.1173622   0.09159414 -43.45 0.0002834465    1.572    0.364
       117 -11.1218    209.0357    237.7935   6.5688786153e+01   2.0187247262e+00    0.3178113    0.1247997  19.30  0.001101719    2.602    0.616
       118 -10.9061    141.4525    154.9654   6.5456833531e+01   2.3580156104e+01    0.2043822    0.1359692 -45.01 0.0007855379    1.586    0.370
       119 -11.1681     37.9810    154.7494   9.4240152155e+01   3.8805365518e+01      0.40905    0.1476115  32.07   0.00144992    2.350    0.574
       120 -10.0261      7.7956    155.6303   1.0342508072e+02   4.1201418742e+01    0.1780537   0.09782816  36.57 0.0003356563    1.607    0.378
       121 -10.0332      2.8357    154.5898   1.0484750580e+02   4.1786876579e+01    0.2139551    0.1342783  81.83  0.001110376    1.444    0.308
       122 -10.4396    212.3352    154.2953   5.1347631397e+01   1.2111315182e+01    0.1271214   0.08325106   2.19 0.0003906282    1.646    0.392
       123 -13.9012     84.8829    147.6133   7.9058391706e+01   3.4504605404e+01    0.7539775    0.5404434 -57.70  0.003830824    1.468    0.319
       124 -11.0139     50.7924    154.1372   9.0265077940e+01   3.7548206491e+01    0.2117186    0.1712835  61.58 0.0004796255    1.173    0.148
       125 -10.0578    232.2073    152.0281   4.7838605946e+01   9.5478078134e+00    0.1620649    0.1223708 -17.92  0.001093668    1.073    0.068
       126 -12.4774    129.7242    151.0003   6.7502120588e+01   2.6371291500e+01    0.4485413    0.3033529 -63.56  0.002134661    1.949    0.487
       127 -11.1719    126.4463    151.5517   6.8425384078e+01   2.6824922768e+01    0.2364025    0.1800427  26.69 0.0005182683    1.268    0.212
       128 -10.8064    113.8693    232.9855   8.3141908499e+01   1.3872129457e+01    0.2270879    0.1742688  69.47 0.0007102326    1.844    0.458
       129 -11.6070    171.8366    150.8185   5.8016729082e+01   1.9124477717e+01    0.2483065    0.2221116  84.92 0.0008607839    1.638    0.389
       130 -11.3839    169.9091    146.8291   5.7589426235e+01   2.0130362990e+01    0.2124703    0.1882456  -5.47 0.0004876022    1.024    0.023
       131 -11.7885    147.2627    150.4764   6.3227066871e+01   2.3422448708e+01    0.2678341    0.2312103 -52.79  0.001528335    1.340    0.254
       132 -13.3628    109.1187    148.3570   7.2332878202e+01   3.0443205486e+01    0.7678618    0.3475888 -43.65   0.00295047    2.446    0.591
       133 -13.6877    102.2785    142.5452   7.3121387200e+01   3.2872466520e+01    0.8402233    0.4798553  40.55  0.001408595    1.653    0.395
       134 -11.5114     44.6904    150.7525   9.1760487191e+01   3.9064810843e+01    0.2617011    0.2203747  46.85  0.000929581    1.091    0.083
       135  -9.9613    180.3125    150.3258   5.6244646006e+01   1.7780268848e+01    0.1377482   0.09477171  -0.30 0.0003342066    1.663    0.399
       136 -10.6324    154.9568    149.4566   6.1296332188e+01   2.2268182640e+01    0.2089272    0.1290983  37.24 0.0005039045    1.563    0.360
       137 -10.9816     97.4274    149.2516   7.5727261069e+01   3.2167150843e+01    0.1938041    0.1414971 -74.64 0.0009458786    1.665    0.399
       138 -10.3999     52.5850    148.7363   8.9063646725e+01   3.8649370381e+01    0.1914123    0.1296997 -89.61 0.0009471688    1.603    0.376
       139 -10.2215    224.3861    148.2816   4.8277598794e+01   1.1156090572e+01    0.1656014   0.09746891 -36.92 0.0008276867    1.615    0.381
       140 -10.6427     10.9670    146.7432   1.0198919165e+02   4.3135281492e+01    0.2066986     0.116374  65.75 0.0007999426    1.655    0.396
       141 -10.2416      4.9746    147.0166   1.0386677542e+02   4.3479337102e+01    0.2143366    0.1175004  54.58  0.000463801    1.617    0.381
       142 -10.4661    122.6365    146.3040   6.8364852344e+01   2.8560764109e+01    0.1468834    0.1114296  66.93 0.0007037134    1.734    0.423
       143  -9.4593    189.3487    144.7030   5.3393280336e+01   1.7168601663e+01    0.1193103    0.1067483 -80.99  0.000703457    1.681    0.405
       144 -11.0324     50.7185    143.4207   8.8981053493e+01   4.0182364571e+01    0.2335997    0.1803192   4.81  0.001221376    1.547    0.353
       145 -10.4974     57.3742    143.3332   8.6842276402e+01   3.9387276015e+01    0.4058312    0.1608675  43.89  0.001557593    2.385    0.581
       146 -11.4251     36.6435    143.6958   9.3550092756e+01   4.1667977545e+01    0.3685736    0.1888577 -35.34  0.001479059    2.902    0.655
       147 -10.4563     40.9746    143.0000   9.2072635166e+01   4.1389060488e+01     0.275667    0.1079698  24.69 0.0004103907    2.531    0.605
       148 -12.3552     93.4117    140.0184   7.5195940840e+01   3.4918087181e+01    0.5227312    0.2920821 -73.82  0.001251747    2.635    0.621
       149 -12.6243    140.7928    138.0350   6.2142111021e+01   2.6963085704e+01    0.5904077     0.238531 -36.75   0.00191727    2.875    0.652
       150 -11.1948    137.7329    130.9601   6.1318637920e+01   2.8931674858e+01    0.3127896     0.209264  40.73 0.0007878494    1.466    0.318
       151 -11.3492    133.7476    131.2054   6.2353789448e+01   2.9637851477e+01    0.2851012    0.2061384  29.71 0.0007321131    1.405    0.288
       152 -11.5061    140.2628    134.4019   6.1475471735e+01   2.7773771549e+01    0.3328645    0.2812268  65.91  0.000905047    1.453    0.312
       153 -12.6963    143.8421    132.1916   6.0134694162e+01   2.7531989097e+01    0.4671898    0.3365995  -4.20  0.001605453    1.788    0.441
       154 -11.5580     10.7293    140.5293   1.0169243756e+02   4.4693936927e+01    0.2973125    0.1801617  54.34  0.001117047    1.501    0.334
       155 -10.7939    126.6916    138.9476   6.5818420760e+01   2.9362163540e+01    0.2034301    0.1910645 -38.81  0.001151816    1.111    0.100
       156 -11.6982     37.7697    138.2738   9.2588364069e+01   4.2917002159e+01    0.4417933    0.2281759   5.26  0.001758449    2.842    0.648
       157 -11.5750     30.5085    139.8742   9.5163854108e+01   4.3231687754e+01    0.2535064    0.1878903  30.66  0.000749536    1.328    0.247
       158 -10.6467    159.5718    137.7446   5.7824640991e+01   2.3564642349e+01    0.1903457    0.1311438 -48.92 0.0006426409    1.609    0.379
       159 -10.0956     53.8802    135.8164   8.6912688081e+01   4.1698720448e+01    0.2096428    0.1566249  62.52 0.0009236336    1.362    0.266
       160  -9.5412    133.3093    135.3125   6.3370899250e+01   2.8889385230e+01    0.1477861    0.1117712  -2.86 0.0003439792    1.626    0.385
       161 -11.6839     61.6724    134.2583   8.4099886765e+01   4.1079115897e+01    0.4630248    0.2169833  34.95  0.001911079    1.973    0.493
       162 -12.8020    102.5278    132.5188   7.1048048448e+01   3.5089623827e+01    0.5587766    0.2885445  34.72  0.001958485    1.896    0.473
       163 -11.5749     36.3319    131.6119   9.2299906137e+01   4.4764129632e+01    0.4169987    0.2359767  -6.80   0.00169897    2.786    0.641
       164 -13.1418    154.1732    129.8332   5.7244173660e+01   2.6020129924e+01    0.6273537     0.363983  41.86  0.002892721    1.722    0.419
       165 -10.5102    113.1610    227.8375   8.2742727356e+01   1.4768518672e+01    0.2100464    0.1828463  17.60  0.001299029    1.122    0.109
       166 -11.4947     30.4883    130.0545   9.4147755229e+01   4.5740177845e+01    0.3747677     0.192251  67.73  0.001583957    2.224    0.550
       167  -9.5914     69.6788    130.2580   8.0790562842e+01   4.0951198698e+01    0.1499102    0.1049412  58.91  0.000208608    1.546    0.353
       168 -10.9930     84.4915    128.5192   7.5687072980e+01   3.9084523849e+01     0.256418    0.1480466 -72.41 0.0007180225    2.239    0.553
       169 -10.7047     12.1651    133.1886   1.0073458135e+02   4.6443978616e+01    0.2696311    0.1622878  36.03  0.001011148    1.566    0.362
       170 -11.3793     59.5989    126.6647   8.3552949250e+01   4.3268729161e+01     0.434673    0.1881163 -58.31  0.001707609    2.230    0.552
       171 -10.1601     15.3510    126.9421   9.9160156520e+01   4.7815001528e+01    0.2631879    0.1733299 -14.99  0.001317933    1.978    0.494
       172 -11.0180     67.6867    122.5827   8.0053464214e+01   4.3157061237e+01    0.2755879    0.2270726  80.02 0.0007957224    1.309    0.236
       173  -9.9638     10.8211    123.6262   1.0050768171e+02   4.8988585064e+01    0.1936419    0.1077386  34.82 0.0007913554    1.718    0.418
       174 -10.2506    205.4971    121.8409   4.5722363587e+01   1.7909290055e+01    0.1947519    0.1140377 -32.18  0.001007233    1.514    0.340
       175 -12.0130    100.8118    119.9720   6.8812846128e+01   3.8263630196e+01    0.6368029    0.3205707  53.86  0.002335648    2.528    0.604
       176 -11.3360     42.5990    121.0083   8.8665717768e+01   4.6832976816e+01    0.4009287    0.2243222  11.89  0.001698722    2.244    0.554
       177 -11.5688     55.3214    117.6518   8.3495790745e+01   4.6142241862e+01     0.370363    0.2004615  33.44  0.001600952    1.787    0.440
       178 -11.9620     48.9047    116.2299   8.5595277901e+01   4.7330889000e+01    0.4682487    0.3431094  -9.71  0.002259281    1.769    0.435
       179 -10.6788     36.1341    120.4007   9.0944694676e+01   4.7689435107e+01    0.3133402    0.2475356  48.80  0.001146493    1.229    0.187
       180 -10.7905     31.5112    118.8958   9.2456054971e+01   4.8544430950e+01    0.3204404    0.1958535  31.10   0.00134254    1.610    0.379
       181 -10.5787     24.5191    120.0293   9.5184853686e+01   4.8883936915e+01    0.2822494    0.1863861  75.75  0.001411477    1.532    0.347
       182 -10.6474     23.5238    115.9485   9.5100199964e+01   5.0039265798e+01    0.3196802    0.2084784 -64.86  0.001586507    1.452    0.311
       183 -10.1984    200.4496    120.1794   4.6168242174e+01   1.9044949369e+01    0.2380398   0.09509888  44.83  0.001002537    2.686    0.628
       184 -10.3417    189.1961    121.2200   4.8316182406e+01   2.0917787170e+01    0.1731062    0.1533137 -52.32 0.0003284149    1.318    0.241
       185 -10.7239    155.4634    117.4825   5.4059615500e+01   2.8057365715e+01    0.1425434    0.1363652 -12.41 -1.155265e-05    1.028    0.027
       186 -10.1549    188.3288    115.3139   4.7107411780e+01   2.2019759497e+01    0.1395141    0.1005187   5.06 0.0007044012    1.673    0.402
       187 -10.2622     64.2222    114.4149   7.9677222869e+01   4.5727380010e+01    0.2187612    0.1286197  43.40 0.0009464102    1.680    0.405
       188  -9.8225    120.6869    113.3303   6.1515387638e+01   3.5905968086e+01    0.1522517    0.1214366  85.95 0.0007044126    1.675    0.403
       189 -10.6341    108.5101    112.5396   6.4751951160e+01   3.8489675549e+01     0.322231    0.1502519 -49.14  0.001216296    2.184    0.542
       190 -11.0061    192.0250    111.9449   4.5684115436e+01   2.1855467531e+01    0.2032681     0.179529 -17.29 0.0004384044    1.024    0.024
       191 -11.9888     53.4923    110.9904   8.2947725115e+01   4.8103215197e+01    0.3760168    0.2817779  52.17 0.0008866442    1.359    0.264
       192 -11.8847     50.2824    107.8497   8.3574976341e+01   4.9336453969e+01    0.3738409    0.2694709 -29.62  0.001217187    1.679    0.404
       193 -10.5212    242.0250    111.3186   3.8355697859e+01   1.3348936423e+01    0.1573275    0.1384705  -9.09 0.0004551307    1.136    0.120
       194 -10.2586    210.8791    110.5133   4.2367134510e+01   1.8621808321e+01    0.1715617     0.127465  45.15 0.0006066561    1.513    0.339
       195 -11.3196    160.1349    108.0818   5.0735042686e+01   2.8818872571e+01    0.3290987    0.1965435 -26.11  0.001239463    1.880    0.468
       196 -10.1419    217.5060    108.0327   4.0853225058e+01   1.7811125448e+01    0.1938046    0.1085355 -32.53 0.0004463586    1.524    0.344
       197 -10.4251     91.9931    108.0663   6.8727082111e+01   4.2659891142e+01    0.2222322    0.2204842  55.64 0.0003145789    1.008    0.008
       198 -11.7105    153.2566    107.0732   5.1945654782e+01   3.0429257865e+01    0.3233573    0.2243246  59.59 0.0009257032    1.694    0.410
       199 -11.8281     57.4787    106.3333   8.0519450603e+01   4.8761146294e+01    0.3087042    0.2774644 -82.23  0.001675987    1.111    0.100
       200 -10.9293     78.9095    102.2424   7.1702289764e+01   4.6407415460e+01    0.4702584    0.2125936 -53.65  0.001764775    2.194    0.544
       201  -9.5687    155.6593    103.3209   5.0458205073e+01   3.0610807384e+01    0.1473964    0.1163901 -77.78 0.0004575177    1.719    0.418
       202  -9.6564    116.6785    103.6855   6.0127105068e+01   3.8782582250e+01    0.1555574    0.1214731  -0.58 0.0004517385    1.657    0.397
       203 -12.0156     57.5452    100.0437   7.9143389865e+01   5.0366608370e+01     0.430047    0.3562278 -45.40  0.001648684    1.238    0.192
       204 -10.6653     60.1117     96.0089   7.7203612299e+01   5.1019003281e+01    0.3155193    0.2080951  38.51  0.000962886    1.509    0.337
       205 -10.8915    237.8914     98.8216   3.6201510702e+01   1.5601527256e+01    0.1992919    0.1439857 -36.91 0.0003564048    1.207    0.171
       206 -10.8580     20.9471     97.7004   9.3860315514e+01   5.5084703355e+01    0.3799883       0.2383 -44.44  0.001378062    1.674    0.403
       207 -10.7339     75.6371     97.8661   7.1769068428e+01   4.8043056414e+01    0.2678831    0.2116795  21.33 0.0007067829    1.394    0.283
       208 -10.8570    149.7503     96.0079   4.9789603533e+01   3.3212055944e+01    0.2101913    0.1883585 -33.81 0.0004124913    1.086    0.079
       209 -11.9071     54.5384     92.7445   7.8672632781e+01   5.2667090270e+01    0.3402742    0.2576996  36.24  0.001029083    1.331    0.248
       210 -13.3395     45.7938     87.0739   8.1043131740e+01   5.5314488424e+01    0.8280689    0.4236116 -70.12  0.003336845    2.110    0.526
       211 -10.5768     59.4489     91.9954   7.6491329893e+01   5.2136099365e+01    0.3447982    0.2092098  37.61  0.001524236    1.641    0.390
       212 -10.7169     59.0285     87.7040   7.5569789398e+01   5.3282025395e+01    0.3484882    0.2542072 -77.82     0.001058    1.567    0.362
       213 -12.9488     53.4691     85.3307   7.7289598849e+01   5.4709795098e+01    0.7305192    0.5274898  73.80  0.003250033    1.741    0.426
       214 -12.7505     50.9886     79.6691   7.6876090168e+01   5.6497614251e+01    0.8378206    0.3827188  43.00  0.003011638    2.302    0.566
       215  -9.9351      3.6377     89.3043   1.0048644896e+02   5.8411367462e+01    0.4136677    0.0605409 -69.78  0.001222113    4.250    0.765
       216  -9.9121    232.1501     89.3842   3.4803252837e+01   1.7780076159e+01    0.1393374    0.1187389  88.09 0.0002306082    1.540    0.351
       217  -9.6157     95.5313     89.4881   6.2549467333e+01   4.6257387469e+01    0.1518447    0.1510368  17.15 4.710674e-05    1.012    0.012
       218 -10.3361    208.0237     86.9474   3.7272455048e+01   2.2516007169e+01    0.1970127    0.1731893 -18.08 0.0004299283    1.089    0.082
       219 -10.0083    179.2980     87.7002   4.1834450393e+01   2.8233070434e+01    0.1389252    0.1052266 -63.27 0.0001832247    1.577    0.366
       220  -9.4082     11.6627     87.2673   9.6603306744e+01   5.8515630421e+01    0.1412934   0.09283219  54.77 0.0004249733    1.594    0.373
       221 -10.9710    211.7326     81.7378   3.5525822855e+01   2.2523869640e+01    0.2063164    0.1770323 -10.87 0.0003225826    1.187    0.158
       222 -10.4882    153.1125     81.3070   4.4950358044e+01   3.5073365532e+01     0.292382    0.2023098 -41.70  0.001399241    1.398    0.285
       223  -9.5704     62.6462     82.6821   7.2709773010e+01   5.3958248226e+01    0.1582165    0.1166855 -18.38 0.0007046508    1.745    0.427
       224 -12.0077     21.9461     80.2319   9.0647703150e+01   5.9642586906e+01     0.408078    0.2011518 -63.26  0.001793039    1.793    0.442
       225 -10.3395    207.4424     79.2892   3.5486785235e+01   2.3696486244e+01    0.2590211    0.1194785 -26.41   0.00107458    2.122    0.529
       226 -12.2027     29.0495     79.8398   8.7133568370e+01   5.9105322758e+01    0.4496084    0.2086442  29.69  0.001886823    2.151    0.535
       227 -10.5527     88.3930     79.0558   6.1767097894e+01   5.0045590477e+01    0.3118823    0.2303037  50.13  0.001458219    1.383    0.277
       228 -10.2794    183.5389     77.3525   3.8405972733e+01   2.8917800001e+01    0.2625662     0.173544  53.10  0.001327897    1.624    0.384
       229 -10.5668    112.0030     76.4961   5.3443328554e+01   4.5456713910e+01    0.2903984     0.262934   3.66 0.0008116373    1.226    0.184
       230 -10.6161    115.9700     74.6826   5.1738747031e+01   4.4904186590e+01    0.2985843    0.2623512  -5.18  0.001165875    1.294    0.227
       231 -10.9968     75.1257     75.5190   6.5517600849e+01   5.3463590903e+01    0.2772021    0.2452937 -38.75 0.0003917808    1.144    0.126
       232  -9.9634     21.4901     91.4973   9.2728546412e+01   5.6692030395e+01    0.1394614    0.1290894 -82.57 0.0006805102    1.010    0.010
       233 -12.3028     32.4478     73.7759   8.4111355148e+01   6.0335979545e+01    0.4308417    0.2452849  11.23  0.001872978    2.124    0.529
       234 -10.5589     94.4677     72.0469   5.7381047407e+01   5.0278617442e+01    0.2215268    0.2128827  49.68 0.0004357568    1.036    0.034
       235 -11.4557    100.5235     68.8111   5.4310011867e+01   4.9600755438e+01    0.4669733     0.153172 -40.16  0.001444082    3.162    0.684
       236  -9.8478    188.4733     65.5070   3.4501560354e+01   2.9563236493e+01    0.2748832   0.09591239 -41.45  0.001031654    2.563    0.610
       237 -10.8602    177.9757     64.5520   3.5758564377e+01   3.2035866911e+01    0.2604981    0.1920452 -33.36 0.0004516639    1.265    0.210
       238 -12.9406     30.0263     65.1071   8.3167079532e+01   6.2815217483e+01     1.152397    0.5122597  37.57  0.004713547    2.317    0.568
       239  -9.0500    113.6945     62.7016   4.8304397224e+01   4.7701323331e+01    0.1528784    0.1205848  16.02 0.0002230475    1.589    0.371
       240 -11.2418    198.9701     65.4898   3.3100939068e+01   2.7312776344e+01    0.2986044    0.2063904  57.98  0.001415152    1.598    0.374
       241 -10.8474    166.0238     58.5135   3.5874377352e+01   3.5681138948e+01    0.2541104    0.1976932 -35.72 0.0002121956    1.219    0.180
       242 -10.4207      4.1496     59.2000   9.6478734488e+01   6.6287868956e+01    0.2692734    0.1695866 -15.75 0.0009939584    1.768    0.434
       243 -11.9672     52.5847     56.8480   6.8845507797e+01   6.1764766108e+01     0.709161    0.3096769  50.02  0.002466345    3.061    0.673
       244 -10.1625     97.7770    233.4473   8.6614125775e+01   1.5731989985e+01    0.1780675    0.1640313 -82.90 0.0008645987    1.404    0.288
       245 -10.1656     28.0239     55.1889   8.1448917039e+01   6.5513509765e+01     0.241894    0.1434875  51.32  0.001079349    2.085    0.520
       246 -10.5004    167.0594     52.0051   3.3763758614e+01   3.6359951191e+01    0.2035718    0.1948306 -47.86 0.0003028598    1.039    0.037
       247  -9.9741     94.9954     51.4968   4.9623254240e+01   5.4192431213e+01     0.240254    0.1469801  50.83  0.001035864    1.601    0.375
       248 -10.0392     31.0282     50.4763   7.8153270819e+01   6.6323272553e+01    0.2104899    0.1368716  26.99  0.001029311    1.591    0.371
       249  -9.7102    153.4994     57.4918   3.7689594678e+01   3.8839948187e+01    0.1442738    0.1392137 -56.30 -8.501868e-05    1.012    0.012
       250 -10.0100     18.3844     49.2394   8.5513809871e+01   6.7909460292e+01    0.1828067    0.1263533 -77.59 0.0002804602    1.544    0.352
       251 -10.2432      1.3807     47.8149   9.6222952322e+01   6.9313286038e+01    0.1997941   0.09802217 -61.07 0.0004282733    1.696    0.410
       252 -10.3575    197.9956     45.7406   2.8017182475e+01   3.0072089860e+01    0.1907203    0.1779775   0.87 0.0003236965    1.229    0.186
       253 -10.3787    195.0016     43.7702   2.7812110408e+01   3.0972369954e+01    0.1724396    0.1571922  36.06  0.000505635    1.288    0.224
       254  -9.9758    122.4682     41.5226   3.8364238943e+01   4.9010630533e+01    0.1489087    0.1413145 -81.06 0.0005176645    1.042    0.041
       255 -10.7826     36.2136     39.8042   7.0863324734e+01   6.8109945122e+01    0.3121706    0.2167281  12.68   0.00139171    1.638    0.389
       256 -10.1727    225.2671     38.9830   2.3766649677e+01   2.5188914571e+01    0.1708323    0.1345114 -37.82 0.0002194231    1.066    0.062
       257 -10.0385    104.7756     39.6732   4.1937356045e+01   5.3786414913e+01    0.2086223    0.1372694  68.46 0.0003064749    1.633    0.388
       258 -11.4031     55.2211     37.3073   5.9187964401e+01   6.5445886868e+01    0.4639415    0.2533692  29.74  0.001919747    2.169    0.539
       259 -10.7544      9.4478     37.0491   8.7964546478e+01   7.1566504149e+01    0.2079624    0.1671095   5.82 0.0008371727    1.308    0.236
       260 -10.1154     22.2920     34.3328   7.7637023947e+01   7.1085616009e+01    0.1444369   0.09275065 -29.61 0.0003310087    1.633    0.388
       261 -11.4465    106.9875     31.5705   3.7979848915e+01   5.4403947142e+01    0.3809178    0.2896785  39.39  0.001844162    1.386    0.279
       262 -10.6038     44.1260     33.3189   6.3121466283e+01   6.8233597574e+01    0.2331581    0.1779441  10.66  0.001203751    1.466    0.318
       263 -11.1456     31.6143     32.8045   7.0562620357e+01   7.0273593893e+01    0.3292004    0.2627926  18.51   0.00184246    1.269    0.212
       264 -10.4424     32.5042     29.4870   6.8327912556e+01   7.0845276421e+01     0.253458    0.1329077 -53.13 0.0007319663    1.971    0.493
       265 -11.4763     77.8196     30.9505   4.6386727319e+01   6.1718619107e+01     0.294973    0.2418654 -89.14 0.0005126999    1.514    0.340
       266 -10.8436    155.8918     30.9176   2.8747565292e+01   4.1843790436e+01    0.2118363    0.1936875  28.15 0.0005547128    1.254    0.203
       267 -11.5836     71.4188     30.0106   4.8327882122e+01   6.3343304977e+01    0.2948092    0.1900148  37.44  0.001113702    1.605    0.377
       268 -10.5755    173.8780     23.8914   2.4385664785e+01   3.8185536529e+01    0.2648195    0.1319534 -45.99 0.0008359072    1.838    0.456
       269 -11.2833     84.1258     23.5357   4.0590769286e+01   6.1281928181e+01    0.4790919    0.2969956 -61.79  0.002026921    2.274    0.560
       270 -10.6244    134.7462     22.4128   2.8865243638e+01   4.8280965613e+01    0.2569151    0.1576539 -41.00  0.000509705    1.597    0.374
       271 -10.1319     20.8110     23.1617   7.3471920989e+01   7.3701910733e+01    0.1956407    0.1436815 -23.35  0.001077087    1.360    0.265
       272 -10.0902    208.5789     19.7586   2.0260845860e+01   3.0671965081e+01    0.1763001   0.09404488 -39.68 0.0003051815    1.536    0.349
       273 -10.0247     74.9771     17.7799   4.0568635667e+01   6.4279801248e+01    0.1880012    0.1109558  57.08 0.0002209785    1.599    0.374
       274 -10.4345     93.2724    248.8296   8.8920874310e+01   1.3847264446e+01    0.1399641    0.1346962 -79.49 0.0003972697    1.382    0.276
       275 -10.5543     11.9874     16.0000   7.7074124790e+01   7.6158118950e+01    0.2048276   0.07113278  23.32 0.0008044935    2.957    0.662
       276  -9.6885    163.4474     13.4084   2.2190244724e+01   4.1832880422e+01    0.1344412    0.1206347 -71.20 8.104248e-05    1.012    0.012
       277  -9.3883    139.6573    247.6768   7.9499491328e+01   8.6799892638e+00    0.1146722   0.07198128   3.13 0.0007050598    1.730    0.422
       278  -9.5710    115.4345    245.7544   8.4114018969e+01   1.1769792761e+01     0.133209    0.1023648 -27.95 0.0009456373    1.595    0.373
       279 -11.0177    214.2983    233.1653   6.4179937802e+01   1.9569362776e+00    0.1966613    0.1094098  12.96 0.0002955082    1.494    0.330
       280  -9.7000     84.2944    237.6752   8.9882222091e+01   1.6610341257e+01    0.1730912     0.112691  34.50  0.001119043    1.168    0.144
       281 -11.0224     40.4852     10.4996   5.1569134153e+01   7.2894321164e+01    0.1346453    0.1228687  13.14 7.461767e-05    1.019    0.018
       282 -10.5254     81.8349    234.1169   9.0117873286e+01   1.7476159636e+01    0.2368167    0.1715212 -83.64  0.001579369    1.820    0.451
       283  99.0000     83.7466    245.9893   9.0664663060e+01   1.5344482671e+01    0.4301229    0.1737501  28.71  0.001746801    1.895    0.472
       284 -10.7234     83.0649    242.0525   9.0498392019e+01   1.6042635009e+01    0.2214854    0.1526083  61.66 0.0009423688    1.660    0.398
       285 -10.7939    179.8428    244.5743   7.1617693806e+01   4.4597424352e+00    0.1661676    0.1397581  -5.86 0.0005518136    1.320    0.243
       286  -9.9445    103.6281    244.2812   8.6391020406e+01   1.3356676557e+01    0.1330254    0.1029833 -36.33 0.0006748853    1.634    0.388
