#   1 NUMBER                 Running object number                                     
#   2 MAG_AUTO               Kron-like elliptical aperture magnitude                    [mag]
#   3 X_IMAGE                Object position along x                                    [pixel]
#   4 Y_IMAGE                Object position along y                                    [pixel]
#   5 X_WORLD                Barycenter position along world x axis                     [deg]
#   6 Y_WORLD                Barycenter position along world y axis                     [deg]
#   7 A_WORLD                Profile RMS along major axis (world units)                 [deg]
#   8 B_WORLD                Profile RMS along minor axis (world units)                 [deg]
#   9 THETA_WORLD            Position angle (CCW/world-x)                               [deg]
#  10 FWHM_WORLD             FWHM assuming a gaussian core                              [deg]
#  11 ELONGATION             A_IMAGE/B_IMAGE                                           
#  12 ELLIPTICITY            1 - B_IMAGE/A_IMAGE                                       
         1 -10.1102     74.8141     17.7038   4.5036654529e+01   5.8783692547e+01    0.2235267    0.1834154  41.28 0.0003942765    1.214    0.176
         2  -8.9085    107.6656    229.6899   8.9174934993e+01   1.0939059226e+01    0.1295306     0.106802 -22.53 0.0007043373    1.677    0.404
         3  -9.8793     89.2455    227.9922   9.2608802902e+01   1.4159503697e+01    0.2197176    0.1472338 -14.74 0.0008922264    3.627    0.724
         4  -9.4828     85.0000    222.0303   9.2631830300e+01   1.6142457371e+01    0.2241808   0.07001154 -60.37 0.0008013397    2.935    0.659
         5  -9.5377     75.0225    220.7665   9.4466000549e+01   1.7890973429e+01    0.1657204    0.1087224  43.87 0.0007154375    1.623    0.384
         6  -9.0622    131.6724    193.6674   7.8066845247e+01   1.5133319573e+01    0.1500687    0.1151949 -21.67 0.0007051594    1.715    0.417
         7  -9.0033    124.6633    193.6691   7.9593784655e+01   1.6361292006e+01    0.1496801     0.114887 -22.44 0.0007052087    1.734    0.423
         8 -10.3483    126.9563    179.7112   7.6383218032e+01   1.9283622077e+01    0.2130694    0.2024482 -87.79  0.001175759    1.088    0.081
         9 -11.4454    147.6340    173.2903   7.0478602833e+01   1.7008414095e+01    0.3353844     0.320109  46.07  0.001843838    1.159    0.137
        10  -9.5160    112.9962    175.0000   7.8605374952e+01   2.2880268602e+01     0.236143   0.08788815  39.72 0.0008100835    2.996    0.666
        11 -10.6260    137.9031    171.2204   7.2185308898e+01   1.9314834245e+01    0.3124154    0.1941621 -29.66   0.00126163    2.142    0.533
        12 -10.3701    132.3484    172.3771   7.3671411078e+01   2.0064079802e+01    0.2405645    0.1859097 -21.70  0.001132033    1.654    0.395
        13  -9.4848    126.3191    170.6566   7.4674629786e+01   2.1575340764e+01    0.1581711    0.1168229 -87.67  0.000538935    1.721    0.419
        14 -11.7342    145.4628    161.3035   6.8356552782e+01   2.0231068233e+01    0.5191948    0.2901703  57.94  0.002031374    2.367    0.578
        15  -9.8120     99.9988    159.0113   7.8394617003e+01   2.9003378269e+01    0.1945656    0.1643078 -57.84  0.001023399    1.037    0.035
        16 -11.9614    162.5132    152.3172   6.2636241532e+01   1.8984090632e+01    0.4592877    0.3905798 -63.80  0.002362211    1.164    0.141
        17 -11.0457    136.3578    150.4931   6.7964360817e+01   2.4512765566e+01    0.3225107    0.2511487  12.77  0.001509408    1.760    0.432
        18  -9.6622    125.4953    145.4852   6.9320683339e+01   2.7745607680e+01    0.1561059    0.1395775 -52.85 -5.381067e-05    1.003    0.003
        19  -9.7517     98.4920    145.4632   7.5833796296e+01   3.2546255476e+01    0.1522108    0.1335807 -55.88 0.0008094647    1.009    0.009
        20  -9.2565    120.6637    134.0118   6.7749646924e+01   3.1318200591e+01    0.2607852    0.1087946 -32.98 0.0007051206    4.365    0.771
        21  -9.3625     58.5078    134.5125   8.3673904351e+01   4.1103354008e+01    0.1421307    0.1189379 -59.79 5.550811e-05    1.063    0.059
        22  -9.5759    112.0192    132.0000   6.9357508906e+01   3.3366534825e+01    0.2355678   0.08840823  41.52 0.0008092058    2.990    0.666
        23  -9.7524     92.4996    124.0042   7.2325536307e+01   3.8565430100e+01    0.2364606    0.1298214 -48.43  0.001032488    1.594    0.372
        24 -11.5339     77.3772    116.8771   7.4562406814e+01   4.2542549166e+01    0.5179332    0.3188659 -80.91  0.001948864    3.367    0.703
        25 -10.4285     56.5869    118.1539   8.0556127273e+01   4.5130958416e+01    0.2874279    0.1478621  49.59  0.001242544    2.767    0.639
        26 -10.3339    111.6934    108.3632   6.3440936291e+01   3.8621964288e+01    0.3417315    0.2182163 -73.35  0.001364688    2.647    0.622
        27 -10.4208     86.9736    104.8666   6.8886340863e+01   4.3636225093e+01    0.3256689    0.1708589 -25.94  0.001224212    2.891    0.654
        28  -9.9609     78.2365     99.2269   6.9746695601e+01   4.6171377962e+01    0.2275756    0.1046148 -55.29 0.0008944495    2.479    0.597
        29 -12.6177     52.6488     91.7782   7.5052569598e+01   5.1226935748e+01    0.6087322    0.4513056 -85.69   0.00315742    2.355    0.575
        30  -8.4530    110.6572     84.6771   5.7183197194e+01   4.3415942008e+01    0.1427768    0.1061642   0.65 0.0007050539    1.729    0.422
        31 -10.3064     80.9925     84.5260   6.4859996575e+01   4.8591201292e+01    0.1910671    0.1318597  36.63     0.001027    1.576    0.366
        32  -9.5187    115.6060     86.1898   5.6415973590e+01   4.2208451421e+01    0.2016778    0.1255402 -30.59 0.0009478937    1.667    0.400
        33 -10.6909     58.4563     75.1558   6.8581470706e+01   5.3592386279e+01    0.2288042    0.1701292  51.60   0.00132447    1.869    0.465
        34 -10.5533     58.8983     70.2176   6.6955102907e+01   5.4386227850e+01    0.2624036    0.1444927 -21.57  0.001256732    2.177    0.541
        35 -10.4242     53.9857     68.0587   6.7779263598e+01   5.5409230241e+01    0.4008648   0.09856503 -37.40  0.001322342    4.233    0.764
        36 -10.4786     95.1890     52.8043   5.1486099487e+01   5.1294076986e+01    0.3163632    0.1827505 -43.59 0.0009517628    1.895    0.472
        37 -10.1020    101.1387     51.1754   4.9539725054e+01   5.0438949556e+01    0.3327269    0.1841861 -36.93 0.0007062188    1.808    0.447
        38  -9.3728     65.8058     35.1772   5.3443982580e+01   5.8412544521e+01    0.1643718    0.1174829   7.49 0.0005117137    1.350    0.259
        39  -8.7903     82.9991     21.5042   4.4340497471e+01   5.7049068621e+01    0.1459871    0.1012057  79.81 0.0005810871    2.585    0.613
