#   1 NUMBER                 Running object number                                     
#   2 MAG_AUTO               Kron-like elliptical aperture magnitude                    [mag]
#   3 X_IMAGE                Object position along x                                    [pixel]
#   4 Y_IMAGE                Object position along y                                    [pixel]
#   5 X_WORLD                Barycenter position along world x axis                     [deg]
#   6 Y_WORLD                Barycenter position along world y axis                     [deg]
#   7 A_WORLD                Profile RMS along major axis (world units)                 [deg]
#   8 B_WORLD                Profile RMS along minor axis (world units)                 [deg]
#   9 THETA_WORLD            Position angle (CCW/world-x)                               [deg]
#  10 FWHM_WORLD             FWHM assuming a gaussian core                              [deg]
#  11 ELONGATION             A_IMAGE/B_IMAGE                                           
#  12 ELLIPTICITY            1 - B_IMAGE/A_IMAGE                                       
         1 -10.6007    203.8925     11.7291   4.0526843153e+01   3.2417256646e+01    0.6718122    0.3138677 -40.78  0.003100009    2.026    0.507
         2 -10.9133    208.0437      7.7232   3.9084132628e+01   3.1820176825e+01    0.8162637    0.4562407 -58.20  0.004054238    1.794    0.442
         3  -8.8539    119.1481      8.4466   5.2126488511e+01   5.3960238742e+01    0.3310597    0.2349117 -89.80  0.001691312    1.861    0.463
         4  -8.3230      6.5387      7.9572   9.5298204696e+01   7.2851725894e+01    0.1716447   0.05889648 -32.62 0.0008092127    2.547    0.607
         5  -8.2140      2.5159      3.4807   9.5535766149e+01   7.3841102234e+01    0.1133833     0.078243 -24.52 2.976044e-05    1.032    0.031
         6  -8.8049    238.6929      1.5768   3.5081815590e+01   2.5304521095e+01    0.2094755    0.1414106  78.72 0.0003696223    1.389    0.280
         7  -7.5902    124.8714      2.0914   4.8570750303e+01   5.3129977357e+01    0.1815479    0.1374585  31.28 0.0004354303    1.289    0.224
         8  -7.5315     24.6887      2.3326   8.2272692548e+01   7.2003570141e+01   0.09755016   0.08895486 -29.88 0.0007043701    1.676    0.403
         9 -10.3614    145.9184    222.5863   1.0222935977e+02   7.8293450068e+00    0.3718778    0.2489732 -56.39  0.002080328    1.805    0.446
        10 -17.8198     30.4102    237.2617   1.2580546513e+02   2.1572599264e+01     3.027286     2.550072  73.81   0.01385137    1.255    0.203
        11  -9.1143    222.9761    207.6889   8.4547007604e+01  -2.8505880851e+00    0.2681832    0.2425879  81.80   0.00141361    1.866    0.464
        12  -8.4335    104.9101    207.1138   1.0865033263e+02   1.7479035950e+01    0.2053086    0.1563065  65.92   0.00056554    1.257    0.205
        13  -8.9502    210.9947    202.2903   8.5817828282e+01  -5.6555999532e-02    0.2186683    0.1964893  26.49 0.0002846581    1.199    0.166
        14 -10.3440    103.4881    249.3078   1.1367835554e+02   9.9710439563e+00    0.4343484    0.3613949  87.71    0.0031442    1.298    0.230
        15  -8.5832    101.5099    202.8997   1.0883177082e+02   1.8870607145e+01    0.2401165    0.2134375  85.58 0.0009008992    1.109    0.098
        16  -8.5724     98.4894    198.9569   1.0897088840e+02   2.0160540066e+01    0.3386501    0.1974663  70.08  0.001253328    2.155    0.536
        17  -9.0797     93.6464    193.5099   1.0931807836e+02   2.2065420466e+01    0.4089163    0.2566873  72.73  0.001246374    1.860    0.462
        18  -8.7409     97.4959    192.0736   1.0826568454e+02   2.1772663146e+01    0.2848668    0.2064629 -73.06  0.001006812    1.426    0.299
        19 -10.3154    242.3823    200.4839   7.9674521646e+01  -4.9232436090e+00    0.2334501    0.2026425   1.95 0.0001693921    1.169    0.145
        20  -8.6491     89.8667    201.8175   1.1120273326e+02   2.0886567233e+01    0.2362089    0.2015782  57.78  0.001485269    1.066    0.062
        21  -8.1294    237.4697    199.5185   8.0366642070e+01  -4.0165274453e+00    0.1294289     0.106426   3.86 0.0001412635    1.027    0.026
        22  -9.2482    212.1745    197.5865   8.4708635276e+01   4.6747257274e-01     0.235035    0.2005847  -0.04 0.0002780303    1.064    0.060
        23  -8.6007     83.4856    197.5536   1.1206412296e+02   2.2730510757e+01    0.2255269    0.1636802  56.94 0.0005294378    1.232    0.188
        24  -8.5822     80.1094    194.9729   1.1248968849e+02   2.3772765362e+01    0.3412229    0.2242966  55.07  0.001042002    1.386    0.278
        25  -7.7220    221.9959    193.0275   8.1962972288e+01  -5.1415126415e-01    0.1607932     0.135612  -2.86 0.0003569032    1.058    0.055
        26  -8.9875    212.5922    192.8875   8.3728960690e+01   1.1323803766e+00    0.2269486    0.1792647  35.62 0.0003498115    1.248    0.199
        27 -10.0064    180.2981    188.5670   8.9410309189e+01   7.7322346204e+00    0.2519647    0.2371735 -24.63 0.0003103306    1.147    0.128
        28  -9.0872    238.9540    188.1859   7.7899646144e+01  -2.6245637743e+00    0.2612519    0.1692055 -24.83  0.001434539    1.437    0.304
        29  -8.6589    132.5379    188.1051   9.9764326438e+01   1.6679321985e+01    0.2420546    0.2240472  26.15 0.0003229776    1.137    0.121
        30  -8.3068    129.3815    185.7045   1.0007685343e+02   1.7742031072e+01    0.3007881    0.2093625  79.34  0.001090205    1.972    0.493
        31  -7.7763    106.8068    188.0554   1.0558994201e+02   2.1133955480e+01    0.2287824    0.1478702  83.29  0.001059266    2.061    0.515
        32  -8.2498     15.1951    188.0147   1.2555287136e+02   3.2950205291e+01    0.2076297    0.1369702  48.50  0.001378674    1.460    0.315
        33  -9.5487    136.5651    223.0167   1.0418709457e+02   9.3149050155e+00    0.3077175    0.1779003 -32.25    0.0014446    2.728    0.633
        34 -10.0307    153.6840    215.9562   9.9664466493e+01   7.6573024310e+00     0.512206    0.2474646  39.53  0.002294901    1.790    0.441
        35  -8.4883    123.5895    184.4089   1.0118315349e+02   1.9044348101e+01    0.3354093    0.1190182  44.10 0.0008762855    2.608    0.617
        36  -8.5693    110.6734    183.2739   1.0397348507e+02   2.1521242297e+01    0.2443798    0.1955938  68.66 0.0008850088    1.260    0.206
        37  -7.7458     84.8896    184.1613   1.1004580182e+02   2.5436272840e+01     0.195428    0.1556882  70.85 0.0002662028    1.171    0.146
        38  -8.4375     16.7503    184.1543   1.2496875209e+02   3.3638631658e+01    0.1748137    0.1548817  32.83 0.0009567376    1.506    0.336
        39  -8.4410     20.7938    183.3765   1.2407809573e+02   3.3429110402e+01    0.4173078    0.2023216  39.38  0.002352326    2.034    0.508
        40  -8.6769    151.5787    181.0530   9.4233678332e+01   1.4595635012e+01    0.3639309    0.2233711 -71.14  0.001470333    2.695    0.629
        41  -8.2671    101.0429    180.4686   1.0577804935e+02   2.3735493660e+01    0.3823837    0.2200469  84.16  0.001518427    2.847    0.649
        42  -9.7827     91.4427    214.9807   1.1241727773e+02   1.7980969152e+01    0.4149702    0.2820776  71.33  0.001457934    1.481    0.325
        43  -7.8659     13.8639    179.9507   1.2526323692e+02   3.4814266321e+01    0.1614015    0.1476042  38.37  0.001217039    1.451    0.311
        44  -8.0653    189.2950    177.7697   8.5411850843e+01   7.9771768187e+00    0.2887336    0.1247282 -47.81  0.001090322    2.723    0.633
        45 -10.2542     34.1119    171.3778   1.2016534624e+02   3.4785366417e+01    0.3739584    0.2708883  85.18 0.0007383279    1.166    0.142
        46 -10.0337     14.4792    174.5679   1.2474107701e+02   3.5943094131e+01    0.9832895    0.3476497  27.08  0.004173911    3.467    0.712
        47 -10.1001     23.1634    169.8686   1.2247679481e+02   3.6207178003e+01    0.3690756    0.2635555 -79.16  0.001616649    1.169    0.145
        48  -7.6350    222.2934    177.6829   7.8841224252e+01   1.8477525872e+00    0.1231761    0.1122382 -71.74 0.0003336561    1.603    0.376
        49  -8.3744     89.6755    174.6831   1.0758950028e+02   2.6842380126e+01    0.2361837    0.1702632  27.15  0.001222963    1.651    0.394
        50  -8.9286    201.2675    172.7509   8.1924779176e+01   6.5791833217e+00    0.2444898    0.2092827   4.75 0.0002495718    1.109    0.098
        51 -10.0283     85.0413    170.1222   1.0802291181e+02   2.8597779735e+01    0.6171324    0.2618512  43.40  0.001966803    2.251    0.556
        52  -9.2276     88.0568    165.4664   1.0657289726e+02   2.9217668663e+01    0.3481118    0.2529435 -42.41   0.00146364    1.621    0.383
        53  -7.9471    186.7366    170.5205   8.4460025327e+01   9.8064353778e+00     0.192799    0.1369847  51.28 0.0006639078    1.540    0.350
        54  -7.5799    247.7138    168.7204   7.2401175784e+01  -1.1696981585e+00     0.132538   0.09130906   1.41            0    1.518    0.341
        55  -7.6675    110.8143    168.0013   1.0141598946e+02   2.4887948562e+01     0.221798     0.156186 -89.62 0.0003326684    1.788    0.441
        56  -9.7757     66.4543    166.9839   1.1207751659e+02   3.1977194477e+01    0.4008246    0.2741039 -52.35  0.002163773    1.561    0.359
        57  -9.0202    128.7180    164.7806   9.6486049837e+01   2.2369587340e+01    0.3746122    0.2372233 -70.45 0.0006622694    2.059    0.514
        58  -8.7477      9.2598    162.4659   1.2495190317e+02   3.9084293965e+01    0.2991315    0.2048909 -69.37  0.001965396    1.311    0.237
        59  -8.2907      3.7096    162.2296   1.2615493833e+02   3.9567326343e+01    0.2474453    0.1379204  65.27    0.0011234    1.652    0.395
        60  -9.4985     15.2181    160.8978   1.2348943171e+02   3.8951210182e+01    0.2740934    0.2477409  64.33  0.002016207    1.263    0.208
        61  -9.8831     19.8142    163.5514   1.2267669332e+02   3.7947981665e+01    0.3580551    0.2640243 -38.59  0.001620434    1.875    0.467
        62  -9.9980     22.3806    157.5932   1.2154057253e+02   3.9088009249e+01     0.400264    0.1922716 -55.61   0.00164273    2.066    0.516
        63  -9.1435     79.6873    164.5688   1.0849894544e+02   3.0688965167e+01    0.3128543     0.181094  21.50  0.001358256    2.522    0.604
        64  -8.2389     82.3197    161.1943   1.0732618473e+02   3.1093203033e+01    0.2846445    0.2279587 -62.30  0.001586001    1.213    0.175
        65  -9.2412    133.7642    209.1209   1.0279414863e+02   1.2320063630e+01    0.5109903    0.1708627 -50.41  0.001960028    3.335    0.700
        66  -9.6676     73.3206    161.5807   1.0963156021e+02   3.2307452478e+01    0.4562358    0.1834148  40.86  0.001884554    2.418    0.586
        67  -8.4413    134.7570    201.6908   1.0145968866e+02   1.3571077743e+01    0.3352882    0.2231955 -37.66  0.001155509    1.859    0.462
        68  -7.7079     94.5449    157.2610   1.0359039327e+02   3.0115221992e+01    0.1829214     0.131096 -49.93 0.0003178971    1.438    0.305
        69  -8.0019    150.1573    156.3542   8.9648120267e+01   2.0018467607e+01    0.2178176    0.1983238 -15.93 0.0008231266    1.175    0.149
        70  -9.8083      9.5171    152.4854   1.2408605616e+02   4.1333246418e+01    0.3548401    0.2568156 -16.80  0.002219238    2.186    0.542
        71  -8.5869    143.3276    209.3073   1.0080266107e+02   1.0638402221e+01    0.3247272    0.2271502 -28.20  0.001693138    1.914    0.478
        72  -9.0065     98.5819    151.8335   1.0158279879e+02   3.0733314150e+01     0.434834    0.2749414 -39.64  0.001959259    1.881    0.468
        73 -10.2880     83.7688    151.5872   1.0538301226e+02   3.3161065837e+01    0.4135086    0.2769867 -36.01 0.0009717465    1.927    0.481
        74  -7.6165     82.1179    209.4915   1.1372954538e+02   2.0445008344e+01    0.1795864     0.147236 -86.24 0.0003861624    1.188    0.158
        75  -9.0648     21.2141    143.6387   1.2041982944e+02   4.2451358726e+01    0.2096451    0.1571105  59.01  0.001218099    1.363    0.266
        76  -9.6253     22.8546    151.7962   1.2086021065e+02   4.0394122845e+01    0.2842593    0.2302309  66.80  0.001903349    1.208    0.172
        77 -10.4525     23.0057    147.0539   1.2033515796e+02   4.1493158787e+01    0.4400212    0.2600354  13.72  0.002366541    2.499    0.600
        78  -8.1287      1.9549    151.2956   1.2573534375e+02   4.2158050149e+01    0.1596557     0.127414  88.11 0.0006180786    1.070    0.066
        79  -8.5868    133.9502    149.2467   9.2058368710e+01   2.4833639569e+01    0.2209993    0.2035123  40.96  0.001168684    1.079    0.073
        80 -11.4262      9.5100    128.4539   1.2181453755e+02   4.6923356547e+01    0.7970792    0.3534539 -43.13  0.003805944    2.740    0.635
        81 -10.2577      3.9351    135.7218   1.2395736274e+02   4.5599131912e+01    0.4589103    0.3159572 -49.81  0.002963212    1.572    0.364
        82 -11.2709      3.4779    127.2171   1.2326826345e+02   4.7605749748e+01    0.7735184    0.3042923 -67.79  0.003898324    1.879    0.468
        83 -10.6275      8.4205    145.4097   1.2373188609e+02   4.3044363711e+01     0.363315    0.3453598 -63.70   0.00191452    1.324    0.245
        84  -8.0328     98.9198    142.3072   9.9669412831e+01   3.2946662251e+01    0.2649001    0.1995862  88.06  0.000879891    1.573    0.364
        85  -8.6607     79.2705    139.5992   1.0446249219e+02   3.6734873339e+01     0.349874    0.2279093 -32.18  0.001583505    2.087    0.521
        86  -8.0896    110.7465    136.3961   9.5272458687e+01   3.2259202393e+01     0.277433    0.1831453 -33.92  0.001201492    1.826    0.452
        87  -8.9445     98.5596    137.0043   9.8693382825e+01   3.4279674758e+01    0.2535113    0.2144263  39.37 0.0003178047    1.239    0.193
        88 -10.0692     14.1190    134.6732   1.2127171784e+02   4.5130059432e+01    0.3216635    0.1713584 -80.87  0.001740316    1.571    0.364
        89 -10.9979     46.5248    131.3417   1.1211761518e+02   4.2973541225e+01    0.7378616    0.3209794  49.03   0.00165666    2.678    0.627
        90 -11.3096     34.3748    129.8616   1.1527080679e+02   4.4570267009e+01    0.6898359    0.3240959  36.88    0.0022923    2.306    0.566
        91  -7.6763    116.4878    128.5215   9.1951348734e+01   3.3032014759e+01    0.1525156    0.1485159 -43.93 3.330537e-05    1.035    0.034
        92 -10.2484     68.4606    124.7114   1.0470270371e+02   4.1912061141e+01    0.3767506    0.2860732  74.29   0.00196781    1.515    0.340
        93  -8.7811     74.6693    127.6603   1.0348602411e+02   4.0321068998e+01     0.194648    0.1558669   6.92  0.001011479    1.615    0.381
        94  -7.8384    104.2855    124.9185   9.4473251753e+01   3.6164995381e+01    0.2137306    0.1810666 -45.46 0.0005240109    1.158    0.137
        95  -9.5312    204.0553    118.8616   6.8960050714e+01   1.5927013154e+01    0.3414001    0.2474414 -41.68 0.0004985579    1.337    0.252
        96  -8.4899    147.5040    120.9923   8.2007681000e+01   2.8296401048e+01    0.2575794    0.2093686  28.52  0.001214433    1.322    0.244
        97  -7.7172    159.2707    145.0531   8.5000513706e+01   2.0545028122e+01    0.2086407    0.2001144 -44.96            0    1.069    0.065
        98  -7.9369    110.3055    116.2088   9.0688018454e+01   3.7101323996e+01    0.2653528     0.188519 -60.53 0.0007588431    1.485    0.327
        99 -10.5981     65.6894    115.7213   1.0372720424e+02   4.4480283940e+01    0.4641757    0.2771099  41.13  0.001980277    1.831    0.454
       100  -8.2069    208.8250    114.8673   6.7054661738e+01   1.5600242744e+01    0.2275613    0.2001094  -5.03 0.0003911915    1.182    0.154
       101  -9.7641      8.7116    111.8780   1.2013995942e+02   5.0878489336e+01    0.2858041    0.1180867  42.11  0.001388357    2.800    0.643
       102  -9.3463     30.9982    110.2855   1.1329357687e+02   4.9606686976e+01    0.1775936    0.1606022 -69.45 0.0008972565    1.098    0.090
       103 -11.4382     67.0924    104.7764   1.0091210987e+02   4.6937647086e+01    0.8159922    0.3752714 -42.00  0.003266904    2.288    0.563
       104  -9.9467      3.8762    140.7136   1.2441657571e+02   4.4448433677e+01    0.3626638    0.3009724  -9.06  0.002169434    1.730    0.422
       105  -9.6429     39.4666    103.3705   1.0943069590e+02   5.0490886334e+01     0.275885    0.1941235 -46.89  0.001555422    1.308    0.236
       106  -7.3859     35.6354     97.2720   1.0949642755e+02   5.2308857632e+01    0.1273104   0.09452567  69.82 0.0003171319    1.661    0.398
       107  -8.6200     92.9951     96.0126   9.0521442926e+01   4.4957693710e+01    0.2196255      0.20355 -34.32  0.001197953    1.026    0.025
       108  -7.4660      1.5056     96.4814   1.2032732689e+02   5.4876794910e+01     0.121674   0.09266597 -69.16  8.18734e-05    1.005    0.005
       109  -7.4508    150.4726     94.6152   7.4066657598e+01   3.3197167553e+01    0.1558075    0.1531386  29.95 -2.881981e-05    1.027    0.026
       110 -11.1060     54.2048    100.0061   1.0397863450e+02   4.9715300139e+01    0.4593722    0.3863152 -34.22    0.0018989    1.212    0.175
       111  -7.6071    125.9327     81.5620   7.6504891580e+01   4.1477091182e+01    0.2353371    0.1299929  26.13 0.0008066609    2.749    0.636
       112  -7.5541    104.0281     79.7193   8.2292370594e+01   4.6464451861e+01    0.2080115    0.1938405  23.32 0.0004746173    1.094    0.086
       113 -10.1025    108.9837     75.7242   7.9517858037e+01   4.6284190254e+01    0.2565852    0.2335823 -26.56 0.0002394701    1.051    0.049
       114  -7.4646    120.4146     73.8212   7.5578136626e+01   4.4226591399e+01    0.2043305    0.1444032 -25.80 0.0002054217    1.507    0.337
       115  -8.9584    205.1644     70.8550   5.6197417035e+01   2.4134664546e+01    0.3389111    0.2509139 -25.29  0.001025361    1.424    0.298
       116  -7.4491    136.3660     66.7168   6.8993884452e+01   4.1891045152e+01    0.1555552     0.123657 -83.54 0.0007017381    1.690    0.408
       117  -7.3560    179.9542     60.9802   5.7763920784e+01   3.2001891192e+01    0.1767211    0.1685877 -43.85 0.0003318667    1.049    0.047
       118  -7.2291    119.0127     61.0351   7.1693959802e+01   4.6912138691e+01     0.178865    0.1691923   5.14 0.0003809094    1.001    0.001
       119  -7.4201    144.2594     59.6685   6.4763673707e+01   4.1196404583e+01      0.15159     0.118194 -64.51 0.0006955321    1.568    0.362
       120  -9.8737    169.3171     56.0163   5.8272262339e+01   3.5486420776e+01    0.4266261    0.3871582  69.34   0.00128967    1.098    0.089
       121  -9.9149    182.3186     49.7625   5.4049746017e+01   3.3109024671e+01    0.5781052    0.5003464  61.79  0.003101905    1.132    0.117
       122  -9.6327    177.6468     45.0344   5.3439484848e+01   3.4981376410e+01    0.4307054    0.3440515   6.22  0.002164968    1.548    0.354
       123 -10.6322    184.5720     42.2667   5.1489221022e+01   3.3594395484e+01    0.7385412    0.6070353 -73.16  0.002866066    1.272    0.214
       124 -10.2146    189.2211     35.5126   4.8838755318e+01   3.3309454783e+01    0.6063338    0.4370901  26.06  0.001794106    1.809    0.447
       125  -7.4361    154.4442     48.8013   5.8968464350e+01   4.0364852519e+01    0.1927447    0.1475727 -12.22 0.0004514644    1.490    0.329
       126  -7.3932    135.4118     28.4609   5.6068700017e+01   4.7888364791e+01    0.1417444     0.132078  39.40 -1.007367e-05    1.013    0.013
       127  -8.3667    165.9685     18.9703   4.7368804173e+01   4.1231007068e+01     0.203776    0.1852716  56.81            0    1.067    0.063
       128  -9.8443    208.2386     15.4219   4.1028588495e+01   3.0953373138e+01    0.4588416    0.2410008  64.62  0.001925678    1.774    0.436
       129  -8.7745    132.9566    249.0358   1.0816493531e+02   5.5748087266e+00    0.1825092    0.1383236  12.82  0.001134211    1.751    0.429
       130  -9.7419    124.6712    248.1321   1.0961693405e+02   6.9913457456e+00    0.3007957    0.2587785 -20.93  0.001904942    1.628    0.386
       131  -8.7659    133.0355     15.9557   5.2078054662e+01   4.9871448960e+01    0.2010542    0.1842956  49.66 0.0002984865    1.026    0.025
       132  -9.7973    105.3079    243.7818   1.1278803027e+02   1.0629369096e+01    0.2776171    0.2096148  15.18 0.0007620453    1.948    0.487
       133  -6.8813    229.2807    241.6253   8.9233631967e+01  -8.2562846872e+00   0.09821402   0.09346811  46.05 0.0007011355    1.705    0.413
       134  -8.1564    185.8341    228.8304   9.5248520938e+01   1.5757625352e-01    0.2642495    0.1436082 -36.40  0.001375891    2.137    0.532
       135 -10.3955    140.8499    228.9177   1.0412664884e+02   7.5894493919e+00    0.3142891    0.2638822  12.05  0.001752489    1.396    0.284
       136  -8.5557    224.3081    225.2831   8.7418360784e+01  -5.4776304866e+00    0.2043674    0.1724589  18.84 0.0002711833    1.168    0.144
