#   1 NUMBER                 Running object number                                     
#   2 MAG_AUTO               Kron-like elliptical aperture magnitude                    [mag]
#   3 X_IMAGE                Object position along x                                    [pixel]
#   4 Y_IMAGE                Object position along y                                    [pixel]
#   5 X_WORLD                Barycenter position along world x axis                     [deg]
#   6 Y_WORLD                Barycenter position along world y axis                     [deg]
#   7 A_WORLD                Profile RMS along major axis (world units)                 [deg]
#   8 B_WORLD                Profile RMS along minor axis (world units)                 [deg]
#   9 THETA_WORLD            Position angle (CCW/world-x)                               [deg]
#  10 FWHM_WORLD             FWHM assuming a gaussian core                              [deg]
#  11 ELONGATION             A_IMAGE/B_IMAGE                                           
#  12 ELLIPTICITY            1 - B_IMAGE/A_IMAGE                                       
         1 -14.1561    165.4025     45.2237   7.5096565028e+01   3.7749717678e+01     1.200889     1.049624  12.12  0.004055357    1.362    0.266
         2 -14.3242    181.5331     12.8245   6.4112325059e+01   3.7616093087e+01     1.705438     1.096652  71.34  0.006587412    1.324    0.245
         3 -11.6898    104.1104    202.6639   1.2648771330e+02   1.8896320914e+01    0.3875557    0.2524849  39.38  0.000658411    1.508    0.337
         4 -19.8856     67.7330    167.5992   1.2966200057e+02   3.2496662766e+01     19.28376     5.623085 -62.72   0.06651058    3.298    0.697
         5 -12.0497     11.6476    205.9397   1.4604881216e+02   3.0422540387e+01    0.3021761    0.2284553  40.61   0.00120931    1.549    0.354
         6  -9.3153     22.4011    205.4095   1.4396343635e+02   2.9456404933e+01    0.1134114   0.09143204 -87.72 0.0002816934    1.112    0.100
         7  -9.6721    121.1343    197.6732   1.2190003243e+02   1.7006432717e+01    0.1757075    0.1636854  52.50 0.0003977586    1.065    0.061
         8  -9.7545    112.6691    196.3913   1.2360503821e+02   1.8787786668e+01    0.3513762    0.2390178 -11.15  0.001429002    3.071    0.674
         9 -11.4301    169.4831    195.1301   1.1069796060e+02   8.3564202701e+00    0.3015805    0.2405602 -64.79  0.001043543    1.509    0.337
        10 -10.8538    150.8445    182.6136   1.1244092831e+02   1.4588245711e+01    0.2951964    0.2411536 -85.54 0.0003984047    1.489    0.329
        11 -11.2127    153.2287    191.9345   1.1367176587e+02   1.2172652571e+01    0.3325797    0.2714456 -74.02  0.001254579    1.451    0.311
        12 -10.8401    155.0621    187.2623   1.1238132107e+02   1.2779115529e+01    0.3109525    0.2519391 -67.33 0.0007033425    1.418    0.295
        13  -9.7856    149.6372    188.4339   1.1382340612e+02   1.3600805075e+01     0.290297    0.2008671  44.17 0.0008524588    1.362    0.266
        14 -11.2342    159.3904    194.8011   1.1283974896e+02   1.0388528046e+01    0.2855347    0.2390022  49.51 0.0006788915    1.149    0.130
        15 -10.3955    125.3117    238.0026   1.2697313553e+02   8.1971327397e+00    0.2106132    0.1317006 -54.29  0.001128661    1.838    0.456
        16 -11.8595    174.8137    185.3858   1.0765266975e+02   9.2315608917e+00      0.70394    0.3533288 -59.54  0.002528306    3.082    0.676
        17  -9.7372     36.2845    186.6720   1.3936034551e+02   3.2038153410e+01    0.3305779    0.2329016 -33.92  0.001878933    2.169    0.539
        18 -11.2831    164.2120    187.0992   1.1031204101e+02   1.0999780249e+01     0.361824    0.2279601  56.27  0.001496162    1.793    0.442
        19 -10.5367     30.5036    182.9453   1.4021017318e+02   3.3495996106e+01    0.1905463    0.1699762  52.54  0.000344093    1.286    0.222
        20 -10.3797    185.2002    170.0807   1.0226691620e+02   1.0174763127e+01    0.5237348    0.3064211 -63.44  0.001986306    2.717    0.632
        21 -11.1131    189.4785    178.5406   1.0312768981e+02   7.6376587930e+00    0.4607438    0.3501159  82.43  0.001471625    1.999    0.500
        22 -10.0917    188.6900    175.3405   1.0263070579e+02   8.4210343486e+00    0.2672005    0.2097638  45.58 0.0005912615    1.265    0.210
        23 -11.7319    141.8000    164.7813   1.1097758923e+02   2.0268535675e+01     0.511596     0.332065  83.85  0.001444826    2.778    0.640
        24 -12.3521    145.3046    175.3061   1.1228459678e+02   1.7257392658e+01     0.851346    0.4895634 -55.36  0.003165095    1.900    0.474
        25 -12.7092    137.7507    171.1912   1.1324050733e+02   1.9661238281e+01    0.5885142    0.4871187  68.50  0.001976026    1.305    0.234
        26 -10.9914     13.4213    239.7780   1.4803173594e+02   2.3478789524e+01    0.1585923    0.1086181 -77.22 0.0008409066    1.384    0.277
        27 -11.2715    204.2693    174.7150   9.9281072049e+01   5.4161596830e+00    0.4357388    0.3480573 -61.68   0.00168731    1.548    0.354
        28 -10.9756    196.4693    175.0779   1.0095007299e+02   6.9022472646e+00    0.3698826    0.2992961  56.91  0.001915639    1.383    0.277
        29  -9.0434    135.7174    237.2221   1.2476776083e+02   6.5630464531e+00    0.1252527   0.08777441  59.63 0.0002795511    1.431    0.301
        30 -11.4376    125.3131    172.0478   1.1637593047e+02   2.1886248667e+01    0.3596378    0.2993675  70.18  0.001030983    1.271    0.213
        31  -9.8128     11.9149    173.9018   1.4329992837e+02   3.7292809951e+01    0.1576483    0.1225245 -66.52  0.001083206    1.236    0.191
        32 -10.4953     28.0961    235.8668   1.4527608243e+02   2.2629321369e+01    0.1873214     0.117542 -76.83 0.0008821195    1.443    0.307
        33 -10.4080     35.0172    169.5494   1.3770458734e+02   3.6044351912e+01    0.3092221    0.2344302 -15.36   0.00124865    2.049    0.512
        34 -11.2528    230.8901    168.5337   9.2852670721e+01   1.4090396980e+00    0.3650157      0.18047 -52.67  0.001428097    2.746    0.636
        35 -11.5484    191.9404    163.6469   9.9460461452e+01   1.0056030638e+01    0.6226505    0.3979737 -66.07  0.001561082    2.418    0.586
        36 -11.5139    189.2454    155.3280   9.8201729963e+01   1.2280416926e+01    0.4903538    0.4662221 -12.66   0.00163139    1.053    0.050
        37 -10.5916     25.3507    165.0538   1.3940154260e+02   3.8045706156e+01    0.1820441    0.1772187 -34.94 0.0005598092    1.330    0.248
        38 -10.4607    169.6097    178.3070   1.0737090027e+02   1.1708544572e+01    0.2600181    0.2376745  47.39  0.001114634    1.076    0.070
        39 -10.5793    166.0431    154.4123   1.0308520456e+02   1.7446650021e+01    0.3949637    0.2602578  71.48  0.001567503    2.284    0.562
        40  -9.6811    174.8554    149.1094   9.9914255046e+01   1.6654343765e+01    0.2367412    0.2107801 -88.97 0.0006041372    1.287    0.223
        41 -11.1372     21.7374    234.3942   1.4627602671e+02   2.3626178007e+01    0.1366764    0.1005206 -89.85 0.0002944627    1.148    0.129
        42 -11.0425      7.4225    138.5836   1.4059218969e+02   4.5523926803e+01    0.2668938    0.2316674 -64.84  0.001111768    1.145    0.126
        43  -9.7321      1.7935    139.9091   1.4212418875e+02   4.5619111441e+01    0.1693701    0.1239543 -60.59 0.0004168137    1.196    0.164
        44 -10.8306      4.8314    233.1158   1.4905486307e+02   2.5629125551e+01    0.0791534    0.0502875  63.60            0    1.256    0.204
        45 -10.4756    160.4209    127.8083   9.8164886517e+01   2.4322123527e+01    0.3976267    0.2752118 -57.79  0.001744066    1.628    0.386
        46 -10.3009    108.2273    249.7783   1.3178999254e+02   8.8566915364e+00    0.1346293    0.1294875 -87.73 0.0002773005    1.267    0.211
        47  -9.3502    150.6854    239.7025   1.2210282114e+02   3.5306746318e+00    0.1463177    0.1223211 -64.89 0.0002847169    1.433    0.302
        48 -11.1274    218.2159    220.3879   1.0544338092e+02  -5.0286208555e+00    0.4283755     0.158346 -46.46  0.001644863    3.474    0.712
        49  -9.3665    168.0260    113.0040   9.2744949169e+01   2.5617057495e+01    0.2574614    0.1940886 -82.97  0.001134395    1.781    0.439
        50 -12.1779     23.2043    219.0576   1.4490292743e+02   2.6531960200e+01    0.3091435    0.1450457 -63.26  0.001730302    2.058    0.514
        51 -10.0077    205.2793    110.2659   8.4517472949e+01   1.7504925817e+01    0.3164898    0.2049028  46.48  0.001260818    1.607    0.378
        52 -10.0176     10.7830    101.6345   1.3440955344e+02   5.3443789245e+01    0.2245157    0.1714227 -79.16 0.0008412739    1.331    0.248
        53 -10.3565     18.0022    221.9226   1.4605795352e+02   2.6502058529e+01    0.1246577   0.08584467 -89.08 0.0003294663    1.162    0.139
        54  -9.9134     16.1693    209.4186   1.4546690291e+02   2.9252909947e+01    0.1089231   0.06466267 -64.60 0.0004679481    1.636    0.389
        55  -9.7082    145.4931     81.5564   8.9481081143e+01   3.6856461566e+01    0.1490096    0.1430391  52.01 0.0001437441    1.021    0.020
        56  -9.5272    150.9680    208.5323   1.1712592302e+02   9.2594976212e+00    0.2254002    0.1283307  43.00  0.001029786    1.595    0.373
        57 -10.9042    106.3836    206.1997   1.2650734547e+02   1.7754294376e+01    0.2646728     0.231935 -77.58  0.001030641    1.155    0.134
        58 -13.4233    153.6190     59.8971   8.1507459380e+01   3.8508010872e+01     1.230231    0.8964515  38.63 0.0009484405    1.417    0.294
        59  -9.7039     32.3759    249.2756   1.4548643615e+02   1.9570663052e+01    0.1343937   0.08693305 -87.12 0.0003406492    1.339    0.253
        60 -12.4570    169.7913     37.2434   7.2163905955e+01   3.7712308406e+01     0.434213    0.3666533  56.26 0.0007612936    1.109    0.099
        61 -10.0876     13.5053     59.9804   1.2471472724e+02   6.1711780215e+01    0.1643974     0.132188 -29.12 0.0004041725    1.076    0.071
