#   1 NUMBER                 Running object number                                     
#   2 MAG_AUTO               Kron-like elliptical aperture magnitude                    [mag]
#   3 X_IMAGE                Object position along x                                    [pixel]
#   4 Y_IMAGE                Object position along y                                    [pixel]
#   5 X_WORLD                Barycenter position along world x axis                     [deg]
#   6 Y_WORLD                Barycenter position along world y axis                     [deg]
#   7 A_WORLD                Profile RMS along major axis (world units)                 [deg]
#   8 B_WORLD                Profile RMS along minor axis (world units)                 [deg]
#   9 THETA_WORLD            Position angle (CCW/world-x)                               [deg]
#  10 FWHM_WORLD             FWHM assuming a gaussian core                              [deg]
#  11 ELONGATION             A_IMAGE/B_IMAGE                                           
#  12 ELLIPTICITY            1 - B_IMAGE/A_IMAGE                                       
         1 -12.7026    194.8687     33.7462   5.4504872688e+01   3.1524868445e+01     1.382665     1.087799  16.22  0.007017769    1.471    0.320
         2 -12.6475    205.3382     21.2434   4.9477147128e+01   3.0245584088e+01     1.091719    0.8330249  14.73  0.003237701    1.555    0.357
         3  -9.6258     41.2079      3.3936   8.3319100296e+01   7.3015257508e+01     0.172566    0.1230058  47.06 0.0009602076    1.688    0.407
         4 -11.8161    132.5631    233.6190   1.0892693350e+02   1.3023454108e+01    0.6326913    0.4117389  19.76  0.004177543    1.774    0.436
         5 -16.8345      9.4464    171.2883   1.2943021374e+02   3.8255846347e+01     15.30306     2.040591 -83.60   0.04630427    7.630    0.869
         6  -8.6710    179.1852    218.6052   9.8811949402e+01   8.2447495946e+00    0.1782566   0.08772835 -42.79  0.001025499    2.702    0.630
         7  -8.8816    149.3263    237.3061   1.0630936641e+02   1.0260308946e+01    0.1064004   0.06999297  18.69 0.0007035794    1.650    0.394
         8  -7.6035    164.2744    215.3438   1.0106713787e+02   1.0836594722e+01    0.1111256   0.07687844  12.36 0.0006999553    1.621    0.383
         9  -8.0023    164.4743    206.0812   9.9811733313e+01   1.2003919748e+01    0.1405523    0.1169688 -31.15    0.0003698    1.491    0.329
        10  -8.3309     94.9194    199.9295   1.1287810734e+02   2.3263255303e+01    0.1994546    0.1107312  58.32  0.001123976    1.767    0.434
        11  -9.2906    193.9452    193.6522   9.2592678763e+01   9.0046715005e+00    0.2597233    0.2006897 -14.75  0.001765323    1.398    0.285
        12 -10.1931     92.4039    234.9324   1.1637279102e+02   1.8147220010e+01    0.2087985    0.1476181  60.75 0.0007711537    1.310    0.237
        13 -10.5807     72.7585    180.2657   1.1576151166e+02   2.9772509792e+01    0.3618247    0.2581116 -37.60  0.002148024    2.163    0.538
        14 -10.4139     76.9304    174.6423   1.1425743213e+02   3.0301190484e+01    0.2875006    0.2344102 -45.50  0.000906977    1.627    0.385
        15  -7.9319     99.5136    180.5670   1.0980894830e+02   2.6002635481e+01    0.1248424    0.1026928  48.25 0.0001321222    1.028    0.027
        16 -11.2884    126.0518    229.9370   1.0975200346e+02   1.4403542575e+01    0.5941976    0.4385244  79.66  0.004232779    1.876    0.467
        17  -9.3989     84.1586    233.5234   1.1778350159e+02   1.9377916309e+01    0.2187211    0.1606258  57.20  0.001028054    1.164    0.141
        18  -9.7012    102.4952    171.9976   1.0808289172e+02   2.7138499176e+01    0.4415933     0.224319  53.90  0.002144065    1.954    0.488
        19 -11.4646    143.6144    230.7458   1.0663269123e+02   1.1861825654e+01    0.4429273    0.3140519  17.53  0.003102952    1.550    0.355
        20  -8.6947    195.9372    169.4293   8.8167770602e+01   1.1788282486e+01    0.2317587    0.1728109 -11.94  0.001030797    1.402    0.287
        21 -11.8928     58.5197    130.7704   1.1390151273e+02   4.1992590787e+01    0.9579635    0.3269737 -76.08  0.003384783    3.726    0.732
        22 -10.3144     91.3740    158.1173   1.0888435626e+02   3.1524036783e+01    0.4910856    0.3682276 -18.13   0.00158095    2.157    0.536
        23 -10.5931     42.7972    148.8177   1.2008712392e+02   3.9794426526e+01    0.4266625    0.1279707  38.82   0.00185455    2.630    0.620
        24  -9.1226    103.3000    143.3326   1.0372179998e+02   3.2668506954e+01    0.2655525     0.232525 -26.37  0.001398692    1.437    0.304
        25  -8.4890    105.3295    140.3307   1.0270466735e+02   3.2951177778e+01    0.2138043    0.1736878 -36.98  0.001191758    1.497    0.332
        26 -10.6063     92.0462    142.2181   1.0643011610e+02   3.4715840077e+01    0.2501156    0.2370704  46.56 0.0003356861    1.138    0.122
        27 -11.3152     84.7119    164.6465   1.1131957236e+02   3.1189016978e+01    0.8642642    0.3535528  49.01 0.0005067254    2.204    0.546
        28  -9.0541    113.3392    131.4779   9.9054143308e+01   3.3395738162e+01     0.287949    0.1915721  30.42 0.0008221274    1.634    0.388
        29  -8.0115    189.3287    155.3455   8.6786467550e+01   1.4917551043e+01    0.1396323   0.09279568  11.53 0.0007050337    1.752    0.429
        30 -10.6403     44.2465    128.3045   1.1767422844e+02   4.4224217113e+01    0.4022279    0.1610027 -81.31  0.001676237    2.711    0.631
        31  -9.1266    100.2647    128.0307   1.0185419841e+02   3.6419013529e+01    0.2591635    0.2249121 -18.66 0.0006349354    1.470    0.320
        32  -8.1748    125.6818    127.3078   9.5084825942e+01   3.1959990393e+01    0.1449663    0.1097307  74.87 0.0003483361    1.635    0.388
        33  -8.5734    106.0423    131.0237   1.0086844826e+02   3.4782427240e+01    0.2219313    0.1999988  65.80 0.0008049229    1.055    0.052
        34  -8.1957    108.8516    119.9239   9.7947146538e+01   3.6653417560e+01    0.2024462    0.1889516  15.42 0.0003523401    1.207    0.171
        35 -12.7221     67.9845    144.2026   1.1301610895e+02   3.7774405754e+01     1.088631    0.7766529  71.47  0.005757393    1.355    0.262
        36 -10.5528     39.2814    117.2082   1.1788552391e+02   4.7331469362e+01      0.29813    0.1726155 -63.26  0.001582517    1.643    0.391
        37  -8.4240    167.8246    112.5572   8.1879608526e+01   2.6062437879e+01    0.2059659    0.1381675  59.74 0.0009394262    1.716    0.417
        38 -12.0347     73.3589    160.6306   1.1359480647e+02   3.3576356682e+01    0.5348966     0.447489 -40.80  0.001483001    1.588    0.370
        39  -8.7548    115.1105    110.3551   9.4159994552e+01   3.7525427759e+01    0.2859271    0.1700678 -35.93  0.001171944    2.084    0.520
        40  -8.0368    205.5244    110.4589   7.4077240278e+01   1.8325496377e+01    0.1408172    0.1257315   7.53 0.0001143133    1.024    0.023
        41  -7.9911    109.4210    115.1956   9.6793815610e+01   3.7567606396e+01    0.1936927    0.1379469 -69.42 0.0003771594    1.614    0.381
        42 -14.6618     53.5335    203.7474   1.2170401145e+02   2.7817665831e+01     6.234177     2.468027  59.82   0.03245732    2.369    0.578
        43  -7.8965    134.5541    102.4995   8.7123869853e+01   3.5169746053e+01    0.1485449    0.1438083  33.79 0.0008080206    1.028    0.028
        44 -11.8242    113.2448    229.7929   1.1210394084e+02   1.6163036048e+01    0.9798745    0.2555502  40.67  0.004498625    2.622    0.619
        45 -10.9037    103.1051    229.0586   1.1392557984e+02   1.7614219062e+01    0.5088401    0.1776754  45.52  0.002654746    2.117    0.528
        46  -9.0075    157.5753     59.7155   6.9117745085e+01   3.7598759528e+01    0.3175271    0.2517622 -78.30  0.000766603    1.545    0.353
        47  -8.5390    159.9767     53.6918   6.6646525387e+01   3.7936105148e+01    0.2176441     0.197734  65.79 0.0004702985    1.120    0.107
        48 -11.9638    185.5015     40.8544   5.8032793688e+01   3.3074665153e+01     1.045273    0.5682351  31.50  0.003975621    2.534    0.605
        49  -8.2641    170.2357    239.9877   1.0297494285e+02   7.0860338746e+00     0.107628    0.0900328 -27.74 0.0007316771    1.597    0.374
        50 -10.6881    140.3518    239.1158   1.0808000210e+02   1.1266626153e+01    0.2580228    0.1945915 -60.31  0.001984764    1.931    0.482
        51 -10.5672    166.7170    224.2502   1.0173969816e+02   9.3824899214e+00    0.3225681    0.2405015  54.55  0.002273731    1.616    0.381
        52 -10.6567    159.7267    225.8253   1.0317822644e+02   1.0194545951e+01    0.2855838    0.1504351  30.71  0.001717116    1.570    0.363
        53 -10.5706     97.4470    226.5479   1.1477602146e+02   1.8720377714e+01    0.3754416    0.2455829  43.55  0.001674286    1.113    0.102
