#   1 NUMBER                 Running object number                                     
#   2 MAG_AUTO               Kron-like elliptical aperture magnitude                    [mag]
#   3 X_IMAGE                Object position along x                                    [pixel]
#   4 Y_IMAGE                Object position along y                                    [pixel]
#   5 X_WORLD                Barycenter position along world x axis                     [deg]
#   6 Y_WORLD                Barycenter position along world y axis                     [deg]
#   7 A_WORLD                Profile RMS along major axis (world units)                 [deg]
#   8 B_WORLD                Profile RMS along minor axis (world units)                 [deg]
#   9 THETA_WORLD            Position angle (CCW/world-x)                               [deg]
#  10 FWHM_WORLD             FWHM assuming a gaussian core                              [deg]
#  11 ELONGATION             A_IMAGE/B_IMAGE                                           
#  12 ELLIPTICITY            1 - B_IMAGE/A_IMAGE                                       
         1 -13.0410    214.9589    153.3899   3.7216424780e+01   7.7662950032e+00     3.303173    0.9132985 -36.85  0.009967671    3.763    0.734
         2 -10.3770    232.8258     10.7996   2.8918840755e+00   2.6681125564e+01    0.8378097    0.1859619 -30.21  0.002835242    5.487    0.818
         3 -10.5395    246.8412     16.9999   3.0673755323e+00   2.3085518047e+01    0.3524705    0.3076944 -35.47  0.002540242    1.453    0.312
         4  -9.8337    242.4552     13.7105   2.7486868790e+00   2.4354837671e+01    0.3605918    0.1190816 -46.80  0.001341097    2.429    0.588
         5  -8.7443    241.4903      8.9123   1.8794948908e+00   2.5088560077e+01    0.2217645    0.1308111 -39.46  0.001103891    1.646    0.392
         6  -9.7279    244.0694      3.7625   7.1087752094e-01   2.5121933494e+01    0.4057465    0.2691348 -67.37  0.001870947    1.203    0.168
         7 -10.1044    250.1770      8.3410   1.1758988733e+00   2.3400142657e+01    0.7828861    0.1916158 -36.00   0.00334325    3.466    0.711
         8  -8.9912    245.8109      9.7150   1.7327603764e+00   2.4121696041e+01    0.3206847    0.1682256 -48.57  0.001899624    1.594    0.372
         9  -8.7769    239.3082      1.9654   6.8027836997e-01   2.6281528602e+01    0.2413587    0.1514842 -73.11  0.001003251    1.318    0.241
        10 -10.6936    236.9785      8.5259   2.1266479216e+00   2.6061227731e+01    0.8728442   0.07618891 -37.26  0.002992123    5.029    0.801
        11  -9.7412    227.5096     11.5391   3.4597934681e+00   2.7730290639e+01    0.3030051    0.1729202 -67.12  0.001721366    1.598    0.374
        12  -8.1293     97.6417      3.1150   1.8984648689e+01   5.8652939499e+01    0.1957151    0.1562246  62.64 0.0005027822    1.229    0.187
        13  -8.7426    224.7101      2.0176   1.7126279692e+00   2.9338984397e+01    0.1647476    0.1317211 -67.04 0.0009693985    1.098    0.089
        14  -7.6594    113.7908      1.3603   1.4899141102e+01   5.5171463547e+01    0.1781234   0.09305956  54.37 0.0002066101    1.527    0.345
        15 -11.8021    241.9013    244.8182   4.9773278516e+01  -1.1220797307e+01     1.049574    0.8439065  -9.07  0.007514388    1.192    0.161
        16 -10.6864    225.7318    244.1987   5.2623263491e+01  -9.0305147696e+00    0.8880936    0.5208546  -3.03  0.004865984    1.882    0.469
        17  -8.2231    214.4644    250.5669   5.5777881047e+01  -8.3681613644e+00    0.2442525    0.1002331  33.41 0.0007968067    2.110    0.526
        18 -10.4979    248.6662    236.6651   4.7191757710e+01  -1.1003293547e+01    0.8845117    0.2766336 -34.73  0.003928295    3.010    0.668
        19  -7.3693    223.1848    225.8047   4.9958274186e+01  -6.0408048432e+00    0.1803828    0.1256739  -1.88 0.0006140313    1.356    0.262
        20  -8.6401    244.0583    235.1547   4.7748804984e+01  -1.0216709777e+01    0.3089626    0.1956955  -0.24  0.001130583    1.470    0.320
        21  -7.1094    229.6340    221.6853   4.8013595470e+01  -6.3485445174e+00    0.1361679   0.08396751   0.60 0.0007038882    1.769    0.435
        22 -10.4377    248.7003    248.1376   4.9119998444e+01  -1.2483275657e+01     0.605324    0.3072515 -20.83  0.003434831    1.898    0.473
        23  -9.7794    229.5035    248.0816   5.2564446919e+01  -1.0054204366e+01    0.8050854    0.3687223  10.19  0.003239622    3.680    0.728
        24  -7.2297     25.5976    220.5311   9.1305101282e+01   2.4507916418e+01    0.1175411   0.09509835  79.94 0.0003164162    1.064    0.061
        25  -8.4040    248.8902    214.9060   4.3301824422e+01  -8.0172326437e+00     0.199056     0.135741  -6.76 0.0007299219    1.316    0.240
        26  -7.6275    186.3153    215.6841   5.5519210329e+01   1.3341805711e+00    0.1267461    0.1088701  67.04 0.0007036662    1.647    0.393
        27  -7.6079    177.6628    212.3284   5.6755997636e+01   3.3865959238e+00    0.1340358    0.1100353  68.61 0.0007051896    1.729    0.422
        28  -7.7887    247.4601    211.0675   4.2849417416e+01  -7.2621053591e+00    0.1853699     0.104066 -29.01 0.0006806248    1.576    0.365
        29  -7.3081    243.4622    210.4228   4.3438098225e+01  -6.6137635113e+00    0.1264589    0.1012143  -5.77 0.0001241066    1.010    0.010
        30  -6.9584    146.6860    210.6741   6.3298753810e+01   9.0433268824e+00    0.1427864    0.1079469  -3.41 0.0007042678    1.667    0.400
        31  -7.4081    247.4678    205.5399   4.1822390954e+01  -6.4387803989e+00    0.1291108   0.09995532  -7.96 0.0004559869    1.061    0.058
        32  -8.7310    197.2987    204.9671   5.1284805227e+01   1.3935164063e+00    0.4498717    0.1778431  38.82  0.001654779    2.435    0.589
        33  -8.1019    187.2091    204.1889   5.3244420350e+01   3.2442138582e+00    0.1778596    0.1701639  61.96 0.0005720099    1.324    0.245
        34  -7.3297    175.6547    203.6867   5.5629894495e+01   5.3417574965e+00    0.1483532    0.1051124   0.75 0.0007046948    1.712    0.416
        35  -8.8172    114.0454    201.2670   6.9361061300e+01   1.6629438846e+01     0.225388    0.2011564 -82.00   0.00026384    1.183    0.155
        36  -8.2687    250.0303    199.5264   4.0245437213e+01  -5.8855778620e+00    0.2539276      0.14573 -20.92  0.001136304    1.671    0.401
        37  -9.2169    202.6569    198.2223   4.8908154116e+01   1.6890424090e+00    0.2906616    0.2255318  38.19  0.001306174    1.344    0.256
        38  -7.6213    243.3828    197.8051   4.1080512144e+01  -4.6686297500e+00    0.1927799    0.1025026 -26.41 0.0009534514    1.778    0.438
        39  -8.3345    177.6486    197.9757   5.4132072099e+01   6.0808468253e+00    0.2805839    0.2059435  41.46  0.001036962    1.361    0.265
        40  -8.7358    186.1581    193.7819   5.1491455567e+01   5.3684271292e+00    0.3529793    0.2901446 -17.02   0.00130083    1.205    0.170
        41  -7.2632    215.3097    193.2961   4.5428678994e+01   4.4139489207e-01    0.1399855   0.09713674  -1.92 0.0002958802    1.593    0.372
        42  -9.6607    198.7301    192.1358   4.8528728143e+01   3.4622272592e+00    0.3015333    0.2721758  89.57  0.001549668    1.584    0.369
        43  -8.0299    172.4971    191.3993   5.4010302740e+01   8.2970705622e+00    0.2954991    0.1423821 -45.00  0.001189257    2.143    0.533
        44  -8.1173    222.3946    188.0453   4.3027940187e+01   1.8405949371e-01    0.2315321    0.1706695  16.62 0.0005978821    1.364    0.267
        45 -10.9005    201.4342    183.9703   4.6345619866e+01   4.4969336932e+00     0.480343    0.3128227  33.03  0.002370732    1.532    0.347
        46  -9.4698    190.4911    185.4532   4.8924721753e+01   6.1808750782e+00    0.2835605    0.2693425  82.75  0.001628634    1.343    0.256
        47  -8.7996    183.0685    183.2906   5.0083104722e+01   7.9614368760e+00    0.4652624    0.2109497 -45.04  0.001840233    2.250    0.555
        48  -7.7419    177.0000    184.9303   5.1741996226e+01   8.7600543305e+00    0.2398474   0.08239594 -44.90 0.0008051875    2.962    0.662
        49  -7.5413     57.5808    185.2265   8.0845747450e+01   2.8840885733e+01    0.1762216     0.117088 -59.70 0.0003807543    1.474    0.322
        50  -9.7696    191.1977    179.2724   4.7519951054e+01   7.2455988596e+00    0.4131292    0.3808174 -80.32  0.001771086    1.400    0.286
        51  -9.4988    193.3324    172.8503   4.5735130507e+01   8.1010401297e+00    0.4487849    0.2992553 -42.14  0.002086618    1.480    0.325
        52  -7.6679    175.6376    179.1698   5.0882229139e+01   1.0178801989e+01    0.2103893    0.1339781 -34.15 0.0006750678    1.635    0.388
        53  -8.0370    169.8382    177.8496   5.1916847552e+01   1.1553145179e+01    0.2993108    0.1622353 -33.05   0.00119644    2.119    0.528
        54  -8.3863    183.0746    176.0089   4.8592311813e+01   9.4097941148e+00    0.2931212    0.2077066 -40.79  0.001127498    1.403    0.287
        55  -7.4391    164.0000    177.0030   5.3080644382e+01   1.2848525218e+01    0.2407104   0.08521961 -46.45 0.0007930679    2.878    0.653
        56 -12.9129    198.1199    160.3578   4.2063346760e+01   9.6409370800e+00     2.146772     0.898665 -48.19  0.007821946    2.591    0.614
        57 -12.7710    205.7170    144.2376   3.6959602290e+01   1.1301648433e+01     1.237775     1.016965 -20.40  0.006534422    1.224    0.183
        58  -7.4803    207.5343    249.4705   5.6926720710e+01  -7.2512908721e+00    0.1247014   0.09760059  11.32 0.0002474482    1.016    0.016
        59  -9.5565    187.9417    171.9568   4.6692317286e+01   9.2962931381e+00    0.3293917    0.2649004 -76.79  0.001609754    1.797    0.444
        60  -9.7147    191.3705    165.8811   4.4667826427e+01   9.8504103251e+00    0.3678302    0.2591972 -18.75   0.00172216    1.616    0.381
        61  -7.8194    170.3526    166.8224   4.9494405331e+01   1.3766390087e+01     0.220576    0.1366808 -34.81 0.0005341168    1.696    0.411
        62  -6.9296    165.3153    167.6267   5.0824749828e+01   1.4589564152e+01     0.155243    0.1235898  89.07 0.0007032513    1.791    0.442
        63 -10.0355    183.0017    162.8564   4.5812240775e+01   1.2093909616e+01    0.3615148    0.2130526 -40.06 0.0009414548    1.664    0.399
        64 -10.0576    210.9463    135.1270   3.3894640005e+01   1.2007999505e+01    0.5667592    0.3544639 -20.16   0.00243794    2.042    0.510
        65 -10.1963    191.7906    160.5395   4.3420254904e+01   1.0835671542e+01    0.3679407    0.2912408 -22.85  0.001866835    1.277    0.217
        66  -9.7080    178.5864    160.9975   4.6378154556e+01   1.3353930704e+01    0.4670136    0.2310971 -25.20   0.00149466    3.420    0.708
        67  -7.8650    164.0000    160.9498   4.9692358385e+01   1.6290879608e+01    0.2545707   0.08687264 -45.72 0.0008003467    2.928    0.658
        68  -7.7911    129.6575    157.8009   5.7491532035e+01   2.3841261570e+01    0.3216844    0.1319323 -42.87    0.0010775    2.636    0.621
        69  -9.6738    176.0070    155.9774   4.5842717519e+01   1.4923905679e+01    0.4618427    0.1717857 -38.90  0.001513955    2.839    0.648
        70 -10.9755    219.9663    129.7838   3.1048507639e+01   1.1213337918e+01     1.121647    0.6149208 -15.87  0.003857495    3.586    0.721
        71  -9.8161    171.3454    149.2993   4.5386443933e+01   1.7298381654e+01    0.4950639     0.228563 -30.23  0.001501196    3.125    0.680
        72  -8.0910    170.4923    143.9926   4.4354377342e+01   1.8612467760e+01    0.2419004    0.1508273 -43.79  0.001027082    1.574    0.365
        73  -8.7299    179.5853    153.7289   4.4542779857e+01   1.4667457497e+01    0.2123616    0.1435372 -51.68  0.000791661    1.582    0.368
        74  -9.5198    186.5714    145.7056   4.1200444410e+01   1.4894093463e+01    0.2885163    0.1434285 -38.61 0.0009815494    1.979    0.495
        75  -7.8698    161.8429    149.1558   4.7561089345e+01   1.9305652568e+01    0.2269413    0.1842246 -19.75   0.00107967    1.359    0.264
        76  -7.3696    155.4401    149.5213   4.9177651168e+01   2.0554439587e+01    0.1571262    0.1493097  -9.32 0.0001285381    1.056    0.053
        77  -9.3534    220.3143    174.4294   4.0667291822e+01   2.9295938516e+00     0.246605     0.131405  35.37  0.001013305    1.985    0.496
        78  -9.6904    195.5206    142.9718   3.8704749662e+01   1.3607454067e+01    0.6015691    0.1419261 -41.90  0.001660949    4.022    0.751
        79  -9.8637    206.0456    129.2850   3.3468993850e+01   1.4124715531e+01    0.4576441    0.3480964 -20.17  0.002268137    1.446    0.309
        80 -11.2215    199.5115    133.6320   3.5742419741e+01   1.4634949368e+01    0.6581115    0.5174917  -7.58  0.003241618    1.513    0.339
        81  -9.9896    212.7288    120.9980   3.0315308602e+01   1.4312492175e+01    0.4324557     0.405638  27.65  0.002047112    1.161    0.138
        82  -9.6525    207.6611    121.6815   3.1391226042e+01   1.5239733659e+01    0.4947952    0.2678476 -21.26  0.001781732    2.928    0.659
        83 -10.1479    226.1046    120.0095   2.7797041240e+01   1.1782914255e+01    0.4111011    0.3619355 -11.10  0.001634229    1.236    0.191
        84  -9.7835    187.9783    135.9646   3.8634455114e+01   1.6588978097e+01    0.3758815    0.2083146 -31.36  0.001020185    1.995    0.499
        85  -9.3226    186.1324    128.4199   3.7221915571e+01   1.8515344031e+01    0.3042923    0.2098998 -41.59   0.00132745    1.390    0.281
        86  -9.1289    180.1653    138.8947   4.0996636281e+01   1.7641952711e+01    0.2204137    0.1784545 -17.95 0.0009257947    1.352    0.261
        87  -8.5744    175.1648    139.3142   4.2199343676e+01   1.8616961616e+01    0.2465425    0.1950134  22.85  0.001169253    1.416    0.294
        88  -8.4402    166.1350    139.1336   4.4213161606e+01   2.0582972315e+01     0.247605    0.2145187  -1.61  0.000919092    1.280    0.219
        89  -9.9149    240.0284    136.4480   2.9144237779e+01   6.2240114268e+00    0.3399439    0.2103829 -44.55  0.001465842    1.471    0.320
        90  -9.1720    172.0670    135.8473   4.2069352459e+01   2.0013695863e+01    0.3637633    0.2136253 -37.78   0.00134468    1.712    0.416
        91  -9.0725    177.5302    170.3319   4.8623842243e+01   1.1627793049e+01    0.3704171    0.1885014 -47.23  0.001185925    2.024    0.506
        92  -9.0460    182.7404    133.1152   3.9067022391e+01   1.8287977633e+01    0.3506148     0.196161 -34.89 0.0009184941    1.846    0.458
        93  -8.0224    164.6151    132.8555   4.3056165293e+01   2.2265509752e+01    0.2300185    0.1454827 -53.09 0.0009495874    1.702    0.412
        94 -10.7959    234.7773    128.6803   2.8307748924e+01   8.5588013131e+00    0.7086197    0.3791826 -21.17  0.002794067    2.762    0.638
        95  -8.3418    176.1653    123.7839   3.8218392970e+01   2.1644716960e+01    0.3505104    0.2159669 -18.09  0.001182306    2.492    0.599
        96  -8.4336    178.5547    130.7267   3.9396210017e+01   1.9684925311e+01    0.2921728    0.1480206 -37.88  0.001114734    1.982    0.496
        97  -7.6057    168.4652    131.4793   4.1831823437e+01   2.1722575972e+01    0.1552956    0.1515713 -40.24 0.0001461001    1.026    0.025
        98 -11.9535    207.7220    161.2031   4.0313083804e+01   7.6479536366e+00     1.360995     0.425579 -38.95  0.004502819    3.093    0.677
        99  -9.6035    192.4273    128.1677   3.5867197684e+01   1.7211271765e+01    0.2867605    0.2817064 -24.79  0.001205355    1.038    0.037
       100  -7.8665    160.0000    128.9733   4.3189232265e+01   2.4111362751e+01    0.2616691   0.08884408 -43.80 0.0006918254    2.898    0.655
       101  -7.4875    152.6963    129.6184   4.5112389650e+01   2.5564278787e+01    0.1671537    0.1255509  -7.13 0.0005772033    1.782    0.439
       102  -9.3870    212.9804    127.5748   3.1790702095e+01   1.3027275627e+01    0.2893045    0.2562638 -23.61 0.0009185408    1.112    0.101
       103  -9.3340    181.6797    125.7213   3.7506215727e+01   2.0033253285e+01    0.4980233    0.2480555 -38.15  0.001916417    1.995    0.499
       104  -8.6513    173.5033    128.4942   3.9965004066e+01   2.1251869735e+01    0.4638637     0.185439 -38.82  0.001559795    2.557    0.609
       105  -8.9858    187.9872    122.0642   3.5297259650e+01   1.9389710175e+01    0.4536998    0.2444818 -44.23  0.001852786    1.786    0.440
       106  -8.3749    165.8334    124.0610   4.0602683949e+01   2.3877414700e+01    0.2490998    0.2197635 -79.53  0.001233524    1.300    0.230
       107  -8.8932    202.7570    118.9635   3.1657430652e+01   1.6795473803e+01    0.3524993     0.246299 -53.80  0.001486195    1.492    0.330
       108  -9.0267    202.3017    114.4863   3.0671299296e+01   1.7745233679e+01    0.7123393    0.3446405  30.33  0.002210748    4.167    0.760
       109  -9.6361    210.4680    111.1100   2.8396315112e+01   1.6623319539e+01    0.5101944    0.4018395  12.50  0.002558399    1.674    0.403
       110  -9.1732    181.9059    118.7172   3.5733214697e+01   2.1402986490e+01    0.3577823    0.2175089 -25.95  0.001437145    2.026    0.506
       111  -9.3364    195.5058    119.8411   3.3254671834e+01   1.8188628106e+01    0.3594438    0.3157003 -59.95  0.001574806    1.182    0.154
       112  -7.8578    242.1794    116.1888   2.4437496240e+01   9.3534605543e+00    0.1897849    0.1533256 -64.77  0.001081392    1.356    0.262
       113  -9.7670    221.1024    113.5481   2.7153981174e+01   1.3956416484e+01    0.6437845    0.3995272  27.25  0.002773666    2.453    0.592
       114  -7.2953    177.6636    116.6749   3.6121517324e+01   2.2763231768e+01    0.1595022    0.1232518   5.00 0.0006615175    1.719    0.418
       115  -7.2218    166.2650    118.4104   3.9077577425e+01   2.4969196499e+01    0.1628481    0.1226699  -8.54  0.000696184    1.755    0.430
       116  -9.5038    233.1772    111.1594   2.4689195853e+01   1.1954959673e+01    0.5112836    0.3015032 -38.79  0.002196026    1.505    0.336
       117  -9.4706    193.9680    111.6379   3.1554145656e+01   2.0113559953e+01    0.4664949    0.3348663  -7.80  0.002057963    1.985    0.496
       118  -7.6937    250.4646    113.4989   2.2666687177e+01   8.2797921941e+00     0.134526    0.1135894 -42.40 0.0001447066    1.004    0.004
       119  -7.4666    146.2643    113.6034   4.2614570157e+01   3.0481322522e+01    0.1631877    0.1244616 -74.95 0.0005293451    1.719    0.418
       120  -8.2946    176.3361    111.5585   3.5109653838e+01   2.4092480021e+01    0.3424556    0.2300827  -5.22  0.001317912    2.501    0.600
       121  -9.4726    201.1991    108.1765   2.9350483223e+01   1.9173739257e+01    0.4984806    0.3244698 -45.62  0.002323922    1.456    0.313
       122  -9.5996    190.2833    106.4127   3.0971433177e+01   2.1937636194e+01    0.4364661    0.2605301 -23.10  0.001523498    2.244    0.554
       123  -9.5693    183.0000    107.4996   3.2690599752e+01   2.3378100696e+01    0.3721081    0.1851709 -43.42  0.001454455    1.939    0.484
       124  -9.6429    188.4479     99.8104   2.9663563186e+01   2.3603069062e+01    0.4118005     0.290567   4.15  0.001726902    2.299    0.565
       125  -8.1320    217.9697    107.0537   2.6170664229e+01   1.5774967345e+01    0.2251767    0.2062255 -51.82 0.0008771048    1.027    0.026
       126  -8.0561    244.2398    105.3623   2.1795525740e+01   1.0805910730e+01    0.2573152    0.1556442 -29.13  0.001104313    1.732    0.423
       127  -7.9805    155.7964    104.7674   3.7937058616e+01   3.0175571765e+01    0.2684546    0.1770691   5.04 0.0008902164    2.803    0.643
       128  -9.0701    212.8038    102.4192   2.5939701104e+01   1.7703991431e+01    0.3509539    0.2535948  -5.24  0.001619794    2.051    0.512
       129  -8.9078    221.0472    101.3905   2.4358856895e+01   1.6134439817e+01     0.362282    0.2555363  42.16  0.001840283    1.650    0.394
       130  -8.3774    233.2835     99.4576   2.2061745648e+01   1.3951429267e+01    0.4486665    0.2376695  44.48  0.002031784    2.295    0.564
       131  -7.8201    174.6231    100.2296   3.2542887733e+01   2.6714757488e+01    0.2186778    0.1448574 -30.26 0.0007128029    1.646    0.392
       132  -7.7798    168.1628     98.8285   3.3547726243e+01   2.8491215510e+01    0.4061401    0.1151089 -37.43   0.00113294    3.790    0.736
       133  -8.0064    160.4290     98.1964   3.5091196617e+01   3.0421033753e+01    0.3057115     0.152136 -35.68  0.001141014    2.124    0.529
       134  -8.5012    197.9864     96.9896   2.7186604950e+01   2.1954241141e+01    0.3688787    0.2007131 -26.06   0.00143504    2.382    0.580
       135  -7.3463    209.4735     97.5123   2.5326366941e+01   1.9303671295e+01    0.1444094    0.1340202 -51.03 0.0008099121    1.016    0.016
       136  -7.8355    203.5051     97.4788   2.6334281324e+01   2.0628174431e+01    0.1471581    0.1356378 -58.78  0.000104063    1.030    0.030
       137  -7.9184    243.7288     96.6243   1.9974589341e+01   1.2361050176e+01    0.1718926    0.1264461  76.64 0.0006224887    1.632    0.387
       138  -8.8951    203.6620    102.8195   2.7606793810e+01   1.9623353536e+01    0.3583203    0.2107158  48.75  0.001599554    1.812    0.448
       139  -7.9301    221.5962     95.2797   2.2857781254e+01   1.7081884904e+01    0.1970106    0.1284307 -29.76 0.0005945752    1.628    0.386
       140  -7.6253    216.7601     92.4178   2.2938066242e+01   1.8609749500e+01    0.1947592    0.1323362  45.87 0.0009573774    1.670    0.401
       141  -7.9974    188.5380     91.9601   2.7646753918e+01   2.5030201828e+01    0.2342106    0.1433516 -37.99  0.001032187    1.602    0.376
       142  -7.8584    183.5197     95.2220   2.9442463027e+01   2.5595516218e+01    0.2126347    0.1454669 -25.14 0.0009414809    1.709    0.415
       143  -8.0849    158.3224     90.0132   3.3321504090e+01   3.2499810742e+01    0.2499171    0.1307065 -17.89 0.0007050542    4.325    0.769
       144 -12.6914    222.9940    151.5535   3.5326841073e+01   6.6122712058e+00     1.669009    0.7408714 -38.30  0.006866809    2.053    0.513
       145  -7.6745    157.6807     81.6380   3.1118558917e+01   3.4207973929e+01    0.1584349    0.1205179  12.47 0.0007041979    1.771    0.435
       146  -7.3387    167.5365     75.4919   2.7325594664e+01   3.2927939127e+01    0.1470906    0.1439575  75.50 0.0001345324    1.028    0.028
       147  -7.3685    135.4933     63.4085   3.0817828958e+01   4.2649213719e+01    0.1481827    0.1375121  39.83  0.000108458    1.039    0.037
       148  -8.1135    174.1694     45.7746   1.7911612086e+01   3.5910913661e+01    0.1975005    0.1755452 -82.17 0.0003771536    1.084    0.078
       149  -9.2365    246.4106     32.3664   6.1415611068e+00   2.1304233983e+01    0.2261076    0.1623426 -20.27  0.001335296    1.982    0.495
       150  -9.1683    244.6844     27.4704   5.3046193931e+00   2.2268444728e+01    0.2037756   0.09756394 -37.83  0.001063833    1.948    0.487
       151  -7.9781     71.0205    249.2225   8.4539090682e+01   1.3144863708e+01    0.1671991   0.08521514  38.51 0.0008845362    1.706    0.414
       152  -7.7021    202.6286    248.6940   5.7751901500e+01  -6.4436748463e+00    0.1320861   0.08178366   5.87 0.0007033073    1.760    0.432
       153 -10.5863    246.8495    224.6053   4.5407086134e+01  -9.1285748140e+00    0.7950992    0.4293931 -16.12  0.004205782    1.928    0.481
       154 -11.2483    239.8065    229.8677   4.7594780047e+01  -8.9341431255e+00    0.8443903    0.4561668 -33.31  0.004728498    1.758    0.431
       155  -7.7821    212.0015    246.2887   5.5559243078e+01  -7.4314610246e+00    0.1749369    0.1317551  16.16 0.0005960854    1.077    0.072
       156  -7.3442    206.4476    245.0447   5.6427928310e+01  -6.4660329178e+00    0.1686941    0.1124689 -27.99 0.0004448795    1.540    0.351
       157  -7.4096    215.4606    244.4646   5.4601765535e+01  -7.6586480605e+00    0.1243707   0.09802673   8.67 0.0008082906    1.003    0.003
       158  -8.0392    210.3184    241.9210   5.5170497223e+01  -6.5687615542e+00    0.1746447    0.1368133  -4.30 0.0006424342    1.138    0.122
       159  -8.0515     88.3266    242.6720   8.0416981506e+01   1.1997920736e+01    0.1348078     0.081462  62.89 0.0007050413    1.702    0.412
       160  -8.3663    225.7134     17.6197   4.8826333919e+00   2.7435765140e+01    0.1947984    0.1497063 -26.77 0.0009040326    1.632    0.387
       161  -8.1370    212.5344     14.9945   5.4920974481e+00   3.0636264498e+01    0.1745953    0.1151055 -38.30  0.001021714    1.564    0.361
       162  -7.6432    215.1899    238.8602   5.3726306314e+01  -6.8203494927e+00    0.1748174    0.1226628   2.49 0.0005185092    1.316    0.240
       163  -7.5691    206.5214    239.5426   5.5515559097e+01  -5.6718180597e+00    0.1265571    0.1032739  11.75 5.320812e-05    1.032    0.031
       164  -7.2938    201.6226    239.7377   5.6507581559e+01  -4.9816930728e+00    0.1324315   0.08396257   8.54 0.0006981047    1.670    0.401
