#   1 NUMBER                 Running object number                                     
#   2 MAG_AUTO               Kron-like elliptical aperture magnitude                    [mag]
#   3 X_IMAGE                Object position along x                                    [pixel]
#   4 Y_IMAGE                Object position along y                                    [pixel]
#   5 X_WORLD                Barycenter position along world x axis                     [deg]
#   6 Y_WORLD                Barycenter position along world y axis                     [deg]
#   7 A_WORLD                Profile RMS along major axis (world units)                 [deg]
#   8 B_WORLD                Profile RMS along minor axis (world units)                 [deg]
#   9 THETA_WORLD            Position angle (CCW/world-x)                               [deg]
#  10 FWHM_WORLD             FWHM assuming a gaussian core                              [deg]
#  11 ELONGATION             A_IMAGE/B_IMAGE                                           
#  12 ELLIPTICITY            1 - B_IMAGE/A_IMAGE                                       
         1 -14.3919    191.3552     41.0958   4.7616895166e+01   3.2691744602e+01     1.025365    0.9413196  42.14  0.003758512    1.200    0.167
         2 -14.4284    216.8343      9.8512   3.6641587525e+01   3.0310905727e+01    0.8850157    0.8047724 -65.42  0.003813385    1.113    0.102
         3 -10.2509    189.5003     15.0183   4.0725900686e+01   3.6248025494e+01    0.1873123    0.1297476 -29.64 0.0006222675    1.547    0.353
         4 -16.9631     69.5810    143.7146   1.0526457064e+02   3.7363753461e+01     8.416045     4.356298  69.93   0.02969097    3.535    0.717
         5 -11.8162    193.3349    195.4416   8.5088147866e+01   4.6936614353e+00    0.9639698    0.5131461 -63.16  0.002828617    6.352    0.843
         6 -11.3792     42.4085    205.9452   1.1935233604e+02   2.6192566801e+01    0.2960068    0.2341804 -50.90   0.00163363    1.626    0.385
         7 -11.1659     35.6837    197.8031   1.2007193436e+02   2.8682705611e+01    0.1987331    0.1341505  54.70 0.0005762401    1.329    0.248
         8 -19.1081     13.0345     99.2490   1.1492908654e+02   5.3851012463e+01     16.00838    0.7543552 -69.01   0.02765859   14.413    0.931
         9 -11.0503     82.0222    194.6397   1.0960141201e+02   2.3607629220e+01    0.3188732     0.249452  56.53  0.001349262    1.173    0.148
        10 -10.0972     77.6369    192.3714   1.1031462085e+02   2.4728386169e+01    0.2060215    0.1405302  58.12 0.0005934139    1.400    0.286
        11 -12.5451    148.0102    187.0044   9.3279157889e+01   1.4413503599e+01    0.3560234    0.2958489 -46.64  0.001953717    1.274    0.215
        12 -12.2044     93.9733    186.4606   1.0574337992e+02   2.3664060042e+01    0.3947499    0.2660676  72.45  0.001438351    1.716    0.417
        13 -13.1493     98.8134    181.5061   1.0386211448e+02   2.4030281222e+01    0.5541397    0.3660598 -42.47  0.001689779    1.781    0.439
        14 -12.3252    151.4299    192.7413   9.3535385460e+01   1.2647335538e+01    0.4836115    0.2932395 -75.26  0.001860471    3.283    0.695
        15 -10.3214      1.0986    187.3819   1.2644224333e+02   3.4152747852e+01    0.1078013   0.05060781 -73.52 0.0001790224    1.753    0.430
        16 -11.9186     93.2568    205.6359   1.0847640770e+02   1.9603369935e+01    0.2844064    0.2300544  20.51 0.0009166367    1.513    0.339
        17 -11.5402    187.1183    175.7929   8.2514825792e+01   9.3662128348e+00    0.3520567    0.2999109 -37.14  0.001047858    1.209    0.173
        18 -11.3134     58.8056    176.5232   1.1276111330e+02   3.0836017833e+01    0.2306882    0.1963095  88.77 0.0003896873    1.027    0.026
        19  -9.9808     39.3058    177.0844   1.1739283545e+02   3.2949665122e+01    0.1704355    0.1386316  76.64 0.0005654191    1.074    0.069
        20 -10.8955    148.9903    176.2832   9.1058710900e+01   1.6450494075e+01    0.2008503    0.1852586  36.41 0.0003604221    1.044    0.042
        21 -11.7885    146.7366    172.5866   9.0866775572e+01   1.7653064093e+01    0.3314191    0.2340722 -65.44 0.0009710236    1.745    0.427
        22 -18.2995     34.4801    235.6635   1.2301522163e+02   2.1090575697e+01       7.6354     4.076385  35.74   0.03355988    1.892    0.471
        23 -10.2918     48.0863    173.8746   1.1499999178e+02   3.2729858424e+01    0.2570994    0.2064534 -79.75  0.001591656    1.100    0.091
        24 -10.9356     42.8374    172.2384   1.1606361769e+02   3.3697510064e+01    0.3152302    0.1971248  61.37  0.001144077    1.582    0.368
        25 -12.1934     55.2841    200.4430   1.1615429114e+02   2.5867517196e+01    0.3354249    0.2458539 -42.58  0.001974238    1.860    0.462
        26  -9.7923    193.4892    170.5106   8.0087382070e+01   9.1572839151e+00    0.1455308     0.132391   0.04 5.189714e-05    1.005    0.005
        27 -11.9834    138.0352    169.5123   9.2326085417e+01   1.9943750691e+01     0.338128    0.2631736  38.61  0.001057167    1.254    0.203
        28 -11.2777    240.4811    169.4814   7.0893927723e+01   9.3140820853e-01    0.1360235    0.1141144 -11.35 -2.482136e-06    1.001    0.001
        29 -10.5663    185.1649    168.8952   8.1497429426e+01   1.1048100776e+01    0.2142847    0.2057035 -66.55 0.0006797726    1.242    0.195
        30 -11.0575     75.6354    247.4097   1.1634224164e+02   1.3938630729e+01    0.4646772    0.1275719 -58.87  0.002009409    3.931    0.746
        31 -12.1118     96.4779    202.0049   1.0730092685e+02   1.9888053744e+01    0.2959059    0.2125389 -61.53   0.00110491    1.454    0.312
        32 -12.0054     90.0503    157.1076   1.0207618194e+02   3.1118845220e+01    0.2763172    0.2620862 -84.30 0.0003314766    1.023    0.023
        33 -13.2023     96.1680    150.6140   9.9285210961e+01   3.1713636401e+01    0.6259117    0.5196853 -21.26  0.003259017    1.478    0.323
        34 -12.4392    133.8052    145.2147   8.8320895698e+01   2.6202584814e+01     1.252095    0.3257439 -54.80  0.002882552    5.932    0.831
        35 -13.1290     58.5749    193.9465   1.1477834809e+02   2.6891057496e+01     0.459574    0.3030631 -49.88  0.001341789    1.806    0.446
        36 -10.5013    174.8490    149.1577   7.9419510268e+01   1.7024879754e+01    0.2288725    0.2130044 -85.89 0.0006240571    1.274    0.215
        37 -11.5716    109.1234    147.3744   9.5202149293e+01   3.0298337925e+01    0.2693876    0.2124346 -67.86 0.0003668354    1.317    0.241
        38 -12.4855    107.5652    137.2840   9.3498801165e+01   3.2987258233e+01    0.5155542    0.3409882 -35.71  0.002284291    1.718    0.418
        39 -12.0419    105.9587    130.7115   9.2485980261e+01   3.4849280301e+01    0.4157454    0.3392808 -61.45   0.00123277    1.221    0.181
        40 -12.5730     95.7397    136.6729   9.6639180078e+01   3.5166329494e+01    0.2989916    0.2777917 -56.97 0.0005432605    1.032    0.031
        41 -11.2694    136.0000    128.9577   8.3965900185e+01   2.9467634258e+01    0.4314383   0.08790161 -46.84  0.001037776    4.812    0.792
        42 -12.0518    114.9331    128.7408   8.9541525533e+01   3.3672783273e+01    0.3628634    0.3159857  35.38  0.001249908    1.194    0.162
        43 -11.1248     43.5405    210.4228   1.1948987178e+02   2.5119151690e+01    0.2767928    0.1922708 -80.77   0.00127947    1.314    0.239
        44 -11.3399    102.3776    124.2426   9.2011020012e+01   3.7035882722e+01    0.3106342    0.2475851 -31.79 0.0007922386    1.347    0.258
        45 -11.9480    120.0754    123.0027   8.6744149172e+01   3.4030920158e+01    0.3979208    0.2656537 -16.93  0.001578174    2.254    0.556
        46 -10.9721    135.0000    120.4053   8.2085864118e+01   3.1604575721e+01    0.3491582   0.08814004 -45.89 0.0009264536    3.868    0.741
        47 -10.5856    110.0441    117.9873   8.8305151307e+01   3.7124140271e+01    0.2265336    0.2175148 -49.09 0.0003041303    1.017    0.016
        48 -10.8675    231.2751    113.7502   6.0057533568e+01   1.2019365460e+01    0.2577321    0.2304095 -11.97 0.0007696674    1.129    0.115
        49 -10.5182    167.8627    112.7215   7.2029859347e+01   2.6055053044e+01    0.3120147    0.2069623 -66.21   0.00123434    2.168    0.539
        50 -10.7989    135.0000    112.0404   7.9896374757e+01   3.3467141048e+01    0.4459784   0.08825117 -44.73  0.001050555    4.927    0.797
        51 -12.8911    118.7099    110.6896   8.3968798236e+01   3.7134181339e+01    0.6170767    0.4382755  64.09  0.002693298    1.829    0.453
        52 -10.4226    205.5458    110.2099   6.3647965399e+01   1.8079382190e+01    0.2626765    0.2132528  48.92 0.0006139614    1.318    0.241
        53 -11.0963    134.5846    105.7177   7.8287203958e+01   3.4939160536e+01    0.3147453    0.1496516 -39.96  0.001143289    2.103    0.525
        54 -14.2072    176.0092     54.6935   5.3948680923e+01   3.4555648281e+01     1.723678    0.9508435  33.04   0.00532528    2.619    0.618
        55 -11.5978     71.9146    243.9919   1.1674900354e+02   1.5039943905e+01    0.2566775    0.1598292 -80.40  0.001069687    1.705    0.413
        56 -13.5698    196.1555     35.4742   4.5419475008e+01   3.2252418171e+01    0.5543078    0.4973308  76.79  0.001206184    1.080    0.074
        57 -12.1623    198.0531     23.4723   4.1981266725e+01   3.3245188511e+01    0.2419828    0.1948066  -1.87 0.0008966133    1.604    0.376
        58 -10.8987     60.9715    188.0431   1.1359811431e+02   2.7915289962e+01    0.2283884    0.1626277 -76.28  0.000416931    1.304    0.233
