#   1 NUMBER                 Running object number                                     
#   2 MAG_AUTO               Kron-like elliptical aperture magnitude                    [mag]
#   3 X_IMAGE                Object position along x                                    [pixel]
#   4 Y_IMAGE                Object position along y                                    [pixel]
#   5 X_WORLD                Barycenter position along world x axis                     [deg]
#   6 Y_WORLD                Barycenter position along world y axis                     [deg]
#   7 A_WORLD                Profile RMS along major axis (world units)                 [deg]
#   8 B_WORLD                Profile RMS along minor axis (world units)                 [deg]
#   9 THETA_WORLD            Position angle (CCW/world-x)                               [deg]
#  10 FWHM_WORLD             FWHM assuming a gaussian core                              [deg]
#  11 ELONGATION             A_IMAGE/B_IMAGE                                           
#  12 ELLIPTICITY            1 - B_IMAGE/A_IMAGE                                       
         1 -14.3706     68.0066     72.0073   4.5033269670e+01   5.5340288864e+01     6.122355     3.849607  -5.38   0.02134821    3.216    0.689
         2 -14.8025     91.8841     68.7685   3.4986311401e+01   5.1056730278e+01     7.343818     2.860021  37.66   0.02297603    3.240    0.691
         3 -15.1806    137.4301    128.6364   3.8678524841e+01   2.8714754691e+01     6.665024     4.323802  75.95   0.02508937    3.096    0.677
         4 -16.0267    125.5925    106.2768   3.6217699514e+01   3.5803479317e+01     8.896794       4.9772  50.83   0.03677707    1.880    0.468
         5 -13.7393     65.1931    107.3712   5.6058336132e+01   4.7127398628e+01     3.947325     2.038012  48.60   0.01498085    2.143    0.533
         6 -15.9673     61.3504    137.6155   6.3437358456e+01   3.9744673064e+01     11.73616      5.53408  26.37   0.04497314    2.116    0.527
         7  -9.8003    105.7985     31.6440   1.7175899605e+01   5.3997458727e+01    0.4403569    0.2850441 -18.13  0.002044423    1.965    0.491
         8 -11.1294      3.4552     22.4330   6.5688679767e+01   7.5382584443e+01    0.3752208    0.2951786 -13.65  0.002288834    1.148    0.129
         9 -11.2597      3.2648     12.7437   6.1300631369e+01   7.7435446797e+01    0.5172436    0.2990856 -31.35  0.002639675    1.644    0.392
        10 -12.1591     12.4595      9.5345   5.0112205391e+01   7.7103083243e+01    0.9375264    0.5378484 -33.74  0.004895532    1.771    0.435
        11 -11.0960      7.6908      9.9306   5.5084431687e+01   7.7576615076e+01     0.336257    0.2016327 -49.59   0.00143541    1.692    0.409
        12 -11.6301      6.1551      5.2606   5.3609174175e+01   7.8605926023e+01    0.8191549    0.3470912  30.51  0.003863412    2.201    0.546
        13  -9.1919     87.0354      9.2118   1.1976151506e+01   6.1408450431e+01    0.2435399    0.1481889 -76.53    0.0011001    2.103    0.524
        14 -10.0543     27.9613      9.0019   3.6782375088e+01   7.4836804820e+01    0.1944131    0.1717475  22.23  0.000347856    1.052    0.050
        15  -9.0876     42.8658      3.8019   2.4052645343e+01   7.2566573031e+01    0.2035479    0.1924964 -45.03 0.0002306101    1.267    0.211
        16  -9.6703     31.8630      4.1197   3.0574039091e+01   7.4792664004e+01    0.1839244    0.1708312  51.68 0.0003288278    1.243    0.196
        17  -8.1077     75.7357      3.3192   1.1835587582e+01   6.4824403550e+01    0.1314749   0.09784245 -65.90 0.0001935275    1.552    0.356
        18  -9.6940     27.5061      2.8295   3.2545136759e+01   7.5788633921e+01    0.2715065    0.1761356   0.95  0.001248329    1.963    0.491
        19  -8.7243    119.3298    246.0339   6.2176126964e+01   8.7232221817e+00    0.1583578    0.1317246  11.57 0.0003910971    1.093    0.085
        20  -8.5130    201.8417    250.2215   4.6520806618e+01  -6.2183509904e-01    0.1536667   0.09331834  -4.09  0.001028262    1.349    0.259
        21  -8.7074    153.0117    250.5302   5.5669233831e+01   4.3081988848e+00    0.1770408   0.08989798  21.71 0.0009261887    1.567    0.362
        22  -9.1656    141.3596    249.9543   5.7962170678e+01   5.6595513258e+00    0.2068564    0.1329734  15.79 0.0004415775    1.232    0.188
        23  -8.4801    132.8988    250.5346   5.9783467878e+01   6.5066311870e+00    0.1765327   0.09186585  24.09 0.0004484343    1.499    0.333
        24  -8.5291    128.8014    250.2243   6.0609544657e+01   7.0077020254e+00    0.1650566    0.1137975   3.40   0.00067455    1.345    0.257
        25  -8.7419     89.0653    249.9444   6.9244690160e+01   1.1466199415e+01    0.1790011    0.1257945  -3.25 0.0004108865    1.603    0.376
        26  -8.5912     76.1496    250.1743   7.2163838386e+01   1.2825434659e+01    0.1730703    0.1342169  16.53  0.000341525    1.174    0.148
        27  -9.8769     61.4753    247.6696   7.5306543221e+01   1.4811291333e+01    0.2694449     0.197285 -17.53  0.001412614    1.766    0.434
        28  -9.7758    104.7026    245.3182   6.5317388363e+01   1.0498120616e+01    0.2160868    0.1639088  12.05 0.0002834735    1.164    0.141
        29  -8.9564     81.8539    245.8929   7.0521133256e+01   1.2950780155e+01    0.1739179    0.1417007   7.58 0.0004535012    1.230    0.187
        30  -9.7631     58.3301    243.4289   7.5737244829e+01   1.5905093933e+01    0.2536559    0.1980505 -10.36  0.001541982    1.562    0.360
        31  -9.2679     50.5514    244.9832   7.7632411993e+01   1.6412480499e+01    0.2054598    0.1427408  13.40 0.0003513286    1.435    0.303
        32  -9.1360     42.8433    244.5791   7.9378976589e+01   1.7248776915e+01    0.1787646    0.1562736  62.20 0.0002835012    1.228    0.186
        33  -8.1224    206.3054    244.3726   4.4963901526e+01  -3.3999705829e-01    0.1155905    0.0621915  -7.85 0.0007031878    1.762    0.432
        34  -8.3895    197.2401    244.1767   4.6510712539e+01   5.6481317218e-01    0.1863438     0.087907  -7.28  0.000937866    2.717    0.632
        35  -8.3839    187.3223    244.3518   4.8312581976e+01   1.5369054855e+00    0.1190986    0.0667827  -6.07 0.0007047897    1.752    0.429
        36  -8.5527     75.5103    244.5147   7.1856663063e+01   1.3885245034e+01    0.2058408   0.09754735  25.96 1.829295e-05    1.665    0.399
        37  -8.5425     79.1474    242.8185   7.0879545273e+01   1.3789584321e+01    0.1843995    0.1319363  -5.73 0.0004798997    1.642    0.391
        38  -8.0460     25.3108    250.2885   8.3606956279e+01   1.7832551544e+01    0.1030336   0.08350652  -8.02 0.0002637593    1.580    0.367
        39  -9.4925    113.6158    242.6239   6.3058604662e+01   9.9273620018e+00    0.2139701    0.1528893  16.64 0.0005265669    1.151    0.131
        40  -9.1555     71.9615    242.5170   7.2513861594e+01   1.4627538680e+01    0.1855662    0.1595022 -16.24 0.0004600831    1.375    0.273
        41  -7.7056     16.3386    247.3199   8.5487057019e+01   1.9161003304e+01    0.1053606   0.08369165 -17.18 0.0007049853    1.711    0.416
        42  -9.1767     17.7222    242.0566   8.4995929857e+01   2.0030036676e+01     0.232582    0.1372736 -27.64  0.001227059    2.816    0.645
        43  -9.1829     11.0904    242.9409   8.6515930081e+01   2.0421779390e+01    0.1882425    0.1312608  32.11 0.0003437044    1.162    0.139
        44  -9.0818    226.7869    242.6393   4.1350557591e+01  -2.0271102658e+00    0.1350949   0.07840086  26.00 0.0009533585    1.725    0.420
        45  -8.3639    146.5831    242.2711   5.5961506781e+01   6.2155268373e+00    0.1454722   0.09945823 -24.23 0.0003325305    1.515    0.340
        46  -9.0217    141.8580    241.6753   5.6868433739e+01   6.8401951562e+00    0.1838113    0.1399344 -12.53 0.0004277061    1.281    0.219
        47  -9.3039    134.1106    242.1107   5.8553263247e+01   7.6567653746e+00    0.1856338     0.143262  13.03 0.0004705635    1.022    0.022
        48  -7.9188    119.3196    242.3013   6.1767950945e+01   9.3244884938e+00    0.1223145   0.08106057  -3.28 0.0003795753    1.624    0.384
        49  -9.1540     27.9266    241.2998   8.2639810489e+01   1.9270765914e+01    0.2141181    0.1592659  16.01 0.0003890661    1.358    0.264
        50  -8.9697     31.4143    240.2648   8.1788815976e+01   1.9147487105e+01    0.2262687    0.1053163  65.13  0.001148284    2.335    0.572
        51  -8.1879      4.2101    242.5202   8.8034258514e+01   2.1058470663e+01     0.140075   0.09749059  16.37 0.0003075504    1.469    0.319
        52  -9.4667    127.3082    240.2488   5.9793578634e+01   8.7333346378e+00    0.3173133    0.1497462 -28.46  0.001462859    3.006    0.667
        53  -8.7625    125.9443    234.0345   5.9355165614e+01   9.9047583931e+00    0.1918182     0.147519  14.39 0.0004656498    1.060    0.056
        54  -8.5112    122.4896    240.5524   6.0877299218e+01   9.2422923101e+00    0.1852745    0.1027214 -37.25 0.0005866778    2.093    0.522
        55  -8.5284    123.4478    237.4734   6.0312135070e+01   9.6327934198e+00    0.1551706    0.1082039 -28.98 0.0001273238    1.594    0.373
        56  -8.1416    102.6180    241.7610   6.5424462875e+01   1.1333317493e+01    0.1239062   0.08075915   3.42 0.0006924529    1.636    0.389
        57  -8.4100     98.7790    241.3933   6.6255811270e+01   1.1835103719e+01     0.174168   0.09843869  16.75 0.0004468621    1.616    0.381
        58  -9.1658     83.8585    240.8378   6.9620430293e+01   1.3619896592e+01    0.1836881      0.14459   7.81 0.0005556635    1.257    0.205
        59  -9.2172     56.8183    239.2875   7.5804066214e+01   1.6830067370e+01    0.2483914    0.1812378 -24.65  0.001241078    1.802    0.445
        60  -9.6411     50.4608    239.4545   7.7306259225e+01   1.7451234507e+01    0.3806919    0.2270251  23.13  0.001223163    1.429    0.300
        61  -8.3077     22.8041    241.3650   8.3815005447e+01   1.9718133263e+01    0.1565235   0.09700864  16.20 0.0002769235    1.597    0.374
        62  -8.7401    131.2895    239.7073   5.8870501778e+01   8.3587920202e+00    0.1694209    0.1198393   1.83 0.0003826804    1.329    0.247
        63  -9.1433     91.7942    240.3965   6.7752613515e+01   1.2803738248e+01    0.1762171   0.09971654  16.25 0.0006290933    1.651    0.394
        64  -8.4691    164.3023    239.2999   5.2005647691e+01   4.6702577550e+00    0.1187826    0.0733015  -3.83 0.0002812841    1.585    0.369
        65  -9.1775    118.2282    238.8669   6.1623620186e+01   1.0013501961e+01    0.2171293    0.1484406  11.91 0.0006056011    1.297    0.229
        66  -9.5398     67.8895    238.6443   7.3156709355e+01   1.5776114231e+01     0.226642    0.1771674  77.88 0.0009996942    1.552    0.356
        67  -8.3027     35.8025    239.1730   8.0716343486e+01   1.8944308444e+01    0.1538348    0.1273011   9.50 0.0004684533    1.329    0.247
        68  -8.2425    112.1311    237.8352   6.2867890058e+01   1.0898028763e+01    0.1645879    0.1235248   2.52 0.0003790135    1.292    0.226
        69  -7.8037    101.3144    238.3397   6.5369996645e+01   1.2070771252e+01    0.1246521   0.08533999  -8.49 0.0004750359    1.700    0.412
        70  -9.3273     77.8183    237.8259   7.0759927956e+01   1.4837404659e+01     0.311106    0.1522042  16.65  0.001208132    2.045    0.511
        71  -7.9223     82.3228    235.3264   6.9479463563e+01   1.4789223576e+01    0.1238618   0.08823577  -9.59 0.0004097288    1.688    0.408
        72  -8.9691    104.9210    237.0124   6.4409200790e+01   1.1881278113e+01    0.1862159    0.1479975  15.71 0.0003182822    1.077    0.071
        73  -9.6904     42.1017    236.3090   7.9081054353e+01   1.8886493246e+01    0.2435471     0.204698 -53.29  0.001114425    1.498    0.332
        74  -9.1001     17.7522    237.1782   8.4811899384e+01   2.0964481035e+01    0.2974595    0.1332881  29.96  0.001563737    1.688    0.408
        75  -8.5581     20.9993    235.2257   8.3984298758e+01   2.1063078624e+01    0.2698188    0.1445827  79.79  0.001507869    2.049    0.512
        76  -8.3918      1.9894    237.4356   8.8406782708e+01   2.2205957941e+01    0.1660145   0.09264524  26.65 0.0003024605    1.490    0.329
        77  -9.0071    157.3183    236.1942   5.2990624282e+01   5.9051949440e+00    0.1988419     0.126742  13.48 0.0003438241    1.305    0.234
        78  -9.1191    146.4421    235.5588   5.5143635746e+01   7.2504912337e+00    0.1985294       0.1575   7.18 0.0004972942    1.038    0.037
        79  -8.8391    135.1767    236.2027   5.7610680945e+01   8.4632554633e+00    0.1824811    0.1345472   6.19 0.0004756871    1.183    0.154
        80  -9.2951     95.5923    235.4602   6.6391869453e+01   1.3240713201e+01    0.2097739    0.1700395  20.69 0.0002224184    1.041    0.039
        81  -7.7764     72.6410    236.7198   7.1882709040e+01   1.5614517058e+01    0.1225795    0.0872511  -4.37  0.000701389    1.666    0.400
        82 -10.3876     31.1948    233.7372   8.1522283182e+01   2.0432589060e+01    0.2851163    0.2124589  38.65 0.0007448182    1.049    0.047
        83  -9.0271    130.7208    234.6542   5.8383933174e+01   9.2369078054e+00    0.2067364    0.1528437   2.74 0.0005407869    1.242    0.195
        84  -9.3415     90.9684    233.7847   6.7301991109e+01   1.4078887496e+01    0.2199417    0.1713983 -34.11 0.0006094912    1.514    0.340
        85  -8.4357     52.8500    235.1765   7.6459786504e+01   1.8021722084e+01    0.1574359    0.1309285   8.88 0.0003631519    1.282    0.220
        86  -8.8622     49.2145    234.3363   7.7270213262e+01   1.8556584044e+01    0.2240399    0.1778249 -21.39   0.00115228    1.604    0.376
        87  -8.8497     55.2543    207.8990   7.3774571524e+01   2.3345631495e+01    0.3659512    0.1711888  14.38  0.001532541    2.461    0.594
        88  -9.4276     57.2405    211.1030   7.3529305216e+01   2.2436007983e+01    0.2208752    0.1987304  14.53 0.0005518014    1.160    0.138
        89  -9.1476     58.1379    221.2290   7.4138436516e+01   2.0223868081e+01    0.4723875    0.2289829 -33.23  0.001914679    3.608    0.723
        90  -9.3709     62.9569    220.9397   7.2908738782e+01   1.9752516942e+01    0.2170824    0.1604512  33.95 0.0004663622    1.108    0.098
        91  -8.9406     53.4527    219.4766   7.5177766894e+01   2.1089087796e+01    0.3856984    0.1106972  40.84  0.001518062    2.667    0.625
        92  -9.9068     54.8640    216.0787   7.4553305478e+01   2.1644172986e+01    0.3515242    0.2209333  31.42  0.001934414    1.307    0.235
        93  -9.1533     51.9243    212.0686   7.4989049922e+01   2.2810716121e+01    0.2114842    0.1713822  14.49 0.0004156597    1.249    0.200
        94  -9.0311     54.8058    231.1124   7.5707040139e+01   1.8606025601e+01    0.3709516    0.1399395  24.99  0.001649544    2.192    0.544
        95  -8.9180     57.6679    226.5076   7.4668534076e+01   1.9210936517e+01     0.320311    0.1772613 -29.04  0.001475226    2.886    0.653
        96  -8.8920     36.9755    235.0156   8.0220432842e+01   1.9635325518e+01    0.1793686    0.1451965  33.92 0.0003062921    1.062    0.059
        97  -8.7574    170.8216    232.8578   4.9857729462e+01   4.8680634531e+00    0.1837156    0.1247283  -4.11  0.000633648    1.305    0.234
        98  -8.8776    153.0988    232.4280   5.3353094401e+01   6.9575714786e+00    0.1899018    0.1408259 -14.47 0.0004516621    1.284    0.221
        99  -8.6318    140.1844    233.0752   5.6146398500e+01   8.3719776216e+00    0.1773407    0.1336266   2.49 0.0002875873    1.172    0.147
       100 -10.1437    114.9338    231.9318   6.1568951359e+01   1.1574380607e+01    0.2486785    0.1828456  10.32 0.0003491283    1.225    0.183
       101  -8.5592    107.6851    233.0806   6.3351586415e+01   1.2239685867e+01    0.1681044    0.1413975  14.59 0.0004560286    1.067    0.063
       102  -9.1108     99.8406    232.7872   6.5129675464e+01   1.3220422511e+01    0.1887364    0.1875294 -89.64 0.0003741235    1.278    0.217
       103  -9.1407     77.4283    232.9330   7.0421284040e+01   1.5786844056e+01    0.2240208    0.1535656  19.83 0.0004068624    1.281    0.219
       104  -9.3090     72.1531    232.2103   7.1617693737e+01   1.6514802810e+01    0.3537909    0.1917485   3.33  0.001380815    2.556    0.609
       105  -9.8059     71.6457    227.1890   7.1303836863e+01   1.7536500965e+01    0.2475071      0.20655 -31.02 0.0005211612    1.436    0.304
       106  -8.1238      5.0180    233.7596   8.7627539296e+01   2.2685879019e+01    0.1476559   0.08065312  27.31 0.0003137238    1.507    0.336
       107  -8.7545    134.8820    231.6199   5.7102305167e+01   9.2360540944e+00    0.2611983    0.1244794  18.14  0.001263774    2.016    0.504
       108  -8.9569     84.2705    231.3354   6.8645069647e+01   1.5304443633e+01    0.2043134    0.1623006  11.76 0.0003308759    1.202    0.168
       109  -8.0342    166.5165    231.5348   5.0520938265e+01   5.5461147349e+00     0.120382   0.09179588   5.16 0.0001923695    1.019    0.018
       110  -8.6211    121.8976    230.8868   5.9875562939e+01   1.0916621727e+01    0.1877424    0.1421026   5.97 0.0003310207    1.207    0.172
       111  -8.3814    188.0430    230.0354   4.6195848695e+01   3.3670776531e+00    0.1874919    0.1091221  -3.19 0.0006463903    1.689    0.408
       112  -9.1229    146.6948    230.0999   5.4378645316e+01   8.0721086651e+00    0.2141179     0.143937  15.37 0.0003563697    1.236    0.191
       113  -7.9598    131.3093    230.2744   5.7712358829e+01   9.8854660629e+00    0.1235791   0.08266693  -1.86 0.0002984022    1.551    0.355
       114  -8.2944    126.8615    230.1401   5.8677403277e+01   1.0444167237e+01    0.1684094    0.1242602   1.97 0.0002937481    1.283    0.221
       115  -8.4843     67.1004    230.1391   7.2659243332e+01   1.7471607383e+01    0.1836299    0.1495667   7.25 0.0003954506    1.279    0.218
       116  -9.3453    102.0117    228.1309   6.4119673722e+01   1.3800657073e+01    0.1854044    0.1666166  10.91 0.0002994261    1.120    0.107
       117  -8.4798     80.0417    228.9921   6.9434779142e+01   1.6232620850e+01    0.1853416    0.1370098  -5.04 0.0003479371    1.555    0.357
       118  -9.9907     36.0755    228.7843   8.0091894558e+01   2.0954966899e+01    0.3636347    0.1677899  23.17 0.0009569851    1.876    0.467
       119  -8.7733     29.3277    229.3155   8.1747713465e+01   2.1485172966e+01    0.1934603     0.109342  22.18 0.0005522408    1.578    0.366
       120  -7.9480     30.7134    226.6654   8.1278137303e+01   2.1891841039e+01    0.1656798    0.1421155 -17.25  0.000639024    1.468    0.319
       121  -8.3038    158.8148    228.3958   5.1635487653e+01   6.9055370235e+00    0.1626558   0.09463448  14.96 0.0002771829    1.531    0.347
       122  -9.2290    152.5779    227.1334   5.2746999393e+01   7.8383725353e+00    0.3044573    0.1654881  10.29  0.001270195    1.917    0.478
       123  -8.2798    134.1473    227.8403   5.6780306734e+01   9.9457117479e+00    0.1686515    0.1238278   1.17 0.0003139595    1.276    0.216
       124  -9.5680     93.0804    227.6464   6.6178552614e+01   1.4958958802e+01    0.2551287    0.1914806   9.82 0.0007527456    1.284    0.221
       125  -8.9816    139.2003    227.1488   5.5589921139e+01   9.4462114753e+00    0.2342667    0.1479587  26.15 0.0006244793    1.318    0.241
       126  -8.8695    143.8390    225.8459   5.4417920216e+01   9.0955226785e+00    0.2190934    0.1435103   2.23 0.0004328325    1.513    0.339
       127  -9.8744    109.8079    225.8481   6.2037970573e+01   1.3266834477e+01    0.2502995    0.1931411 -33.41 0.0004858647    1.457    0.314
       128  -8.4853     75.8395    226.7802   7.0245968587e+01   1.7139047829e+01    0.1830563    0.1526991  11.19  0.000578446    1.188    0.158
       129  -8.3916     19.7619    227.0561   8.3941917528e+01   2.2802249813e+01    0.1604854    0.1341047  49.70 0.0003584144    1.074    0.069
       130  -8.8413    176.9518    226.4313   4.7766144471e+01   5.1026320353e+00    0.1688428   0.09589919  23.96 0.0003507616    1.513    0.339
       131  -9.5949    126.9171    224.5160   5.7958233284e+01   1.1393880097e+01    0.2232492    0.1859033 -25.66 0.0004734666    1.287    0.223
       132  -8.5592     46.6406    225.4162   7.7303171288e+01   2.0586075650e+01    0.2317813    0.1524231 -21.34   0.00117345    2.159    0.537
       133  -8.2350      9.0112    225.4473   8.6451104681e+01   2.4034246169e+01    0.2728977   0.09446033 -63.79  0.001217443    3.354    0.702
       134  -8.0296    184.7003    225.6584   4.6184923025e+01   4.3416657866e+00    0.1220967   0.07261381  -7.59 0.0004200834    1.670    0.401
       135  -8.7348    167.7943    224.7116   4.9310453936e+01   6.4111149840e+00    0.1755936    0.1278903   5.19 0.0005419465    1.128    0.113
       136  -8.3336    162.7672    225.2608   5.0396204802e+01   6.9186811778e+00    0.1619208    0.1133098  -1.87 0.0003293157    1.286    0.222
       137  -9.3393     66.0250    225.0164   7.2492636116e+01   1.8593431847e+01    0.2098231     0.162252  16.54 0.0003586361    1.229    0.186
       138  -8.7129     42.4833    225.0795   7.8305339700e+01   2.1074973138e+01    0.1836006    0.1436783  33.57 0.0007009379    1.060    0.056
       139  -8.3842    190.5403    224.5085   4.4935718029e+01   3.8559305520e+00    0.1169894   0.08792906  -1.02 9.368069e-05    1.012    0.011
       140  -8.1130    180.3923    224.2722   4.6795945786e+01   5.0233315792e+00    0.1249323   0.07351107  -0.86 0.0006989525    1.727    0.421
       141  -8.7633    120.0554    223.9432   5.9442165908e+01   1.2343265544e+01    0.1895602    0.1533952   7.27 0.0003564359    1.112    0.101
       142  -9.6857     99.1535    223.3320   6.4262603216e+01   1.5031769664e+01    0.3922902    0.1898774  24.27  0.001469736    1.782    0.439
       143  -9.8137     85.1653    223.3479   6.7642010375e+01   1.6714864481e+01    0.2208295     0.194464  11.16 0.0004289949    1.130    0.115
       144 -10.2095     87.4835    219.3172   6.6654945897e+01   1.7220349129e+01    0.3461089    0.2996508  32.09  0.001505818    1.066    0.062
       145  -9.3261     28.5998    222.8217   8.1596349507e+01   2.2876800653e+01     0.327301    0.2610945  10.95  0.001448247    1.356    0.262
       146  -8.3534    156.8128    223.1523   5.1315915150e+01   7.9550360161e+00    0.1664135    0.1177626  -2.36 0.0002484276    1.299    0.230
       147  -8.6325    136.9098    222.8145   5.5514416576e+01   1.0446173049e+01    0.1924562    0.1429583  -2.06 0.0007022134    1.282    0.220
       148  -8.4779    133.5360    220.9828   5.6015534840e+01   1.1177138151e+01    0.1688172    0.1452559  -0.53  0.000362565    1.104    0.094
       149  -9.0501    104.9975    222.6617   6.2795423397e+01   1.4439038180e+01    0.1920377    0.1631805  -6.59 0.0004704038    1.214    0.176
       150  -8.7047     79.0192    223.0143   6.9112908494e+01   1.7504045880e+01     0.190376    0.1588838  19.42 0.0003097982    1.098    0.089
       151  -8.4504     14.8833    222.7995   8.4947905178e+01   2.4094274132e+01    0.1624121    0.1496906  24.64 0.0004027114    1.221    0.181
       152  -8.0915    113.9511    222.7385   6.0702051703e+01   1.3315832822e+01     0.164065   0.09468205  25.12 0.0003391594    1.450    0.310
       153  -9.0375     73.3705    221.9799   7.0408087133e+01   1.8363902045e+01      0.22066    0.1581383   9.73 0.0002925154    1.433    0.302
       154  -9.2533     37.7006    221.3508   7.9258524859e+01   2.2314939133e+01    0.1941783    0.1832526  47.99 0.0007242085    1.160    0.138
       155  -7.7046    201.3479    221.2956   4.2518216472e+01   3.1192256190e+00    0.1197995   0.06968015  -4.19 0.0005327413    1.675    0.403
       156  -8.1377    185.4802    221.5188   4.5431337675e+01   4.8410477455e+00    0.1198017   0.08991443  -0.85 5.692397e-05    1.043    0.041
       157  -9.3977    148.4644    219.9066   5.2612488029e+01   9.4960456874e+00      0.56204    0.2470786  12.07  0.002174862    3.429    0.708
       158  -9.7712     91.9904    221.1829   6.5752573975e+01   1.6311922131e+01    0.1951373    0.1620568  23.21 0.0005635822    1.024    0.023
       159  -8.4941      2.1037    221.4545   8.7979138737e+01   2.5399192098e+01    0.1674879    0.1293803  38.11 0.0006074313    1.090    0.083
       160  -8.3357      1.2327    218.0398   8.8097340347e+01   2.6177811223e+01    0.1406097   0.09315968  88.01 0.0003541265    1.553    0.356
       161  -8.2711    238.3088    220.3097   3.6338938543e+01  -4.7205186502e-01    0.1092006   0.06028819  -8.28 0.0002650322    1.619    0.382
       162  -8.0203    179.5326    220.5501   4.6413651407e+01   5.6618218411e+00    0.1206257   0.09207782   0.76 6.464298e-05    1.030    0.029
       163  -8.6803    175.1796    220.5880   4.7259494639e+01   6.1628178429e+00    0.1636555   0.09445191  14.06 0.0004082325    1.594    0.373
       164  -8.8820    130.1093    219.3546   5.6565773608e+01   1.1889359604e+01    0.1958789    0.1559011 -10.46 0.0004242858    1.241    0.194
       165  -8.7190    123.9278    219.9099   5.8043027880e+01   1.2572030519e+01    0.1931827     0.146848  -0.54 0.0003319747    1.284    0.221
       166  -9.0936    116.1277    219.2816   5.9766183908e+01   1.3669368097e+01    0.3010734    0.2308259  65.26  0.001013971    1.853    0.460
       167  -8.4602     68.1980    219.8318   7.1499960498e+01   1.9387279489e+01    0.1664543    0.1376351   3.32 0.0002571528    1.295    0.228
       168  -8.7549      7.3603    219.9696   8.6671499585e+01   2.5299185086e+01    0.2594397    0.1121761  38.91  0.001338141    1.712    0.416
       169  -8.9242    140.9474    218.9170   5.4098637172e+01   1.0598616508e+01    0.1975526    0.1621772 -18.09 0.0004514926    1.215    0.177
       170  -8.3129    109.1940    218.8595   6.1346667815e+01   1.4620986275e+01    0.1693274    0.1348826  -3.17 0.0002842071    1.276    0.216
       171  -9.0829     81.9170    218.3732   6.7933562900e+01   1.8076779141e+01    0.1970329    0.1820755 -15.09 0.0003321029    1.216    0.178
       172  -9.8672     44.5863    218.9441   7.7375590469e+01   2.2127033600e+01    0.2324785    0.1632683  26.49 0.0004297929    1.237    0.191
       173  -8.7558     12.0935    219.2177   8.5492845529e+01   2.5073944094e+01    0.1647165    0.1482833  28.50 0.0003037171    1.193    0.161
       174  -8.4076    195.2641    218.0258   4.3109574674e+01   4.2343575346e+00     0.156001    0.1187561  -9.82 0.0003036111    1.075    0.069
       175  -9.2083    102.7367    214.2364   6.2336638365e+01   1.6313565962e+01    0.2370466    0.1929303  -6.75 0.0009676495    1.289    0.224
       176  -8.8408    104.5033    218.4680   6.2418959235e+01   1.5283399611e+01    0.1909393    0.1299285 -54.08 0.0002647766    1.725    0.420
       177  -8.5494    106.7708    215.3867   6.1500149836e+01   1.5580140694e+01    0.2303926    0.1151057  16.95 0.0005428074    2.113    0.527
       178  -8.9701     98.6972    218.1028   6.3777516506e+01   1.6078143423e+01    0.2072769    0.1502611  30.72 0.0004060285    1.160    0.138
       179  -8.2783     79.9733    214.4927   6.8019929947e+01   1.9089834449e+01    0.1924326    0.1136252  25.57 -1.492217e-05    1.452    0.311
       180  -9.2437     75.8517    217.8109   6.9391664933e+01   1.8909358610e+01     0.351983    0.1768559  16.57  0.001208427    2.078    0.519
       181  -8.7785     71.7608    216.2774   7.0273553662e+01   1.9699859244e+01    0.1911027     0.168145  -2.01 0.0005550924    1.239    0.193
       182  -8.1839    169.8360    217.1247   4.7799068690e+01   7.3207089487e+00    0.1669219    0.1169976  -5.21 0.0003965887    1.297    0.229
       183  -8.2614    157.4191    217.4510   5.0374549852e+01   8.7854949809e+00    0.1244725   0.09960125   4.37  8.11726e-05    1.021    0.020
       184  -8.8883     36.8668    216.9524   7.9197866804e+01   2.3318619941e+01    0.1774979    0.1596598   8.95 0.0003500324    1.243    0.196
       185  -8.5233    135.2113    216.2121   5.4993291931e+01   1.1788282920e+01    0.1885753    0.1467104   0.01 0.0004284529    1.194    0.163
       186  -8.4886    138.1398    213.1654   5.3912611777e+01   1.1942174818e+01    0.1801329    0.1424572  14.91 0.0003222812    1.059    0.055
       187  -8.5802    141.3848    210.8996   5.2866164466e+01   1.1915638680e+01    0.2064027    0.1513202  -3.00  0.000349702    1.335    0.251
       188  -8.7556    146.5518    207.5333   5.1231567917e+01   1.1823484233e+01    0.2005466    0.1662977   0.48 0.0006027799    1.059    0.056
       189 -10.1426    145.6172    212.5159   5.2170469168e+01   1.1089774223e+01    0.4756255    0.2727251 -10.31  0.002275499    2.314    0.568
       190  -8.8243    150.2917    210.3138   5.0834005081e+01   1.0860749137e+01    0.2287189     0.146353   0.73  0.000737745    1.673    0.402
       191  -8.6988    126.8643    215.9794   5.6851385155e+01   1.2898026965e+01     0.196758     0.148317   0.11 0.0005147528    1.294    0.227
       192  -8.8587     65.9820    215.6433   7.1681000051e+01   2.0496967913e+01    0.1860364     0.139334  29.29 0.0003677846    1.124    0.111
       193  -8.2645     48.2884    216.2939   7.6247863451e+01   2.2299888375e+01    0.1192162   0.09536321 -17.60 0.0002570886    1.547    0.354
       194  -8.6196      4.8420    215.7916   8.7154670642e+01   2.6377382411e+01    0.2489309   0.06998746 -75.28  0.001006483    3.644    0.726
       195  -8.4034    179.9383    215.3160   4.5551907527e+01   6.3872965246e+00     0.169353    0.1222744   9.65 0.0003825728    1.154    0.133
       196  -7.6894    161.3170    215.2986   4.9252622468e+01   8.6474057465e+00    0.1274767   0.08178592  -4.65  0.000350507    1.613    0.380
       197  -9.4882    120.2213    214.9319   5.8249240516e+01   1.3941458673e+01    0.2328668    0.1622982  17.06 0.0004008708    1.272    0.214
       198  -9.8782     43.0931    213.4547   7.7375638801e+01   2.3440680786e+01    0.4040854    0.2082587 -37.46  0.001795622    2.923    0.658
       199  -8.9566     47.0060    212.7447   7.6314479687e+01   2.3188131859e+01    0.1893964    0.1816333 -70.94 0.0003705003    1.229    0.186
       200  -8.9520     13.2444    215.1766   8.5055363976e+01   2.5835445552e+01      0.19396     0.150146  17.18 0.0005467636    1.334    0.250
       201  -8.7115    186.9688    213.7933   4.3987683201e+01   5.7853012051e+00    0.1849306     0.125797  -0.58  0.000586699    1.295    0.228
       202  -8.5755    131.0854    213.6381   5.5568175471e+01   1.2771523580e+01    0.1835336    0.1392346  16.92 0.0004624962    1.120    0.107
       203  -9.6347     84.8372    213.9906   6.6741585920e+01   1.8600335169e+01    0.2251852    0.1673807  18.92 0.0002959621    1.222    0.181
       204  -9.2993     61.4850    213.8888   7.2674194528e+01   2.1372156610e+01    0.2932926    0.1933765 -57.57  0.001622304    1.752    0.429
       205  -8.7294     64.7082    211.2850   7.1608514206e+01   2.1554099904e+01    0.3217959    0.1627047  49.29 0.0001757827    1.948    0.487
       206  -8.7775     29.0370    213.9198   8.1010616077e+01   2.4714665689e+01    0.1838144    0.1616174  34.00 0.0004336351    1.108    0.097
       207  -8.0050    200.7109    213.7062   4.1476219534e+01   4.2280331070e+00    0.1169187    0.0714577  -6.83 0.0002586173    1.548    0.354
       208  -9.5880    111.7603    212.6517   5.9956047831e+01   1.5458869869e+01    0.2369602    0.1985791   4.23 0.0002948923    1.135    0.119
       209  -9.3448    115.1813    208.8179   5.8631214046e+01   1.5740868739e+01    0.2448471    0.2054269 -12.50 0.0005499689    1.223    0.183
       210  -9.3178    114.8824    205.1622   5.8208274005e+01   1.6482989462e+01    0.2239583    0.1850705 -16.41 0.0004485666    1.263    0.208
       211  -9.7656     98.7380    211.3475   6.2968473364e+01   1.7387001653e+01    0.2500995    0.2252363 -30.04 0.0005976871    1.239    0.193
       212  -8.7756     89.3034    210.0348   6.5174447557e+01   1.8846121584e+01    0.2148367    0.1646102  17.06 0.0003875956    1.205    0.170
       213  -9.6601     93.0400    211.6554   6.4422726710e+01   1.8049185118e+01    0.2422029    0.1932446 -43.35 0.0006301654    1.427    0.299
       214  -8.5774     93.8068    207.6212   6.3752083017e+01   1.8764053297e+01    0.3022634    0.1803959  39.77 0.0008745963    1.513    0.339
       215  -8.8101     74.6768    212.9330   6.9205010135e+01   2.0043568377e+01    0.2165515    0.1586132  16.63 0.0004575305    1.298    0.230
       216  -9.1903    155.0202    211.9402   5.0067261420e+01   9.9828650265e+00    0.1922954    0.1529421   2.95 0.0004123138    1.063    0.060
       217  -8.8105     69.4268    212.2111   7.0478835355e+01   2.0812706895e+01    0.2102776    0.1579525  15.14 0.0006118797    1.297    0.229
       218  -8.2514     33.5060    212.0495   7.9755282692e+01   2.4694949122e+01    0.1630793    0.1240283 -81.97 0.0003597856    1.455    0.313
       219  -9.1116    124.9809    210.4692   5.6536249073e+01   1.4141105215e+01     0.214183    0.1636167 -18.67 0.0003611112    1.376    0.273
       220  -8.7687    119.8332    210.8166   5.7791718744e+01   1.4752423044e+01    0.1929996     0.155626   0.57 0.0003397265    1.196    0.164
       221  -8.3086    212.8206    209.8432   3.8789399937e+01   3.4224752272e+00     0.137168     0.115972  -9.66 0.0002614459    1.282    0.220
       222  -8.0607    185.2586    210.3525   4.3776941969e+01   6.4941476649e+00    0.1230021   0.07596339 -11.42 0.0003458513    1.609    0.378
       223  -8.4334    181.1417    210.6278   4.4602352807e+01   6.9464946553e+00      0.16255   0.09607805  15.60 0.0003995771    1.575    0.365
       224  -9.1017    170.9024    210.0500   4.6516553231e+01   8.2887562585e+00    0.1829015    0.1430372  -2.09  0.001192609    1.066    0.062
       225  -8.8082    135.0830    210.2088   5.4178332536e+01   1.2860987805e+01     0.197307    0.1493485   4.83  0.000485115    1.228    0.186
       226  -8.9351    106.0649    209.9296   6.0988114248e+01   1.6720599117e+01     0.199369    0.1681066  11.54 0.0003856939    1.090    0.083
       227  -8.2017     41.3260    210.2904   7.7611973120e+01   2.4303391019e+01    0.1235517   0.09636427 -18.40 0.0003031747    1.615    0.381
       228  -8.6808     36.8804    209.6304   7.8726687243e+01   2.4892269628e+01    0.1836501    0.1737675 -61.71 0.0004362683    1.257    0.204
       229  -9.1779      1.8986    209.5222   8.7696891860e+01   2.7949027581e+01    0.2202079    0.1539413 -83.25  0.001057536    1.520    0.342
       230  -8.7935      4.9783    206.4959   8.6825186570e+01   2.8379729219e+01    0.2140484    0.1489787  17.04 0.0007411555    1.465    0.317
       231  -7.6824    199.3063    209.3066   4.1039965427e+01   5.0039483119e+00    0.1206173   0.07334894  -6.80 0.0002271152    1.607    0.378
       232  -8.7672    194.2004    209.0831   4.1922861140e+01   5.6257134357e+00    0.1788171    0.1256726  -6.00 0.0003530915    1.211    0.174
       233  -8.0464    130.9980    209.0064   5.4938560896e+01   1.3615080548e+01    0.1870843    0.1374902  -3.56 0.0003275895    1.386    0.279
       234  -8.0147    133.4298    206.4803   5.4017313951e+01   1.3750519604e+01     0.188152    0.1128243  16.01 0.0003100155    1.637    0.389
       235  -9.4297     75.4255    205.4377   6.8235109326e+01   2.1524714325e+01    0.4039983    0.1909427 -39.41  0.001666871    2.925    0.658
       236  -9.0850     79.5732    205.2520   6.7131900894e+01   2.1053429978e+01    0.3111283    0.2158804  87.18   0.00145264    1.912    0.477
       237  -8.5619     28.0254    208.9952   8.0994699494e+01   2.5879232863e+01    0.1769739    0.1636997  17.93            0    1.198    0.166
       238  -9.2763     24.1493    208.8510   8.1993129351e+01   2.6265234951e+01    0.2237197    0.1859725   5.70 0.0008372509    1.362    0.266
       239  -8.2883     31.4323    208.4726   8.0076102849e+01   2.5674115803e+01    0.1982386    0.1801437  55.25 0.0002177847    1.103    0.093
       240  -9.1558     33.0183    205.4629   7.9471905002e+01   2.6188310849e+01    0.2683394    0.1911153  -1.35   0.00036609    1.705    0.414
       241  -9.2723    160.9118    208.0701   4.8247735738e+01   9.8674100816e+00    0.1857056    0.1525584   2.69 0.0002990892    1.012    0.012
       242  -8.2833    110.1968    208.1760   5.9752023183e+01   1.6520956054e+01     0.194442    0.1565991   3.11 0.0004362995    1.218    0.179
       243  -9.5589     77.9361    208.9518   6.7957461240e+01   2.0477555300e+01    0.2321991    0.1804413  26.35 0.0003196357    1.113    0.101
       244  -8.1954     68.2910    208.2948   7.0392513337e+01   2.1771828358e+01     0.126997   0.09832577 -14.95 0.0002247029    1.554    0.356
       245  -8.8948     16.5205    199.2207   8.3515873431e+01   2.9088099121e+01    0.3331899    0.1412997 -72.79  0.001525649    2.451    0.592
       246 -10.3698     11.9063    206.5841   8.5052991629e+01   2.7814680616e+01    0.4475252    0.3063595  19.05  0.002631122    1.443    0.307
       247  -9.9285      7.9786    201.6028   8.5877760697e+01   2.9239167397e+01    0.7400149    0.1528962  26.28  0.002732172    3.293    0.696
       248  -9.9335      5.7484    194.9853   8.6219998169e+01   3.0917170706e+01    0.4370124    0.3564109  72.85  0.001721496    1.153    0.133
       249  -9.3999      9.8027    190.6105   8.4942501983e+01   3.1625123133e+01    0.3026435    0.1845816 -66.69  0.001583597    1.775    0.437
       250  -9.7063     24.5002    194.4450   8.1091712159e+01   2.9493595542e+01    0.4500775    0.2124102   7.92  0.001387071    2.704    0.630
       251  -9.4339     20.9493    191.9782   8.1930079895e+01   3.0385035050e+01     0.322264    0.1728756 -56.51  0.001417119    2.122    0.529
       252  -9.1446     14.0589    188.3121   8.3654671909e+01   3.1829803887e+01    0.2742571     0.162439  29.55 0.0004351269    1.490    0.329
       253  -8.8932     17.5356    189.4764   8.2742855130e+01   3.1266970029e+01    0.2105135    0.1863878  83.80 7.709303e-05    1.159    0.137
       254  -8.7349     18.9257    185.7824   8.2146258212e+01   3.2029156192e+01    0.1833009    0.1722099 -32.25 0.0003104164    1.268    0.211
       255  -7.9101    176.8383    207.3499   4.4924278008e+01   7.9737188514e+00     0.163872   0.09751926  16.65 0.0003408435    1.573    0.364
       256  -8.7913    156.9725    207.0058   4.8909884891e+01   1.0551537639e+01    0.1531203    0.1268177   2.81 0.0003385872    1.016    0.016
       257 -10.1221    124.8670    206.1248   5.5955649883e+01   1.4961825545e+01    0.4540479    0.1826672  26.29 0.0008904473    2.302    0.566
       258  -8.4216     44.0578    206.7679   7.6639492032e+01   2.4793726536e+01    0.1789882     0.147297  31.57 0.0002334121    1.081    0.075
       259  -8.2831    241.7982    206.3909   3.3692814908e+01   8.7655063377e-01    0.1411215   0.08088797  10.65  0.000550892    1.694    0.410
       260  -8.1212     88.7382    196.2995   6.3665697701e+01   2.1788679949e+01    0.2261319    0.1579835   4.75 0.0001497753    1.612    0.380
       261  -9.1529     88.4874    199.5409   6.4135856957e+01   2.1129416441e+01    0.4065201    0.2292126  46.99  0.001922332    1.807    0.447
       262  -9.2818     84.6997    206.0392   6.5891651561e+01   2.0247335570e+01    0.2327416     0.175224  16.68  0.000383236    1.255    0.203
       263  -9.6815     88.5472    203.2274   6.4568418562e+01   2.0344957093e+01    0.2765545    0.1979713  15.05  0.000427222    1.360    0.265
       264  -8.7434     64.7570    206.0478   7.1101265975e+01   2.2667449806e+01    0.1893418    0.1673641  -2.59 0.0001986298    1.247    0.198
       265  -8.6588     59.6976    204.2913   7.2276473236e+01   2.3633179633e+01    0.2013668    0.1488351  26.11 0.0002421118    1.203    0.169
       266  -8.7726     62.5326    202.5377   7.1353485180e+01   2.3691466113e+01    0.2262219    0.1778043  17.22   0.00037227    1.240    0.193
       267  -8.0849    184.0056    205.2580   4.3212626707e+01   7.4116778072e+00    0.1450317   0.09142325  23.68 0.0003241313    1.449    0.310
       268  -7.9933    164.2880    205.7272   4.7187386528e+01   9.8173717005e+00    0.1090286   0.09504783  41.95 0.0001859996    1.509    0.337
       269  -9.2237    139.4270    204.6292   5.2380763881e+01   1.3281571996e+01    0.2343137    0.1826638   2.55 0.0006452149    1.187    0.158
       270  -8.5856    104.9729    205.0952   6.0634135172e+01   1.7816160667e+01    0.1987488    0.1679934  16.71 0.0003344724    1.054    0.051
       271  -8.9546     71.0167    204.2211   6.9266135679e+01   2.2320137834e+01    0.1951229    0.1920427  24.63 0.0004119125    1.138    0.122
       272  -9.9866     67.8505    200.5674   6.9730540850e+01   2.3496449160e+01     0.252686    0.2192757   8.65 0.0004905324    1.195    0.163
       273  -9.5926     37.3446    182.7863   7.6618617250e+01   3.1034529757e+01    0.4280621    0.1961645 -57.86  0.001077597    2.323    0.570
       274  -8.4207     49.5871    186.5317   7.3405353065e+01   2.8831145562e+01    0.2231431    0.1248638  25.86 7.073118e-05    1.624    0.384
       275  -9.2656     44.3906    185.6527   7.4819913225e+01   2.9608790961e+01    0.3644336    0.2343516  -5.91  0.001257165    2.077    0.518
       276  -9.9115     55.0702    193.8682   7.2555364877e+01   2.6500202287e+01    0.4735923    0.3299808 -55.71  0.002454379    1.607    0.378
       277  -8.2975     52.3138    189.2854   7.2890415353e+01   2.7876011182e+01    0.1929971    0.1395783  51.03 0.0002611424    1.294    0.227
       278  -9.2426     49.9118    192.6270   7.3878946936e+01   2.7365250053e+01    0.2216509    0.1932198 -62.62 0.0003834504    1.286    0.222
       279  -8.9892     46.6357    189.5339   7.4524109769e+01   2.8446368803e+01    0.4632144    0.2019949  12.91  0.001747909    2.891    0.654
       280  -9.9462     48.6662    203.9096   7.5189800854e+01   2.4939472391e+01    0.4179122    0.2324425 -86.88  0.001716896    2.169    0.539
       281  -8.6903     42.1331    189.6212   7.5809343470e+01   2.8906126873e+01    0.1910418    0.1566538  30.61  0.000224787    1.118    0.106
       282  -8.8400     38.9844    187.2961   7.6514773703e+01   2.9783839385e+01    0.1928469     0.175417  -3.24 0.0003588356    1.247    0.198
       283  -9.8083     51.9766    199.0033   7.3879018260e+01   2.5677737841e+01    0.2598416    0.2251479   9.97 0.0004586714    1.222    0.182
       284  -9.1522     48.0812    197.3480   7.4801708712e+01   2.6479376984e+01     0.224667    0.2138858 -29.26 0.0006360621    1.222    0.181
       285  -8.8687     39.1619    205.2365   7.7826588356e+01   2.5633215378e+01    0.1830602    0.1626173  11.71 0.0004405583    1.218    0.179
       286  -9.9270     24.1884    203.3785   8.1688180514e+01   2.7478283774e+01    0.2533921    0.2145974 -27.74 0.0004645044    1.474    0.321
       287  -8.0089    207.2637    204.3100   3.8856170142e+01   4.7990768824e+00    0.1164816   0.07150502 -10.10 0.0001726641    1.534    0.348
       288  -9.4138     55.7116    203.5363   7.3272122951e+01   2.4249807916e+01    0.2018202    0.2006028 -77.34 0.0004050917    1.167    0.143
       289  -8.7212     57.1037    199.4811   7.2526766581e+01   2.4995029794e+01    0.2168005    0.1689114  21.08 0.0006488012    1.218    0.179
       290  -9.6523     61.3667    196.9866   7.1123518287e+01   2.5062983790e+01    0.3571622    0.2695847 -80.83  0.001452958    1.506    0.336
       291  -8.7381     60.4416    180.7129   6.9658102474e+01   2.8953888042e+01     0.229862    0.1777817  18.21 0.0003282808    1.286    0.223
       292  -8.8397     67.7517    187.4345   6.8326904930e+01   2.6472037767e+01    0.2310393    0.1995775  -3.31  0.000344127    1.273    0.215
       293  -8.7893     61.9662    191.0234   7.0346302424e+01   2.6349857392e+01    0.2347159    0.1977128 -39.85 0.0003393418    1.363    0.266
       294  -8.4804     65.4557    178.5363   6.7939624120e+01   2.8853392456e+01    0.2126686    0.2014505  36.10 0.0001577681    1.047    0.045
       295  -9.5971     61.5037    174.9953   6.8680712296e+01   3.0202717296e+01    0.4586196    0.2643484 -77.47  0.002056132    2.022    0.505
       296 -10.0538     65.4222    172.4930   6.7202015238e+01   3.0316928650e+01    0.2794741    0.2317027  -2.10 0.0002414648    1.353    0.261
       297  -8.6977     64.2892    188.3366   6.9404447570e+01   2.6690027891e+01    0.2136425    0.1834447 -15.76 0.0006768863    1.333    0.250
       298  -9.0690     62.4622    184.9732   6.9551343117e+01   2.7697695710e+01     0.327673    0.2014091  60.46 0.0007916127    1.825    0.452
       299  -8.9661     64.3826    181.8586   6.8644955179e+01   2.8196729300e+01    0.2274726    0.1911844   2.47 0.0003766211    1.297    0.229
       300  -8.1370    189.6421    203.1633   4.1819152407e+01   7.0396673206e+00    0.1626843    0.0927078 -26.23 0.0003142473    1.650    0.394
       301  -7.8231    171.3244    203.2779   4.5372683128e+01   9.3106240219e+00    0.1275709   0.08280662  -3.33 0.0002379176    1.587    0.370
       302  -7.9825    156.5097    203.4765   4.8462559891e+01   1.1205792791e+01    0.1298026    0.1063508   3.31  4.15552e-06    1.028    0.027
       303  -9.0763    149.4184    202.5632   4.9848345371e+01   1.2306267881e+01    0.2142756    0.1755153   8.96 0.0003231563    1.035    0.034
       304  -9.1294    120.9573    202.6300   5.6388196486e+01   1.6151667361e+01    0.2030798    0.1677578  -4.48 0.0004316304    1.193    0.162
       305  -9.8696    109.9421    202.6773   5.9079110110e+01   1.7633433673e+01    0.2804851    0.2085574  32.04 0.0004146882    1.191    0.161
       306 -10.3661     97.5516    202.1436   6.2121198472e+01   1.9395401368e+01    0.2555477     0.194315  23.98 0.0003090008    1.152    0.132
       307 -10.1639    194.7836    199.5509   4.0289792213e+01   6.9535468331e+00    0.4217145    0.2744132  44.38  0.002443451    2.181    0.541
       308  -9.0256    191.5283    196.5259   4.0387841737e+01   7.8087972992e+00      0.23332    0.1599446 -10.65 0.0008376751    1.334    0.251
       309  -8.5063    175.9962    202.2973   4.4288288688e+01   8.8707923593e+00    0.1694779    0.1308824   8.10 0.0002630219    1.102    0.092
       310  -9.5582     29.1091    201.7102   8.0278783023e+01   2.7402270335e+01    0.3719223     0.182973 -68.12  0.001181741    2.183    0.542
       311  -9.6707     38.2644    199.4713   7.7654659413e+01   2.7020491000e+01    0.4059551    0.2055586 -39.74  0.001498506    2.817    0.645
       312  -9.4017     33.0715    198.7363   7.9016603520e+01   2.7701165808e+01     0.559216    0.1886699  53.71  0.002091461    3.067    0.674
       313  -8.7338     35.3300    195.2803   7.8155949315e+01   2.8275681722e+01    0.1984147    0.1253745  20.34 0.0003877183    1.527    0.345
       314  -9.6231     36.5898    191.9056   7.7555917242e+01   2.8936884875e+01    0.2494618    0.2214525 -19.14 0.0003623753    1.335    0.251
       315  -8.6853    161.0393    200.9891   4.7115724743e+01   1.1026568848e+01    0.1923187    0.1544523  -2.58 0.0003137595    1.083    0.076
       316  -8.3672    145.5085    200.9811   5.0464624415e+01   1.3112230540e+01    0.1727076    0.1238487 -39.21 0.0003625054    1.462    0.316
       317  -8.7268    129.2453    201.1424   5.4204418509e+01   1.5303047537e+01    0.1898983    0.1568617  -1.24 0.0003713505    1.147    0.128
       318  -8.4453    116.9174    201.2776   5.7172641565e+01   1.6963589389e+01    0.1938328    0.1489077  20.83 0.0004603145    1.142    0.124
       319  -9.0512     82.8817    201.0723   6.5790229570e+01   2.1525625180e+01     0.198746    0.1743248  18.84 0.0003894181    1.075    0.070
       320  -9.2248     42.9720    201.0367   7.6494540723e+01   2.6184083260e+01    0.1955821    0.1896155 -39.77  0.001268773    1.214    0.176
       321  -8.2778     43.7205    197.6423   7.6023589041e+01   2.6876797020e+01    0.2014473    0.1246367  24.04 0.0003838522    1.479    0.324
       322  -8.7092     44.9895    194.5105   7.5416514447e+01   2.7462621076e+01    0.2140763    0.1808647 -50.37 0.0005131928    1.368    0.269
       323  -8.9998    140.8586    199.9475   5.1347093185e+01   1.3931878500e+01    0.2635931    0.1687964  35.11  0.001417168    1.481    0.325
       324  -9.2310    139.4621    195.4607   5.0966102244e+01   1.4947791766e+01    0.2524414    0.1962772 -22.13 0.0002906206    1.291    0.226
       325  -9.5460    133.5338    199.5192   5.2960147809e+01   1.5017476500e+01    0.3205878      0.20361  46.95  0.001170186    1.865    0.464
       326  -8.5907    186.6307    198.6363   4.1647254700e+01   8.0987195620e+00    0.1806563    0.1162892  -8.65 0.0005032002    1.550    0.355
       327  -9.3330    170.9434    198.8096   4.4731372800e+01   1.0082920642e+01    0.3833676    0.1993591   2.55  0.001612991    3.030    0.670
       328  -8.7180    102.1427    196.6536   6.0221955945e+01   1.9913037929e+01    0.1923755    0.1529747  19.82 0.0004090607    1.136    0.119
       329  -8.9505    109.6680    195.6562   5.8170210678e+01   1.9083044352e+01    0.2429037    0.1872172  32.91 0.0001422949    1.173    0.148
       330  -8.1350     79.2875    199.2953   6.6534010306e+01   2.2364005216e+01    0.1873223    0.1694978 -35.07 0.0002508675    1.244    0.196
       331  -9.3630     80.4886    195.7931   6.5801673199e+01   2.2973909826e+01    0.2464636    0.1795225  20.05 0.0003440102    1.292    0.226
       332  -9.2654     73.9975    198.6222   6.7871349355e+01   2.3173553380e+01    0.2139427    0.1939876  69.69 0.0004052349    1.198    0.166
       333  -8.6450    210.5050    197.9977   3.7281966102e+01   5.3126089774e+00     0.165424    0.1264172   3.55 0.0001886633    1.125    0.111
       334  -7.9364    149.3272    198.2618   4.9195424399e+01   1.3074519115e+01    0.1320488   0.08986162  -1.58 0.0002429353    1.564    0.361
       335  -8.3891    119.8209    198.2363   5.6028715263e+01   1.7159465833e+01    0.1822247    0.1420158  -1.16 0.0004013522    1.306    0.234
       336  -9.0703    114.3238    197.4028   5.7257019850e+01   1.8085476244e+01    0.2641937    0.1887046  -9.55 0.0005747167    1.613    0.380
       337  -8.3856     97.9026    197.6724   6.1449397542e+01   2.0275367165e+01    0.1900465    0.1530371  27.84 0.0004175805    1.085    0.078
       338  -7.9891     98.4776    194.4115   6.0863344785e+01   2.0882575620e+01    0.1945786    0.1257906 -43.88 0.0001822944    1.713    0.416
       339  -8.6353     93.1493    198.0793   6.2734948009e+01   2.0825435813e+01    0.1936157    0.1689214  -0.04 0.0003063108    1.175    0.149
       340  -9.3749    232.0390    196.6160   3.3600138816e+01   3.1080299359e+00    0.2852351    0.1507884  -2.43  0.001584413    2.287    0.563
       341  -8.5427    181.0087    197.2717   4.2494895559e+01   9.0245000819e+00     0.169588    0.1346029   7.02 0.0003180841    1.085    0.078
       342  -8.5844    162.6663    197.0977   4.6150511614e+01   1.1465692052e+01    0.1750866    0.1434319 -13.49 0.0003546965    1.108    0.098
       343  -9.3999    124.1129    196.9767   5.4804319817e+01   1.6808347495e+01    0.2180917    0.1706603  24.60  0.000336258    1.127    0.112
       344  -8.6115    167.8736    195.6139   4.4832230722e+01   1.1016255398e+01    0.1898543    0.1308977   9.42 0.0004047086    1.381    0.276
       345  -8.5946     12.6463    195.8526   8.4399994731e+01   3.0180041985e+01    0.1712141     0.142029  65.56 0.0005029093    1.108    0.097
       346  -8.7183    224.8818    195.2710   3.4489835476e+01   4.0620669816e+00    0.1543906    0.1129631  -6.09 0.0003609021    1.097    0.089
       347  -8.3501    201.6925    194.9839   3.8303013405e+01   6.7891743805e+00    0.1613993    0.1263508 -14.23 0.0008161379    1.060    0.056
       348  -9.4691    156.8283    195.3654   4.7103171218e+01   1.2555511258e+01    0.2431171    0.1571511   8.30 0.0002672856    1.614    0.381
       349  -8.8222    162.2513    192.5577   4.5492053781e+01   1.2296496635e+01    0.2413404    0.1714688  -4.11 0.0006813742    1.410    0.291
       350  -8.7680    158.4946    191.9955   4.6193706374e+01   1.2913006533e+01     0.241314    0.2228369   8.29 0.0006776087    1.187    0.157
       351  -7.7836    150.2540    195.2952   4.8518146219e+01   1.3473977797e+01    0.1282362   0.09013753  -9.92 0.0001516641    1.492    0.330
       352  -9.3148    145.2087    194.3895   4.9493147937e+01   1.4339832743e+01    0.2283235    0.1707256 -10.00 0.0003924549    1.349    0.259
       353  -9.1657    138.6326    189.1312   5.0143243492e+01   1.6251935505e+01    0.2492711    0.1988051  -7.93  0.000491923    1.236    0.191
       354  -8.4209    134.2675    195.0381   5.2100762067e+01   1.5756011501e+01    0.1783879    0.1576973 -11.72 0.0003695468    1.108    0.098
       355  -8.2541    134.5859    191.5214   5.1472252374e+01   1.6378537060e+01    0.2017075    0.1617246  28.84 0.0001400803    1.166    0.142
       356  -9.1163    138.5695    185.2258   4.9514324192e+01   1.7006202187e+01    0.3658588    0.1156882 -45.16  0.001334999    3.218    0.689
       357 -10.0195    142.7206    183.0015   4.8177978359e+01   1.6818857148e+01    0.2676533     0.211002  24.10  0.000223702    1.166    0.143
       358  -7.9620    215.5394    194.4669   3.5861695828e+01   5.2260461103e+00    0.1176985   0.08797046 -10.22  7.19917e-05    1.046    0.044
       359  -8.4872    195.5686    193.9548   3.9223167327e+01   7.6943938889e+00    0.1724492    0.1024361 -33.18 0.0004917201    1.528    0.346
       360  -9.6156    105.9452    198.1983   5.9465625210e+01   1.9076512905e+01    0.2319376    0.2070782 -28.21 0.0002921938    1.207    0.171
       361  -8.7579    175.6817    191.3338   4.2547767956e+01   1.0677926497e+01    0.1347248    0.1082611  -3.87 0.0008448921    1.061    0.057
       362  -8.9151    129.7815    193.9621   5.2989971327e+01   1.6594275632e+01    0.1990831    0.1600454  -7.97 0.0003806484    1.243    0.195
       363  -8.7199    119.7824    193.9682   5.5406564737e+01   1.8007168236e+01    0.1995863    0.1641097  -4.86 0.0004021197    1.221    0.181
       364  -9.1704     94.7800    193.4375   6.1699718346e+01   2.1593236016e+01    0.2072585    0.1880457 -47.00 0.0002916398    1.229    0.187
       365  -8.8494     74.1534    193.6550   6.7266579463e+01   2.4254220548e+01    0.1927022    0.1555891  24.43 0.0004125415    1.131    0.115
       366  -8.3976     26.9541    198.7906   8.0682051027e+01   2.8266954917e+01    0.1880452    0.1520217 -25.51 0.0004051599    1.550    0.355
       367  -8.5409     86.8918    192.6812   6.3697146229e+01   2.2817618968e+01    0.1927451    0.1561695  30.38 0.0003031483    1.087    0.080
       368  -8.8280     90.6647    191.0171   6.2469073273e+01   2.2674496835e+01    0.2175634    0.1738876  15.24 0.0004463013    1.208    0.172
       369 -10.0535     66.3332    192.7746   6.9318468776e+01   2.5422451010e+01    0.2346287    0.2036571  18.59 0.0003233267    1.129    0.114
       370  -8.3138    210.4691    191.9902   3.6293821369e+01   6.1692193324e+00    0.1654658   0.09672748 -31.59 0.0003541305    1.483    0.325
       371  -8.1224    152.9505    192.7463   4.7513501298e+01   1.3552803249e+01    0.1589881    0.1017395  25.75 0.0003439811    1.431    0.301
       372  -9.3434    125.0584    191.9484   5.3811666818e+01   1.7657809863e+01    0.2177928    0.1802018 -12.35 0.0003243508    1.219    0.179
       373  -8.9963    131.0406    188.6665   5.1854984917e+01   1.7439951010e+01    0.2081913    0.1734339 -15.76 0.0003863912    1.196    0.164
       374  -8.5967    126.4083    187.7079   5.2818189701e+01   1.8301977095e+01    0.1904978    0.1364515 -48.41 0.0005925805    1.520    0.342
       375  -9.4590    129.5546    184.2890   5.1501760563e+01   1.8519482793e+01    0.3841147    0.2185072 -38.77  0.001819124    1.874    0.466
       376  -9.1784    115.5549    191.4216   5.6072441210e+01   1.9118374386e+01    0.2381096    0.1964466   1.96 0.0004197713    1.198    0.165
       377  -9.8290     81.1948    191.0148   6.5027464174e+01   2.3937880232e+01    0.2743229    0.2069581   7.32  0.000499506    1.418    0.295
       378  -8.6663     77.8832    188.2168   6.5589343736e+01   2.4999593695e+01    0.1966695    0.1630598  27.68 0.0003445596    1.087    0.080
       379  -8.6362     33.6586    179.9144   7.7467820489e+01   3.2102422956e+01    0.2244277    0.1662262 -68.48 0.0003484208    1.434    0.303
       380  -9.6787     27.9597    186.4962   7.9612407468e+01   3.1053579414e+01    0.2518773    0.2270227  21.53 0.0009007141    1.162    0.139
       381  -9.0642     31.3744    183.1476   7.8387701528e+01   3.1537231123e+01    0.2967038    0.1719834  33.70    0.0014699    1.493    0.330
       382  -9.3995     30.5045    192.1512   7.9278510933e+01   2.9473330184e+01    0.2399686    0.1762091  28.61 0.0003411587    1.239    0.193
       383  -9.3406     27.3041    190.2939   8.0051948790e+01   3.0210908788e+01    0.2238032    0.1520498  22.59 0.0004138887    1.404    0.288
       384  -8.6112    199.5153    190.9711   3.8015363343e+01   7.6511011894e+00    0.1699457    0.1033475 -34.43 0.0004140744    1.498    0.333
       385  -9.0249    185.9460    190.9840   4.0502408839e+01   9.3777869622e+00    0.1845965    0.1488489  -6.29  0.001208876    1.020    0.019
       386  -7.7404    168.2782    191.2757   4.4028719859e+01   1.1689002602e+01    0.1265543   0.08681405  -6.18 0.0001965902    1.497    0.332
       387  -9.0254    143.8514    190.0715   4.9099590027e+01   1.5325607167e+01    0.3915724    0.2252473 -11.87  0.001186758    2.562    0.610
       388  -8.3149    113.9727    186.9529   5.5793114252e+01   2.0263190948e+01    0.1882626    0.1506264  -0.29 0.0003578121    1.292    0.226
       389  -8.7500    110.7798    190.7284   5.7173790015e+01   1.9938948428e+01    0.2192823    0.1905589 -41.15 0.0005523836    1.252    0.201
       390  -9.0560    108.5517    186.1715   5.7064704396e+01   2.1210423026e+01    0.6573887    0.2201714  45.53  0.002106441    3.768    0.735
       391  -8.0366    246.4801    190.4564   3.0483316447e+01   2.3883871194e+00    0.1100164   0.07730076 -14.39 9.324113e-05    1.054    0.051
       392  -8.8424    215.7989    189.9725   3.5070477450e+01   5.8259219724e+00    0.1753085    0.1218375 -11.17 0.0004261183    1.218    0.179
       393  -8.5928    148.8423    190.1953   4.7998599908e+01   1.4590951114e+01    0.1822613    0.1367023   1.81 0.0004076782    1.306    0.234
       394  -9.6980    103.4129    188.5715   5.8756452671e+01   2.1435235646e+01     0.291164    0.2289728 -16.20 0.0009839573    1.417    0.294
       395  -8.4167    226.3044    187.3291   3.2951576043e+01   4.9778747732e+00    0.1597155   0.08471254   6.54  0.000433324    2.458    0.593
       396 -10.3085    222.5144    187.4622   3.3567562746e+01   5.3940451086e+00    0.3453254    0.2142358 -38.81  0.001119335    1.595    0.373
       397 -10.0735    218.0510    184.1403   3.3716960970e+01   6.3835179186e+00    0.3992967    0.2493546 -11.49  0.001517694    1.539    0.350
       398  -9.4846    189.4331    188.5018   3.9426563110e+01   9.3134935777e+00     0.347789    0.2227978  52.42  0.001780641    2.739    0.635
       399  -8.7814    181.0978    188.2086   4.0956882366e+01   1.0461525339e+01     0.323256     0.202219 -59.10  0.001570257    2.815    0.645
       400  -8.3512    205.7385    188.6445   3.6534727367e+01   7.2262457411e+00    0.1826011    0.1333341  -7.14  0.000331994    1.175    0.149
       401  -8.9740    202.5271    187.4443   3.6886514304e+01   7.8022640439e+00    0.1813048    0.1085657  30.67  0.000882551    1.703    0.413
       402  -8.0543    161.6967    188.6923   4.4961142695e+01   1.3042594943e+01     0.133942   0.09038903  -7.14 0.0004631597    1.603    0.376
       403  -8.5167    155.5165    188.0107   4.6168034403e+01   1.4035823301e+01    0.1788942     0.122703 -37.54 0.0003670169    1.459    0.315
       404  -9.7126     32.6665    187.1770   7.8314258191e+01   3.0443092881e+01    0.3538771    0.2553266 -39.63  0.001066464    1.696    0.410
       405  -8.2780    237.6407    187.1025   3.1204032921e+01   3.7497955494e+00    0.1545074   0.07810444 -25.34 0.0005240558    1.660    0.398
       406  -8.2886    210.8152    187.0992   3.5410490432e+01   6.8313493566e+00    0.1598657    0.1102276  -8.44 0.0002890415    1.298    0.229
       407  -8.2389    174.5220    187.0400   4.2047573655e+01   1.1544700624e+01    0.1749218    0.1151333 -35.75 0.0003198667    1.458    0.314
       408  -8.6493     91.1558    187.1314   6.1812474848e+01   2.3460164144e+01     0.208467    0.1749781   0.14 0.0005213065    1.254    0.203
       409  -9.6865     72.8167    186.6757   6.6813081249e+01   2.6006819558e+01    0.2475442    0.2307431 -68.70 0.0002457791    1.190    0.160
       410  -8.6449     72.7825    174.3761   6.5264971710e+01   2.8898197202e+01    0.2353373    0.1904281  54.41 0.0002524591    1.242    0.195
       411  -8.6067     75.0186    177.0002   6.4961687191e+01   2.7975255904e+01    0.2085491    0.1844222  -3.79 0.0003356336    1.222    0.182
       412  -8.8197     78.9814    179.9539   6.4217669587e+01   2.6750156581e+01    0.2115222    0.1953193  19.40 0.0003306893    1.062    0.059
       413  -9.6393     74.8503    181.6436   6.5613875506e+01   2.6907576992e+01    0.4052168    0.2411679  51.29  0.001117742    1.765    0.433
       414  -8.8162     70.5142    177.4518   6.6328618371e+01   2.8463123802e+01    0.2909951    0.2036668  56.34 0.0008534879    1.506    0.336
       415 -10.2646     56.7061    186.3710   7.1348769459e+01   2.8055880266e+01    0.3339882    0.2094127  31.04 0.0003587841    1.402    0.287
       416  -8.4147     52.2580    182.7011   7.2257028964e+01   2.9443361685e+01    0.2585236    0.1791352 -84.12 0.0001734595    1.602    0.376
       417  -9.6516    120.4632    185.8495   5.3987110328e+01   1.9544544458e+01    0.3204737    0.1729259  32.53 0.0003515069    1.671    0.401
       418  -8.6127    166.9749    185.0337   4.3233443461e+01   1.2934784968e+01    0.1939355    0.1343952  -8.24  0.001065294    1.504    0.335
       419  -9.0292    151.3973    185.0853   4.6574597727e+01   1.5157157609e+01    0.2091289     0.161891   9.78 0.0003457894    1.206    0.171
       420  -9.4264     86.0236    184.9981   6.2923508993e+01   2.4639675805e+01    0.2059391     0.186293  21.37            0    1.044    0.042
       421  -9.1730     81.5411    175.9440   6.2938203578e+01   2.7335504083e+01    0.2916242    0.1936655  27.14  0.000395353    1.395    0.283
       422  -9.3984     91.0022    172.0595   5.9669783981e+01   2.6893051223e+01     0.236889    0.2031705 -40.16  0.001290775    1.253    0.202
       423  -8.8421     80.8079    184.2781   6.4274353717e+01   2.5508404761e+01    0.2092078    0.2036549 -54.55 0.0003984569    1.138    0.121
       424  -8.6384     82.9845    181.0502   6.3234105584e+01   2.5952771403e+01    0.1934177    0.1743054  18.00 0.0003441792    1.074    0.069
       425  -8.7229     85.2802    178.3440   6.2212786785e+01   2.6258161869e+01    0.2612701    0.1997621 -26.22  0.000461686    1.526    0.345
       426  -8.7877     88.0829    175.6452   6.1033426538e+01   2.6485403784e+01    0.2264615    0.1857324  -7.05 0.0003780267    1.360    0.264
       427  -8.0700    183.5081    184.4392   3.9843024294e+01   1.0747499253e+01    0.1272623    0.1040013  -5.52 0.0001006968    1.028    0.027
       428  -8.9501    157.6986    184.2240   4.5050899432e+01   1.4401063299e+01    0.2102417    0.1638101  31.30 0.0004665495    1.280    0.219
       429  -9.3167    163.7148    176.0009   4.2319434141e+01   1.4993419612e+01    0.3763646     0.206243 -20.01  0.001645084    2.446    0.591
       430  -8.1677    158.9343    180.7470   4.4180384353e+01   1.4846123151e+01     0.182346    0.1502916  12.50 0.0003427349    1.100    0.091
       431  -8.9945    155.6374    179.0613   4.4597515220e+01   1.5638204949e+01    0.3733921    0.2246678 -15.48  0.001733384    2.142    0.533
       432  -8.5318    152.6549    177.0672   4.4900131183e+01   1.6452272153e+01    0.1903595    0.1765765  27.48 0.0004293251    1.203    0.169
       433 -13.4726     17.3749    107.5688   7.6040850976e+01   5.2761443199e+01     2.890454     2.309994 -26.95    0.0153151    1.355    0.262
       434  -9.0986    124.9172    248.8383   6.1280585226e+01   7.6534098017e+00    0.1947132    0.1104621   3.75 0.0006938399    1.962    0.490
       435 -12.7266     87.7836    104.8276   4.7199909043e+01   4.3792391492e+01     2.221694    0.6927484  39.61  0.006775824    3.075    0.675
       436 -14.1830     95.4549     93.6901   4.1597971857e+01   4.4889936434e+01     6.023473     2.789134  24.23   0.01513273    5.447    0.816
       437 -13.4068    107.4303    153.3816   5.1826368249e+01   2.8649046063e+01      2.84893     1.482909  24.09   0.01119565    2.182    0.542
       438  -8.1356     68.2931    249.3322   7.3875143801e+01   1.3805135202e+01    0.1267688   0.09557688  33.96 0.0002028214    1.050    0.048
       439 -13.1425    133.6174    146.9713   4.3608158233e+01   2.5558192276e+01     1.938219     1.273037 -67.32  0.008488891    2.186    0.543
       440  -8.4044     71.3033    248.2983   7.3114969631e+01   1.3668545576e+01    0.1924342    0.1008846  22.17 0.0002659477    1.596    0.373
       441  -8.9310    147.7847    173.5442   4.5362158505e+01   1.7859119252e+01    0.3448582    0.2556229 -30.04  0.001888011    1.340    0.254
       442  -7.8382    231.4772    177.4763   3.0492647333e+01   5.7288491611e+00    0.1148959   0.08676582 -16.31   0.00013172    1.006    0.006
       443  -8.6507    226.6090    177.2384   3.1186739593e+01   6.3335713373e+00    0.1650428   0.08626349 -26.77 0.0005930943    1.646    0.393
       444 -12.8167    109.0255    114.5885   4.2941234357e+01   3.7351942628e+01     2.358105    0.6116338  39.97  0.006566431    3.837    0.739
       445  -8.0143    195.2659    177.3274   3.6407632016e+01   1.0295320779e+01    0.1260437   0.08218504 -11.56 0.0002894723    1.571    0.364
       446  -8.5234    138.9836    176.9675   4.8007527282e+01   1.8546795592e+01    0.2355591    0.1432734 -46.14 0.0003334874    1.710    0.415
       447  -8.5193    138.9875    173.7516   4.7439186369e+01   1.9179420309e+01    0.1773293    0.1111322  30.88 0.0003878023    1.507    0.336
       448  -8.5170    130.0060    177.2827   5.0216642070e+01   1.9856941834e+01    0.1913759    0.1600679  16.31 0.0002373141    1.102    0.092
       449  -8.0991    110.0252    177.0184   5.5249525901e+01   2.2951723183e+01    0.1700447     0.147695  23.57            0    1.050    0.048
       450  -9.9791    100.5371    175.6781   5.7579936798e+01   2.4664955414e+01    0.5641229    0.1982617  41.49  0.001080729    2.756    0.637
       451  -8.1146     94.5760    176.4955   5.9343973786e+01   2.5356283619e+01    0.2059656    0.1334509  16.37 0.0001733929    1.644    0.392
       452 -10.1867    189.7299    175.2024   3.7036150567e+01   1.1390008371e+01     0.362251    0.2074463 -51.74  0.001053569    2.329    0.571
       453  -8.3950    134.9548    176.0534   4.8805551500e+01   1.9345082929e+01     0.205192    0.1518926  -7.19  0.001061618    1.495    0.331
       454  -8.1701    205.7012    175.6956   3.4290513010e+01   9.1638896663e+00    0.1235203    0.1036587 -15.92 0.0002680136    1.097    0.089
       455  -9.2938    202.8165    173.0451   3.4310463149e+01   9.9494630576e+00    0.2603854     0.187959  10.69  0.001629273    1.368    0.269
       456  -8.9010    117.9174    175.0271   5.2865394778e+01   2.2178563572e+01    0.2073164    0.1844192   6.80 0.0002754114    1.068    0.064
       457  -8.7210    224.7300    172.8410   3.0708594561e+01   7.1772466319e+00    0.2877635    0.1105012 -26.13  0.001237309    3.031    0.670
       458  -8.5697    196.0665    173.6485   3.5603979378e+01   1.0766747336e+01    0.1681512    0.1379293   4.35 0.0004017299    1.120    0.107
       459  -8.9820    159.1882    173.9287   4.2908299155e+01   1.6045870268e+01    0.2011713    0.1700999 -10.06 0.0005023247    1.080    0.074
       460  -8.9006    113.2239    174.1710   5.3941153066e+01   2.3081657133e+01    0.2060777    0.1788229  -5.92 0.0004010689    1.174    0.148
       461  -8.8374     56.8519    173.8249   6.9936594207e+01   3.1058650459e+01    0.1983396    0.1857638  -4.96 0.0003175926    1.168    0.144
       462  -9.1646    124.4510    174.3983   5.1097351772e+01   2.1303430120e+01    0.2473018    0.1940819  20.28  0.000611339    1.201    0.167
       463  -9.1188    152.9966    172.9118   4.4077021137e+01   1.7177442796e+01    0.2013397    0.1734799  -2.84 0.0002867942    1.059    0.055
       464  -8.6032    135.0585    166.4725   4.7061012244e+01   2.1261890448e+01    0.2006012    0.1322868  30.73 0.0003923744    1.448    0.309
       465  -9.4180    129.7930    172.6466   4.9463126564e+01   2.0834223340e+01    0.2559043    0.2076034   0.06 0.0003454798    1.257    0.204
       466  -8.6972    133.8991    170.3969   4.8057870231e+01   2.0648112718e+01    0.2675423    0.1772501 -27.72 0.0001189014    1.681    0.405
       467  -9.6885     29.7250    166.0351   7.7523683470e+01   3.5956097276e+01    0.4078661    0.2091213  16.98  0.001234552    2.036    0.509
       468 -10.6071     23.0592    170.5616   7.9948823969e+01   3.5416202207e+01     0.519124    0.3518445  68.05  0.001599552    1.436    0.304
       469  -9.0125     27.9678    171.0828   7.8481787664e+01   3.4840948989e+01    0.2054451    0.1843675  53.92 0.0003850986    1.004    0.004
       470  -8.6432      2.2165    172.8697   8.6354976335e+01   3.6452541188e+01    0.1878623      0.17768  56.44 0.0005747322    1.109    0.099
       471  -8.4477      1.2947    169.7273   8.6501783082e+01   3.7292687747e+01    0.1946298    0.1223555  89.36 0.0001869573    1.521    0.343
       472  -8.9562    233.6683    171.9385   2.9213089643e+01   6.2304102272e+00    0.1584529     0.112158 -23.61 0.0003645161    1.098    0.089
       473  -9.7332    107.1858    171.5305   5.5107322103e+01   2.4585064165e+01    0.2529498     0.228864 -13.66 0.0004156732    1.134    0.118
       474  -9.0465    193.0129    170.4275   3.5567286197e+01   1.1702637094e+01    0.1838071    0.1444669 -24.44 0.0001779663    1.113    0.101
       475  -9.6459    164.7275    171.0604   4.1205816108e+01   1.5728174013e+01    0.2235861    0.1757873  15.94 0.0003190837    1.211    0.174
       476 -10.1306    118.9542    168.7448   5.1516495681e+01   2.3358627218e+01    0.3096324    0.2521317 -64.73  0.001069323    1.457    0.314
       477  -9.4978    112.4982    169.1059   5.3274942535e+01   2.4296328170e+01    0.4134659    0.2475754 -56.44  0.001892517    1.848    0.459
       478  -8.7695    115.4941    165.5268   5.1853942515e+01   2.4606669100e+01    0.2473643    0.1886776 -21.32 0.0005090603    1.473    0.321
       479  -9.5022     95.8238    170.2975   5.8034038432e+01   2.6586330568e+01    0.2420153    0.2118274 -26.21 0.0003222809    1.224    0.183
       480  -9.3950    142.9008    169.4197   4.5736742340e+01   1.9421341410e+01    0.2342862    0.2047788 -11.91 0.0003875097    1.088    0.081
       481  -8.3771    138.0125    169.7001   4.6941550060e+01   2.0138401364e+01     0.195214    0.1641117  13.57 0.0003197328    1.119    0.106
       482  -8.8098    124.9685    169.9780   5.0194951644e+01   2.2145871650e+01     0.211529    0.1905354  -2.13 0.0003148545    1.069    0.064
       483  -8.7314     61.3467    169.9767   6.8115099839e+01   3.1452520761e+01     0.188835    0.1780949 -87.03 0.0004379772    1.119    0.106
       484  -9.8589    101.5423    169.0286   5.6234168653e+01   2.6010552543e+01    0.2552847    0.1987034  22.45 0.0003921578    1.231    0.188
       485  -8.7474      4.8697    168.8343   8.5390163034e+01   3.7275670159e+01    0.1769018    0.1765405 -77.84 0.0002948431    1.167    0.143
       486  -9.5166    229.2215    165.6703   2.8764360557e+01   7.6377009739e+00     0.356954    0.1522453 -26.18  0.001265678    2.391    0.582
       487  -9.2427    158.9962    168.0729   4.1870770779e+01   1.7153523660e+01    0.2009276    0.1742141  -4.72 0.0003108473    1.045    0.043
       488  -9.1672    152.0362    167.9911   4.3385134687e+01   1.8257520692e+01    0.2018139    0.1816021  -2.67  0.000306023    1.011    0.011
       489  -9.3882    152.4831    164.5617   4.2640340678e+01   1.8841616372e+01    0.4924387    0.2040996  39.21  0.002003409    2.402    0.584
       490  -8.4356    244.5273    166.9925   2.6822862043e+01   5.6361176026e+00    0.1558441   0.07532325 -18.70 0.0003837391    2.330    0.571
       491  -8.2758     49.4616    249.4470   7.8149937222e+01   1.5709510347e+01    0.1200502   0.09245163  33.33 0.0008069277    1.021    0.020
       492  -8.8638    148.0605    166.6548   4.4033573613e+01   1.9143525749e+01    0.1913327     0.160593  15.55 0.0004088697    1.123    0.109
       493  -9.3884    200.0936    164.6603   3.3247432025e+01   1.1630426937e+01      0.35196    0.2007651  -3.69  0.001511803    2.628    0.619
       494 -10.3934    191.8669    164.9341   3.4757290685e+01   1.2756107009e+01    0.3632512    0.2580244  -4.71  0.001594098    1.461    0.316
       495  -9.1836    165.1534    165.9502   4.0162253256e+01   1.6586927710e+01    0.2147721    0.1806043  18.14 0.0004054951    1.141    0.123
       496  -9.6871    129.1053    165.5295   4.8353121173e+01   2.2416221717e+01    0.2428191    0.2126388 -23.42 0.0003104882    1.141    0.123
       497  -8.2298    129.4161    161.5333   4.7531997484e+01   2.3202823351e+01     0.197608    0.1290949 -37.86 3.172013e-05    1.590    0.371
       498  -8.6796    124.1611    166.1448   4.9712995670e+01   2.3083548652e+01    0.2069103    0.1788962  -5.08 0.0002837591    1.163    0.140
       499  -9.3254    106.9631    165.9645   5.4226002590e+01   2.5861971186e+01    0.2161735    0.1988063   8.91 0.0003431333    1.054    0.051
       500  -8.6972     49.8491    165.9171   7.1180535366e+01   3.3860928382e+01    0.1977253    0.1888229 -19.86 0.0002872242    1.159    0.138
       501  -7.8077    192.6573    183.6872   3.8001362405e+01   9.6447554962e+00    0.1303799   0.08275396  -5.82 0.0007046737    1.704    0.413
       502  -9.5791    119.9515    162.5510   5.0143975610e+01   2.4536071139e+01    0.2483137     0.209521 -37.82 0.0004189189    1.218    0.179
       503  -8.6820    188.0024    161.8466   3.4882061308e+01   1.3830337737e+01     0.192738    0.1485539  -7.43 0.0003828466    1.246    0.198
       504  -9.6520    111.4708    162.0099   5.2302115165e+01   2.6030696632e+01    0.2704711    0.2025763  25.42 0.0004749338    1.286    0.222
       505  -8.6950    234.2755    161.5569   2.7297586069e+01   7.5903773228e+00    0.1360021   0.09840104  10.63 0.0004765496    1.448    0.309
       506  -9.1631    145.8387    178.0078   4.6599989915e+01   1.7303533162e+01    0.2018248     0.176093  -1.68 0.0003871927    1.042    0.040
       507  -9.2748    133.1539    161.1022   4.6521427338e+01   2.2676890793e+01    0.2325192    0.1934755  23.71 0.0004730949    1.144    0.126
       508  -8.7741    107.1082    161.1570   5.3342797518e+01   2.6924937287e+01    0.2177997    0.1867557   1.87 0.0004010301    1.215    0.177
       509  -9.5274    124.9679    159.9297   4.8357538558e+01   2.4277455821e+01     0.294758    0.1970251  23.31 0.0005809274    1.534    0.348
       510  -7.6582    207.6655    158.2886   3.0776268209e+01   1.1566362664e+01     0.108525   0.09699313 -64.55 0.0003846831    1.630    0.386
       511  -9.1369      1.9331    157.2376   8.5765223619e+01   4.0413052608e+01    0.2074669    0.1773439  81.92 0.0003971602    1.092    0.084
       512  -8.5002    227.7475    155.0421   2.7059635295e+01   9.3367631804e+00    0.1635036     0.121192 -23.21 0.0002602436    1.077    0.071
       513  -9.0628    205.3085    153.1749   3.0194086289e+01   1.2699146681e+01    0.1925557    0.1511757   7.46 0.0004797836    1.295    0.228
       514  -9.3509     38.1753    151.3842   7.3331698736e+01   3.8920881261e+01    0.2456439    0.2036273 -41.16 0.0004938276    1.339    0.253
       515 -11.7384    231.9807    148.3049   2.5212965471e+01   9.7465849030e+00    0.4656606    0.3306958  11.44  0.003060392    1.593    0.372
       516 -10.5924    227.2148    144.9281   2.5254820964e+01   1.0869132033e+01    0.3610456    0.1575923 -29.95  0.001500248    2.090    0.521
       517  -8.4726    206.4907    145.0492   2.8424240625e+01   1.3804408930e+01    0.1849274    0.1066876 -36.14 0.0004399457    1.492    0.330
       518 -10.1692    212.9783    145.0010   2.7387146116e+01   1.2858753633e+01    0.6806102    0.1404117 -40.21  0.002288578    4.152    0.759
       519  -8.1290      1.7691    150.3698   8.5488956826e+01   4.2202525461e+01    0.1649121    0.1278912   0.07 0.0002163457    1.476    0.322
       520 -10.0816    248.0454    142.6850   2.2057993971e+01   8.4709495003e+00    0.1676984    0.1508222   5.88 0.0006451213    1.304    0.233
       521  -9.7921    218.8181    142.0986   2.5937521149e+01   1.2458773781e+01    0.1777783    0.1462913 -36.42 0.0005387355    1.183    0.154
       522  -9.0888    209.4437    142.0194   2.7357522700e+01   1.3839403985e+01    0.2106514    0.1579975  14.70 0.0004828158    1.483    0.326
       523  -8.0702    250.6348    139.3107   2.1127671205e+01   8.6014952702e+00    0.1048438   0.07763833 -53.86 0.0007038827    1.756    0.431
       524  -8.7018    204.1063    139.1606   2.7641476800e+01   1.5098855890e+01    0.1924203     0.150926 -12.66 0.0004565266    1.240    0.193
       525  -9.7626    239.0275    138.5801   2.2454717413e+01   1.0188698126e+01    0.1446882    0.1125578  38.72 0.0006469191    1.601    0.375
       526  -8.8093    206.5264    134.3678   2.6289800084e+01   1.5485074746e+01    0.1881475    0.1196922  41.16  0.000740086    1.793    0.442
       527  -8.7851    212.8565    132.3871   2.4917333324e+01   1.4818814956e+01    0.1517199    0.1121547  24.02 0.0004353289    1.563    0.360
       528  -9.2151    222.4846    129.4964   2.2945165368e+01   1.3809740249e+01     0.121976   0.09910574 -29.12 2.635654e-05    1.012    0.012
       529  -8.6184    202.6104    127.1402   2.5424245566e+01   1.7259113189e+01    0.1763514    0.1060294 -27.57 0.0001387559    1.604    0.377
       530  -8.1884    192.3287    123.3037   2.6284813345e+01   1.9606417381e+01    0.1316339   0.09748724  -2.48 0.0003868025    1.650    0.394
       531  -9.9252      3.1406    122.9724   8.3377244150e+01   4.9443159340e+01    0.2442284    0.1996952  -1.92 0.0004189204    1.364    0.267
       532 -11.1783    194.0599    118.1539   2.4883709398e+01   2.0160614183e+01    0.5321768    0.2217944 -51.15  0.002047281    3.075    0.675
       533  -8.5846    173.1551    182.8490   4.1594423734e+01   1.2438552864e+01    0.1777323    0.1615844   2.44 0.0004150211    1.161    0.139
       534  -9.8792     59.5537    117.0392   6.0311303728e+01   4.5450135878e+01    0.2855687    0.2206324  27.48 0.0005071961    1.294    0.227
       535 -10.2528    184.8428    112.9288   2.5262511820e+01   2.2683781049e+01    0.2303397    0.1745836 -39.36  0.001298677    1.186    0.157
       536  -8.5376    162.8688    182.8640   4.3713577241e+01   1.3898054263e+01    0.1944047    0.1528024  -5.81 0.0003352382    1.190    0.160
       537 -10.1485    210.5904    180.5355   3.4318347008e+01   7.8165956753e+00    0.3078274    0.1813472 -43.02 0.0007137766    1.788    0.441
       538  -8.8000    177.8632    182.1729   4.0540697787e+01   1.1894254696e+01    0.1959361    0.1574902  -6.94 0.0002653457    1.087    0.080
       539  -8.2986    180.6769    179.7411   3.9562331067e+01   1.1906374236e+01    0.1963508    0.1498234  -8.75 0.0002302207    1.200    0.167
       540  -8.7092    150.0166    181.2196   4.6216996343e+01   1.6073286323e+01    0.4008747    0.2050844  15.35  0.001507503    2.681    0.627
       541  -9.1968    134.8541    181.2075   4.9715385178e+01   1.8339047425e+01    0.2184975    0.1783462 -15.29 0.0003854688    1.228    0.185
       542  -9.3146     69.0113    181.9711   6.7324680794e+01   2.7587526419e+01     0.208765    0.1887394  30.99            0    1.030    0.029
       543  -8.4838    224.1801    180.8740   3.2187260522e+01   6.1145537219e+00    0.1599634    0.1081509 -11.01 0.0003838112    1.308    0.235
       544  -9.2088    227.8364     95.1585   1.5295517400e+01   1.7973491387e+01    0.1571973    0.1287106 -16.21 0.0004342068    1.312    0.238
       545  -8.8164      2.5944     87.6470   8.0485403807e+01   5.9102240007e+01    0.4213971    0.1473668 -72.30  0.001586587    2.483    0.597
       546  -9.4890      7.0957     86.5606   7.8117889141e+01   5.9174878457e+01    0.2883981    0.2134274  -1.13  0.001512765    1.454    0.312
       547  -8.2832      3.6934     95.2748   8.0776029925e+01   5.6979581254e+01    0.1937054    0.1480032 -45.05 0.0003961271    1.291    0.225
       548  -8.7821      3.9889     91.7007   8.0255565012e+01   5.7938257898e+01    0.2094202    0.1748623 -39.07 0.0005606202    1.200    0.167
       549 -10.0089     89.8060    180.6108   6.1269830374e+01   2.5106222937e+01    0.2498204    0.2219323  -5.85 0.0003625391    1.187    0.157
       550  -8.7541     34.9770     91.0282   6.5277584319e+01   5.5630360105e+01    0.3124917    0.1768865  14.58  0.001300021    1.966    0.491
       551  -9.3499     12.6619     88.4378   7.5611380255e+01   5.8332896080e+01    0.3535625    0.2161682 -50.73  0.001241379    1.543    0.352
       552  -9.2486     23.5532     79.4759   6.8475198723e+01   5.9884487380e+01    0.3839298    0.1926948  14.97  0.001520494    2.135    0.532
       553  -9.6296     29.5313     77.6590   6.4960304167e+01   5.9767378003e+01    0.5454728    0.2170633  38.40 0.0007444186    2.538    0.606
       554  -8.6218     29.7093     72.6774   6.3639108814e+01   6.1038903197e+01    0.2926778    0.1622019 -41.63  0.001217527    1.851    0.460
       555  -9.0905     25.6197     70.5897   6.5331094409e+01   6.2007081669e+01    0.5942108    0.1461474  20.63  0.001554541    4.302    0.768
       556  -9.2839     17.5912     84.7428   7.2551360522e+01   5.8980420103e+01    0.2882603    0.2209554   7.33 0.0008255512    1.376    0.273
       557  -8.3184     18.3878     81.2674   7.1517197199e+01   5.9850814068e+01    0.3170731    0.1645782 -30.14  0.000440696    2.251    0.556
       558  -9.3558     14.7380     80.4922   7.3280479569e+01   6.0333388808e+01    0.3618134    0.2938558  66.29  0.001058841    1.343    0.255
       559  -9.9057     88.3555     87.9049   4.2306178828e+01   4.7668724789e+01    0.3067038    0.2558874  28.99 0.0002874077    1.251    0.200
       560  -9.5234     93.0444     85.3208   3.9933991613e+01   4.7276847059e+01    0.4698462    0.2280125  37.58  0.001513595    2.177    0.541
       561  -9.5564     83.0683     87.6826   4.4112766494e+01   4.8786140780e+01    0.2851746    0.2726357   2.35 0.0004406493    1.097    0.089
       562  -9.0469     84.6841     84.6869   4.2632878355e+01   4.9151989388e+01    0.3013661    0.2041927  48.42  0.000693092    1.478    0.323
       563  -9.1870     77.1441     85.6374   4.5698883484e+01   5.0425855589e+01    0.3144464    0.2386287  21.38 0.0009645516    1.487    0.328
       564  -9.1130     80.4839     83.5539   4.3817154923e+01   5.0256670359e+01    0.2878354    0.2279396  48.07 0.0001258895    1.253    0.202
       565  -8.3404    199.0587    180.2935   3.6256363185e+01   9.3302366342e+00    0.1629591    0.1335703  -3.77 0.0002847682    1.054    0.051
       566 -11.0192    178.9124     86.4511   1.9989994496e+01   2.8258677068e+01     0.373726    0.2572811   6.55  0.001102235    2.472    0.595
       567 -11.0903    242.9682     82.5479   1.1130473544e+01   1.7285519926e+01    0.2602645    0.1652017 -52.64  0.001666452    1.468    0.319
       568  -8.4323     10.5205     83.1502   7.5901719234e+01   5.9898838532e+01    0.2017592    0.1327433 -73.74 0.0005318743    1.445    0.308
       569 -11.3901    187.8607     81.9751   1.7531484314e+01   2.7162954957e+01    0.3801195    0.2958973 -85.36  0.002172928    1.509    0.337
       570  -9.2978     52.3504     81.2682   5.4764552941e+01   5.5835648106e+01    0.2478679     0.207625  14.37 0.0004906066    1.250    0.200
       571  -9.7141     48.9659     80.7718   5.6184646057e+01   5.6473952685e+01    0.2687853    0.2158213  16.16 0.0003381467    1.303    0.233
       572  -8.4543     34.5866     81.4825   6.3307698427e+01   5.8201899714e+01    0.2368989    0.1454077  23.00 0.0005315605    1.654    0.395
       573  -9.6442     39.0789     79.1410   6.0492814100e+01   5.8259046622e+01    0.3353911    0.2531856  23.33  0.001659229    1.336    0.251
       574  -9.1927    231.8407     80.1842   1.1753534808e+01   1.9383743268e+01     0.150718    0.1306643 -15.15 0.0007584076    1.319    0.242
       575  -9.0576    120.9037    179.7029   5.2883818684e+01   2.0743304253e+01    0.2579034    0.1885099   4.27 0.0004652377    1.496    0.332
       576 -11.0019    249.5612     77.7619   9.5752961521e+00   1.6889336115e+01    0.3371001    0.1855574 -36.72  0.002099185    1.379    0.275
       577  -8.4191      6.5395     69.5188   7.5887580640e+01   6.3755171199e+01    0.2035135    0.1359693   9.17 0.0001103998    1.568    0.362
       578  -8.0756     19.4412     72.1399   6.9108407219e+01   6.2178434008e+01    0.2073316    0.1844742   7.21  0.001164539    1.146    0.127
       579  -9.0176     15.1413     72.0228   7.1476892755e+01   6.2550445369e+01    0.3962997    0.2203219 -30.86  0.001401182    1.955    0.488
       580  -8.8813     11.0084     73.9754   7.4142347419e+01   6.2319525347e+01    0.2606297    0.1991545  -7.37 0.0005899373    1.373    0.272
       581  -8.8361     10.9561     71.0000   7.3633136474e+01   6.3107700644e+01    0.2424859    0.1961924  -7.96 0.0009623934    1.275    0.216
       582 -10.0507    190.9433     76.5973   1.5798994334e+01   2.7370285955e+01    0.2242836    0.1822672  -8.24 0.0009732356    1.535    0.349
       583 -10.3096    169.5098     76.0866   1.8885827643e+01   3.1915921287e+01    0.2161059    0.1277957 -38.05 0.0008491354    1.577    0.366
       584  -8.6930     34.9972     77.5139   6.2118702507e+01   5.9184876089e+01    0.2224391    0.1440989  24.56  0.001019463    1.552    0.356
       585  -8.6965     18.6459     76.4300   7.0443503240e+01   6.1116659381e+01    0.2166673    0.1363414  -3.81 0.0005929526    1.799    0.444
       586  -7.8709     22.2590     75.2974   6.8262033725e+01   6.1104562453e+01    0.2192591    0.1349634   3.27 0.0003482923    1.826    0.452
       587  -8.4008     38.9882     74.1848   5.9202299638e+01   5.9534964691e+01    0.1990448    0.1805251  19.45 0.0003461078    1.100    0.091
       588  -9.2166      3.5548     73.4409   7.8182766370e+01   6.2867246346e+01    0.2216687    0.2097398 -15.26 0.0002142202    1.095    0.087
       589  -8.0186    235.8228    179.4219   3.0182876227e+01   4.9678816197e+00    0.1367146   0.09063262   8.70 0.0003542934    1.521    0.343
       590  -9.3750     36.9315     68.9265   5.8764578657e+01   6.1122323879e+01    0.4366579    0.2702218 -87.81  0.001760548    2.481    0.597
       591  -8.9097     43.4094     70.5836   5.5915225113e+01   5.9825595903e+01    0.3213767    0.2221724  52.55  0.001102982    1.667    0.400
       592  -9.1216     33.0403     57.0951   5.7202688156e+01   6.4506819849e+01    0.3446274    0.2212314   8.81 0.0009085445    1.783    0.439
       593  -8.7420     20.0080     66.7672   6.7554122315e+01   6.3521131851e+01    0.2049411    0.1966912 -22.10            0    1.030    0.029
       594  -8.6287     19.4005     58.8264   6.5881536003e+01   6.5586802177e+01    0.1921919    0.1728826 -46.99 0.0005711582    1.063    0.060
       595  -9.8853     25.4984     64.8190   6.3897950753e+01   6.3489525569e+01    0.5666105    0.4140992 -33.74  0.002415629    1.378    0.274
       596  -8.5508     21.8382     62.1124   6.5300039407e+01   6.4536036926e+01    0.3039434     0.206044   1.68 0.0007442189    1.592    0.372
       597  -9.3019     45.7881     65.6104   5.3138544449e+01   6.0676611453e+01    0.3631335    0.2989503 -16.49  0.001234333    1.318    0.241
       598  -9.3593      4.6469     65.9611   7.6388158878e+01   6.4782512257e+01    0.6100838    0.1886738   5.18  0.002043373    3.752    0.733
       599  -8.9255     30.0339     60.9999   6.0189066616e+01   6.3935786330e+01    0.4238856    0.2590531  62.28  0.001477589    2.421    0.587
       600  -8.5652     39.7109     65.0186   5.6098952312e+01   6.1708108885e+01    0.2041133    0.1784879 -47.25 0.0003913297    1.134    0.119
       601  -8.4330     16.0241     65.2221   6.9511084285e+01   6.4250858108e+01    0.1854888    0.1739541   3.13  0.000318387    1.087    0.080
       602  -9.5008      8.7552     78.0143   7.6038704665e+01   6.1381672588e+01    0.2746264    0.2545872  31.93  0.001449324    1.148    0.129
       603  -9.9345      5.5860     60.8299   7.4895591574e+01   6.6063649059e+01    0.6695002    0.2608131  24.45    0.0027195    2.526    0.604
       604  -9.0602     36.4909     60.6259   5.6424000251e+01   6.3208337577e+01    0.2455992    0.2254088 -24.86 0.0006765684    1.059    0.056
       605  -8.7807     11.0818     67.6817   7.2927748746e+01   6.3968187534e+01    0.3167025    0.1607098  32.79  0.001395051    2.025    0.506
       606  -9.3282    159.8590     60.1169   1.6138970366e+01   3.6578573790e+01     0.178283    0.1657363  20.57            0    1.302    0.232
       607  -8.9252     46.2672     60.0514   5.0993257847e+01   6.1903972432e+01      0.25023    0.2085796  23.25 0.0007027995    1.182    0.154
       608  -8.8200     67.1650     57.8754   4.0340648226e+01   5.8585203362e+01    0.2201782    0.1971036  63.22 0.0006159485    1.198    0.165
       609  -8.6667     50.1223     57.4256   4.8072619628e+01   6.1864515588e+01    0.2677809    0.1920723 -41.32 0.0008581707    1.428    0.300
       610  -8.3850     57.9858     56.8573   4.4042364514e+01   6.0585301681e+01    0.2680654    0.1912691  28.11  0.001202763    1.443    0.307
       611  -8.3581     53.9555     56.4784   4.5818649625e+01   6.1404112275e+01    0.2230141    0.1420124  35.53 0.0005833691    1.524    0.344
       612  -8.3648     15.3440     57.0624   6.7933925005e+01   6.6375358456e+01    0.1825567    0.1690398 -43.55   0.00107622    1.037    0.035
       613  -8.7453     39.7215     56.1057   5.3079372125e+01   6.3815303339e+01    0.2718968    0.1993706  18.83 0.0006191861    1.396    0.284
       614  -9.2133     63.3462     54.3100   4.0611586862e+01   6.0086241998e+01    0.2460795    0.2107447  13.81  0.001280383    1.253    0.202
       615  -8.4952    170.6749     54.2829   1.2911793832e+01   3.4978962132e+01    0.1406906   0.09380972 -67.34 0.0002492533    1.598    0.374
       616  -8.3062     44.8164     53.8365   4.9468017366e+01   6.3542957090e+01    0.1857437    0.1640404  52.22  0.000273723    1.239    0.193
       617 -10.0333      9.6884     54.3330   7.0882335265e+01   6.7472099555e+01    0.5615498    0.1572949  24.78  0.001994472    3.221    0.690
       618  -8.7585    113.9618    248.2299   6.3577207681e+01   8.9785512707e+00    0.1842877    0.1290023   8.85 0.0006265733    1.295    0.228
       619  -8.6485     21.6883     52.0872   6.2466134312e+01   6.7019537459e+01    0.2634159    0.1328892 -71.27  0.001073464    2.393    0.582
       620 -13.4605     95.0704    139.9664   5.2837159202e+01   3.3899846385e+01     3.224027     1.271755  28.38   0.01062131    2.872    0.652
       621  -8.3594     58.3219     52.6490   4.2235853079e+01   6.1408943944e+01    0.1978869    0.1338595  31.79 0.0004981498    1.490    0.329
       622  -8.9597     34.2748     51.9551   5.4678381179e+01   6.5544095983e+01    0.3301941    0.1808701  37.76   0.00145797    1.827    0.453
       623  -9.4564    171.8381     49.9564   1.1585561587e+01   3.5325234498e+01    0.2166496    0.1839661  79.39            0    1.186    0.157
       624  -8.2612    204.5253    179.4338   3.5152395865e+01   8.7511096580e+00    0.1206749   0.09808847 -11.53 0.0005114673    1.025    0.024
       625  -9.7239     10.5442     49.1861   6.8992041834e+01   6.8688495463e+01    0.4514536    0.2232734  50.47  0.001847052    2.746    0.636
       626 -10.3135    138.1339     48.8523   1.6531591617e+01   4.3441479299e+01    0.2208775    0.1808483 -76.28 0.0003631132    1.222    0.182
       627  -8.8384     60.3331     47.9911   3.9390423516e+01   6.1956912494e+01    0.3933213    0.1735081  29.56  0.001028074    3.397    0.706
       628 -10.3154     68.3568     45.2240   3.4718902481e+01   6.0817808254e+01    0.4641294    0.3193522 -58.02  0.001862788    1.788    0.441
       629 -10.6858     63.2405     40.7091   3.4915190566e+01   6.2732048483e+01     0.536923     0.451608 -62.71  0.002172176    1.408    0.290
       630  -9.8404     59.0481     44.4681   3.8472026499e+01   6.2898224990e+01    0.2759597    0.2001079  40.04 0.0009400352    1.306    0.234
       631  -9.0874     55.5066     44.0308   3.9958724611e+01   6.3682497553e+01    0.4003417    0.2752843 -68.76   0.00124228    2.165    0.538
       632  -8.7978     49.4758     47.2190   4.4355339726e+01   6.4169819573e+01    0.3374947    0.2082167 -13.11  0.001306484    2.748    0.636
       633  -9.1793     99.4853    248.0376   6.6745473687e+01   1.0632713601e+01     0.146004    0.1198704 -47.89 0.0006651344    1.519    0.342
       634 -11.7950    134.3705     44.3069   1.5769617219e+01   4.5032525980e+01     0.464607     0.411112  74.49  0.002644639    1.080    0.074
       635  -9.4016     21.9480     40.9865   5.8394428749e+01   6.9581211117e+01    0.4178331    0.2268524 -27.86  0.001715113    2.198    0.545
       636  -9.4480     26.7636     41.1839   5.5207819225e+01   6.8960499209e+01     0.273377    0.2083583  43.92  0.001072156    1.457    0.314
       637 -12.8057     82.3126    124.6299   5.3745299113e+01   3.9868792871e+01     1.918867     1.324941 -13.27  0.007960675    2.084    0.520
       638  -9.2659     12.1559     39.9267   6.5031732487e+01   7.0780496991e+01    0.2133052    0.1941687 -35.12  0.001304109    1.054    0.051
       639  -8.0212     12.2929     44.6703   6.6465322120e+01   6.9649958995e+01    0.2153149    0.1319061  21.69   0.00088352    1.623    0.384
       640 -10.0072      8.1799     43.6655   6.9118356915e+01   7.0191046675e+01    0.4030316    0.1878933 -19.72   0.00135372    2.565    0.610
       641  -8.3529     24.2794     45.7211   5.8609071602e+01   6.8237982109e+01    0.3938542    0.2357047  62.44  0.001302407    2.814    0.645
       642  -9.9399     93.1587     39.2858   2.3530975403e+01   5.6058063341e+01    0.4877965    0.2965736 -41.65  0.002229198    1.737    0.424
       643 -10.7209     84.0820     35.3041   2.4645040361e+01   5.8877328453e+01    0.8165848    0.3372114 -27.08  0.002839296    3.290    0.696
       644  -9.0859     80.9863     34.0000   2.5087330473e+01   5.9819601681e+01    0.2768372    0.1914116  54.32 0.0005889128    1.331    0.248
       645  -9.0468     97.8320     38.1249   2.1744835145e+01   5.5080660482e+01    0.2758732    0.2312916  31.54 0.0006733624    1.330    0.248
       646  -9.9470     96.5116     34.5588   2.0667234279e+01   5.5932378127e+01    0.3649304    0.2429704  65.22  0.001668189    1.441    0.306
       647  -9.0294     78.0671     39.9213   2.8686709512e+01   5.9568323640e+01    0.2256683    0.2025303  46.03 0.0006465927    1.047    0.044
       648  -9.4820      6.2806     40.2481   6.9533412382e+01   7.1131742574e+01     0.220977    0.1573575   3.41 0.0005162429    1.393    0.282
       649  -8.6763     39.9631     38.7836   4.5884324008e+01   6.7529562736e+01    0.2219406    0.1810641   2.81 0.0007454003    1.282    0.220
       650 -10.3153     31.4553     38.6955   5.1078484161e+01   6.8864058820e+01    0.2597356    0.2240744  24.58 0.0002780704    1.121    0.108
       651  -8.6786     36.2117     38.3509   4.7934900698e+01   6.8222320512e+01    0.2748117    0.1895316  18.12 0.0008482212    1.522    0.343
       652 -10.3622    125.3858     38.3121   1.5464546762e+01   4.8123742050e+01    0.4686794    0.1854349  68.50  0.001694144    2.687    0.628
       653  -8.6772     52.8718     37.9277   3.8481829910e+01   6.5354011199e+01    0.2186195    0.1789033  16.09 0.0005255233    1.286    0.222
       654  -7.9593     45.3347     38.2318   4.2576842437e+01   6.6711242287e+01    0.1406747    0.1048055  10.71  0.000440533    1.533    0.348
       655  -8.3701    190.0000     37.0011   6.1306354256e+00   3.3018155120e+01    0.2023173   0.06501509 -31.46 0.0005428941    2.871    0.652
       656  -9.0228    104.4327     36.7475   1.9487936782e+01   5.3632323015e+01    0.2524519    0.1820687  60.40 0.0004045822    1.284    0.221
       657  -8.1593     73.9815     36.9951   2.8893472177e+01   6.0993214400e+01     0.208567     0.185712  49.14 0.0004991661    1.043    0.041
       658 -10.4597     70.5409     33.3660   2.8539692712e+01   6.2365246285e+01    0.4567518    0.3856763   2.90  0.002057465    1.366    0.268
       659 -13.1827     23.2947    123.5226   7.5543800703e+01   4.7890147917e+01     2.778529     1.014731  33.97   0.01037365    2.467    0.595
       660  -8.2661    125.2268     34.5468   1.4191237029e+01   4.8674842091e+01    0.1921728    0.1233115  54.59 0.0004993071    1.525    0.344
       661  -9.1127      1.6768     36.7141   7.2085478491e+01   7.2230966883e+01    0.1875088    0.1483417 -24.20 0.0005965116    1.156    0.135
       662  -8.7450     57.4448     34.0445   3.4418466109e+01   6.5122407140e+01    0.3144862     0.174862  18.05  0.001060713    3.665    0.727
       663  -9.8778    104.1488     25.0988   1.4959603985e+01   5.5262523771e+01     0.434687    0.2356357 -88.43  0.001672616    2.703    0.630
       664  -9.3797    101.1553     32.8551   1.8773662648e+01   5.5007380492e+01    0.2591181    0.1945305  64.48 0.0005865192    1.233    0.189
       665  -8.5824     21.8893    247.8920   8.4274487222e+01   1.8574987817e+01    0.1591675    0.1379507  15.83 0.0004921838    1.291    0.225
       666 -10.9235      8.3742     32.5934   6.5380913576e+01   7.2767190117e+01     0.358147    0.2676384 -31.84  0.001680754    1.223    0.182
       667  -9.1514     20.6438     35.0241   5.6893011748e+01   7.1049853788e+01     0.192557    0.1695399 -23.62 0.0006122639    1.058    0.055
       668  -8.4156    123.4921     31.5381   1.3460325890e+01   4.9508445682e+01    0.1423194    0.1290329  85.31 7.257449e-05    1.008    0.008
       669 -12.4708     35.4263    116.8451   6.9785107818e+01   4.8560339162e+01     1.303967     0.999266 -79.03  0.006526009    1.314    0.239
       670  -9.5171      1.4000     27.7647   6.9559123782e+01   7.4323072806e+01    0.2438625    0.1568333 -61.67 0.0006797184    1.501    0.334
       671 -12.0842     46.0625    116.2196   6.5408001953e+01   4.7498924512e+01     1.121494    0.4705715 -67.69   0.00364846    2.438    0.590
       672 -10.0279     95.8830     28.8742   1.8490485168e+01   5.6878134566e+01    0.4278296    0.2338695  37.73  0.001772404    2.256    0.557
       673  -8.5585    101.5281     28.6879   1.7008997157e+01   5.5474220106e+01    0.3464679    0.1698633  67.11  0.001425255    1.995    0.499
       674  -8.2913     63.2413     30.6507   3.0185790975e+01   6.4438009577e+01    0.2056996    0.1206046  42.40 0.0007074895    1.609    0.379
       675  -9.4424     77.1329     29.1985   2.4210561000e+01   6.1453172986e+01     0.219517    0.1783161  37.67 0.0005483295    1.230    0.187
       676  -8.4440     48.5465     28.9693   3.6262278511e+01   6.7796423612e+01    0.1902996    0.1382575 -36.01 -2.537787e-05    1.464    0.317
       677  -9.1623     67.5840     27.7948   2.7019111151e+01   6.3898438368e+01    0.2988148    0.1762491  51.93 0.0008759047    1.546    0.353
       678  -9.6177     71.4553     26.4808   2.4919029683e+01   6.3190281109e+01    0.3905825     0.254656  17.49  0.001727104    2.217    0.549
       679  -8.0946     43.4654     28.4166   3.8738375359e+01   6.8867561213e+01     0.139466    0.1256479  23.35 0.0001749758    1.012    0.012
       680  -9.5220     89.6520     23.5284   1.7839255045e+01   5.9140475169e+01    0.4546457    0.2561128   3.76  0.001646397    3.612    0.723
       681  -8.5704     82.3427     25.3093   2.0734865474e+01   6.0728875018e+01    0.1506096    0.1023844  32.54 0.0007044564    1.695    0.410
       682 -10.2313     30.2815     24.0418   4.4585892289e+01   7.1938131067e+01    0.4886886     0.254332  24.46  0.001510964    2.140    0.533
       683 -10.4953     11.5893     22.4880   5.8371506172e+01   7.4685411164e+01    0.2810404    0.1758153 -48.82 0.0009360685    1.539    0.350
       684  -8.8231    194.0287    247.5008   4.7527163381e+01   4.6566613173e-01    0.1568267   0.08484133  21.73 0.0005222374    1.518    0.341
       685  -9.3723     97.3392     23.2504   1.5769735667e+01   5.7228502349e+01    0.2679996    0.1719494 -81.13  0.001204397    1.988    0.497
       686 -10.6166     17.8084     19.9986   5.1758287721e+01   7.4483161887e+01    0.3941395    0.2759671  54.46  0.002048423    2.034    0.508
       687 -12.6673     98.8697    127.9801   4.9148862214e+01   3.6129626917e+01     1.880199     1.084918  34.11  0.007827199    1.716    0.417
       688  -9.2737    112.2270     20.1506   1.1362629596e+01   5.3772226481e+01    0.2018358    0.1522621 -71.02  0.001065149    1.372    0.271
       689  -8.8322     42.9995     20.2011   3.4435087081e+01   7.0321318546e+01    0.2285225    0.1441811  21.67 0.0007093869    1.915    0.478
       690  -9.5867     63.8258     18.7541   2.3853638226e+01   6.6033094759e+01    0.2383329    0.2053498  44.67 0.0004106059    1.048    0.046
       691  -8.3711     95.7047     17.6527   1.3766133097e+01   5.8302830076e+01    0.1447351    0.1001255  34.81 0.0003712077    1.674    0.402
       692  -8.8351    109.0587    247.1516   6.4539269652e+01   9.7044564560e+00     0.178935    0.1344416   7.14 0.0003040673    1.228    0.185
       693 -10.0007     94.1380    246.8419   6.7827555856e+01   1.1429477075e+01     0.389836    0.2053441   0.02  0.001779976    2.862    0.651
       694  -9.4986     92.3132    244.3318   6.8005351117e+01   1.2061498831e+01    0.3656183    0.1896367 -13.36  0.001505591    3.781    0.736
       695 -10.1629     33.4857    246.0647   8.1590346741e+01   1.7864238307e+01    0.2483333    0.1880119   2.20 0.0004677536    1.552    0.356
       696  -8.2254     46.7536     32.9672   3.9257723934e+01   6.7438628910e+01    0.1708317    0.1199808 -39.12 0.0003240285    1.500    0.333
       697  -8.1062      7.8444    247.3614   8.7358492660e+01   1.9860162273e+01    0.1487137   0.09297723  15.29 0.0003961609    1.629    0.386
       698  -8.7936    156.8084    245.8692   5.4337306960e+01   4.5565337520e+00     0.187169    0.1250764   3.38 0.0006660913    1.291    0.225
       699  -9.6403    150.1063    245.1990   5.5602733371e+01   5.3897820858e+00    0.2161926    0.1336332 -13.54  0.001298288    1.718    0.418
       700  -8.7747    136.1984    245.9889   5.8569904865e+01   6.8244374838e+00    0.1826281    0.1287294  -1.69 0.0006195758    1.341    0.255
       701  -8.6795    128.5369    244.4769   6.0017880421e+01   7.9234259473e+00    0.1220995   0.09366091  13.26 3.121641e-05    1.043    0.041
