#   1 NUMBER                 Running object number                                     
#   2 MAG_AUTO               Kron-like elliptical aperture magnitude                    [mag]
#   3 X_IMAGE                Object position along x                                    [pixel]
#   4 Y_IMAGE                Object position along y                                    [pixel]
#   5 X_WORLD                Barycenter position along world x axis                     [deg]
#   6 Y_WORLD                Barycenter position along world y axis                     [deg]
#   7 A_WORLD                Profile RMS along major axis (world units)                 [deg]
#   8 B_WORLD                Profile RMS along minor axis (world units)                 [deg]
#   9 THETA_WORLD            Position angle (CCW/world-x)                               [deg]
#  10 FWHM_WORLD             FWHM assuming a gaussian core                              [deg]
#  11 ELONGATION             A_IMAGE/B_IMAGE                                           
#  12 ELLIPTICITY            1 - B_IMAGE/A_IMAGE                                       
         1 -15.3430     12.5797    150.8905   1.4000622965e+02   4.2604857139e+01     9.080594     3.127973 -84.70   0.03154993    4.140    0.758
         2 -12.4376      2.6010     48.5289   1.2490019752e+02   6.5283872439e+01    0.6353112    0.1844178 -58.28  0.002822323    3.112    0.679
         3 -13.6053    215.6206     11.9406   5.8828978104e+01   3.0466570045e+01    0.9947865    0.8344482  54.33  0.004157302    1.456    0.313
         4 -12.1959      2.0600     15.1442   1.1403039535e+02   7.0742218663e+01    0.6878189    0.1864631 -49.72  0.002967656    4.217    0.763
         5 -12.1722      2.9789      6.2249   1.0985290974e+02   7.1885660764e+01    0.5064502     0.259147 -40.22  0.003384958    1.803    0.445
         6 -13.4768    199.2173     30.7512   6.4918654317e+01   3.2077891672e+01     1.322728     1.226731  36.17  0.007599221    1.378    0.274
         7 -10.8927    225.6173    248.8224   1.0797360381e+02  -1.0973858567e+01    0.2992027    0.1686859 -14.13  0.001522691    2.300    0.565
         8 -10.7959    248.5170    250.0000   1.0405529086e+02  -1.4382404620e+01    0.2680758    0.1722459  19.70  0.001691543    1.365    0.267
         9 -12.9864    140.9093    248.4837   1.2426201427e+02   2.9123889521e+00    0.8136462     0.470279  52.39  0.004235827    1.608    0.378
        10 -12.5332    122.3268    249.9977   1.2810468105e+02   5.7499853290e+00    0.6390314    0.4458568  22.18  0.003470984    1.956    0.489
        11 -12.3735    100.0707    248.6373   1.3225803716e+02   9.6017657203e+00    0.4979067    0.3705986  47.27   0.00309047    1.206    0.171
        12 -11.0741     64.3543    247.6095   1.3887153857e+02   1.5127242638e+01    0.3769347    0.2046688  76.72  0.001096582    1.904    0.475
        13 -10.7762     46.9839    249.7459   1.4216679011e+02   1.7044945235e+01    0.2100346    0.1408735  55.19 0.0007641075    1.250    0.200
        14 -12.7265     34.2689    246.3007   1.4412797803e+02   1.9309992928e+01    0.6733036     0.577975 -43.76  0.004800015    1.969    0.492
        15 -13.2707      4.4322    248.0457   1.4919414525e+02   2.2316684513e+01     1.271626     0.746869  55.33   0.00898586    1.404    0.288
        16 -12.9447     12.1495    239.5547   1.4745349664e+02   2.3158970182e+01    0.7268542    0.3691642  86.47  0.003501981    1.619    0.383
        17 -10.4451     53.6811    238.7072   1.4005257801e+02   1.8357042203e+01    0.1915099    0.1670789  85.35 0.0005658993    1.247    0.198
        18 -14.5426    105.3145    229.3352   1.2891228154e+02   1.2554543806e+01     5.520328    0.1323838  45.25   0.01004284   12.150    0.918
        19 -12.7744      9.3688    207.4068   1.4582666006e+02   3.0097409216e+01     0.695967     0.611419  31.08  0.003919878    1.641    0.391
        20  -9.0314    152.6718    212.9880   1.1646420578e+02   7.5155178214e+00    0.1829176    0.1744616 -72.91 0.0003117485    1.125    0.111
        21 -11.6244     57.6627    196.4311   1.3495306920e+02   2.7017885002e+01    0.3164097    0.2346714 -54.50 0.0006170135    1.519    0.342
        22  -9.5312    191.9968    192.9882   1.0444352457e+02   3.9902544674e+00    0.3646893    0.1860988 -63.60  0.001142193    4.386    0.772
        23 -11.8084     64.1967    188.4178   1.3250007714e+02   2.7995344242e+01    0.2758282    0.2359287 -64.42  0.000486071    1.236    0.191
        24 -12.6632     44.4090    212.3541   1.3942928106e+02   2.5136390267e+01    0.6539857    0.5915828 -55.48  0.003332426    1.494    0.331
        25 -10.7806     74.8722    175.8502   1.2822356314e+02   2.9456887667e+01    0.2601648     0.221269 -64.35 0.0003304013    1.164    0.141
        26 -13.2396     61.4814    173.5476   1.3110562420e+02   3.1911883317e+01    0.5506648     0.282057 -46.87   0.00243012    2.296    0.564
        27 -11.7930     82.8846    166.7692   1.2479742347e+02   3.0433877496e+01     0.651993    0.6040977 -50.26  0.003788507    1.210    0.173
        28 -12.7426     29.6536    229.6528   1.4372607459e+02   2.3216481117e+01    0.3132077    0.2435403 -80.51 0.0007299463    1.269    0.212
        29  -9.9601     96.0907    151.4843   1.1860539553e+02   3.1993343741e+01    0.2901324    0.2397717 -56.10  0.000743032    1.161    0.139
        30 -11.8949     84.4913    150.2763   1.2142161096e+02   3.4208004637e+01     0.314716    0.2439295 -48.22 0.0008605688    1.302    0.232
        31  -9.0652     99.1247    147.4829   1.1699926741e+02   3.2439146648e+01    0.2067825    0.1496381  38.57 0.0003913117    1.470    0.320
        32 -11.9909     68.4817    143.4644   1.2442636435e+02   3.8273418380e+01    0.5768064    0.4196686 -79.71  0.001755913    1.411    0.291
        33 -11.2286     65.3185    141.6776   1.2495609595e+02   3.9147087903e+01    0.3749683    0.2739947 -51.49  0.000961604    1.293    0.227
        34 -13.8783     35.2301    222.4891   1.4212373376e+02   2.4062640005e+01    0.7642788    0.5551164  74.11  0.002468263    1.087    0.080
        35 -11.7075    237.6827    247.8514   1.0561863512e+02  -1.2597517141e+01    0.2942971    0.2767481 -76.31  0.002067017    1.785    0.440
        36  -9.6164    108.5746    136.6736   1.1215131938e+02   3.3326812310e+01    0.3756172    0.2596942 -16.81  0.001522972    2.314    0.568
        37 -10.4134     95.4832    133.8777   1.1507713666e+02   3.6359471125e+01    0.2468901     0.233628  -0.59 0.0004572297    1.198    0.165
        38 -12.2334      7.5392    225.8366   1.4739818648e+02   2.6400932718e+01    0.4211843    0.2633561  68.15  0.002864026    1.259    0.206
        39  -9.0282    106.0389    123.3746   1.0972920594e+02   3.6937703385e+01    0.1975426     0.181973  45.42 0.0003495764    1.132    0.117
        40 -10.0262    167.5018    112.5576   9.1536178575e+01   2.6081155148e+01    0.3114166    0.2597025 -82.71 0.0008577572    1.350    0.259
        41  -8.9552    203.4897    111.5063   8.4001382566e+01   1.7917014258e+01    0.1498477    0.1435245 -53.37 1.231264e-05    1.056    0.053
        42 -12.3036    242.2781     95.1215   7.3956398389e+01   1.2376623427e+01    0.5518914    0.3086731 -34.43  0.002548901    1.839    0.456
        43 -11.8392    161.9941    249.0399   1.2018596366e+02  -7.5515719565e-01    0.4407784    0.2324162  36.85  0.002203482    1.679    0.404
        44 -11.7737    109.8714    248.3349   1.3032930579e+02   8.0927439402e+00    0.3200237    0.2548775 -70.45   0.00202852    1.382    0.277
        45 -10.8608     89.0745    249.2673   1.3442392103e+02   1.1189122563e+01    0.2519706    0.1385791  57.04  0.001033104    1.587    0.370
        46 -11.2316     81.5413    249.5211   1.3586783101e+02   1.2276196258e+01    0.2985575    0.1904948  53.74  0.001782103    1.286    0.222
