#   1 NUMBER                 Running object number                                     
#   2 MAG_AUTO               Kron-like elliptical aperture magnitude                    [mag]
#   3 X_IMAGE                Object position along x                                    [pixel]
#   4 Y_IMAGE                Object position along y                                    [pixel]
#   5 X_WORLD                Barycenter position along world x axis                     [deg]
#   6 Y_WORLD                Barycenter position along world y axis                     [deg]
#   7 A_WORLD                Profile RMS along major axis (world units)                 [deg]
#   8 B_WORLD                Profile RMS along minor axis (world units)                 [deg]
#   9 THETA_WORLD            Position angle (CCW/world-x)                               [deg]
#  10 FWHM_WORLD             FWHM assuming a gaussian core                              [deg]
#  11 ELONGATION             A_IMAGE/B_IMAGE                                           
#  12 ELLIPTICITY            1 - B_IMAGE/A_IMAGE                                       
         1 -13.3707    233.3631     25.2174   2.3461062075e+00   2.4977167297e+01    0.8471193    0.6692365 -43.77  0.003962848    1.048    0.045
         2 -10.1736     61.0652     21.3007   2.9876450222e+01   6.6926713206e+01    0.2809346    0.2396492  63.07   0.00087476    1.280    0.219
         3  -9.4899    101.4701    250.5224   7.0467000094e+01   1.1185918542e+01    0.2065524    0.1143691  33.07 0.0005932656    1.352    0.260
         4 -10.2902    100.7607    246.2092   7.0223699923e+01   1.1934171279e+01    0.3556836    0.2453142  82.56  0.002226096    2.254    0.556
         5 -11.3798     76.1390    245.1879   7.5315464086e+01   1.4911854753e+01    0.3235593    0.2045626 -53.91  0.000731678    2.018    0.504
         6 -18.7814     16.6554    214.9306   8.6743371919e+01   2.6582208565e+01     7.085557     3.774751 -85.22   0.03491934    1.962    0.490
         7 -11.0629    173.7945    223.6611   5.2757183303e+01   6.3392374608e+00    0.3919989    0.1661649  19.03  0.001779336    2.726    0.633
         8  -9.6942    159.2955    223.6499   5.5575893954e+01   8.1617451091e+00    0.1079322   0.08886583  49.76 0.0005056327    1.680    0.405
         9 -11.9892    147.3025    227.9458   5.8558501289e+01   9.0478269514e+00    0.5442812     0.175983  37.28  0.002395173    2.664    0.625
        10 -10.0276    105.9134    215.7282   6.5956799033e+01   1.6414221409e+01    0.2629359    0.1662568 -34.51  0.001440488    1.996    0.499
        11 -10.0832    198.0596    215.2099   4.7032545014e+01   4.4965231541e+00     0.338003    0.1428645 -39.76  0.001478447    2.533    0.605
        12 -14.7181     68.5139    147.9129   6.6816929771e+01   3.6230558641e+01     2.958635      1.90683  83.63   0.01322272    1.958    0.489
        13  -8.9553     70.4433    238.9659   7.6068996707e+01   1.6598125949e+01    0.1413458    0.1144016 -66.64 0.0005623683    1.544    0.352
        14  -9.9277    211.0486    198.7686   4.2139671415e+01   5.0609033625e+00    0.1862247    0.1384076 -12.65 0.0004799916    1.118    0.105
        15 -11.4686     69.0982    194.2368   7.2473146723e+01   2.5379227074e+01    0.3368151    0.2288907  72.97 0.0008627305    1.682    0.406
        16 -10.1929    192.2719    193.2300   4.4531545790e+01   8.2677747514e+00    0.3676187    0.2382585 -65.13  0.001468228    5.207    0.808
        17  -9.3040    207.5267    189.4930   4.1171360438e+01   6.7636417090e+00    0.1208913   0.09496811  -3.23 0.0001370575    1.003    0.003
        18  -9.5200     70.9567    185.4520   7.1046100399e+01   2.7050661434e+01    0.4253162    0.2020726  60.71  0.001691377    2.843    0.648
        19  -9.0395     78.4186    184.2672   6.8940920809e+01   2.6335724381e+01    0.1626652    0.1290111  88.28 0.0002712166    1.425    0.298
        20 -10.2937    141.9591    182.9703   5.3072136217e+01   1.7274568743e+01    0.2051891    0.1826995  10.77  0.000459166    1.019    0.019
        21 -10.4826    116.1000    181.8235   5.8980298216e+01   2.1448338378e+01    0.2111069    0.1743235  47.84 0.0006369548    1.246    0.197
        22 -10.7844    174.0115    172.2939   4.4325399019e+01   1.4179467192e+01    0.3582524    0.2962303 -41.51  0.002160141    1.369    0.270
        23 -11.0662    180.8157    169.7042   4.2494573855e+01   1.3553633523e+01    0.6458331    0.3149114 -46.41  0.002972505    2.341    0.573
        24 -10.4738    177.4126    170.1922   4.3254515246e+01   1.4000701625e+01    0.3569793    0.2053568 -52.12  0.001693545    2.362    0.577
        25 -10.1242    174.5270    180.4951   4.5715625239e+01   1.2750010650e+01    0.2520196    0.1991707  -6.01 0.0007260744    1.159    0.137
        26 -10.6760    172.6841    176.5607   4.5376656177e+01   1.3673987757e+01    0.3471245    0.2857922 -59.31  0.001818541    1.727    0.421
        27 -10.6359     69.0046    243.8494   7.6732420000e+01   1.5924170154e+01    0.2625352    0.1950924   7.01   0.00165938    1.566    0.362
        28  -9.2585     96.7466    175.9331   6.3000903995e+01   2.5578295767e+01    0.1871201    0.1835855  41.34 0.0005237478    1.078    0.073
        29 -10.3061     75.3196    173.9457   6.8486115144e+01   2.9060494085e+01     0.287656     0.239131 -87.34 0.0009902709    1.301    0.231
        30 -10.6949    110.9387    168.4209   5.8123335800e+01   2.5025271029e+01    0.4814614    0.2134565 -56.49  0.001642316    2.521    0.603
        31  -9.9848    233.3439    165.3111   3.2646970526e+01   6.6427692618e+00    0.1231261   0.07598443  -2.11 0.0004532906    1.703    0.413
        32 -11.3445    237.0390    158.6197   3.0850312247e+01   7.0404937263e+00    0.2654682    0.1396224  37.32  0.001522307    2.123    0.529
        33  -9.2645    117.7624    159.1742   5.4741114585e+01   2.5895483077e+01    0.2070531    0.1889192  64.93 0.0007023181    1.224    0.183
        34  -9.7949    184.7655    232.8066   5.2000986862e+01   3.8042604351e+00    0.1800632    0.1188053 -26.61 0.0005630337    1.532    0.347
        35  -9.9163     53.1576    155.9463   7.2636891857e+01   3.6229732954e+01    0.2781609    0.2074497   6.67  0.001150985    1.625    0.385
        36  -9.0359    113.5331    241.9550   6.7151829331e+01   1.1085778249e+01     0.149334   0.08795241 -24.96 0.0008086105    2.460    0.593
        37 -11.6971    126.6602    230.0560   6.3092872468e+01   1.1332599220e+01    0.4006281    0.3603501  -2.78  0.002914651    1.199    0.166
        38 -11.5892     91.1355    143.1697   5.9143954133e+01   3.3959765710e+01    0.5230944    0.3835025  66.31  0.002368268    1.617    0.382
        39 -10.8953     82.8156    150.1721   6.2848178769e+01   3.3584716250e+01    0.2859897    0.2426451  14.78 0.0003402653    1.276    0.216
        40 -11.2545     89.1942    151.7854   6.1251925135e+01   3.2214330476e+01    0.2729204    0.2215032  47.93 0.0007247357    1.196    0.164
        41 -11.8963     86.9742    147.9287   6.1234174258e+01   3.3482419164e+01    0.4242778    0.3756611 -46.58  0.001117121    1.194    0.162
        42  -9.8186    127.9372    137.9795   4.7866561753e+01   2.8661365293e+01    0.2539811    0.2118036  43.76  0.000606846    1.208    0.172
        43 -10.1283    119.8768    145.8065   5.1610337102e+01   2.8428693755e+01    0.3946755    0.2064814 -43.29  0.001639478    2.001    0.500
        44  -9.3558     43.0347    149.0280   7.4961898889e+01   3.9153496178e+01     0.196831    0.1801451  70.79            0    1.013    0.013
        45 -11.7054    133.3555    145.0046   4.7999349014e+01   2.6181229224e+01     1.055936    0.3363904 -53.04  0.003201748    3.995    0.750
        46 -11.0098    108.9393    145.3070   5.4459267940e+01   3.0459134258e+01    0.3094248    0.3011683 -19.68 0.0006723937    1.053    0.050
        47 -10.3706     46.8247    143.8736   7.3125768118e+01   4.0044786245e+01    0.4182166     0.253876  70.34  0.001125511    1.853    0.460
        48 -10.7843     36.8086    142.4937   7.6228239955e+01   4.1507966691e+01    0.3367455    0.2207417 -74.18  0.000975252    1.475    0.322
        49 -10.3912    147.0241    143.0106   4.4296554828e+01   2.4095889972e+01    0.2229593    0.2090275  -0.21 0.0004967224    1.003    0.003
        50 -12.1363    132.3859    229.9733   6.1882639699e+01   1.0623741846e+01    0.7357987    0.3479382  12.02  0.003105325    3.232    0.691
        51  -9.7598     25.9870    137.4126   7.9291179951e+01   4.3889316799e+01    0.3579343     0.159625  33.24  0.001538434    2.067    0.516
        52  -8.7156    168.4820    136.5245   3.8176001483e+01   2.1386941753e+01    0.1380575     0.131036 -23.15 0.0008078413    1.103    0.094
        53 -10.9277    112.3626    125.8389   4.9339797461e+01   3.4286020530e+01    0.3903033    0.2899099  19.50 0.0009122908    1.564    0.361
        54 -12.0019    105.0827    131.4808   5.2688589105e+01   3.4331765549e+01    0.7019544     0.468886 -24.06  0.001751622    2.049    0.512
        55  -9.4559    107.7628    126.5701   5.0822159571e+01   3.4983478401e+01    0.2287159    0.1494521  38.76 0.0005005872    1.508    0.337
        56 -11.3552     90.7105    131.8586   5.7062039114e+01   3.6769091791e+01    0.2783222    0.2619794 -39.83 0.0003663327    1.106    0.096
        57 -11.3321     43.7976    130.7115   7.2385352726e+01   4.3836224171e+01    0.5425444    0.3541301  56.64  0.002578828    1.569    0.363
        58 -10.1142    148.7921    127.3149   4.0357934828e+01   2.6878223046e+01    0.4327417    0.2693709 -60.72  0.001598738    2.211    0.548
        59  -9.7324     82.5308    129.0551   5.9058197293e+01   3.8827308828e+01    0.2613853    0.1989075  54.41 0.0003942675    1.366    0.268
        60  -9.6402    161.9564    127.5476   3.7499920458e+01   2.4275189210e+01    0.3352275    0.2171463  64.62  0.001447582    2.355    0.575
        61 -10.7010     98.9999    122.0865   5.2396624423e+01   3.7665264135e+01      0.49922    0.2676198 -43.29  0.001307464    1.984    0.496
        62 -11.2276    135.0000    123.5330   4.2765649051e+01   3.0374581375e+01    0.8061007    0.1430295 -45.89  0.001909373    5.655    0.823
        63 -10.6747    117.2773    121.4422   4.6927636024e+01   3.4335130061e+01    0.3000337    0.1494967  35.89  0.001141031    2.104    0.525
        64 -10.4763     47.9430    124.0732   6.9928282681e+01   4.5107913941e+01    0.3369694    0.2593701 -34.14 0.0008947967    1.510    0.338
        65  -8.9690     76.4646    120.4670   5.9278775461e+01   4.1982706524e+01    0.1509513    0.1469521  77.09 4.549672e-05    1.002    0.002
        66 -10.7574    103.0008    237.8352   6.8958203779e+01   1.3002771635e+01    0.4186001    0.1752488 -52.51  0.001833513    2.877    0.652
        67 -11.8001     54.1979    118.4530   6.6710658289e+01   4.5804810935e+01    0.4991614     0.374698 -59.53  0.002483218    1.298    0.230
        68  -9.5925    113.3187    119.2912   4.7518219986e+01   3.5596539297e+01    0.1541696    0.1218081  -4.81 0.0001790156    1.602    0.376
        69 -10.2336    108.0005    116.1606   4.8288617646e+01   3.7354821926e+01    0.2570034     0.219015 -53.69 0.0002366439    1.187    0.158
        70 -10.6355     41.2959    113.3534   7.0651218933e+01   4.8765884333e+01    0.5317842    0.1658606  35.54  0.001827233    2.889    0.654
        71  -9.2015     81.3627    111.8979   5.5703259457e+01   4.3327803089e+01    0.2542484    0.2056512  51.44  0.000654411    1.264    0.209
        72  -8.9874     71.4637    232.4968   7.5350643292e+01   1.7616591690e+01     0.119396   0.09620805  34.60 0.0005559459    1.045    0.043
        73 -10.7533    134.3452    105.4782   3.8343577212e+01   3.4280445140e+01    0.5452545    0.1929829 -50.53  0.001659891    3.370    0.703
        74 -11.2057    111.8040    104.8972   4.4269759484e+01   3.9167285609e+01    0.3552264    0.2843274 -55.51 0.0008363498    1.284    0.221
        75  -9.2925     66.5886    104.7522   5.9292034407e+01   4.7605374877e+01     0.211229    0.1469847 -73.05 0.0004506343    1.570    0.363
        76  -8.4152     92.3463    104.6969   5.0234109385e+01   4.3097389712e+01    0.1619686     0.122426  74.63 0.0007040078    1.689    0.408
        77  -8.9526    169.5628    103.0775   2.9946775126e+01   2.7238259352e+01    0.2163747    0.1332256 -38.59  0.000490238    1.511    0.338
        78 -10.4067     64.8788    101.2537   5.9108863053e+01   4.8780356698e+01     0.343559    0.2477965  12.04  0.001500581    1.713    0.416
        79  -8.2492     89.6309     97.3056   4.9146228748e+01   4.5397242070e+01      0.16458    0.1227235  75.08 0.0007034549    1.753    0.430
        80 -12.1162     87.0620    221.8648   7.0907969471e+01   1.7690231054e+01     1.086037    0.3721281  34.21  0.004839829    2.217    0.549
        81 -10.5287    114.2404     95.1121   4.0832439373e+01   4.0823210988e+01    0.3027253    0.2088935  73.88  0.001230834    2.091    0.522
        82 -11.5567     96.8049    228.2975   6.9357394911e+01   1.5352720961e+01    0.7388081    0.5894452   3.02  0.004884193    1.376    0.273
        83 -10.3102     48.6453     92.9760   6.3666988142e+01   5.3318410588e+01     0.281188    0.2183667 -55.96 0.0006437594    1.229    0.186
        84 -10.8344     49.3352     89.6983   6.2594703744e+01   5.4088665065e+01    0.4854662    0.1833284  46.22  0.001594689    3.139    0.681
        85 -12.6428     33.0159     86.2938   6.9076321719e+01   5.6973658501e+01    0.7665757    0.4609182 -74.65  0.003225046    1.674    0.402
        86 -10.0686     42.9097     87.7090   6.4921165602e+01   5.5454535367e+01     0.284602    0.1828327 -54.32  0.001310583    1.460    0.315
        87  -9.7500     57.4948     84.5829   5.7783142658e+01   5.4223287569e+01     0.272103    0.2317294  61.19 0.0008960088    1.273    0.215
        88 -10.0397     54.6466     83.3147   5.8651475716e+01   5.4982003674e+01    0.3173806    0.1853223  50.76  0.001277574    1.980    0.495
        89 -12.2512    110.0257    228.9574   6.6528678185e+01   1.3601298943e+01     0.870454    0.4981171  30.14  0.005000291    1.398    0.285
        90  -9.9996     56.8523     76.6878   5.5772609031e+01   5.6313664517e+01    0.3827063    0.2429384  52.79  0.001286218    1.843    0.457
        91 -11.1678    114.8147    228.5353   6.5445232665e+01   1.3070431499e+01    0.3272196    0.3008053  85.26  0.001608235    1.428    0.300
        92 -12.1235    185.9863     63.6617   1.6661659284e+01   3.0086175847e+01    0.4636872    0.4134873 -18.22 0.0007786867    1.194    0.162
        93 -10.2799     84.0890     64.8064   4.0673361217e+01   5.3943207430e+01    0.5980054    0.3511937  72.25  0.001939618    3.466    0.711
        94 -13.6985    202.7582     51.5394   1.1359011923e+01   2.8095913792e+01     1.194978    0.9286734  30.24  0.004347597    1.689    0.408
        95 -12.5891    208.6193     46.9786   9.5791910462e+00   2.7438911022e+01    0.5276794    0.4689809 -72.07  0.001297892    1.145    0.126
        96  -9.5978     77.3479     60.9856   4.1770973359e+01   5.6177781409e+01    0.2609771    0.2173566  42.47 0.0003951307    1.204    0.169
        97 -10.1549     22.3044     52.0051   6.5991996500e+01   6.6938884197e+01    0.2029184    0.1702912 -56.94  0.000635969    1.111    0.100
        98 -11.1326     17.2670     40.8837   6.5556672017e+01   7.0111436250e+01    0.2455048    0.1931531  -1.00 0.0005771442    1.324    0.245
        99 -10.7583     71.7178    224.9893   7.4686003176e+01   1.8947789856e+01    0.3077699    0.2103051 -69.37  0.001583131    1.761    0.432
       100 -10.0988    241.9840    245.6765   4.4320638677e+01  -3.6340615585e+00    0.1872188    0.1007195 -24.85  0.001177838    1.645    0.392
       101 -11.5978     35.0193     15.4999   4.0088633868e+01   7.3028901583e+01    0.5083845    0.2437658  51.05  0.002126259    2.608    0.617
       102  -8.6598    189.6305     15.2758   2.8529085181e+00   3.5281343018e+01    0.1419992   0.07940516 -60.71 0.0007006219    1.681    0.405
