#   1 NUMBER                 Running object number                                     
#   2 MAG_AUTO               Kron-like elliptical aperture magnitude                    [mag]
#   3 X_IMAGE                Object position along x                                    [pixel]
#   4 Y_IMAGE                Object position along y                                    [pixel]
#   5 X_WORLD                Barycenter position along world x axis                     [deg]
#   6 Y_WORLD                Barycenter position along world y axis                     [deg]
#   7 A_WORLD                Profile RMS along major axis (world units)                 [deg]
#   8 B_WORLD                Profile RMS along minor axis (world units)                 [deg]
#   9 THETA_WORLD            Position angle (CCW/world-x)                               [deg]
#  10 FWHM_WORLD             FWHM assuming a gaussian core                              [deg]
#  11 ELONGATION             A_IMAGE/B_IMAGE                                           
#  12 ELLIPTICITY            1 - B_IMAGE/A_IMAGE                                       
         1 -15.8828    135.1880     16.8636   5.3400815269e+01   4.9402486321e+01     4.669748     3.668504 -39.22   0.01973533    1.397    0.284
         2 -12.8333    211.9675     26.3062   4.4840566875e+01   2.8679280909e+01     0.856919    0.3860973 -16.38  0.003124358    3.473    0.712
         3 -15.3367    188.3286     89.6726   6.5940625137e+01   2.4950427229e+01     3.644028     1.889376 -53.32   0.01333893    2.364    0.577
         4 -11.3830     39.2510     18.8862   8.4667569679e+01   6.8057098269e+01    0.2378928    0.1372511   1.74  0.001234087    2.119    0.528
         5 -15.9630    213.2257    121.4478   6.9477361223e+01   1.3318013948e+01     4.045522     2.188057 -52.93    0.0146373    2.327    0.570
         6 -18.2850    231.7506     56.8802   5.0292550796e+01   1.9767015389e+01      9.81568     7.065674 -34.35   0.05159506    1.328    0.247
         7 -12.4599    158.6436      3.1049   4.4815394312e+01   4.4758730709e+01     0.301611    0.2624018  41.48 0.0004949032    1.187    0.157
         8 -11.1583    219.9114     10.9160   4.0108327584e+01   2.8505207411e+01    0.1857855    0.1639219  57.46  0.001149202    1.288    0.224
         9 -10.9700    208.4923      6.7628   4.0130857171e+01   3.1736053621e+01    0.1461379    0.1278651  13.95 0.0008723993    1.481    0.325
        10 -12.3780     67.4769      2.7190   6.5079820403e+01   6.5708855639e+01     0.420381    0.2572396  50.37  0.002361436    1.685    0.407
        11 -12.4469     58.4849      2.7871   6.8396848886e+01   6.7289466913e+01    0.4387703    0.1538134  40.05  0.001945985    2.595    0.615
        12 -13.5610    192.0000    152.9462   8.1071965556e+01   1.2077861331e+01    0.6320825    0.3696257 -46.27  0.002751817    1.823    0.451
        13  -9.8263    247.2114    174.1323   7.5224034316e+01  -2.0088186155e+00    0.1606625    0.1479075 -26.01 0.0003157824    1.294    0.227
        14 -12.2999    172.4483    149.8904   8.4566197009e+01   1.6815807223e+01     0.338195    0.2823458  71.67  0.001687185    1.429    0.300
        15 -11.9094    181.8191    149.1584   8.2363354159e+01   1.4959487737e+01    0.2711507    0.2411503 -22.46 0.0004235744    1.141    0.123
        16 -11.2708    134.0000    147.0364   9.2912829904e+01   2.5464934876e+01    0.7164673    0.2236002 -53.26  0.002134354    3.635    0.725
        17 -10.9378    132.6378    140.4232   9.1808768228e+01   2.7222381005e+01    0.6004225    0.2077574 -54.86  0.001810743    3.481    0.713
        18 -11.2525    144.5218    146.6700   9.0282439060e+01   2.3396068216e+01    0.4787867    0.3120954 -87.22  0.001772395    2.828    0.646
        19 -11.2515    109.7190    224.0096   1.1075705059e+02   1.3880743450e+01    0.1772602    0.1505391  67.08  0.001171484    1.081    0.075
        20 -10.2235    141.7403    180.0257   9.7542981357e+01   1.6878023500e+01    0.3182147    0.1697411  62.95  0.001180239    2.882    0.653
        21 -10.7423    166.0009    134.5055   8.2443763139e+01   2.1369116652e+01     0.232155    0.1523578  45.81 0.0003778446    1.514    0.339
        22 -11.3638    136.0000    129.4667   8.8438983012e+01   2.8988264598e+01    0.8110802    0.1542623 -46.88  0.001922677    5.233    0.809
        23 -11.2635    135.2070    121.6328   8.6725564179e+01   3.0908631668e+01    0.8096458    0.2064209 -47.03   0.00190517    3.917    0.745
        24 -12.3756    134.5955    108.2900   8.3418832200e+01   3.3992758291e+01     1.345927    0.2706453 -45.66  0.003224464    4.953    0.798
        25 -11.2441    132.2005     98.1546   8.1240743028e+01   3.6713708036e+01    0.2996395    0.2549812 -64.22 0.0003683941    1.279    0.218
        26 -12.9276    161.2084    128.1947   8.2010228327e+01   2.3758352195e+01    0.5701169    0.5298317  17.48  0.001694261    1.124    0.110
        27  -9.7875     98.4439    131.5352   9.8798854385e+01   3.5777539986e+01    0.1470684    0.1385128 -71.33 0.0001198603    1.021    0.021
        28 -11.8212    174.5493    114.4448   7.5489299746e+01   2.3521956235e+01    0.3353634     0.295079  78.99 0.0009300236    1.290    0.225
        29 -14.1950    166.8868    114.9061   7.7320206084e+01   2.5221178299e+01     1.338592    0.9507161 -43.41  0.001493488    1.399    0.285
        30 -11.1580    178.3554    110.0743   7.3514647897e+01   2.3492815176e+01    0.2630012    0.2186012  33.79 0.0005671674    1.268    0.212
        31 -12.3192    117.4711    108.1147   8.7969854252e+01   3.7658866230e+01    0.4451576    0.3234991 -39.87  0.001657446    1.384    0.277
        32 -11.3712    127.1289    104.7526   8.4432292103e+01   3.6390800356e+01    0.4817424    0.3030728 -55.67  0.002013345    1.727    0.421
        33 -11.9636    122.5386    102.9623   8.5186157930e+01   3.7761921024e+01    0.4817075    0.2645981  38.88  0.001913362    1.946    0.486
        34 -11.5750    112.3950    104.5119   8.8431239342e+01   3.9493522165e+01    0.5031632    0.2548019 -53.03  0.001692072    2.029    0.507
        35 -10.2794    140.0984    105.9054   8.1354208203e+01   3.3285275374e+01    0.2473364    0.1960612   3.69  0.000617317    1.632    0.387
        36 -12.0847    156.4749    112.2930   7.9048841026e+01   2.8183197922e+01     0.405574    0.3142232 -68.54 0.0001714643    1.562    0.360
        37 -11.4296    145.0082    102.4467   7.9160989954e+01   3.2902371407e+01    0.3615744    0.2905245  35.98 0.0007743479    1.305    0.234
        38 -10.5340    121.8167     97.4510   8.3845434693e+01   3.9123171644e+01    0.3021131    0.1522426  49.87  0.001138866    2.125    0.529
        39 -10.4006    113.3609     95.0252   8.5531349292e+01   4.1412215480e+01    0.2186032    0.1858981 -43.04 0.0003608903    1.136    0.120
        40 -11.8380    138.2136     92.4914   7.8039138891e+01   3.6542814975e+01    0.3595383     0.310303  63.97 0.0006406813    1.248    0.199
        41 -11.2905    205.9761     90.3142   6.2848150354e+01   2.0542536144e+01    0.2579033    0.2182618 -56.10 0.0003575057    1.204    0.169
        42 -10.5596    197.4474     84.1318   6.2707276484e+01   2.3692670388e+01    0.2434249    0.2121522  66.19 3.053465e-05    1.193    0.162
        43 -11.4675     88.0423     77.4874   8.8027375119e+01   5.0020147287e+01     0.902747    0.3797219 -60.33  0.002529275    4.892    0.796
        44 -10.4955    138.9182     78.4729   7.3625617345e+01   3.9178137627e+01    0.2510341     0.212945 -51.90  0.001232596    1.230    0.187
        45 -10.7805    126.0306     78.5305   7.7020182565e+01   4.2143115962e+01    0.3453509    0.1875334 -56.76   0.00125018    2.510    0.602
        46 -10.8844    115.5176     76.1686   7.9203006984e+01   4.4920604901e+01    0.3088015    0.1977154  28.98 0.0009039933    1.867    0.464
        47 -12.3786    199.7723    163.3581   8.1764781340e+01   8.5719015678e+00    0.5858724    0.3360632 -65.27  0.001904963    4.380    0.772
        48 -12.7792     46.1657    172.9881   1.1843836386e+02   3.3478168514e+01    0.6871628    0.3760512  60.64  0.003618269    1.788    0.441
        49 -14.5291     68.0423    144.8520   1.0942160253e+02   3.7296705075e+01     1.539134     1.027304  50.02  0.003924376    1.533    0.348
        50 -13.3428    192.6711    194.6250   8.9435368206e+01   4.5347744351e+00     1.031469    0.5742847 -64.82  0.003392692    5.231    0.809
        51 -13.4674    185.1460     68.1453   6.0455714119e+01   2.9497537607e+01    0.9583513    0.3190705 -48.23   0.00274498    3.843    0.740
        52 -11.3280    114.1140     49.8787   7.0607470396e+01   5.0019261964e+01    0.2184535    0.2064345 -73.61 0.0005554655    1.243    0.196
        53 -11.5886    115.3524     44.8816   6.8434149928e+01   5.0535550133e+01    0.2392187    0.2033008  58.57 0.0004251225    1.267    0.211
        54 -13.6204     52.0910    160.5235   1.1563545955e+02   3.5636395224e+01    0.5112579    0.4135838  76.06 0.0009973836    1.108    0.097
        55 -14.4840     59.5934    155.8364   1.1319720529e+02   3.5801992013e+01    0.8869035    0.6902142  68.84  0.002812177    1.223    0.182
        56 -11.0905    201.1465     32.0525   4.7694656746e+01   3.0682126327e+01    0.2724527    0.1631059 -34.18 0.0005434661    1.659    0.397
        57 -10.6318    201.2912     24.4125   4.5584837474e+01   3.1585343129e+01    0.1964387    0.1463038 -38.52 0.0007594147    1.344    0.256
        58 -14.3565    196.1101     71.5895   5.9482424459e+01   2.6157453528e+01    0.9805424    0.9111617  55.75  0.004119448    1.107    0.096
        59  -9.7920    202.6795     20.0292   4.4233609904e+01   3.1746965111e+01       0.1769    0.1485841 -33.18 0.0005017182    1.271    0.213
        60 -15.1709     25.9839    175.7613   1.2313130031e+02   3.5035605953e+01     1.053471     1.033639  -6.13  0.006566579    1.492    0.330
        61 -14.5108     14.3995    190.7818   1.2660502861e+02   3.2923550613e+01     1.630605    0.6468963  59.32  0.008517496    2.258    0.557
        62 -13.9981      7.6167    170.2527   1.2659716341e+02   3.7919727484e+01    0.9303343     0.712849  88.62  0.006013385    1.056    0.053
        63 -12.2737    202.8333    191.1614   8.6780695965e+01   3.2370692192e+00    0.3242553    0.2394033  -6.66  0.001750252    1.499    0.333
        64 -13.9409     65.6467    151.3300   1.1103760177e+02   3.6074911247e+01    0.7692913    0.4753177  77.57  0.001684266    1.896    0.473
        65 -13.5854     37.7312    162.2542   1.1923102249e+02   3.6869568521e+01    0.8897824    0.5803929  89.11  0.005197384    1.357    0.263
        66 -14.4599    162.9357     74.6904   6.6828117252e+01   3.4001582118e+01      2.21413     1.450051  14.59  0.008449343    2.470    0.595
        67 -10.8506    202.1608    248.2146   9.6457044779e+01  -4.7913196540e+00    0.1759314    0.1281239  22.26 0.0003650457    1.149    0.129
        68 -14.2908    189.5059    148.4898   8.0586441136e+01   1.3448888958e+01     1.130061    0.4582278 -38.77  0.004077324    2.509    0.601
