#   1 NUMBER                 Running object number                                     
#   2 MAG_AUTO               Kron-like elliptical aperture magnitude                    [mag]
#   3 X_IMAGE                Object position along x                                    [pixel]
#   4 Y_IMAGE                Object position along y                                    [pixel]
#   5 X_WORLD                Barycenter position along world x axis                     [deg]
#   6 Y_WORLD                Barycenter position along world y axis                     [deg]
#   7 A_WORLD                Profile RMS along major axis (world units)                 [deg]
#   8 B_WORLD                Profile RMS along minor axis (world units)                 [deg]
#   9 THETA_WORLD            Position angle (CCW/world-x)                               [deg]
#  10 FWHM_WORLD             FWHM assuming a gaussian core                              [deg]
#  11 ELONGATION             A_IMAGE/B_IMAGE                                           
#  12 ELLIPTICITY            1 - B_IMAGE/A_IMAGE                                       
         1  -8.7342     91.7292     26.4402   8.2925577680e+01   5.8736659277e+01    0.2505897    0.1624434 -40.06 0.0006527483    1.670    0.401
         2  -8.3907     29.9578     16.0049   1.0551249515e+02   7.0193499809e+01    0.1721707    0.1550296 -83.66  0.001004709    1.745    0.427
         3 -10.5067    183.3468     12.3740   5.7464511290e+01   3.7410201267e+01    0.5383833     0.333023 -86.93  0.002222908    1.913    0.477
         4  -8.1592    126.8367      9.8623   6.5964289120e+01   5.2543339019e+01     0.181986    0.1689626 -68.31 0.0002403881    1.268    0.212
         5  -8.1987    101.5899      9.7448   7.2150023732e+01   5.8721670548e+01    0.3197709    0.1229684 -28.08  0.001235983    2.552    0.608
         6  -8.3613     55.6393     10.2978   8.9343562571e+01   6.7794151818e+01    0.1731052    0.1521804 -54.22 0.0006204895    1.686    0.407
         7 -10.3627      7.0024     14.8793   1.1847293574e+02   7.2146869988e+01     0.263049    0.1559264 -78.71  0.001401077    2.446    0.591
         8 -10.3390      6.6463      9.2494   1.1652742873e+02   7.3281470311e+01    0.2660722    0.1959751  56.93  0.001662648    2.277    0.561
         9  -8.5409    194.0206      6.0424   5.4251816284e+01   3.5215370219e+01    0.2213673    0.1520045  34.96 0.0006073734    1.632    0.387
        10  -8.8303     32.8611      5.2715   9.8410951426e+01   7.1748396731e+01    0.2059511    0.2005872  22.99  0.001451886    1.554    0.357
        11  -8.3912     79.2020      4.0518   7.6362284015e+01   6.4265046191e+01    0.2109528      0.14227 -44.39  0.001063199    1.955    0.488
        12  -9.4357     16.0197      3.5459   1.0784029704e+02   7.3719990183e+01    0.2114941    0.1551508 -54.81 0.0009468034    1.580    0.367
        13  -8.3263     62.3240      1.4239   8.1421114341e+01   6.7847387616e+01    0.1555853    0.1233313  46.72 0.0003886046    1.481    0.325
        14  -7.8498     39.3143      1.6713   9.2714275842e+01   7.1487273421e+01     0.109179   0.09963042 -48.73 0.0007044309    1.674    0.403
        15  -8.7288    169.1248    243.4447   1.1412933188e+02   5.2433071652e+00     0.165308    0.1339901  48.22 0.0004981413    1.385    0.278
        16  -8.5959    232.6248    247.3653   1.0370922496e+02  -4.0658961022e+00    0.1541614    0.1502144 -50.83 0.0008967626    2.144    0.534
        17  -9.6276    211.5464    247.4231   1.0723575568e+02  -1.2170962904e+00    0.2954187    0.2312458 -67.56  0.001829936    3.445    0.710
        18  -8.4854    185.5438    250.5040   1.1210087587e+02   2.0889059507e+00    0.1993488   0.07865512  44.04  0.001028615    2.249    0.555
        19  -8.7941    132.1552    248.1476   1.2127112255e+02   9.8781124620e+00    0.2125984    0.1231912  58.40 0.0007639366    2.006    0.501
        20  -8.5434     93.9043    249.7541   1.2817636054e+02   1.4708826528e+01    0.1943177    0.1058951  64.92  0.001219257    2.047    0.511
        21  -7.9113     86.2915    250.6602   1.2956455748e+02   1.5522338799e+01    0.1075722   0.05954233  59.21 0.0006662262    1.648    0.393
        22 -11.4200     29.1921    241.7877   1.3871588313e+02   2.3154892937e+01    0.7312925    0.2634845  36.92  0.004493685    2.200    0.546
        23 -10.7238     45.5621    244.7266   1.3613801648e+02   2.1048848574e+01    0.4056505    0.1918489  29.73  0.001923565    2.335    0.572
        24 -12.0950     49.0151    248.9812   1.3577684865e+02   2.0038624472e+01     2.241697    0.3742781  34.10  0.008571439    5.398    0.815
        25 -10.5614     64.3355    248.9073   1.3320672419e+02   1.8368020792e+01    0.4485231    0.1847779  34.71  0.001632439    2.118    0.528
        26  -9.7390     71.4900    238.7341   1.3132011970e+02   1.9086176946e+01    0.2100187     0.147971  45.78 0.0006574632    1.124    0.110
        27 -12.5561     65.7754    233.3245   1.3197392008e+02   2.0605576695e+01     0.773619     0.659381  85.92  0.005862683    1.291    0.225
        28  -9.4812    160.2092    240.5933   1.1539237795e+02   6.8853838979e+00    0.2447175    0.1939006 -84.12  0.001284027    2.147    0.534
        29  -9.4386     77.8230    243.5087   1.3053276635e+02   1.7602557912e+01    0.2079329   0.09546939  62.95  0.001179911    2.374    0.579
        30  -9.1950    248.3302    242.1095   1.0039692767e+02  -5.6469342508e+00     0.195919    0.1591166  -6.06 0.0008318241    1.490    0.329
        31  -9.9180    244.4834    241.8880   1.0098402072e+02  -5.1272562424e+00    0.2112131    0.1674544   4.72  0.001146047    1.323    0.244
        32  -8.6177    201.8351    242.9050   1.0828994798e+02   6.1105011700e-01    0.1634811    0.1429926  -6.88 0.0007524829    1.412    0.292
        33  -9.2374    149.5727    243.0092   1.1759744183e+02   8.1069165962e+00    0.2179389   0.08804223  42.45  0.001152297    1.891    0.471
        34  -8.8717    180.6570    242.3090   1.1193150018e+02   3.7134621892e+00    0.2279693    0.1312258  40.62 0.0008270187    1.408    0.290
        35  -9.2790    182.4479    239.5571   1.1125875850e+02   3.7760241953e+00    0.3634481    0.2228099  58.79  0.001932055    2.874    0.652
        36  -9.3755    194.4212    240.3961   1.0924693277e+02   1.9453233340e+00    0.2536184    0.1931922 -61.52  0.001394498    2.601    0.616
        37  -8.4383    135.0851    242.4722   1.2016571526e+02   1.0231195622e+01     0.173775   0.08391887  39.59 0.0004032619    1.534    0.348
        38  -8.1775     88.3652    242.2228   1.2857475681e+02   1.6503441503e+01    0.1305697   0.08961158  82.80 0.0005776325    1.668    0.400
        39  -8.0645    146.4471    239.9407   1.1782159249e+02   8.9566890637e+00    0.1323836   0.09367624  79.17 0.0007285234    2.397    0.583
        40  -9.3886    125.3415    239.3497   1.2162282387e+02   1.2025094974e+01    0.2332614    0.1280695  39.02  0.001036747    1.375    0.273
        41  -8.7345    135.7162    238.9375   1.1967668919e+02   1.0624529407e+01    0.1650623    0.1110768  64.87 0.0006725617    1.903    0.475
        42  -9.4472      3.0642    239.9572   1.4284253398e+02   2.5803648606e+01    0.1703985    0.1028688  53.45 0.0004054303    1.167    0.143
        43  -9.1705     83.5504    238.8778   1.2918022265e+02   1.7607393503e+01    0.2235168    0.1142888  41.24 0.0008583374    1.482    0.325
        44  -9.5659     52.7179    238.8533   1.3461166789e+02   2.1195988730e+01    0.1924739    0.1082406  47.11  0.000584905    1.309    0.236
        45  -9.7429     18.1373    238.2121   1.4038444387e+02   2.4755620270e+01    0.2165344    0.1444443  42.11  0.001691376    1.359    0.264
        46  -9.5461    247.3962    235.4009   9.9538822050e+01  -4.9184793159e+00    0.3220973    0.2025943  36.86  0.001719888    1.607    0.378
        47  -9.0569    230.8261    236.7969   1.0247806760e+02  -2.8184676454e+00     0.158404    0.1491901 -47.01 0.0009236877    2.082    0.520
        48  -8.6683     89.4892    247.3556   1.2876619295e+02   1.5606266857e+01    0.1815373   0.07522466  39.21 0.0006960707    1.798    0.444
        49  -8.1646    189.5096    237.5060   1.0972843928e+02   2.9858190930e+00    0.1171465   0.08531057  27.27 -2.322286e-05    1.002    0.002
        50 -10.1344    214.6079    232.9510   1.0467384768e+02  -1.4694987289e-01    0.3973938    0.3192087  88.50  0.002196721    3.892    0.743
        51 -10.1742    202.7386    234.9002   1.0702714426e+02   1.3546335987e+00    0.2966582    0.1964238  36.79  0.001803002    1.296    0.228
        52  -9.6717    175.5587    233.2657   1.1168080063e+02   5.5506478444e+00    0.3540189    0.2703446 -66.62  0.002311782    2.320    0.569
        53  -8.1746    170.3614    236.1017   1.1299502370e+02   5.9662686868e+00     0.125794     0.111108 -62.39 0.0005621585    1.704    0.413
        54  -7.9575    149.5105    236.5697   1.1687445485e+02   8.9630836996e+00    0.1166086   0.08674239  38.32 6.325693e-05    1.045    0.043
        55  -9.2727     78.9302    234.7308   1.2970146228e+02   1.8816967288e+01     0.255556    0.1313832  65.61  0.001228326    2.112    0.527
        56  -8.4486     44.3584    236.0182   1.3589902356e+02   2.2536407969e+01    0.1404698    0.1013556  64.02 0.0004842794    1.087    0.080
        57  -9.4032      8.1575    235.7367   1.4191527561e+02   2.6032761509e+01    0.2029919   0.07680447  46.28  0.001149178    1.792    0.442
        58  -8.0226    153.3087    235.6671   1.1606822147e+02   8.5292273833e+00    0.1114718   0.07733849  56.46 0.0005225427    1.671    0.401
        59  -8.6346    132.3313    232.6499   1.1962370451e+02   1.1990193805e+01    0.1537089    0.1212428 -66.09  0.000870999    1.690    0.408
        60  -9.5498    108.6250    234.5372   1.2423580224e+02   1.5019788845e+01    0.2934498    0.1642483  56.97  0.001123005    1.772    0.436
        61  -9.3375     94.5226    234.3083   1.2681996268e+02   1.6920540853e+01    0.3275969    0.1684968  61.46  0.001722001    2.128    0.530
        62  -8.3542     99.3883    234.2230   1.2591588217e+02   1.6298851590e+01    0.1633095    0.1040912  56.55 0.0008949244    1.401    0.286
        63  -8.1525    122.8203    234.2248   1.2156701419e+02   1.3111469680e+01    0.1849594   0.09410945  60.67 0.0007763556    2.709    0.631
        64  -9.3483    235.9147    231.3614   1.0081010017e+02  -2.9843451179e+00    0.2259025    0.1388626 -10.25 0.0006548223    1.619    0.382
        65  -8.5515    194.5545    232.7590   1.0817816435e+02   2.7954492123e+00    0.1248706    0.1129876 -35.24 0.0006184892    1.598    0.374
        66  -8.4864    144.9791    233.4715   1.1735411987e+02   1.0043726563e+01    0.1675738   0.07578327  51.91 0.0008094452    2.505    0.601
        67  -9.5366    186.4266    230.8714   1.0937999622e+02   4.2249706427e+00    0.2320297    0.1963987  78.18  0.001186438    2.098    0.523
        68  -8.6708      2.3050    231.7301   1.4273894792e+02   2.7166649061e+01    0.2433931   0.05956441  53.03  0.001390772    2.519    0.603
        69  -8.3937     11.2939    231.6835   1.4127802521e+02   2.6408868953e+01    0.1028815   0.04697672  60.23 0.0004433712    1.602    0.376
        70  -9.3784    246.5463    229.5859   9.8780106812e+01  -4.2610770747e+00    0.1967437    0.1510798   6.06 0.0007786105    1.209    0.173
        71  -8.9470    146.3190    226.7151   1.1629968975e+02   1.0790084505e+01     0.203505    0.1287614  42.30 0.0004671793    1.265    0.210
        72  -8.9986    151.3214    228.9769   1.1563054976e+02   9.7283568246e+00    0.2372679    0.1643542  85.29  0.001315871    2.867    0.651
        73  -9.3567    148.8271    224.7287   1.1557796723e+02   1.0696546560e+01    0.3413272    0.2473705  78.06   0.00142151    2.249    0.555
        74  -8.8289    139.9792    230.0119   1.1789014493e+02   1.1258429911e+01    0.1780176    0.1186587  57.43  0.000571739    1.667    0.400
        75  -8.1995     32.1510    229.8748   1.3769864020e+02   2.4768080361e+01    0.1231397    0.1040884  49.13 0.0006591433    1.303    0.233
        76  -8.2224    103.0822    229.5162   1.2480057544e+02   1.6532355757e+01    0.1745341   0.08831354  39.21 0.0007529919    1.548    0.354
        77  -9.1423    161.9610    228.1523   1.1352959630e+02   8.2467903868e+00    0.2427981    0.1456082  38.07  0.001152486    1.287    0.223
        78  -8.9587    128.0524    227.5086   1.1986637779e+02   1.3355452686e+01    0.2276355    0.1556023  67.59  0.001280405    1.848    0.459
        79  -9.0535     93.6341    223.8922   1.2607256976e+02   1.8679802472e+01    0.2795435    0.1451174  64.92  0.001416606    2.347    0.574
        80  -8.8510     48.3704    227.9424   1.3475363760e+02   2.3421137891e+01    0.1680569    0.1546081  20.62 0.0007083989    1.549    0.354
        81  -7.9850     39.6697    228.7253   1.3633558461e+02   2.4202892451e+01   0.08259438    0.0783354  12.93 0.0003456651    1.593    0.372
        82  -9.1345    206.0485    226.0629   1.0516123285e+02   1.8649549297e+00    0.1595072    0.1336072  48.04 0.0006038577    1.652    0.395
        83  -7.7875    200.2928    226.6462   1.0627610657e+02   2.6552372449e+00    0.1037608    0.0869244  51.53 0.0006327768    1.683    0.406
        84  -8.5275      6.1278    225.7676   1.4193950626e+02   2.7816468296e+01     0.113929   0.09869702  69.39 0.0006044632    1.320    0.243
        85  -8.8545    180.6427    224.4229   1.0954369860e+02   5.8987875307e+00    0.1897014    0.1663472  65.42 0.0006908435    1.671    0.402
        86 -11.7488     23.2094    248.9246   1.3995368825e+02   2.2632117683e+01     1.190753    0.1551462  38.39  0.005782728    3.601    0.722
        87  -9.0615    216.5163    223.4403   1.0291426513e+02   6.1129379567e-01    0.2160052    0.1677994 -31.39  0.001386205    1.688    0.408
        88  -8.6216    219.1321    219.6384   1.0186385831e+02   6.4802207192e-01     0.230106   0.09483116  40.49 0.0009824341    2.103    0.525
        89  -9.0328    173.0236    223.4378   1.1082750033e+02   7.1921503236e+00     0.183333    0.1699783  87.21 0.0007036385    1.601    0.375
        90  -8.8252    104.6686    223.6625   1.2393877712e+02   1.7237093027e+01    0.2337434    0.1511243 -89.70  0.001430993    2.102    0.524
        91 -10.6204     34.0778    247.8841   1.3817309648e+02   2.1738990017e+01    0.4960022    0.1843288  41.00  0.003051802    1.913    0.477
        92  -8.8877     26.6417    223.8368   1.3837824819e+02   2.6300976960e+01    0.1933087     0.121195 -65.38  0.001018474    1.914    0.478
        93  -9.2972    192.6453    221.7352   1.0694268462e+02   4.4010280857e+00    0.2714321    0.2112953  61.70  0.001107777    2.059    0.514
        94  -8.6580    238.8720    221.6108   9.8789223652e+01  -2.4190933446e+00    0.1769713    0.1426167 -31.12 0.0006250761    1.811    0.448
        95  -9.1405    225.4363    221.7457   1.0109769588e+02  -5.0933572830e-01    0.1755165    0.1413899   5.58  0.000360088    1.203    0.169
        96 -10.4375    156.7584    218.7637   1.1328717761e+02   1.0337323213e+01    0.5532378    0.3025839  56.18   0.00179984    2.492    0.599
        97  -8.0849    140.2950    222.6716   1.1696071736e+02   1.2273218387e+01    0.1153815   0.08065399  59.19 0.0005424584    1.630    0.386
        98  -9.0879    133.3488    220.2396   1.1801345402e+02   1.3671683322e+01    0.2743759    0.1921221  22.47  0.001407664    1.514    0.340
        99  -8.9938    132.1391    215.2758   1.1765239522e+02   1.4615530667e+01    0.2830074    0.1891334  78.18  0.001480013    2.398    0.583
       100  -9.1037     61.9760    217.4828   1.3157636210e+02   2.3669655122e+01    0.2850867    0.1288701  58.98  0.001589239    2.081    0.519
       101  -8.6768     43.6829    220.3347   1.3516078705e+02   2.5193141898e+01    0.1784318    0.1163753  60.31 0.0005013118    1.193    0.162
       102  -8.8215     18.4053    220.8587   1.3968363694e+02   2.7565421127e+01    0.1681167   0.09734599  50.74 0.0005472567    1.298    0.230
       103  -8.7892    202.5098    220.0662   1.0489469873e+02   3.0983051606e+00    0.1542418    0.1128292 -24.49 0.0005551214    1.564    0.361
       104  -8.9805    120.2186    219.1686   1.2045224778e+02   1.5762244216e+01    0.3216087    0.1653676  59.64  0.001598798    2.521    0.603
       105  -8.9068    249.3871    218.6489   9.6565639078e+01  -3.5872609880e+00    0.2420272    0.1680369  54.11  0.001375268    3.015    0.668
       106  -8.1776    210.1557    219.2162   1.0338825159e+02   2.0395774490e+00    0.1451984    0.1254521  27.97 0.0005032578    1.342    0.255
       107  -8.7325     98.6602    219.1334   1.2465797601e+02   1.8785467284e+01    0.1959578    0.1216351  47.02 0.0003239499    1.287    0.223
       108  -8.1494      1.4031    219.2651   1.4252926842e+02   2.9288076349e+01    0.1236123   0.06713002  75.49 0.0002630349    1.445    0.308
       109  -8.8092    242.3256    218.4117   9.7694645468e+01  -2.5793157036e+00    0.2142419   0.08532029  33.56 0.0009692886    2.005    0.501
       110  -8.8367    142.8954    217.0465   1.1575713974e+02   1.2716477752e+01    0.2353573    0.1653807 -79.84  0.001113865    2.349    0.574
       111  -9.8435    108.2045    216.9134   1.2256548579e+02   1.7834904240e+01    0.2177695    0.1663111  45.53  0.000337594    1.046    0.044
       112  -7.8768    179.3020    217.6478   1.0882715238e+02   6.9860003585e+00    0.1121446   0.08919774  58.28  0.000703907    1.701    0.412
       113  -8.8615    169.3381    216.4622   1.1055155628e+02   8.7040706381e+00    0.2398282    0.1705116  59.87 0.0009503743    1.935    0.483
       114  -8.2926    164.9744    217.2461   1.1149874442e+02   9.2769292746e+00    0.1767303    0.1242748  34.90 0.0003657195    1.119    0.107
       115 -11.0334     78.4092    206.2799   1.2745749334e+02   2.3643965992e+01    0.5981048    0.2104951  34.94  0.002614454    2.527    0.604
       116  -9.6842     68.8314    212.1714   1.2985686208e+02   2.3783864138e+01    0.2712892    0.1328817  39.22 0.0003319043    1.691    0.409
       117 -10.3714     72.0219    211.2666   1.2915943439e+02   2.3556315474e+01    0.4345002    0.1808576  63.05  0.001785653    3.065    0.674
       118  -8.8659     12.5470    215.8068   1.4050556223e+02   2.8944066389e+01    0.1648301    0.1101172  46.38 0.0004986415    1.287    0.223
       119  -8.6871    232.0940    214.7091   9.8820945712e+01  -7.2072945915e-01    0.1783404    0.1478627 -11.85 0.0006824434    1.395    0.283
       120  -9.0847    185.6561    214.5272   1.0716832253e+02   6.4017780999e+00    0.1644924    0.1524584 -87.54 0.0008686195    1.704    0.413
       121  -9.2515     86.6558    215.2309   1.2663445966e+02   2.1028084228e+01    0.2096061    0.1273395  42.25 0.0005428331    1.332    0.249
       122  -8.6543     93.1167    214.0949   1.2525692173e+02   2.0370198213e+01    0.2364082    0.1109255  54.95  0.001201621    2.103    0.524
       123  -9.2889     33.6163    214.0405   1.3665375165e+02   2.7302801688e+01    0.1825946    0.1249788  45.84 0.0003170272    1.253    0.202
       124  -9.4614    213.9039    212.3490   1.0162944705e+02   2.2741746354e+00     0.288164    0.2056772  48.75  0.001598555    1.833    0.454
       125  -8.8576    161.6812    212.5215   1.1147482600e+02   1.0464652996e+01    0.1793825    0.1508786  81.03  0.001008337    1.758    0.431
       126  -8.1567    224.5155    212.5226   9.9776563718e+01   6.4420981644e-01    0.1210759   0.09117213  18.41 0.0001838553    1.042    0.040
       127 -10.1729    175.0340    210.3678   1.0856921496e+02   8.6479181960e+00    0.3655347    0.2726842  28.86   0.00143132    1.070    0.065
       128  -9.0903    147.1001    211.2355   1.1416851305e+02   1.2946157646e+01    0.3032317    0.2296014  11.65  0.001450742    1.505    0.336
       129  -9.1830     51.7887    217.6693   1.3350377577e+02   2.4782639154e+01    0.2334005    0.1332514  59.83 0.0009861288    1.456    0.313
       130  -9.3645     45.0506    211.5255   1.3437942533e+02   2.6578918290e+01    0.2189991     0.134629 -57.71  0.001455096    2.039    0.510
       131  -7.9608      8.6345    212.3213   1.4106120739e+02   2.9878916188e+01    0.1124318   0.04766748  59.00 0.0007039129    1.786    0.440
       132  -8.8335      3.6988    211.8508   1.4190590111e+02   3.0367033371e+01    0.1470133    0.1135732  44.18 0.0005715144    1.346    0.257
       133  -9.4159    236.1248    208.8746   9.7159923359e+01  -6.7836362021e-01    0.3156854     0.205918   0.86   0.00167523    1.390    0.280
       134  -8.8394    204.2180    210.7145   1.0312367939e+02   3.9725689781e+00    0.1940375    0.1874234 -79.11 0.0008789684    1.710    0.415
       135  -8.7503    116.3741    210.4244   1.2022227291e+02   1.7731875537e+01    0.2650905    0.1492685  64.12  0.001198491    2.390    0.582
       136  -8.9596     97.9323    210.1174   1.2390113702e+02   2.0395983635e+01    0.2100351    0.1402805  51.64 0.0004041505    1.271    0.213
       137  -9.1939     99.3262    206.3996   1.2322985912e+02   2.0844770780e+01    0.3062735    0.1898688  70.26  0.001302253    1.947    0.486
       138  -9.6642     85.5415    209.7064   1.2634380805e+02   2.2123701989e+01    0.2565953    0.1438629  65.70  0.001268373    1.979    0.495
       139  -8.3209    139.3081    208.0062   1.1529587940e+02   1.4661040380e+01    0.1868278    0.1361556  76.22 0.0007372102    1.991    0.498
       140  -8.8697    135.9828    208.5110   1.1603231750e+02   1.5095871888e+01    0.2304496    0.1293324  34.38 0.0003236745    1.528    0.346
       141  -9.6458    246.1935    207.2736   9.5188098807e+01  -1.9746547953e+00    0.2362989    0.1597711 -13.81 0.0005964119    1.390    0.281
       142  -9.6362    250.0419    202.5775   9.3736778349e+01  -2.0331582166e+00    0.3290909    0.1676612 -21.75  0.001262648    1.916    0.478
       143  -7.8107    156.6366    208.2842   1.1186715506e+02   1.1887895890e+01    0.1237425   0.08607855  56.26 0.0007019198    1.686    0.407
       144  -9.7712     82.6676    220.3198   1.2785538037e+02   2.0682729898e+01    0.2814339    0.1488328  66.49  0.001580865    2.157    0.536
       145  -8.4636     25.1247    208.1927   1.3791862818e+02   2.9148568290e+01    0.1524414   0.08849166  59.51 0.0005913152    1.339    0.253
       146  -9.2636    215.9967    206.0122   1.0021202756e+02   2.7065780678e+00    0.4016687    0.1861194  18.95  0.001552864    2.805    0.644
       147  -8.7207     50.9041    205.8754   1.3288311433e+02   2.6961306272e+01    0.1520285    0.1331113  58.72 0.0003803805    1.177    0.150
       148 -10.0292     12.2802    203.5524   1.4007083265e+02   3.1120563486e+01    0.2568395    0.1780287 -87.73  0.002005839    1.322    0.243
       149  -9.6307    192.4697    197.3399   1.0313828561e+02   7.6135685119e+00    0.3245927    0.2662007 -64.39  0.001166671    2.056    0.514
       150  -9.0710    183.8467    204.2170   1.0592128276e+02   8.0800844990e+00    0.2447702    0.1688481  51.59  0.001105118    1.728    0.421
       151  -7.9808    109.2655    205.6134   1.2111234433e+02   1.9573623210e+01    0.1214014   0.08167388  67.32 0.0006983386    1.698    0.411
       152  -9.2000     88.7721    205.2387   1.2526024422e+02   2.2483399421e+01    0.2056992    0.1207053  41.13 0.0005600821    1.418    0.295
       153  -8.5317     56.1750    205.2239   1.3180280698e+02   2.6494801163e+01    0.1607159    0.1014067  65.11 0.0005872922    1.399    0.285
       154  -9.6553    163.8443    203.1577   1.0968295682e+02   1.1494201004e+01    0.3719205    0.2070371  53.16  0.001205549    2.177    0.541
       155  -8.0063    151.6451    204.7535   1.1236218303e+02   1.3222291822e+01    0.1247733   0.08532325  18.70 0.0002315017    1.593    0.372
       156  -8.7590    131.1246    204.1594   1.1645216835e+02   1.6549351136e+01    0.2361644    0.1457159  51.91 0.0009616958    1.578    0.366
       157  -8.7173    239.2030    203.7654   9.5761691087e+01  -5.7321833767e-01    0.2750929   0.08055218  38.12  0.001168265    2.876    0.652
       158  -8.9705    140.6857    201.6563   1.1415399860e+02   1.5460605311e+01     0.322777    0.1973956  67.81  0.001300014    2.773    0.639
       159  -8.4413    210.9915    202.0443   1.0045423663e+02   3.9826114114e+00    0.1678788    0.1521426  58.95 0.0006495028    1.736    0.424
       160  -9.8372     79.8675    201.3780   1.2670508973e+02   2.4340257071e+01    0.2956395    0.1380432  62.07   0.00142344    2.554    0.608
       161  -8.0651    222.2715    201.6484   9.8347501825e+01   2.2513453773e+00    0.1012949   0.09806097  35.03 0.0006997459    1.632    0.387
       162  -9.2465    112.5336    198.7250   1.1961882691e+02   2.0290475809e+01    0.3149792    0.2265253 -82.06  0.001681847    1.761    0.432
       163  -8.3481     60.5612    201.4253   1.3063730760e+02   2.6687538753e+01    0.1378209    0.1350973 -16.80 7.077269e-05    1.409    0.290
       164  -9.6477     61.9675    197.7163   1.3004991207e+02   2.7210784444e+01    0.4015794    0.1665078  57.04  0.001700449    2.416    0.586
       165  -9.2946     88.6992    198.9268   1.2463279957e+02   2.3626200777e+01    0.3132709    0.1883467  71.26   0.00167385    1.970    0.492
       166  -8.4980     29.1209    200.5102   1.3676754952e+02   3.0163933081e+01    0.1519916   0.08803853  39.69 0.0006585581    1.543    0.352
       167  -9.1986    236.9472    198.4700   9.5222257908e+01   3.5939773742e-01    0.2412067    0.1568744 -27.48  0.001107753    1.654    0.396
       168  -9.0161    201.5434    198.5785   1.0162145848e+02   5.9532545535e+00     0.330056    0.1693934  21.32  0.001532235    2.166    0.538
       169  -8.6534    177.0091    199.0032   1.0642424196e+02   9.9424200855e+00    0.1815838    0.1490667  61.48  0.000528161    1.651    0.394
       170  -8.9334    104.6432    198.5899   1.2125835818e+02   2.1467027589e+01    0.2082094    0.1578691  38.22 0.0003453806    1.176    0.149
       171 -11.2264     76.0051    217.0036   1.2885822602e+02   2.2075435666e+01    0.3513688    0.2372678 -54.46  0.002357413    1.884    0.469
       172  -8.2951     21.7306    199.3641   1.3811902711e+02   3.1057334177e+01    0.1283175    0.0930808  27.91 0.0005072424    1.646    0.393
       173  -9.6508     52.4695    197.8530   1.3199223460e+02   2.8264086325e+01    0.1950505    0.1790142  -6.81  0.001474615    1.575    0.365
       174  -8.0588     44.6215    198.7682   1.3363071510e+02   2.8938347020e+01   0.09313326   0.08384611   2.12 0.0005438272    1.617    0.381
       175 -10.1199    194.9497    203.5309   1.0368935886e+02   6.3699842079e+00    0.3814887     0.210965 -37.53  0.001719558    2.130    0.530
       176  -8.6031     83.4862    196.9563   1.2551976408e+02   2.4680016808e+01    0.1895811    0.1351282  43.31 0.0006361841    1.209    0.173
       177  -8.6836    215.8484    195.7662   9.8484734673e+01   3.9922026452e+00    0.1861153    0.1650033 -60.41 0.0008391174    1.966    0.491
       178  -8.7349    123.8913    199.2564   1.1730847311e+02   1.8484851239e+01    0.2115562    0.1586079  70.41  0.001004088    1.589    0.371
       179  -9.2335    242.9799    200.9839   9.4637030040e+01  -8.2774902637e-01    0.2405998    0.1561586 -31.77 0.0008973936    1.822    0.451
       180  -9.4135    245.7195    193.7224   9.2882633794e+01  -4.3171996183e-01    0.2419015     0.215976 -47.50  0.001399552    2.022    0.505
       181  -8.9555    224.7226    194.2822   9.6620768187e+01   2.7548760412e+00    0.2404329    0.1548182 -42.02 0.0009342996    2.180    0.541
       182  -9.1167    185.2072    194.9741   1.0415154537e+02   9.1563697180e+00    0.2118337    0.1923411  36.73 0.0007653535    1.276    0.216
       183  -8.9801    160.8641    194.1451   1.0889839698e+02   1.3367574714e+01    0.2292311    0.1891647 -84.25  0.001025682    1.839    0.456
       184  -9.0603     43.8302    193.5952   1.3343127763e+02   2.9993014745e+01    0.3492063    0.1385781  64.40  0.001665501    2.808    0.644
       185  -8.1746    230.6468    194.2432   9.5565244327e+01   1.8242561224e+00    0.1648725    0.1013349 -14.49 0.0006537447    1.619    0.382
       186  -8.6498     76.8943    194.1273   1.2662268275e+02   2.6059805401e+01    0.1862359    0.1324514  61.87 0.0005850686    1.270    0.212
       187  -9.1019      5.9720    193.7397   1.4084459134e+02   3.3426952775e+01    0.1751329    0.1391757  86.17 0.0005896599    1.194    0.162
       188  -9.2167    197.8907    192.3537   1.0124625673e+02   7.3968177606e+00    0.3767112    0.1699606  27.90  0.001346581    2.293    0.564
       189  -8.4020    154.2607    193.0397   1.1008613791e+02   1.4645511445e+01    0.1739436    0.1543058  30.34 0.0004469867    1.067    0.062
       190  -9.3779    149.7503    199.0562   1.1192318471e+02   1.4422477800e+01     0.357537    0.2300561  65.82  0.001735088    2.437    0.590
       191  -8.3251     32.9370    193.4458   1.3561134425e+02   3.1115892523e+01    0.1536535   0.09183548  38.93 0.0004096264    1.538    0.350
       192  -8.4238    241.2365    192.5766   9.3433403777e+01   3.7815302878e-01    0.1689965   0.09313738  26.99 0.0005457117    1.535    0.348
       193  -8.5351    172.1843    191.8924   1.0623156721e+02   1.1809192086e+01     0.186929    0.1636481  45.53  0.000650865    1.265    0.209
       194  -8.6834    117.7923    191.9418   1.1763831958e+02   2.0699097539e+01    0.2103784    0.1563551  39.93  0.000406994    1.156    0.135
       195  -7.9998    179.2562    191.6593   1.0477242940e+02   1.0644041518e+01    0.1140048    0.1010882  68.46 0.0003196489    1.581    0.367
       196  -9.0083    139.3073    190.5634   1.1284791813e+02   1.7526290357e+01    0.2639776    0.1902585  67.55  0.001000617    1.819    0.450
       197 -10.2991     91.9672    188.7866   1.2282706369e+02   2.5060507467e+01    0.8154864    0.2084091  47.14  0.002908451    3.765    0.734
       198  -8.8925     16.7495    191.1485   1.3867182814e+02   3.3024409481e+01    0.1854582    0.1075888  49.85 0.0008812139    1.413    0.292
       199  -8.4268    237.1146    188.6281   9.3419318269e+01   1.4764830823e+00    0.1944202    0.1500509 -20.84 0.0006046274    1.386    0.278
       200  -9.3019    190.6436    187.9699   1.0188442683e+02   9.2416456096e+00    0.3456865    0.2335249  34.87  0.001287043    1.258    0.205
       201  -9.2251    164.8951    186.8334   1.0688432944e+02   1.3842211870e+01    0.3336348    0.1885423 -56.13  0.001572017    2.642    0.621
       202  -9.2437    155.9221    187.6857   1.0889386400e+02   1.5236812642e+01     0.287675     0.192729 -58.61 0.0009255058    2.045    0.511
       203  -8.2389    148.4085    189.2496   1.1072171237e+02   1.6243501285e+01    0.1574284    0.1273057 -67.15 0.0005181433    1.633    0.388
       204  -8.7727    129.1516    188.5971   1.1473301363e+02   1.9511822774e+01    0.2574715    0.1851944  72.91  0.001108138    1.848    0.459
       205  -9.7492    121.0040    187.0374   1.1627708470e+02   2.1082935488e+01    0.4585411    0.2717302 -80.79  0.002086736    2.974    0.664
       206  -9.1371     70.5067    188.9411   1.2747489397e+02   2.7847440455e+01    0.2444328    0.1495537  38.90 0.0004723381    1.473    0.321
       207  -8.9607    216.4645    188.0043   9.6985174779e+01   4.8829578815e+00    0.2182397    0.1646579  43.27  0.000677963    1.508    0.337
       208  -9.0507     54.9265    187.2655   1.3064305891e+02   3.0008874555e+01    0.3385325    0.1557774  65.13  0.001680377    2.426    0.588
       209  -8.7485     49.3865    188.0222   1.3187153771e+02   3.0472111819e+01    0.2062465    0.1273929  38.44 0.0004391783    1.502    0.334
       210  -9.0313     33.9046    187.8076   1.3506081779e+02   3.2099761635e+01    0.2217622    0.1040482  71.02  0.001035517    2.132    0.531
       211 -10.0978     27.8499    187.1535   1.3625169473e+02   3.2799154330e+01    0.2386482    0.1561098  43.77 0.0004944378    1.379    0.275
       212  -7.8105    230.4688    187.4921   9.4370263865e+01   2.6669183545e+00    0.1256181    0.1010089  13.30 0.0001690611    1.085    0.078
       213  -9.0856    109.4420    186.1768   1.1868808564e+02   2.3019956417e+01    0.2784492    0.1862373  76.25  0.001115701    1.971    0.493
       214  -8.2895      3.4952    187.4976   1.4106836881e+02   3.4784399537e+01    0.1047027   0.07637304  70.19 9.851618e-05    1.020    0.020
       215  -8.6738    249.2861    185.6212   9.0798240440e+01  -5.7703170325e-02    0.1987175    0.1346457 -31.39 0.0007367565    1.705    0.413
       216  -8.8602    182.7954    185.3945   1.0298833842e+02   1.0972514753e+01     0.222287    0.1809782 -29.44 0.0008450525    1.378    0.274
       217  -9.1161    210.1790    184.5780   9.7524728149e+01   6.3862640378e+00    0.1942759    0.1650286 -22.40 0.0005270946    1.341    0.255
       218  -9.1047    202.8380    184.7580   9.8947542215e+01   7.6095915226e+00    0.2024641    0.1743073 -67.82 0.0008745141    1.977    0.494
       219  -9.5001    143.4249    184.1427   1.1098468491e+02   1.7945896324e+01    0.2389543    0.1791822  35.53 0.0003360787    1.154    0.134
       220  -9.1566     66.5350    184.6866   1.2792110383e+02   2.9159154718e+01    0.3043433     0.151765  59.14  0.001242886    2.043    0.511
       221  -8.7975    224.1266    183.6695   9.4791952103e+01   4.1751387622e+00    0.1969558    0.1615196 -19.87 0.0005720642    1.335    0.251
       222  -9.3156    174.1610    183.5805   1.0442142431e+02   1.2751885871e+01    0.2332291    0.2043802 -85.21 0.0007627715    1.710    0.415
       223  -8.8163     44.3826    182.6291   1.3250808042e+02   3.2058934107e+01    0.2550796    0.1370091  63.57 0.0009557909    1.749    0.428
       224  -8.2407      1.7862    183.6165   1.4124517544e+02   3.5647766931e+01     0.144438   0.07096843  45.47 0.0009456988    1.693    0.410
       225  -8.4129    134.7614    182.2748   1.1257364556e+02   1.9719747096e+01     0.168778    0.1424111  11.61 0.0003681405    1.303    0.233
       226  -8.8598     59.5756    181.7308   1.2915731583e+02   3.0566164708e+01    0.2068485    0.1408171  41.33 0.0005344434    1.349    0.259
       227  -8.5904     38.9211    182.4866   1.3365458031e+02   3.2644637447e+01    0.1963587   0.08988673  38.82 0.0006980219    1.918    0.479
       228  -9.3117     35.8968    176.9178   1.3389475411e+02   3.4051235575e+01    0.5522255    0.1889642  74.67  0.001857612    5.625    0.822
       229  -8.8129    240.4965    181.0568   9.1422529544e+01   1.8449488980e+00    0.1811377    0.1104061 -23.32 0.0008559747    1.584    0.369
       230  -9.1949    147.5712    180.6437   1.0952786854e+02   1.7847452143e+01    0.2981468    0.2120497  62.79  0.001246751    1.798    0.444
       231 -10.1612     24.9040    178.8621   1.3635464744e+02   3.4687330255e+01    0.4875238    0.2193083  68.73  0.002658267    2.153    0.536
       232  -8.5271    137.8428    179.5612   1.1147364532e+02   1.9689826629e+01    0.2363876    0.1609839  71.18  0.001158953    2.200    0.546
       233  -8.2180    114.1616    180.1534   1.1682030925e+02   2.3424923060e+01    0.1784611    0.1330665  55.92 0.0003697378    1.306    0.234
       234  -8.9158    205.0781    178.2182   9.7307422432e+01   8.1379910354e+00    0.2111061    0.1669271 -40.21 0.0009862196    1.597    0.374
       235  -9.6952    191.5988    178.4540   9.9979926795e+01   1.0469601171e+01    0.2870902    0.2193125  52.09 0.0006842499    1.591    0.372
       236  -9.6460    248.5084    176.8823   8.9270389778e+01   1.0745295765e+00    0.3716626    0.2469418 -36.44  0.002173163    1.873    0.466
       237  -8.7123    250.5123    172.9071   8.8166539638e+01   1.2282865508e+00    0.1784208    0.1335123  -4.34 0.0005462581    1.114    0.102
       238  -8.6572    217.6680    177.3568   9.4776999806e+01   6.0840034768e+00    0.2059275       0.1537 -36.93 0.0006236228    1.633    0.387
       239  -7.9617    169.3182    178.7068   1.0456887965e+02   1.4377982914e+01    0.1267336    0.1025381  62.50 0.0003786434    1.605    0.377
       240  -7.7988    101.5221    178.5126   1.1943816707e+02   2.5659186545e+01    0.1277104    0.1116057  53.51  7.81936e-05    1.013    0.013
       241  -8.4536    231.2430    177.2100   9.2297020816e+01   3.8203325203e+00    0.1566524    0.1419061  -8.73 0.0004620562    1.355    0.262
       242  -9.5586    183.1194    176.4245   1.0130896730e+02   1.2284386148e+01    0.2259282    0.2089063  68.87 0.0006854821    1.474    0.322
       243  -8.2786    129.0258    177.2225   1.1305941030e+02   2.1585183718e+01     0.182358    0.1433716  84.52 0.0007039739    1.651    0.394
       244  -8.6437     89.1755    177.0871   1.2205324943e+02   2.7713402313e+01     0.242586    0.1325972  58.34 0.0009684929    1.981    0.495
       245  -9.4448     58.3230    174.9890   1.2880090529e+02   3.2064559567e+01    0.4990508    0.2249648  75.76  0.002093944    3.367    0.703
       246  -9.1017     55.6674    170.9780   1.2901471594e+02   3.3187773631e+01    0.3675104    0.1650742 -89.00  0.001631888    2.938    0.660
       247  -9.2038     12.8836    176.7668   1.3872432766e+02   3.6118635885e+01    0.2169451   0.09641656  68.22  0.001058886    2.028    0.507
       248  -8.1269    211.6719    176.3193   9.5695561783e+01   7.2568894938e+00     0.116233    0.1070963  68.41 0.0007047221    1.684    0.406
       249  -9.2138    158.7966    175.1659   1.0617565808e+02   1.6830595321e+01    0.3273987    0.2424001  74.05  0.001061152    2.139    0.533
       250  -9.2592    104.3055    174.7677   1.1829638221e+02   2.5972824972e+01    0.4638875    0.2305023  61.40  0.001857055    2.955    0.662
       251 -10.5705     75.9474    170.7731   1.2432989032e+02   3.0769021610e+01    0.9385546    0.3875912 -82.34  0.003264785    4.697    0.787
       252  -8.1598    224.4921    174.4858   9.2976976370e+01   5.3029922168e+00    0.1314481    0.1070441  12.13 5.777967e-05    1.042    0.040
       253  -8.5010    152.9618    174.2330   1.0727592525e+02   1.8023182612e+01    0.1899239    0.1562787  32.88 0.0002266365    1.062    0.058
       254  -9.8590    175.7635    172.0448   1.0201225938e+02   1.4302383900e+01    0.3576388    0.2146223 -41.34  0.001346856    1.881    0.468
       255  -9.0844    142.9860    172.7338   1.0921492923e+02   2.0036552068e+01    0.2214352    0.1777361 -72.32 0.0007082522    1.632    0.387
       256  -9.2324    195.0429    172.4639   9.8168062183e+01   1.0750301131e+01    0.3002868    0.1182546  41.20  0.001153335    2.269    0.559
       257  -8.4160    198.5212    170.4840   9.7099010700e+01   1.0419538876e+01     0.187237    0.1208026  46.82 0.0009552115    1.643    0.391
       258  -8.4143    134.1072    172.2249   1.1111881480e+02   2.1657146158e+01    0.2649891    0.1828399  20.72  0.001367066    1.655    0.396
       259  -9.2094     45.1896    171.2696   1.3140751666e+02   3.4263852296e+01    0.3034275    0.1623152  75.31  0.001087872    1.978    0.494
       260  -9.1071    230.6281    170.3014   9.1057740897e+01   4.8089003926e+00    0.2092665    0.1869816  -2.55 0.0008705785    1.264    0.209
       261  -9.4573    121.2356    170.2826   1.1373981027e+02   2.4176161536e+01    0.3004926    0.2238738 -86.73  0.001031897    1.776    0.437
       262  -8.5367    237.1209    169.8374   8.9828002012e+01   3.7775128210e+00    0.1824298    0.1599528   2.82 0.0005431614    1.229    0.187
       263  -8.7127    205.5274    170.0817   9.5656899954e+01   9.2200233906e+00    0.1864261    0.1270348 -30.97 0.0006866935    1.552    0.356
       264  -8.4780    149.6977    169.5660   1.0717466064e+02   1.9424799422e+01    0.2014638    0.1687127 -85.82 0.0004913944    1.631    0.387
       265  -9.1243    110.2164    170.4146   1.1630772811e+02   2.5917805644e+01     0.373409    0.1705357  39.30   0.00129878    1.955    0.489
       266  -9.0225    111.3427    167.6492   1.1562855458e+02   2.6286401385e+01    0.3551919    0.2051156  70.54  0.001482482    2.902    0.655
       267  -9.3949     39.3589    170.0010   1.3260591606e+02   3.5117323473e+01     0.243922    0.1479183  40.08 0.0004546518    1.549    0.354
       268  -9.3387     19.5392    170.2207   1.3696244655e+02   3.6881863710e+01    0.1812606    0.1497075  36.68 0.0004419012    1.375    0.273
       269  -9.4675     19.5143    165.3467   1.3666598788e+02   3.7878391079e+01    0.5745406    0.1420401  55.80  0.002202831    4.313    0.768
       270  -9.1391    167.0291    168.6400   1.0322429963e+02   1.6455913220e+01    0.2673133    0.2174269  71.85 0.0009571075    1.739    0.425
       271  -8.1905    218.7609    168.5563   9.2858866406e+01   7.0889269762e+00    0.1673488    0.1186917  43.62 0.0005106204    1.516    0.340
       272  -9.2346    191.9126    166.6631   9.7666519475e+01   1.2202010628e+01    0.2349984    0.1960237 -34.76 0.0005806329    1.374    0.272
       273  -9.1807    185.0161    166.7694   9.9089774962e+01   1.3455582861e+01    0.2233826    0.1746859 -50.27 0.0007196066    1.664    0.399
       274  -9.9823    136.6279    164.5546   1.0924215839e+02   2.2656717529e+01    0.5445886    0.2660726  55.42  0.002112914    2.778    0.640
       275  -8.1436    233.8293    165.0507   8.9443804120e+01   4.9469239520e+00    0.1834014    0.1414751 -46.11 0.0005920326    1.904    0.475
       276  -8.4872    159.4825    164.4470   1.0407728297e+02   1.8562191471e+01    0.2166558    0.1357609 -56.21  0.001016269    2.137    0.532
       277  -9.5024     33.3980    163.5302   1.3343308908e+02   3.7034357072e+01    0.4789172    0.1568883  54.44  0.002074702    3.122    0.680
       278  -8.0228    240.1240    164.2229   8.8186713612e+01   3.9868930117e+00    0.1589451    0.1452336  -5.80 0.0005227911    1.342    0.255
       279  -8.5206    213.0005    163.9554   9.3010668324e+01   8.7575639373e+00     0.180377     0.169577 -64.56 0.0005838689    1.611    0.379
       280  -9.2512    246.1205    162.9343   8.6911842354e+01   3.1489722653e+00    0.1816511    0.1579879  -8.38 0.0005247193    1.262    0.208
       281  -8.4110    204.9286    162.9377   9.4348399251e+01   1.0373760054e+01    0.1842037     0.171917  80.83 0.0005226661    1.609    0.378
       282  -9.1570     60.6985    161.6982   1.2688592585e+02   3.4549883309e+01    0.3484888    0.2218553 -74.94  0.002013898    1.534    0.348
       283  -9.4117      3.4893    162.5946   1.3998415816e+02   3.9661598629e+01     0.329501    0.1183188  53.02  0.001765197    2.366    0.577
       284  -8.7099    151.7798    161.1944   1.0518029170e+02   2.0559641491e+01    0.2635612    0.2052749  74.98  0.001063334    1.822    0.451
       285  -8.8291    126.9682    162.5334   1.1113479384e+02   2.4717343398e+01    0.2079787      0.12368  39.68 0.0004158041    1.526    0.345
       286  -8.9131    177.5257    160.7791   9.9470110118e+01   1.5826818828e+01    0.2420957    0.2157412  70.22  0.001004367    1.498    0.333
       287  -7.9023    242.3057    160.3123   8.7019221908e+01   4.1166708859e+00    0.1360743   0.08484929   8.76   0.00019457    1.618    0.382
       288  -8.5400    227.2647    159.0908   8.9388865125e+01   6.8830058424e+00     0.222744    0.1734265 -38.21 0.0009872143    1.582    0.368
       289 -10.0419    105.6024    158.5034   1.1557429438e+02   2.9042122940e+01     0.405711    0.2983728  88.63  0.001334163    1.688    0.408
       290 -10.0227    250.1877    157.8045   8.5191450262e+01   3.1126144438e+00    0.3113776    0.1633364 -24.81 0.0007621892    1.756    0.431
       291  -9.5817    248.9225    150.0379   8.3780477157e+01   4.3009364022e+00     0.401317     0.164185 -32.05  0.001408016    2.299    0.565
       292  -9.9150     95.0671    163.0672   1.1880970724e+02   2.9706452147e+01    0.6998295    0.3464198  69.52  0.002384237    4.441    0.775
       293  -8.5316    196.6506    158.1434   9.4998089961e+01   1.2640399678e+01    0.1978823    0.1728562 -44.23 0.0007390631    1.445    0.308
       294  -8.4684    188.0160    157.7697   9.6672561505e+01   1.4333748119e+01    0.2316996    0.1787599 -47.74 0.0007432094    1.621    0.383
       295  -9.2124    167.4877    157.2300   1.0092039629e+02   1.8331434341e+01    0.2876275    0.2290005 -78.76 0.0008466234    1.975    0.494
       296  -8.5307    217.8767    156.5361   9.0569995320e+01   8.9304949551e+00    0.2491426    0.1679842 -44.46  0.000965055    1.923    0.480
       297  -9.0119    157.7573    155.9554   1.0282455132e+02   2.0399899677e+01     0.286807    0.1938536 -51.45 0.0009640296    1.757    0.431
       298  -9.3569    119.3892    155.4045   1.1171041089e+02   2.7422571220e+01    0.3486845    0.2439619 -83.48  0.001508832    2.030    0.507
       299  -9.5585     41.8476    157.0890   1.3091263572e+02   3.7581589803e+01    0.2374001    0.1600301  31.70 0.0004662852    1.589    0.371
       300  -9.2756     98.8156    155.6888   1.1679312041e+02   3.0680015414e+01    0.4076893    0.1423489  44.70  0.001556911    2.731    0.634
       301  -9.1959     81.4821    154.8312   1.2096144887e+02   3.3376045467e+01    0.3501509    0.2012048  68.47  0.001367568    2.272    0.560
       302  -9.3620     49.4830    155.3420   1.2890585807e+02   3.7168176318e+01    0.3415377    0.1524561  63.61  0.001505147    2.775    0.640
       303  -7.5461    242.6665    155.2690   8.5915898399e+01   4.7012335043e+00     0.108662    0.1073131 -61.64 0.0002872008    1.589    0.371
       304  -7.7882    204.6899    155.3512   9.2829822060e+01   1.1553767617e+01    0.1262561    0.1141233 -80.73 0.0007044543    1.718    0.418
       305  -8.0890    144.5549    154.8272   1.0562278787e+02   2.3073131703e+01    0.1795911     0.137971 -63.68 0.0005496275    1.634    0.388
       306  -9.5989    132.8858    153.0558   1.0803650118e+02   2.5538826670e+01    0.4140167    0.2812271  71.96  0.001397279    2.243    0.554
       307  -8.9177    133.5904    148.2342   1.0694788838e+02   2.6366082550e+01    0.2661806    0.1793619 -44.03 0.0008095379    1.591    0.371
       308  -9.6133     67.6960    153.6370   1.2423194477e+02   3.5435506927e+01    0.3790743    0.2060715  74.95  0.001379182    2.494    0.599
       309  -9.1414     20.0576    153.2622   1.3573314083e+02   4.0361765405e+01    0.1574988    0.1303845  70.00 0.0006458814    1.081    0.075
       310  -9.6854    217.4695    151.1757   8.9511418898e+01   9.7759646106e+00    0.2406204    0.1968253  20.55 0.0002465606    1.083    0.077
       311  -9.9704     29.1818    150.6444   1.3337273062e+02   4.0157451671e+01    0.3816285    0.1601132  73.44   0.00168977    2.947    0.661
       312  -8.3004    182.3988    151.2514   9.6485914416e+01   1.6484280927e+01    0.1870705    0.1340725 -47.41 0.0005459827    1.685    0.407
       313  -8.3232    162.5756    150.7957   1.0070283340e+02   2.0414035480e+01    0.1871801    0.1385482 -54.27 0.0006447957    1.666    0.400
       314  -8.6480     98.3538    151.0233   1.1616766599e+02   3.1736423128e+01    0.2547349    0.1688692  61.51  0.001256715    1.703    0.413
       315  -8.8214      3.0171    150.9931   1.3950004768e+02   4.2086229538e+01     0.188241   0.09621447  63.88  0.001133737    1.725    0.420
       316  -8.6124    111.7424    152.3427   1.1305104789e+02   2.9326600982e+01      0.24459     0.156948  42.63 0.0006956192    1.454    0.312
       317 -10.1403     39.7943    147.9203   1.3053264912e+02   3.9771759043e+01    0.5248285    0.2196019  64.58  0.002213317    3.092    0.677
       318  -8.4489    198.8833    149.1099   9.2646456173e+01   1.3625842884e+01     0.193568    0.1913275  24.74 0.0004887828    1.302    0.232
       319  -9.9289     89.2234    146.3844   1.1774610424e+02   3.4105158107e+01    0.5700359    0.3204705  80.14   0.00223264    3.226    0.690
       320 -10.3079     54.8926    144.7229   1.2636827581e+02   3.8904886705e+01    0.7319912    0.3464113  72.08  0.002970685    3.218    0.689
       321  -8.7603    233.4990    147.5525   8.5849799247e+01   7.3388971085e+00    0.2588297     0.121672 -29.47 0.0008323838    2.035    0.509
       322 -10.1971    148.9885    145.0420   1.0263251423e+02   2.4103710923e+01    0.5042043    0.3550337  84.06  0.001874825    2.629    0.620
       323 -10.3653    106.2980    144.5006   1.1304717190e+02   3.1868257299e+01    0.6546934    0.4588543  74.77  0.002373264    1.880    0.468
       324  -8.6815     78.0173    147.0076   1.2072270215e+02   3.5545855040e+01    0.2195255    0.1439418  69.56 0.0006999274    1.763    0.433
       325  -9.1516     73.5647    147.0092   1.2186691239e+02   3.6136886176e+01     0.201697    0.1650641  43.09 0.0005063644    1.205    0.170
       326  -8.9679    189.3462    150.0588   9.4784110402e+01   1.5328083425e+01     0.262385    0.2068189 -52.12 0.0007516483    1.661    0.398
       327  -9.3167     13.3001    146.2427   1.3683406562e+02   4.2380068929e+01    0.2971764    0.1193093  65.86  0.001081876    2.614    0.617
       328  -7.9152    223.4559    146.5913   8.7424007523e+01   9.3180402507e+00    0.1380613    0.1157631   8.83 0.0001088301    1.014    0.014
       329  -7.9409    206.5577    146.5352   9.0578880413e+01   1.2539393553e+01    0.1422405    0.1218294   9.89 0.0002158904    1.005    0.005
       330  -8.4138    175.6613    146.3696   9.6885471194e+01   1.8638702337e+01     0.200192     0.172792  77.93 0.0006082058    1.617    0.381
       331  -9.1130      6.8125    145.7242   1.3832968696e+02   4.2945800682e+01    0.1661626    0.1341712  29.57 0.0008961337    1.482    0.325
       332  -8.2176    240.4009    145.4961   8.4225080912e+01   6.3770245115e+00    0.1771551    0.1125114 -31.33 0.0001047495    1.557    0.358
       333  -9.9508    242.7596    143.0523   8.3301637433e+01   6.2813340427e+00    0.6813373    0.2169525 -35.13   0.00261436    3.027    0.670
       334  -9.6830    125.1207    142.7896   1.0796653610e+02   2.8999984979e+01     0.492978    0.3214598  81.59  0.001567578    2.872    0.652
       335 -11.0182     68.5909    142.3809   1.2250763396e+02   3.7800505771e+01    0.5772493    0.4249759 -61.44  0.003367618    1.330    0.248
       336  -9.9962     72.7291    133.9442   1.2015019303e+02   3.9165707869e+01    0.6346523    0.2685063  24.95  0.002481982    3.126    0.680
       337  -9.9798     73.1493    129.6310   1.1934361308e+02   4.0090907256e+01    0.3750145    0.2510392  84.68  0.001203649    1.824    0.452
       338  -9.3598     32.4379    144.7577   1.3205885984e+02   4.1152570064e+01    0.2559176    0.1480208  64.46 0.0007398564    1.706    0.414
       339  -9.2798    247.1494    143.8345   8.2747458953e+01   5.4041930629e+00    0.2344152    0.1626612  -9.04 0.0006663613    1.290    0.225
       340  -8.8439    165.6451    144.0630   9.8597483812e+01   2.1031216532e+01    0.2459316    0.1915876  50.24 0.0007476586    1.357    0.263
       341  -9.4147      2.8339    142.0337   1.3904701618e+02   4.3992805750e+01    0.3341359    0.1368694  70.92  0.001702312    2.390    0.582
       342  -8.3295    181.8360    141.8089   9.4562791535e+01   1.8193109930e+01    0.1804722    0.1756247 -73.18 0.0003977997    1.304    0.233
       343  -9.0622     45.5101    140.0776   1.2824858015e+02   4.0943223493e+01    0.2576391    0.1480319  42.70 0.0009881462    1.702    0.412
       344  -9.9171     23.4283    138.3913   1.3375056128e+02   4.3320421521e+01     0.450121    0.1889096  64.16  0.001892687    2.730    0.634
       345  -9.3423     19.0194    138.9952   1.3490830211e+02   4.3530301366e+01    0.2211957     0.171895  34.53 0.0008385379    1.440    0.305
       346  -8.7268    172.3223    138.4474   9.5877320524e+01   2.0701716409e+01    0.2907823    0.2153884 -77.89 0.0009495847    2.423    0.587
       347  -8.1348    207.4296    138.2182   8.8561534287e+01   1.3649224951e+01    0.1889774    0.1297554 -41.07 0.0006120559    1.644    0.392
       348  -8.5521    197.3514    137.4594   9.0373082020e+01   1.5787202757e+01    0.2250297    0.1675964 -50.39 0.0007394656    1.733    0.423
       349  -9.6315    138.9035    145.1662   1.0505824078e+02   2.5992843135e+01    0.3589157    0.2718555 -69.85  0.001297828    1.732    0.423
       350  -8.5605     92.7991    137.0004   1.1524421740e+02   3.5630489691e+01    0.2468583    0.1579137  50.71 0.0006605435    1.602    0.376
       351 -10.1968     83.3301    133.4614   1.1718286454e+02   3.7819991295e+01    0.5070261    0.3398502 -64.00  0.001386361    1.485    0.327
       352  -9.4166     39.0470    136.1702   1.2950289678e+02   4.2456205642e+01    0.2683348    0.1575463  69.97 0.0008623551    1.809    0.447
       353  -9.2774    248.4418    135.5485   8.0732913592e+01   6.2568210282e+00    0.2434771     0.185652 -27.85 0.0007779132    1.308    0.236
       354  -8.1882    162.4735    136.2589   9.7602488069e+01   2.3096907509e+01    0.1951927    0.1422727 -53.85 0.0009340706    1.668    0.401
       355  -9.7369     62.0504    136.4802   1.2341641989e+02   3.9928429905e+01     0.262919    0.1728918  42.98  0.001018792    1.505    0.336
       356  -9.2053     58.2019    135.3789   1.2429989761e+02   4.0628794710e+01    0.2430719     0.179406  33.55  0.001184751    1.438    0.305
       357  -8.7341    179.1701    133.7764   9.3318969456e+01   2.0124581163e+01    0.2506612    0.1974647 -45.40 0.0008834883    1.447    0.309
       358  -9.0139    112.5953    133.3144   1.0929885044e+02   3.3207355906e+01    0.2917121    0.2140245  85.33 0.0008819686    1.888    0.470
       359  -8.0845    237.4721    133.5224   8.2081499023e+01   8.5310607413e+00    0.1355813    0.1177253  -3.74 0.0008081301    1.087    0.080
       360  -9.7153    132.0693    131.2123   1.0382197356e+02   3.0098846207e+01    0.4412611    0.2993852 -76.05  0.001200909    2.362    0.577
       361 -10.2770     98.1017    130.2762   1.1258223014e+02   3.6291556044e+01    0.5631936    0.2192579 -56.47  0.001871718    2.628    0.619
       362  -8.8233      8.8265    133.4105   1.3703855033e+02   4.5476904475e+01    0.1353974    0.1095032  -8.34 0.0009471045    1.724    0.420
       363  -8.8883    142.9260    131.5496   1.0118677509e+02   2.7922174422e+01     0.263187    0.2073438 -65.51 0.0006644208    1.588    0.370
       364  -9.1913    250.6396    129.7487   7.9098777035e+01   6.6227908183e+00    0.4422072    0.1122741 -29.83  0.001501846    3.579    0.721
       365 -10.2737     12.9534    129.3316   1.3568099512e+02   4.6104473227e+01    0.4622122    0.1974963  70.64  0.002070118    2.603    0.616
       366  -8.1891    246.9236    130.3196   7.9814332183e+01   7.2205888477e+00    0.1811529    0.1522207   7.07  0.000426038    1.061    0.058
       367  -7.8432    204.6425    130.3518   8.7291687177e+01   1.5441721452e+01    0.1403877    0.1179551 -75.52 0.0007027765    1.855    0.461
       368  -8.0045    192.6927    130.3226   8.9668540565e+01   1.7910630965e+01    0.1371031    0.1200761 -77.95 0.0003577792    1.644    0.392
       369  -8.9428    168.3290    129.6854   9.4763423066e+01   2.3105290770e+01    0.2612823    0.2230282 -67.63 0.0006360229    1.541    0.351
       370  -9.4432    152.8183    128.4471   9.8081474358e+01   2.6543000290e+01    0.5142105    0.2021142 -47.26  0.001351385    2.846    0.649
       371 -11.0379     28.3000    123.4564   1.3102066901e+02   4.6291183558e+01    0.8301773    0.3894046 -88.01  0.003684308    2.236    0.553
       372 -10.7177     44.6816    123.9690   1.2649870165e+02   4.4694562054e+01    0.9396975    0.4612209  77.47  0.003889776    3.009    0.668
       373 -10.5299     60.0510    125.1816   1.2231783737e+02   4.2748830474e+01    0.7033761    0.3713729  73.54  0.002490822    2.966    0.663
       374  -9.8073    117.7895    125.3888   1.0626696401e+02   3.3988414544e+01    0.4528651    0.3137959  77.85  0.001332085    2.256    0.557
       375  -7.9550    228.3044    125.6509   8.1845041758e+01   1.1394772445e+01     0.132627    0.1096969 -56.07  0.000704115    1.699    0.411
       376  -8.9220    179.1967    124.8098   9.1198245184e+01   2.1692041284e+01    0.2561603    0.2286767 -73.87 0.0006814672    1.488    0.328
       377  -9.0383      4.0493    123.3483   1.3754901002e+02   4.7992939869e+01    0.2769877   0.07629944  38.94  0.001272177    3.268    0.694
       378  -8.7436    172.0785    121.8795   9.2052704943e+01   2.3734530977e+01     0.216405    0.2058922 -78.30 0.0005247173    1.292    0.226
       379  -9.0735    158.6145    121.7322   9.5109475708e+01   2.6627917485e+01    0.2767551     0.227452 -78.04  0.000966096    1.704    0.413
       380  -9.8698    131.3138    119.0425   1.0125001040e+02   3.2764989930e+01    0.5299433    0.3296562  73.76  0.001858193    3.391    0.705
       381  -9.7215     71.1809    120.2675   1.1831299311e+02   4.2502031085e+01    0.3208802    0.2050428  73.59  0.001033984    2.074    0.518
       382  -9.5910    141.6517    118.7753   9.8532204162e+01   3.0741063538e+01    0.3885332    0.2916363 -77.19  0.001110955    1.987    0.497
       383  -8.9025    102.7929    118.7410   1.0893437628e+02   3.8083708361e+01    0.4286245    0.1853079  24.40  0.001306552    4.226    0.763
       384  -9.9837      2.8799    117.4311   1.3743049204e+02   4.9377326250e+01    0.4583911    0.1792507  71.11  0.002096287    2.897    0.655
       385  -9.6521     20.5893    118.2744   1.3262724516e+02   4.8068272376e+01    0.2792878     0.161041  14.00  0.001355347    2.269    0.559
       386  -7.7716    185.6826    116.3078   8.7721713504e+01   2.1773856416e+01    0.1429819    0.1228464 -79.18 0.0003360953    1.634    0.388
       387  -9.7049    109.3812    114.2694   1.0608192817e+02   3.7924812441e+01    0.4335867    0.3050354  88.13  0.001245733    2.234    0.552
       388  -8.2782    192.8786    115.1373   8.5942980212e+01   2.0402947366e+01    0.2135725     0.201121 -43.73 0.0003756436    1.238    0.192
       389  -9.8656     78.9307    112.6946   1.1460381506e+02   4.3193131158e+01    0.4571936    0.3033853  77.33  0.001959399    2.130    0.530
       390  -9.5081     60.6523    114.7250   1.2045483895e+02   4.5107772787e+01    0.4038299    0.1742357  19.82  0.001542137    3.454    0.710
       391  -9.8774     35.2931    114.6644   1.2798411086e+02   4.7731107964e+01    0.4580103    0.1251978  36.89  0.001836273    3.404    0.706
       392 -10.4591    133.8412    109.6600   9.8283475701e+01   3.4200256031e+01    0.7071432    0.3272473 -51.99  0.002286425    2.546    0.607
       393  -9.9145    122.1312    112.8583   1.0221639121e+02   3.5859183578e+01    0.3137662    0.2532322 -82.68 0.0008870543    1.616    0.381
       394  -9.9101     92.7466    112.7122   1.1051421449e+02   4.1096890612e+01    0.4168812    0.3093107 -81.71  0.001111273    1.667    0.400
       395  -9.3896     50.7806    112.5522   1.2306255901e+02   4.6726627081e+01     0.235392    0.2145836 -82.83 0.0005412624    1.032    0.031
       396  -8.4738    174.9214    111.9980   8.8944272979e+01   2.4895280968e+01    0.2290921    0.1890956 -72.16  0.000568622    1.684    0.406
       397  -8.3835    159.2794    111.9968   9.2520473446e+01   2.8335840923e+01     0.209427    0.1937644 -33.21 0.0005045466    1.129    0.114
       398 -10.1094     66.0433    110.1711   1.1801190080e+02   4.5512589907e+01    0.4551321    0.2651571 -77.37  0.001637667    2.027    0.507
       399  -9.9260     14.3409    111.5540   1.3373190853e+02   5.0031756626e+01    0.2979043    0.1579941  70.90  0.001214004    2.020    0.505
       400  -9.8897      7.7749    109.5084   1.3542573535e+02   5.0893943743e+01     0.286745    0.1585879  45.43  0.001276835    1.911    0.477
       401 -10.3704    248.6978    107.7688   7.4355440090e+01   9.9010581049e+00     0.335793    0.2449883 -19.77  0.001877308    1.205    0.170
       402  -8.6399    189.3575    108.2085   8.4896036506e+01   2.2342051195e+01    0.2109081    0.1346539 -41.65 0.0006001836    1.659    0.397
       403  -9.7927    112.3104    106.3786   1.0336635152e+02   3.9118368443e+01    0.4357431    0.2202436  28.61  0.001634119    2.510    0.602
       404 -10.5747    108.9542     98.9011   1.0243953956e+02   4.1373637898e+01    0.7445087    0.4477298  68.16   0.00157947    3.171    0.685
       405  -8.8460    127.0002    106.4904   9.9302916868e+01   3.6247743674e+01    0.2360306    0.1468436  42.76  0.001031878    1.592    0.372
       406 -10.5275     45.8591    102.6169   1.2296568637e+02   4.9570428880e+01    0.7628855    0.3693146  63.97  0.002992576    3.402    0.706
       407 -10.8714     22.9380    103.1287   1.3023571393e+02   5.1401360128e+01    0.6544323    0.3333498  67.63  0.002616843    2.433    0.589
       408  -9.4351    150.5927    103.2049   9.2311306438e+01   3.1925930524e+01    0.4090833    0.2899369 -68.85  0.001302944    2.164    0.538
       409  -9.2907    139.8022    104.5670   9.5404733788e+01   3.3993202469e+01    0.3191685    0.2646191 -86.84 0.0008090826    1.633    0.387
       410  -8.9373     95.3502    103.5986   1.0766746403e+02   4.2734054655e+01    0.5661033    0.3028926  11.70  0.001693625    4.825    0.793
       411  -9.9130     82.3408    104.8201   1.1191407781e+02   4.4513241637e+01    0.7796914    0.1810278  36.84   0.00237553    4.176    0.761
       412  -8.6476    166.6407    104.2218   8.8766871861e+01   2.8153490963e+01    0.2311288    0.1885868 -50.76 0.0006416759    1.397    0.284
       413  -9.9233      6.6266    102.1966   1.3509027338e+02   5.2626625135e+01      0.49024    0.1456282 -83.12  0.001923417    3.315    0.698
       414  -9.7421    128.4442    102.1828   9.7786662347e+01   3.6853968491e+01    0.3125947    0.2665873 -84.60 0.0007978132    1.495    0.331
       415  -8.1723    175.5059    102.4958   8.6321529843e+01   2.6454775612e+01    0.1525111    0.1459642   7.21 -1.711193e-05    1.056    0.053
       416  -8.3741    159.7810    100.9704   8.9484906528e+01   3.0302437692e+01    0.2387205    0.1733105 -61.35 0.0005492764    1.859    0.462
       417  -9.0810     81.9229    100.0257   1.1096436867e+02   4.5679394001e+01    0.3161888    0.1953815 -69.10 0.0007149637    1.905    0.475
       418  -9.0881     94.9707     97.1747   1.0621025066e+02   4.4243063084e+01    0.2932616    0.2115117 -64.96 0.0006934038    1.557    0.358
       419  -9.9578     63.8839     95.9874   1.1586840079e+02   4.9106213530e+01    0.4957914    0.3003608  84.40  0.001652729    2.734    0.634
       420  -9.0678     11.4633     96.1533   1.3298610796e+02   5.3753856846e+01    0.2334906    0.1296091  46.76  0.001318403    1.997    0.499
       421  -8.6485    164.7253     94.1675   8.6449836511e+01   3.0424182376e+01    0.2441926    0.1943995 -53.38 0.0006896014    1.467    0.318
       422 -10.1754    139.1099     92.6311   9.2303732939e+01   3.6524720900e+01    0.3924843    0.3022332 -65.40   0.00078542    1.697    0.411
       423  -8.9308    120.4932     93.0161   9.7504832111e+01   4.0387774749e+01    0.3472513    0.2471785  -9.69  0.001516393    1.885    0.469
       424 -10.0015    124.5264     90.9540   9.5781655693e+01   3.9987570276e+01    0.4112637    0.3399115 -57.53  0.001053696    1.359    0.264
       425  -9.4172     55.1910     94.1440   1.1836204911e+02   5.0576180854e+01    0.3076744    0.1798833  40.61  0.001044833    1.863    0.463
       426  -8.6702    176.4232     93.2909   8.3605293288e+01   2.7854210160e+01    0.2128146    0.1424779 -43.50 0.0009368288    1.594    0.373
       427  -8.9650    107.4876     92.6449   1.0120815320e+02   4.3007624697e+01    0.2536117    0.1833124  14.19  0.001160448    1.729    0.422
       428  -9.6888      4.3826     92.0335   1.3478099822e+02   5.5071819421e+01    0.3098805    0.1977656  45.33  0.001942054    1.759    0.432
       429  -9.4128     47.5578     92.2701   1.2055293521e+02   5.1839936891e+01    0.3771164    0.1833861  21.55  0.001719157    2.502    0.600
       430  -9.6895     34.7316     89.9433   1.2447827037e+02   5.3584983787e+01    0.4412235    0.2312356  86.25  0.001646939    2.714    0.631
       431  -8.3037    157.5231     91.5288   8.7385372161e+01   3.2573780656e+01    0.1541855    0.1496842   9.20 1.935471e-05    1.056    0.053
       432  -9.6697    114.7625     90.7557   9.8526684618e+01   4.2010325038e+01    0.5270769    0.1905899  43.11  0.001778376    2.796    0.642
       433  -9.0614     29.7106     91.1262   1.2636979752e+02   5.3712859218e+01    0.1943103    0.1639697  48.36 0.0005482519    1.333    0.250
       434  -9.3839     23.1987     90.2027   1.2841355948e+02   5.4407364381e+01    0.2904612    0.2067565  17.20  0.001359172    1.706    0.414
       435  -9.0872    151.0030     89.0793   8.8257660881e+01   3.4532669862e+01    0.2375767    0.1952286 -76.32 0.0006446809    1.645    0.392
       436  -9.8845     86.4336     86.7394   1.0621633058e+02   4.7999346862e+01    0.4378531    0.3154194  80.98  0.001145469    2.158    0.537
       437 -11.3453    142.3640     83.6270   8.8821144077e+01   3.7541229516e+01    0.8088288    0.5005894 -42.38  0.002310086    1.654    0.395
       438  -9.7674    140.7751     75.6560   8.6781992087e+01   3.9402271127e+01    0.3066408    0.2281636 -61.11 0.0008007958    1.751    0.429
       439  -8.9446     65.3577     87.4181   1.1345584262e+02   5.0916568084e+01    0.2575485    0.1329843  11.19 0.0009548986    3.425    0.708
       440 -10.0104     48.2058     84.2882   1.1872076714e+02   5.3650460053e+01     0.433537    0.2654671  76.00  0.001546447    2.520    0.603
       441  -9.7998    104.8718     83.3562   9.9383525209e+01   4.5497888929e+01    0.4636719    0.3070388 -68.05  0.001171421    2.210    0.548
       442 -10.1079    107.9938     76.2489   9.6274187260e+01   4.6384127829e+01    0.6315456    0.2347188  40.36  0.002161822    2.781    0.640
       443  -9.6630    105.8707     71.6946   9.5497453530e+01   4.7737027776e+01    0.3194065     0.218772 -53.70 0.0006938684    1.644    0.392
       444 -10.0729      9.5598     80.8605   1.3177070790e+02   5.7400333345e+01    0.3113597    0.1614844  67.30  0.001488017    2.420    0.587
       445  -8.8548    157.8648     84.0900   8.5138304370e+01   3.3852131908e+01    0.2311966    0.2124827 -62.43  0.000424313    1.261    0.207
       446  -9.3719    129.5860     82.8998   9.2007365378e+01   4.0535770116e+01    0.4505462    0.1852779  37.99  0.001513046    2.702    0.630
       447  -8.2750    185.2807     82.6413   7.8761027903e+01   2.7542342006e+01    0.1547623    0.1190171 -60.90 0.0007014571    1.667    0.400
       448  -9.8055     24.6846     80.5992   1.2639881249e+02   5.6555731645e+01    0.4329455    0.2374967  81.33  0.001383106    2.438    0.590
       449  -9.5835    150.0617     80.5840   8.5964579225e+01   3.6326668294e+01    0.2995927    0.2156409 -52.70  0.001141696    1.635    0.388
       450  -9.2780    119.4812     80.4985   9.4139281809e+01   4.3176345196e+01    0.3531622    0.2497027 -65.31 0.0009110592    1.967    0.492
       451  -8.7421     74.3166     80.2440   1.0855866527e+02   5.1328592735e+01    0.2604311    0.1855704 -71.73 0.0008973727    1.698    0.411
       452  -8.7787    166.6924     79.9406   8.1883124670e+01   3.2475218962e+01    0.2233856    0.1906498 -26.64 0.0004596757    1.163    0.140
       453  -9.5056    184.0603     78.4578   7.7799474475e+01   2.8513081485e+01    0.2426843    0.2008256 -23.76 0.0005908821    1.186    0.157
       454  -7.7754    179.2768     85.6386   8.0840797581e+01   2.8484407790e+01    0.1549174    0.1205018 -62.08 0.0006147719    1.665    0.399
       455  -9.5573    232.6324     77.5504   6.9283922299e+01   1.7317317832e+01    0.2655653    0.2362654 -33.00  0.000568278    1.114    0.102
       456 -10.0948     63.7803     74.8459   1.1085658405e+02   5.4011515801e+01    0.6427482    0.3029217 -68.95  0.002308215    3.297    0.697
       457  -9.8600    128.1147     75.3768   9.0088816794e+01   4.2329110955e+01    0.3947042    0.2644161 -56.51 0.0009496071    1.890    0.471
       458  -8.6859    163.4743     73.4960   8.0648092707e+01   3.4356726502e+01    0.2830989    0.1347322 -43.80  0.001024418    2.296    0.564
       459  -9.4757     82.4335     72.8255   1.0362519411e+02   5.1727214361e+01    0.3320311    0.2460289 -74.34 0.0009090977    1.839    0.456
       460  -9.9183    151.8914     71.6575   8.2753329582e+01   3.7487958729e+01    0.4415593    0.2672082 -18.73  0.001761492    1.993    0.498
       461 -11.2372    154.6807     66.4332   8.0429606029e+01   3.7704244860e+01    0.6431013    0.5072272 -72.62  0.002958534    1.722    0.419
       462  -9.7699    115.7662     72.7814   9.2816958316e+01   4.5501600943e+01    0.3015903     0.207013 -49.21 0.0008551287    1.566    0.361
       463  -7.9302     42.6600     73.3080   1.1832887522e+02   5.6768847385e+01     0.129179   0.09759901  71.83 0.0003710984    1.686    0.407
       464  -8.3005    175.4868     72.5612   7.7788495204e+01   3.1560668543e+01    0.1536723     0.147525  11.35 9.127927e-05    1.023    0.022
       465  -9.6111     94.8792     70.8053   9.8766113847e+01   5.0012210288e+01    0.4090041    0.2243252 -56.49  0.001062303    2.242    0.554
       466  -9.3153     51.3863     69.4960   1.1407510358e+02   5.6735773530e+01    0.3855682     0.230786 -76.99  0.001362198    2.278    0.561
       467  -9.1538     32.3539     68.4038   1.2119137437e+02   5.8822114982e+01    0.3529725    0.1642699  -4.80  0.001369004    3.979    0.749
       468  -9.2988     16.8651     70.2502   1.2752712779e+02   5.9468244122e+01     0.264113    0.1540616 -88.49  0.001005231    1.876    0.467
       469  -8.7563      1.9692     71.4760   1.3325646671e+02   5.9903584001e+01    0.1566466   0.07622407  47.72 0.0008098879    2.534    0.605
       470  -9.7280    147.0907     68.3114   8.2847987704e+01   3.9229089232e+01    0.2921943    0.2217543 -40.25 0.0005993995    1.360    0.265
       471  -9.5727    131.0801     68.7860   8.7145743313e+01   4.2906907579e+01    0.5627515    0.1830663  36.71   0.00141831    4.871    0.795
       472  -9.8212    138.7582     66.6349   8.4399547064e+01   4.1512299203e+01    0.3085383    0.2036404 -45.66 0.0008179381    1.646    0.392
       473  -9.4633    121.8425     66.2046   8.8874326796e+01   4.5464381983e+01    0.3208378    0.2095593 -51.78 0.0006982767    1.808    0.447
       474 -10.1246    109.9139     64.6615   9.1913016235e+01   4.8316212961e+01    0.4472644     0.326935 -24.12  0.001281587    1.421    0.296
       475  -8.4782     37.2846     64.4466   1.1833034794e+02   5.9312193813e+01    0.2209384    0.1506694 -84.49 0.0008875464    1.815    0.449
       476 -10.4929     97.9054     61.8146   9.4787914323e+01   5.1279242096e+01    0.4902074     0.431171 -58.72  0.001920551    1.322    0.243
       477  -9.1513    158.3384     62.2181   7.8235204590e+01   3.7494496005e+01    0.2562527    0.1987055  83.04  0.000643096    1.707    0.414
       478  -9.5844     73.2180     59.8850   1.0288565355e+02   5.5962582251e+01    0.3943249    0.2541463 -52.35  0.001079705    1.553    0.356
       479  -8.2119    164.4674     60.0449   7.6198158425e+01   3.6303595835e+01    0.2309981    0.1507532 -30.76 0.0005219753    1.530    0.346
       480  -8.4364     64.3664     63.2937   1.0733482063e+02   5.6513492945e+01    0.1453687   0.09988535 -18.73 0.0007028601    1.716    0.417
       481  -8.6323      1.5038     59.4670   1.3177431694e+02   6.2666106285e+01    0.2053782   0.09624078 -86.23 0.0009496989    2.185    0.542
       482  -9.5259    147.1457     59.1593   7.9816843995e+01   4.0768958936e+01    0.2396977    0.2095848  10.37 0.0004450434    1.153    0.133
       483 -10.6110    148.2414     53.7243   7.7713681543e+01   4.1374146731e+01    0.4208318    0.3120583 -24.97  0.001298112    1.365    0.268
       484 -10.1109      7.4544     57.3647   1.2902070923e+02   6.2908910994e+01    0.3255172    0.1829945 -86.17  0.001007978    1.866    0.464
       485  -9.1845    130.8182     58.0565   8.3584421802e+01   4.4889209797e+01     0.232085    0.2100252 -61.14 0.0006576318    1.302    0.232
       486  -9.5776    139.9945     56.5477   8.0680092976e+01   4.2950335635e+01    0.2678103    0.1974923 -52.31 0.0006657387    1.611    0.379
       487  -9.9790    119.1284     55.3801   8.5900569193e+01   4.8045930569e+01    0.4709852    0.2487458 -45.57  0.001693003    2.104    0.525
       488  -9.3630     54.3123     55.6257   1.0894279795e+02   5.9487954996e+01    0.3472298    0.2136645 -65.00  0.001092721    1.925    0.481
       489  -8.7286     44.0983     55.6508   1.1318904824e+02   6.0637412696e+01    0.2320443    0.1658728 -63.49 0.0008815938    1.413    0.292
       490  -9.6619    105.2489     53.7223   8.9519068749e+01   5.1353959235e+01    0.4070671    0.2765307  21.40  0.001840515    1.710    0.415
       491  -9.4634     92.4929     50.7100   9.2638637625e+01   5.4467756361e+01     0.365713    0.2342585 -52.46  0.001089969    1.876    0.467
       492  -9.4659    125.5599     51.3732   8.2635127564e+01   4.7260623411e+01    0.2977162    0.1467347  65.14 0.0009517433    3.411    0.707
       493  -9.6874    129.7597     49.4408   8.0798896393e+01   4.6586056972e+01     0.280975    0.2079753 -28.68 0.0005534138    1.350    0.259
       494 -10.9022    164.2859     47.2091   7.2032812644e+01   3.8270900639e+01    0.5251214    0.4913031  86.76  0.002476595    1.184    0.155
       495 -10.1421     23.5095     56.5896   1.2214609522e+02   6.2191982802e+01    0.4714119    0.2623323  82.69  0.002088957    3.073    0.675
       496  -9.2078    120.9559     47.7108   8.2567532023e+01   4.8941574149e+01    0.2618001    0.2098434 -26.34 0.0005473339    1.234    0.190
       497  -9.0798    112.0766     47.0221   8.4896489365e+01   5.1069748963e+01    0.2300245    0.2144193 -10.52 0.0005887233    1.058    0.055
       498  -8.7547     82.0129     46.4380   9.4773881199e+01   5.7209614417e+01    0.2541643    0.1929254 -51.69 0.0006299547    1.505    0.336
       499  -9.3059    132.9238     44.0567   7.8003442329e+01   4.6669970761e+01    0.3587117    0.1995124 -41.34  0.001056742    1.931    0.482
       500  -9.4145     16.6537     44.8323   1.2237177953e+02   6.5266786552e+01    0.2186666    0.1672946  84.36 0.0007690661    1.641    0.391
       501 -10.5320      4.9251     41.6287   1.2708923275e+02   6.6551570492e+01    0.4873796    0.2187632 -81.83  0.002272927    2.628    0.619
       502  -9.8260      7.2798     34.6507   1.2432597610e+02   6.7984745838e+01     0.304539    0.1139186  15.28  0.001469162    3.142    0.682
       503  -9.4038     97.0326     42.8246   8.8044979267e+01   5.4996420553e+01    0.4574035    0.1829213  57.59  0.001289659    4.957    0.798
       504  -8.9755     69.6918     41.8723   9.7764942616e+01   6.0154045887e+01    0.2806022    0.2094584 -65.47  0.001097549    1.951    0.487
       505  -8.7881     57.9636     42.6015   1.0292602061e+02   6.1744558956e+01    0.2666657     0.176793 -62.47  0.001234381    1.994    0.499
       506  -8.9278    106.0035     41.5062   8.4616369238e+01   5.3327840563e+01    0.2741656    0.1992682 -45.89 0.0005977097    1.556    0.357
       507  -8.1822    140.2953     41.6533   7.5315122108e+01   4.5200524398e+01    0.1544868    0.1192242 -62.41 0.0004281614    1.672    0.402
       508  -8.4428     36.9107     40.9501   1.1177977003e+02   6.4544943575e+01    0.1823014    0.1547507  84.37 0.0005747014    1.652    0.395
       509  -9.2257    168.0919     37.8463   6.8175875196e+01   3.8557007846e+01    0.3219496     0.250523  67.41 0.0009355912    1.330    0.248
       510  -8.3986    143.4693     38.1324   7.3296269164e+01   4.4899654503e+01    0.2274941    0.1500228 -24.30  0.001017552    1.553    0.356
       511  -8.5643     95.2018     37.9720   8.6698250487e+01   5.6196615746e+01    0.2589028    0.1626363 -41.42 0.0009649199    1.666    0.400
       512  -9.5862    111.8008     35.5373   8.0463766652e+01   5.2980431478e+01    0.4220434    0.1801211 -34.44  0.001154635    2.312    0.567
       513  -8.2113     44.8811     44.7735   1.0943268685e+02   6.2910348842e+01    0.1644669    0.1494597 -68.09 0.0004159172    1.317    0.241
       514  -8.2777    125.8139     35.7772   7.6688577437e+01   4.9635658144e+01    0.1923392    0.1780766 -59.78  0.000335185    1.279    0.218
       515  -9.6327     26.1660     35.6387   1.1518245775e+02   6.6614290459e+01     0.256601     0.197639 -71.82 0.0008372222    1.514    0.340
       516  -8.5089     74.4745     35.4771   9.3244581715e+01   6.0545742187e+01    0.2469164     0.131922  51.00  0.001038836    2.510    0.602
       517  -9.3467    119.4003     33.6790   7.7566378289e+01   5.1481318742e+01    0.2740239    0.1361547 -33.78 0.0006556055    2.014    0.504
       518  -8.8307     48.5329     33.5173   1.0360682389e+02   6.4776284726e+01     0.221924    0.2040469 -68.39 0.0007280486    1.445    0.308
       519  -8.3648     60.5726     32.7315   9.7853080737e+01   6.3279565108e+01     0.176315    0.1217979 -47.03 0.0003708022    1.509    0.337
       520  -8.2869     72.1854     31.2577   9.2342868067e+01   6.1681111881e+01    0.1769551    0.1624903 -49.49  0.000551649    1.368    0.269
       521  -9.9570     12.8964     30.3687   1.2027561895e+02   6.8625607198e+01    0.2935511    0.1565956 -68.57  0.001035041    1.870    0.465
       522  -9.0602    226.4333     29.2573   5.7314610249e+01   2.4781416781e+01    0.2694439    0.1330344 -19.08    0.0011538    2.153    0.536
       523  -7.9849    200.4748     30.4261   6.0754013352e+01   3.1051351916e+01    0.1391948    0.1376793  83.80 0.0001098468    1.010    0.010
       524  -8.4423    101.5959     29.7489   8.1148085732e+01   5.6136004862e+01     0.199814    0.1316002 -38.16 0.0007284547    1.602    0.376
       525  -8.5956     81.5854     27.5733   8.7051510918e+01   6.0586834935e+01    0.2524489    0.2023442 -67.51 0.0009257352    1.979    0.495
       526  -9.9474      3.7167     27.9278   1.2441659345e+02   6.9582592719e+01    0.2249453    0.1793567  55.67  0.001202264    1.721    0.419
       527  -8.1496    191.3859    249.7042   1.1098894969e+02   1.3550589223e+00    0.1067776   0.07278732  49.25 0.0007015993    1.772    0.436
       528  -8.2489     34.2431     23.5835   1.0655186471e+02   6.8328490201e+01    0.1633064    0.1120819   2.69 0.0005833435    1.551    0.355
       529  -8.3544    129.7516     22.3844   7.0419586047e+01   5.0429494505e+01    0.2092658    0.1252248  47.34 0.0004425868    1.536    0.349
       530  -8.6582     63.6351     21.2959   9.1342324562e+01   6.4789947785e+01    0.2755398    0.1543902 -47.68  0.001143706    2.205    0.546
       531  -8.6487     48.2696     21.8410   9.8674814841e+01   6.6991406187e+01    0.1855363    0.1587806 -32.33 0.0004979597    1.200    0.167
       532  -9.3883     18.9218     22.1700   1.1426903502e+02   6.9944857950e+01    0.2331485    0.1428396 -20.94  0.001354797    1.620    0.383
       533  -9.7450    161.0023     19.6201   6.3179925783e+01   4.2596593109e+01    0.2751924    0.2215887 -15.22 0.0005629785    1.302    0.232
       534  -8.4662     74.1272     19.6640   8.6213210485e+01   6.3209849854e+01    0.2262375    0.1719895 -36.67 0.0006393567    1.406    0.289
       535 -10.3876    177.9273     22.0324   6.1315882958e+01   3.7849237466e+01     0.511919    0.3258996  82.23   0.00230467    1.792    0.442
       536  -8.2680    112.3201     16.1623   7.2126093626e+01   5.5464004979e+01    0.3139296    0.1568787 -49.38  0.001153459    3.071    0.674
       537  -9.2610      1.6294     16.8151   1.2234713037e+02   7.1995684150e+01    0.1620986   0.09538248 -71.23   0.00070418    1.737    0.424
       538  -9.0983    175.7085    247.7360   1.1348119038e+02   3.7926024423e+00    0.2375443    0.1776097  63.59  0.001170464    2.099    0.524
       539  -8.7182    156.2788    248.4189   1.1700005829e+02   6.4704533359e+00    0.1696899    0.1316754  49.82 0.0006358215    1.348    0.258
       540  -9.1589    103.9499    247.3031   1.2621428570e+02   1.3775646248e+01    0.3003297     0.162668 -87.89  0.001686504    3.210    0.688
       541  -8.4544    218.7006    248.1378   1.0612692413e+02  -2.2683674127e+00    0.1427163     0.124559   9.18 0.0007919555    1.432    0.301
       542  -8.0979    203.3335    248.3019   1.0875230797e+02  -1.6799599401e-01    0.1148117    0.0658751  17.13 0.0007035409    1.656    0.396
       543  -8.1726     47.5200     10.5316   9.3394050340e+01   6.8990486128e+01     0.130261    0.1068186 -10.94 7.709967e-05    1.033    0.032
       544  -8.7301    144.1493    248.1265   1.1912843771e+02   8.2146170723e+00    0.1764508    0.1265557  39.66 0.0005962761    1.050    0.048
       545  -9.0696    146.9700    245.9920   1.1839506147e+02   8.0919057259e+00     0.175012    0.1237136  48.36  0.001119451    1.303    0.233
       546  -7.9933    113.2553    248.6486   1.2468118874e+02   1.2366202793e+01    0.1045199   0.06681788  60.29 0.0006180348    1.601    0.375
       547  -9.6858     76.6529    247.5676   1.3101460957e+02   1.7136697946e+01    0.2009728    0.1284015  51.22 0.0006253233    1.155    0.134
       548  -8.8082    242.7245    247.1932   1.0204166237e+02  -5.3728099602e+00    0.1449919    0.1173099   1.25  0.000820122    1.405    0.288
       549 -10.2617    223.9325    244.0921   1.0468731911e+02  -2.5873902746e+00    0.3339995    0.2541424 -25.36  0.002156862    1.698    0.411
       550  -9.3096    120.0538    245.3925   1.2317118644e+02   1.1906161601e+01    0.2427283    0.1520554  70.94  0.001515923    2.210    0.547
