#   1 NUMBER                 Running object number                                     
#   2 MAG_AUTO               Kron-like elliptical aperture magnitude                    [mag]
#   3 X_IMAGE                Object position along x                                    [pixel]
#   4 Y_IMAGE                Object position along y                                    [pixel]
#   5 X_WORLD                Barycenter position along world x axis                     [deg]
#   6 Y_WORLD                Barycenter position along world y axis                     [deg]
#   7 A_WORLD                Profile RMS along major axis (world units)                 [deg]
#   8 B_WORLD                Profile RMS along minor axis (world units)                 [deg]
#   9 THETA_WORLD            Position angle (CCW/world-x)                               [deg]
#  10 FWHM_WORLD             FWHM assuming a gaussian core                              [deg]
#  11 ELONGATION             A_IMAGE/B_IMAGE                                           
#  12 ELLIPTICITY            1 - B_IMAGE/A_IMAGE                                       
         1 -11.4799     39.2383     19.6406   7.7718939065e+01   6.8263065296e+01    0.3752396      0.33832  38.60  0.002590236    1.607    0.378
         2 -11.3242      2.0395     22.3751   9.8672629321e+01   7.1346159874e+01    0.4764556     0.148233 -52.24  0.002004215    2.501    0.600
         3 -10.3611     20.6323     16.9777   8.5964401102e+01   7.0805499007e+01    0.2749852    0.1494021 -15.71  0.001476315    1.871    0.466
         4 -10.4498     11.4504      7.4881   8.6584429776e+01   7.3093112019e+01    0.2066691     0.129832 -48.82 0.0006992336    2.011    0.503
         5 -10.9742     13.8574     16.0052   8.9280026257e+01   7.1580891729e+01    0.2516317    0.2237694   0.81  0.001283275    1.382    0.276
         6 -10.5573     15.5269      8.5213   8.4713022202e+01   7.2566088517e+01    0.3518446    0.1633829 -13.07  0.001345517    2.851    0.649
         7  -9.7182     22.3711      9.9451   8.1578032733e+01   7.1663186639e+01    0.3691306     0.227435   2.14  0.002291857    1.528    0.346
         8 -10.2772     24.1982      3.2983   7.7059096014e+01   7.2340034465e+01    0.4277214    0.2007527  19.60  0.002261178    2.248    0.555
         9 -11.0655     19.1475      1.7191   7.9007454731e+01   7.3119826890e+01     0.273638    0.1606616  36.91 0.0008859457    2.074    0.518
        10 -11.7703     30.3711      7.4314   7.6011150126e+01   7.1059276778e+01    0.5092242    0.2962978  23.43   0.00309603    1.576    0.365
        11 -11.5048     34.7727     12.6212   7.6462165514e+01   6.9817538501e+01     0.316993    0.2585997  -2.34  0.001068577    1.114    0.102
        12 -11.7020     36.4947      8.3886   7.3448079048e+01   7.0132044996e+01    0.5645103    0.2575701  25.14  0.001999389    2.271    0.560
        13 -11.5864     66.1703     13.5549   6.3463124982e+01   6.4787986211e+01    0.3432058    0.3019102 -88.98  0.001362695    1.877    0.467
        14  -9.5438     45.6991      9.9855   6.9984293135e+01   6.8609468101e+01    0.2143593    0.1361079  24.19 0.0002068977    1.398    0.285
        15 -10.6101    134.9691     11.4805   4.4929324067e+01   5.0021497523e+01    0.2164984    0.1884702  12.70  0.001329806    1.276    0.216
        16 -10.0650     85.9189     11.7694   5.6192484421e+01   6.1134003684e+01    0.2173523    0.1693424  -6.94  0.001324547    1.306    0.235
        17 -10.6699    126.0158     11.0158   4.6401616735e+01   5.2208566770e+01    0.1964551    0.1693899  49.42            0    1.034    0.033
        18  -9.4697    104.0579      9.9259   5.0654475816e+01   5.7389940625e+01    0.1545772    0.1338707  40.62 0.0006107201    1.014    0.013
        19  -9.1499     93.0146     10.0088   5.3462394195e+01   5.9806198962e+01    0.1520527    0.1263226  37.65            0    1.027    0.026
        20  -9.7925     57.4605      8.4570   6.4299435419e+01   6.6877405134e+01    0.2119452    0.1104508 -20.13 0.0005560408    1.938    0.484
        21 -11.4543     57.5013      2.8285   6.1466285192e+01   6.7438331676e+01     0.470649    0.2693043   9.46 0.0007564753    1.894    0.472
        22 -11.1737    188.4945      6.6399   3.6308210054e+01   3.7482644330e+01    0.3372566    0.1726016  39.44  0.001228391    2.780    0.640
        23 -10.4909    217.8348      6.8126   3.3674390261e+01   3.0687456197e+01    0.1807033    0.1197769 -62.91 0.0007184484    1.348    0.258
        24  -9.4809    211.3065      7.3302   3.4338704662e+01   3.2105204610e+01     0.117847   0.09046726  43.51 0.0005400925    1.659    0.397
        25 -10.0364    204.4813      6.9960   3.4860783203e+01   3.3701283405e+01    0.1726206    0.1184287 -34.54 0.0003609058    1.532    0.347
        26  -9.3163    184.3511      7.2713   3.6904702112e+01   3.8410613428e+01    0.1292988   0.08663369  48.37 0.0003329897    1.630    0.387
        27  -9.8998     70.7538      6.5479   5.8567528792e+01   6.4653982880e+01    0.2468007    0.1581219 -28.92  0.001423718    1.710    0.415
        28 -10.1522     65.7386      6.8007   6.0409708061e+01   6.5571657002e+01     0.329481    0.1587049  51.54  0.001644051    2.047    0.511
        29  -9.8537      2.8033      6.6733   9.1473705364e+01   7.3907238725e+01    0.1828012    0.1125913   4.39 0.0007424619    1.507    0.336
        30 -10.7945    151.2869      6.0607   4.0618586786e+01   4.6538729273e+01    0.1725757    0.1643915 -88.18 0.0002813686    1.106    0.096
        31  -9.2440     93.2193      6.6385   5.1996873982e+01   6.0063134298e+01    0.1148109    0.0940455 -47.98 0.0002387579    1.567    0.362
        32 -10.4923    136.8506      4.8604   4.2406401209e+01   5.0141605357e+01    0.2121558    0.1598857  44.35  0.001242409    1.268    0.212
        33 -10.0449    168.0000      3.9987   3.7851369005e+01   4.2651241400e+01    0.1926774   0.07413502 -23.61 0.0008053525    2.963    0.662
        34  -9.3881    120.4888      4.4548   4.5108998202e+01   5.4073647723e+01    0.1322457    0.1102121  49.59 0.0002204666    1.043    0.042
        35 -10.6020    102.3625      2.3592   4.8040755745e+01   5.8402850723e+01    0.3608684    0.2510479  70.21  0.001519356    1.497    0.332
        36  -9.0873     74.4678      4.5023   5.6407938455e+01   6.4121525401e+01    0.1283377    0.1011984  26.61 0.0001239919    1.050    0.048
        37 -10.1072    230.4668      3.4840   3.1981872058e+01   2.8259346124e+01    0.1199478   0.09712295 -73.37 0.0001618588    1.012    0.012
        38  -9.7988    176.2822      2.6137   3.6532604114e+01   4.0773010597e+01    0.1954775    0.1495816  29.90 0.0008748683    1.646    0.392
        39  -9.9197    129.9996      3.4679   4.3064938370e+01   5.1898511064e+01    0.1979161    0.1122182  64.81 0.0003330575    1.520    0.342
        40 -11.0772     80.4423      1.6572   5.3308822822e+01   6.3164959027e+01    0.3152834    0.1432148  52.68 0.0007044935    1.864    0.464
        41 -10.9587     11.7085      1.8536   8.3469373855e+01   7.3867647401e+01    0.1805383    0.1366054  13.75 0.0004982426    1.341    0.254
        42  -9.6767      1.4155      2.2377   9.0143995759e+01   7.4677636519e+01    0.1379197   0.09132142 -44.92 0.0009407288    1.631    0.387
        43  -9.1835     67.2439      1.3127   5.7238699907e+01   6.5796152719e+01    0.1228952   0.07688554  20.50 0.0003084488    1.509    0.337
        44  -9.6287    226.4907    164.0012   6.9022249180e+01   4.6235378055e+00    0.2098641    0.1238395 -34.45 0.0007116628    1.544    0.352
        45 -11.0693     28.9103    250.4212   1.2279686441e+02   1.8862602832e+01    0.3401456   0.06916597  36.99  0.001465077    3.547    0.718
        46 -12.6801      5.5016    240.3467   1.2638725688e+02   2.3095300240e+01     0.473028    0.2821494  42.93  0.003188102    1.526    0.345
        47 -12.0713     17.6657    249.1143   1.2468949622e+02   2.0275412621e+01    0.3167185    0.2386257  26.25  0.002324883    1.800    0.445
        48 -11.0730      1.9213    248.8018   1.2733966072e+02   2.1858126293e+01    0.3484893     0.153465 -84.73  0.002164332    1.997    0.499
        49  -9.2603    247.4988    155.4438   6.3605902026e+01   2.4893237857e+00    0.1337663    0.1127608 -20.53  0.000193581    1.008    0.008
        50 -10.8918      3.7293    153.6012   1.2161049220e+02   4.1922928520e+01    0.3447607    0.1554103  31.86  0.001810582    2.404    0.584
        51 -10.2874     15.9983    150.4774   1.1822477755e+02   4.1776335379e+01    0.1613066    0.1258705  26.54 0.0007251171    1.553    0.356
        52  -9.5264    237.5644    149.5377   6.4003511952e+01   5.1592887447e+00    0.1377992    0.1177666 -21.79 0.0001095257    1.009    0.009
        53  -9.4643     37.2387    146.0325   1.1201959571e+02   4.0992622091e+01    0.1815038    0.1467209 -77.04 0.0002756102    1.066    0.062
        54 -10.1711     23.3191    146.5855   1.1588217442e+02   4.2127978194e+01    0.1525064    0.1259252  -5.40 0.0009424437    1.604    0.376
        55  -9.6030    248.6483    144.2967   6.1074822394e+01   4.1219412249e+00    0.1270647    0.1021298 -64.43 0.0005165078    1.687    0.407
        56  -9.1794     12.2671    141.6335   1.1831897245e+02   4.4189584341e+01    0.1303015   0.08002574  74.87 0.0006991655    1.655    0.396
        57 -10.1673    212.5985    133.8525   6.4919955558e+01   1.2619585525e+01    0.2541288    0.2146044  59.26 0.0007390067    1.391    0.281
        58 -10.2320      2.7994    133.3093   1.2005411413e+02   4.6811397707e+01    0.2897287    0.1688901  61.45  0.001615234    1.854    0.461
        59 -10.9642    249.2631    133.0136   5.8567063410e+01   5.8741149657e+00    0.2879069   0.09183615 -39.59  0.001075059    2.656    0.624
        60  -9.0165     96.2960    133.7018   9.2841533458e+01   3.6176683146e+01    0.1500147    0.1173924  78.53 0.0004076212    1.570    0.363
        61 -10.5333     11.9478    129.7752   1.1712843341e+02   4.7084827158e+01    0.2205852    0.1550373  57.91  0.001202807    1.548    0.354
        62  -9.9343     28.7079    128.0568   1.1201504972e+02   4.6227825779e+01    0.1850507    0.1464528 -69.66 0.0003262388    1.062    0.059
        63  -9.4487     48.4621    127.5588   1.0596463144e+02   4.4422576514e+01    0.1378554    0.1220958 -69.25  7.40063e-05    1.016    0.016
        64 -11.5316     23.9561    121.4384   1.1250709980e+02   4.8247813551e+01    0.3758499    0.2295637  64.48   0.00162145    1.984    0.496
        65 -11.7010      8.6728    120.8802   1.1704701556e+02   4.9449256887e+01    0.3181065    0.2325489 -51.14   0.00118436    1.299    0.230
        66  -9.3108     75.8529    120.8130   9.6155269435e+01   4.2583062370e+01    0.1885174    0.1647722  87.31 0.0002417547    1.262    0.207
        67  -9.9537     69.1266    117.2710   9.7496683982e+01   4.4414055084e+01    0.2572733    0.1761855 -49.61 0.0006699828    1.339    0.253
        68  -9.1357    139.2946    112.2737   7.5614228990e+01   3.2781858009e+01    0.1539318     0.124025   1.59  0.000161886    1.523    0.343
        69 -10.4178     65.5604    110.5517   9.7156880642e+01   4.6543453855e+01     0.289885    0.2359486  73.78 0.0008077698    1.491    0.330
        70  -9.3428     44.5095    110.5264   1.0409945754e+02   4.9062045620e+01    0.1374469    0.1209469 -61.93 1.991911e-05    1.033    0.032
        71 -11.0786      2.6290    109.2520   1.1748169807e+02   5.2579369339e+01    0.2842078    0.1951464  24.05  0.001562057    1.794    0.442
        72 -11.4772      6.5100    107.0066   1.1596787728e+02   5.2909721380e+01     0.501259    0.2186544  67.65  0.001933403    3.969    0.748
        73 -11.4200     57.8036    107.6796   9.9080727910e+01   4.8242848283e+01    0.3444627    0.2379526 -37.14  0.001039092    1.467    0.318
        74  -9.9171     28.5535    106.1745   1.0860722606e+02   5.1609950751e+01    0.2417101    0.1511236 -40.57   0.00128163    1.573    0.364
        75  -9.2960     88.6853    104.6673   8.8216771232e+01   4.4438405737e+01    0.1565636     0.113665 -19.32 0.0007046128    1.684    0.406
        76 -10.1477     17.1636    104.6719   1.1215619277e+02   5.2821827655e+01     0.159508    0.1144119 -10.51 0.0003904311    1.716    0.417
        77 -10.0192    186.8829    103.0435   6.2299982508e+01   2.3914230766e+01    0.2282973    0.2157393 -50.71 0.0005708729    1.041    0.039
        78 -10.0743     56.0315     97.2275   9.7274377857e+01   5.0968267978e+01    0.2181955    0.1709286 -30.83 0.0006310682    1.276    0.216
        79 -10.3396     10.4924     96.5155   1.1312470728e+02   5.5183438651e+01    0.2679457     0.140992 -38.89 0.0008158805    1.880    0.468
        80 -10.0690     10.9455     92.1712   1.1226225295e+02   5.6182110865e+01    0.2755917    0.1417662 -88.07  0.001273432    2.437    0.590
        81 -10.4138      3.2048     95.6496   1.1548439829e+02   5.5771865981e+01    0.2232848    0.1639546 -53.99 0.0005284106    1.142    0.125
        82 -10.0850     28.7056     92.2270   1.0591189857e+02   5.4939956683e+01    0.3326516    0.1872727  16.34  0.001389958    2.121    0.529
        83 -12.1306     20.7791     92.7959   1.0887500368e+02   5.5408058144e+01     0.347344    0.2436261 -43.90 0.0004500985    1.271    0.213
        84 -11.1089     24.6805     88.1526   1.0654950502e+02   5.6214437822e+01    0.3968111    0.2342435 -54.98   0.00123283    1.362    0.266
        85 -10.1586     19.2375     87.2059   1.0836895477e+02   5.6827002426e+01    0.3657378    0.1783252 -60.03  0.001401425    1.619    0.382
        86 -11.9704    125.1970     93.3128   7.4083855722e+01   3.9879346730e+01    0.2746906    0.2671365  24.03 0.0002287902    1.035    0.034
        87 -10.0978     78.8460     93.9177   8.8551757610e+01   4.8530811241e+01    0.2213203    0.1833643 -20.26 0.0003165161    1.251    0.201
        88 -11.7279     57.9998     91.6605   9.5195010745e+01   5.2027624717e+01    0.3181326    0.2642881 -17.59 0.0003743056    1.250    0.200
        89 -12.3080     55.4526     85.8323   9.4592113434e+01   5.3686635449e+01    0.2526375    0.2478703 -48.76  0.000271882    1.151    0.131
        90 -10.3434     44.0705     90.2281   9.9875414545e+01   5.3976901992e+01     0.402189    0.2778839 -82.51  0.001722613    1.879    0.468
        91  -9.5279      7.0440     91.6383   1.1355031861e+02   5.6520372289e+01    0.1684777    0.1317502 -54.34 0.0006647923    1.072    0.067
        92  -9.5857     64.4384     88.2260   9.1986565845e+01   5.1963753600e+01    0.1994522    0.1320178 -63.24 0.0009463835    1.671    0.402
        93 -11.4601     10.7853     86.2500   1.1129973879e+02   5.7574474794e+01    0.3915364    0.2442203  71.21  0.002065094    2.233    0.552
        94  -9.6928    124.0273     86.2940   7.2318361770e+01   4.1568509039e+01    0.2181857     0.200148  35.30 0.0006330373    1.091    0.083
        95  -9.5969     72.4396     85.5283   8.8392452900e+01   5.1410723188e+01    0.1436865    0.1310696 -33.16  8.70149e-05    1.023    0.022
        96  -9.2595    145.9803     83.2688   6.5730285255e+01   3.7187637640e+01     0.187423    0.1341398  50.93 0.0003591094    1.402    0.287
        97 -10.1182      2.8260     82.1677   1.1352427303e+02   5.8920974770e+01    0.3186851    0.1469531 -79.95  0.001506575    2.296    0.564
        98  -9.3428    250.3357     81.2838   4.7092186473e+01   1.3994473108e+01     0.121552    0.1013464   9.06 0.0004509863    1.623    0.384
        99 -10.0235     89.3838     80.5929   8.1100201920e+01   4.9668957932e+01    0.2775814    0.2191654 -72.42 0.0006554046    1.709    0.415
       100 -10.0296     24.7008     78.6836   1.0449656970e+02   5.8397502096e+01    0.2824014    0.1638682 -37.89 0.0009897352    1.578    0.366
       101 -10.1859     28.1296     77.1445   1.0279420130e+02   5.8474854332e+01    0.1904433    0.1565628 -41.05 0.0003259606    1.042    0.040
       102  -9.5564    124.4658     79.1212   6.9994153477e+01   4.2882466920e+01    0.2186966    0.1486129 -39.10 0.0004435251    1.468    0.319
       103  -9.9850    176.7994     76.8383   5.7226842804e+01   3.1002306015e+01     0.225561    0.2082599  17.28 0.0007967953    1.202    0.168
       104 -10.2972     55.2005     75.7878   9.1876950296e+01   5.5954623077e+01     0.345208    0.2386315  -4.17  0.001374327    1.717    0.418
       105 -11.3142     35.5576     73.8741   9.9025503427e+01   5.8551219847e+01    0.4399755    0.3520936  43.62  0.002070643    1.561    0.359
       106 -10.2605      5.9981     76.7562   1.1136669279e+02   6.0004915814e+01    0.1350856    0.1028218   2.85 0.0003764541    1.555    0.357
       107 -10.5470     20.7964     72.9542   1.0472049791e+02   5.9976858931e+01    0.4466339    0.1716533 -68.77  0.001784417    2.946    0.661
       108 -11.2103    106.7679     71.6444   7.2692488949e+01   4.8098211893e+01    0.3921591    0.3202075  72.33  0.001694763    1.602    0.376
       109 -10.5579     64.2217     80.4838   8.9877731970e+01   5.3723091578e+01    0.3068413    0.2234651 -34.31 0.0009280021    1.286    0.222
       110  -9.2916    216.9945     72.0317   4.9311277933e+01   2.2418338583e+01    0.1677961    0.1437497 -47.10   0.00038604    1.074    0.069
       111 -10.6848     10.1954     69.0980   1.0815228129e+02   6.1503349918e+01    0.3420927    0.1722898 -51.70  0.001301293    1.500    0.333
       112 -10.8402      5.7166     69.0078   1.0995876517e+02   6.1755765269e+01    0.2725133    0.2008157  62.16  0.001193136    1.861    0.463
       113 -10.6301      1.3797     66.6431   1.1124935405e+02   6.2475701279e+01    0.1986111    0.0969213 -68.57 0.0004994154    1.769    0.435
       114 -10.0698     46.0712     69.4839   9.3585302942e+01   5.8412885037e+01     0.253751    0.1322294  18.39  0.001165235    2.266    0.559
       115 -10.8708     15.2771     64.6149   1.0500496816e+02   6.2186270977e+01    0.4484296    0.2997466 -78.77  0.002138222    1.819    0.450
       116 -13.2994     20.3830     58.1843   1.0112243612e+02   6.3212947322e+01    0.4035233    0.2536699 -61.85  0.001022687    1.558    0.358
       117 -10.1090     80.6196     67.2068   7.9761422543e+01   5.3920794550e+01    0.2067079    0.1247973 -33.15 0.0009463541    1.647    0.393
       118  -9.1344    166.5939     65.5128   5.5982018591e+01   3.5355236757e+01    0.1463936    0.1400347 -70.50 0.0001484021    1.043    0.041
       119 -11.4686     15.1554     74.7518   1.0737864674e+02   5.9949017468e+01    0.4425568    0.3335369  83.09  0.002197299    1.713    0.416
       120  -9.7578     96.8572     64.1690   7.3262337273e+01   5.1491394950e+01    0.1989176    0.1620567   8.21 0.0002628641    1.287    0.223
       121 -10.3601      6.3096     63.4176   1.0851801956e+02   6.2954538202e+01     0.306086     0.168179  40.57   0.00165175    2.483    0.597
       122 -10.3214     62.7624     62.2836   8.4688284645e+01   5.7730684722e+01    0.2842734    0.1647186 -37.05  0.001174674    1.603    0.376
       123 -10.1150     41.4018     58.8154   9.2204214963e+01   6.1158128137e+01    0.2950562    0.1554192 -31.09  0.001300058    1.917    0.478
       124 -10.6318      1.4202     59.7645   1.0979681852e+02   6.3971658266e+01     0.248821    0.1063407 -54.39 0.0004396107    1.668    0.401
       125 -11.0698      8.8322     57.2144   1.0596683521e+02   6.4156342386e+01    0.3922133    0.2749208  50.58  0.002368653    2.066    0.516
       126 -10.7267      4.6741     57.6675   1.0790799266e+02   6.4273250770e+01    0.2174139    0.1298227 -47.23 0.0005723616    1.271    0.213
       127 -11.2673     83.9887     56.2848   7.4760001869e+01   5.5358988894e+01    0.4295909    0.3653086 -27.67  0.002179545    1.138    0.122
       128 -10.8094     88.3836     53.1826   7.2130029186e+01   5.5076207187e+01    0.3419773    0.2585693 -37.93  0.001020898    1.349    0.259
       129 -11.0234    114.4766     53.8940   6.4417135393e+01   4.9553820391e+01     0.313757    0.2649006 -34.78 0.0007110977    1.227    0.185
       130  -9.5820     48.1543     58.3651   8.9224149510e+01   6.0464921063e+01    0.1657549    0.1193394  35.77 0.0004171118    1.594    0.373
       131  -9.7127     71.5882     57.0097   7.9482983406e+01   5.7375360840e+01    0.2038751    0.1267903 -41.79 0.0007100747    1.559    0.359
       132 -10.7059     33.1616     55.7070   9.4758825357e+01   6.2639811603e+01    0.4685364    0.1857439 -36.57     0.001861    2.454    0.593
       133  -9.8503     27.0146     56.8580   9.7817064837e+01   6.2963329962e+01    0.2357436    0.1489599 -17.90  0.001308987    1.641    0.391
       134 -11.2395    105.2728     53.5531   6.6933594433e+01   5.1605845417e+01    0.4763388    0.2574012 -24.07  0.001574553    2.191    0.544
       135  -9.8009     96.4709     55.9357   7.0490941008e+01   5.3025125831e+01    0.2125427    0.1373323 -34.12 0.0003907875    1.543    0.352
       136 -12.1396     65.7794     52.5741   8.0075127605e+01   5.9113991195e+01    0.4815598     0.230059  36.18  0.002157175    2.140    0.533
       137  -9.9401    149.5183     52.2161   5.5412619952e+01   4.1586388653e+01    0.2741353    0.1913101  56.89  0.000654337    1.373    0.272
       138  -9.8502    121.7998     51.3420   6.1571299564e+01   4.8303161748e+01    0.2301485    0.1913918 -42.60 0.0004991965    1.292    0.226
       139 -10.2855      4.2415     50.5817   1.0636110884e+02   6.5784075636e+01    0.2457089    0.1368865 -22.67  0.001210289    1.775    0.436
       140 -11.5608     10.7228     47.7157   1.0255380686e+02   6.6019102661e+01    0.5348135    0.3861382  20.54  0.003509289    1.623    0.384
       141 -11.4852     16.4318     43.4889   9.8533854790e+01   6.6483693125e+01    0.4719574    0.3976239  64.18  0.003109231    1.858    0.462
       142  -9.1320     82.3511     47.2647   7.1969998026e+01   5.7196013212e+01    0.1408218    0.1291535   4.77 0.0007924369    1.067    0.063
       143  -9.9971     38.1639     48.7002   9.0195052721e+01   6.3506124185e+01    0.2613881    0.1360413  14.40  0.001256562    2.263    0.558
       144  -9.7545    119.3837     47.7559   6.0952415667e+01   4.9396879297e+01    0.2050766    0.1367939 -17.66 0.0009587479    1.721    0.419
       145 -10.4081    102.3424     47.7557   6.5704898603e+01   5.3146485690e+01    0.3817873     0.192649  32.93 0.0006738854    2.298    0.565
       146  -9.4305     58.1615     48.2180   8.1470761018e+01   6.1045932843e+01    0.1652528    0.1522677 -44.01 0.0003744914    1.332    0.249
       147  -9.3143     53.5999     48.1711   8.3332137503e+01   6.1699793747e+01    0.1936254    0.1085662 -33.40 0.0009546297    1.659    0.397
       148  -9.8087    154.7578     47.4148   5.2864444590e+01   4.0998051242e+01    0.2288223    0.2166428  20.22 0.0005163486    1.127    0.112
       149  -9.6576    152.2249     44.6383   5.2494951248e+01   4.2006659156e+01    0.2042609    0.1842303 -79.48  0.000139901    1.170    0.145
       150  -9.3746    135.7315     46.5556   5.6576480210e+01   4.5743886660e+01    0.1940894    0.1374355  69.28 0.0009317475    1.550    0.355
       151  -9.9208     30.8853     45.9098   9.2515787599e+01   6.4791301106e+01    0.2223188    0.1526114 -48.41 0.0006171669    1.377    0.274
       152 -10.5407     25.8103     44.3554   9.4344600915e+01   6.5561517825e+01    0.3065857     0.237989 -81.33  0.001378176    2.120    0.528
       153  -9.3721    143.5340     44.4958   5.4204753588e+01   4.4150321317e+01    0.1929476    0.1354826 -43.40 7.749812e-05    1.515    0.340
       154 -10.6927    140.7005     41.2113   5.3729885765e+01   4.5285715016e+01    0.3551845    0.2521237 -83.44  0.001283724    1.900    0.474
       155 -10.4547     69.1536     42.1256   7.4762828447e+01   6.0360853027e+01    0.2135945    0.1852705  26.10 0.0007514029    1.182    0.154
       156 -10.4614     59.5958     41.7930   7.8389970830e+01   6.1943962380e+01    0.2237154    0.1757082  33.36 0.0005326659    1.353    0.261
       157 -10.1576     35.9894     40.9182   8.8331934067e+01   6.5192871466e+01    0.3481629    0.1731118 -41.01  0.001557114    1.729    0.422
       158 -12.0048     39.4767     32.6637   8.3412942232e+01   6.6221365670e+01    0.4533956     0.304491 -27.73 0.0006992833    1.287    0.223
       159  -9.6535     35.1681     28.9158   8.3866109529e+01   6.7350886608e+01    0.1946775    0.1200499 -14.68 0.0003682097    1.606    0.377
       160 -10.2482     43.3368     40.1843   8.4700276103e+01   6.4464823815e+01    0.2651546    0.1926036 -34.13  0.001245274    1.230    0.187
       161  -9.8349    152.5020     39.0310   5.0689372363e+01   4.2688173689e+01    0.2016335    0.1401663 -31.35 0.0003839275    1.523    0.344
       162 -10.0260    128.1040     38.7383   5.5670800025e+01   4.8634549840e+01    0.1982048    0.1840374  78.83 0.0005809886    1.165    0.141
       163 -11.7330    121.3230     37.2804   5.6764857847e+01   5.0416606947e+01    0.3849643    0.3723407 -26.17  0.001196364    1.122    0.108
       164  -9.6909     87.3800     39.1805   6.7124826953e+01   5.7488607867e+01    0.1876336    0.1665031 -10.84  0.000145314    1.103    0.093
       165 -10.6064     89.8846     35.9330   6.5028342032e+01   5.7455499378e+01    0.2813814    0.1969545  11.58 0.0004352155    1.579    0.367
       166  -9.7880     96.9148     37.8875   6.3614372429e+01   5.5740575596e+01    0.2033651    0.1661604  15.77            0    1.185    0.156
       167 -10.4032     22.1135     37.9448   9.3857025443e+01   6.7093651505e+01    0.1687338    0.1553055 -32.30 0.0005996656    1.297    0.229
       168 -11.4674     77.7471     46.8180   7.3424644858e+01   5.8106521067e+01     0.510114    0.3294232   5.62  0.001402477    1.977    0.494
       169 -11.3826      2.1326     34.9460   1.0295232351e+02   6.9014565870e+01    0.3253175    0.2137157 -50.83  0.002143325    1.257    0.204
       170 -10.8408      7.3196     33.9673   9.9948759360e+01   6.8915087208e+01    0.2292237    0.1725918  27.18  0.000887476    1.674    0.403
       171 -10.5693     27.1446     34.7178   9.0163841199e+01   6.7220455942e+01    0.3236101    0.1699346 -20.16  0.001328324    2.079    0.519
       172  -9.7906    133.7988     34.5741   5.2980259218e+01   4.7812062291e+01    0.2165076     0.134877  34.20  0.001002803    1.782    0.439
       173 -10.4000     73.2547     33.3562   6.9648722212e+01   6.0989214024e+01    0.3357019    0.2557525 -34.55  0.001090756    1.399    0.285
       174  -9.6512     85.1051     32.7535   6.5294739553e+01   5.8844324599e+01    0.1832249    0.1500635  28.52 0.0002977624    1.104    0.094
       175  -9.8891     16.6305     32.7297   9.4694877467e+01   6.8500517916e+01    0.2044163     0.138356 -10.46 0.0005848855    1.373    0.272
       176 -10.1297     19.6349     31.7042   9.2763378388e+01   6.8440166907e+01    0.2524532    0.1488737 -13.79 0.0009286625    1.694    0.410
       177 -10.6531    128.4444     31.2210   5.2988305817e+01   4.9504203771e+01     0.366295    0.2770535 -81.87   0.00188378    1.722    0.419
       178  -9.5047    188.0000     31.0293   4.2777386941e+01   3.4970088245e+01     0.207289    0.0759224 -29.70 0.0003942741    2.861    0.651
       179  -9.5498    166.2229     31.1697   4.5943653072e+01   4.0282276381e+01    0.1851591    0.1729806 -60.81 0.0003620979    1.101    0.092
       180 -11.7255      9.7686     29.4387   9.7065319726e+01   6.9598209701e+01    0.4296103    0.2597394  44.93   0.00170912    2.844    0.648
       181 -11.1560     44.4797     27.4856   7.8871799347e+01   6.6402915803e+01    0.3965258    0.3185432   4.15  0.002592373    1.083    0.076
       182  -9.9846    229.7566    247.9068   8.3959466992e+01  -8.5255877536e+00     0.171635    0.1245793   3.09 0.0004658113    1.118    0.106
       183 -11.5288     68.5811     26.4405   6.8414653463e+01   6.2780601711e+01    0.2888994    0.2624364  77.27            0    1.675    0.403
       184 -10.3050    114.0005     26.2800   5.4542365562e+01   5.3461542770e+01    0.2432701    0.1932751 -36.17 0.0009509868    1.395    0.283
       185  -9.1801    107.2766     27.3461   5.6635414605e+01   5.4858109606e+01    0.1415718   0.09574343  21.82 0.0005710075    1.630    0.387
       186  -9.6781     76.9919     26.5187   6.5424310671e+01   6.1233786136e+01    0.2627473    0.1407816 -16.04  0.001208985    2.198    0.545
       187  -9.4000     80.6411     23.6713   6.2970843083e+01   6.0890460886e+01    0.2149636    0.1089109  41.90   0.00102426    1.782    0.439
       188 -10.0834    225.1110    247.4621   8.4724798879e+01  -7.8556025941e+00    0.2090386    0.1557593 -24.76   0.00142328    1.404    0.288
       189 -10.2127      7.0730     20.8786   9.5235002888e+01   7.1293760429e+01    0.2263132    0.1568272 -33.23  0.001169464    1.104    0.094
       190  -9.5352    139.0718     27.0000   4.9365757592e+01   4.7440082751e+01    0.2346787   0.07271724  61.78 0.0008033982    2.949    0.661
       191  -9.9326    100.8755     25.6509   5.7688305592e+01   5.6468786672e+01    0.2318563    0.1771693   0.36 0.0009982372    1.385    0.278
       192 -10.1216     58.4344     19.2267   6.9088952570e+01   6.5455847775e+01    0.1961693    0.1816534  12.07 0.0004117024    1.283    0.221
       193  -9.5769     59.6846     26.2667   7.1793884782e+01   6.4313351889e+01     0.171799    0.1062973  29.00 0.0002484788    1.522    0.343
       194  -9.7931     59.2539     23.0132   7.0502826726e+01   6.4827686284e+01    0.2636546    0.1426025 -33.26 0.0007352113    1.839    0.456
       195  -9.5074     18.9879     25.3132   9.0533298306e+01   6.9607629757e+01    0.3085419   0.09759533 -33.29  0.001231745    3.322    0.699
       196 -10.7236     14.4327     21.7723   9.1500414280e+01   7.0591177225e+01    0.4036322     0.195793  20.95  0.002278441    2.126    0.530
       197  -9.5702     53.4192     24.7452   7.3704789490e+01   6.5515853873e+01    0.1811612    0.1060603 -20.87 0.0009543024    1.690    0.408
       198 -10.5279     34.9421     23.1241   8.1412673404e+01   6.8291393943e+01     0.317488    0.1648567 -34.52  0.001318752    1.715    0.417
       199 -10.4366     90.8568     22.5958   5.9315396954e+01   5.8957024837e+01    0.3349765    0.2015792  53.54  0.001541368    1.625    0.385
       200 -10.0580    164.9941     21.4734   4.3278765453e+01   4.1685424260e+01    0.1920302    0.1815239 -56.05 0.0004562583    1.126    0.112
       201 -10.4892     75.1496     21.8574   6.4039908070e+01   6.2164951036e+01    0.2546092     0.189616   2.21 0.0006450719    1.303    0.233
       202  -9.7726     74.6773     18.6813   6.2797931386e+01   6.2630643077e+01    0.2137134    0.1358144  28.60  0.001158768    1.466    0.318
       203 -10.1599     46.0799     21.4878   7.5417780602e+01   6.7060955804e+01    0.1989704    0.1585744 -32.32 0.0004740474    1.391    0.281
       204 -10.5254     30.2390     21.1999   8.2874079783e+01   6.9137486444e+01    0.2597405    0.1700622  21.49  0.001615678    1.484    0.326
       205  -9.8937    181.4905     20.9846   4.0903324359e+01   3.7702412878e+01     0.187615    0.1312201 -29.78 0.0006458304    1.557    0.358
       206  -8.9098    101.3192     21.2972   5.5848176584e+01   5.6865520463e+01    0.1411037   0.09008394  28.16 0.0007018988    1.615    0.381
       207  -9.4749     84.0682     21.4882   6.0931129291e+01   6.0472208176e+01    0.1988927     0.117611  47.35  0.001020944    1.555    0.357
       208  -9.1155    131.6815     20.6973   4.8674774694e+01   4.9912858538e+01    0.1425275   0.09266677  35.01 0.0007025675    1.625    0.385
       209 -11.2702    204.2489     18.2467   3.7610638248e+01   3.2579144149e+01    0.3787355    0.1614591 -54.37  0.001639511    2.474    0.596
       210  -9.7563    119.1163     19.3320   5.0798230640e+01   5.3034252769e+01    0.1836714     0.159383  59.75 0.0004589961    1.109    0.098
       211 -10.4105    209.2565     18.4061   3.7147140558e+01   3.1401885664e+01    0.1765696    0.1092102  89.14 0.0004962476    1.578    0.366
       212  -9.4246    141.7640     18.6203   4.6107759025e+01   4.7685389744e+01    0.1869246    0.1205417  76.60  0.000280517    1.603    0.376
       213 -10.1186     58.0020    248.2568   1.1735835752e+02   1.5912853751e+01    0.1481026   0.08320025  40.62 0.0004309746    1.530    0.346
       214  -9.9304    125.2104     17.1904   4.8742032181e+01   5.1815376539e+01    0.1956359    0.1622621  40.79 0.0003598003    1.122    0.109
       215 -10.1477    115.0855     17.2975   5.0942048860e+01   5.4178036835e+01    0.2358968    0.1383589  54.77 0.0006513975    1.489    0.328
       216 -12.0584      9.3888    245.2787   1.2593468884e+02   2.1802290054e+01    0.2991454    0.2506945   7.88  0.002283353    2.005    0.501
       217  -9.4232    116.4101    246.4766   1.0577163327e+02   8.2693443648e+00    0.1223048     0.102706  45.63 -7.782648e-05    1.016    0.016
       218  -9.3467     86.4096    245.2020   1.1162055846e+02   1.2779833379e+01    0.1526647    0.1067098  88.28 0.0008059037    1.577    0.366
       219 -11.0037    234.7197     15.1291   3.4157436103e+01   2.6107640612e+01    0.2128496    0.1771433 -78.92  0.000307106    1.065    0.061
       220  -9.2427     91.3547     16.6935   5.6717022762e+01   5.9501628363e+01     0.123446    0.1035854 -76.80 0.0007041782    1.718    0.418
       221 -10.0258     82.8889     16.0226   5.8949153891e+01   6.1318187369e+01    0.1917164    0.1643932  22.36  0.000315235    1.023    0.022
       222  -9.8316     74.0143    243.7337   1.1392236143e+02   1.4718328562e+01    0.1493336   0.08783956  41.14 0.0004037789    1.448    0.309
       223 -10.0751     31.5669     16.1812   7.9829287194e+01   6.9726417298e+01    0.1992307    0.1359284   8.91 0.0003305878    1.317    0.241
       224  -9.4009    202.4620    240.4494   8.7821729656e+01  -3.7532805907e+00    0.1247615   0.09895791  13.70 0.0001130914    1.018    0.017
       225  -9.4020     61.0136    241.0000   1.1622435153e+02   1.6904732885e+01    0.1868554   0.05776951  35.37 0.0007939559    2.884    0.653
       226 -10.1491     35.9661    240.4908   1.2093914399e+02   1.9958950534e+01    0.1641989   0.09475724  40.69 0.0006428933    1.558    0.358
       227  -9.2840    148.7643    239.0086   9.8262758956e+01   4.6367844802e+00    0.1491175    0.1086018 -49.01 0.0007034881    1.623    0.384
       228 -10.2821    117.5821    239.2557   1.0469263325e+02   9.3760899962e+00    0.1543404    0.1189006 -44.33 0.0007763235    1.582    0.368
       229 -10.2807    155.3886     15.0732   4.2781463238e+01   4.4704427010e+01    0.2784769    0.1565025  54.19   0.00137455    1.609    0.379
       230 -11.2562     14.0562    238.8191   1.2482026490e+02   2.2567397975e+01    0.1880487    0.1238706  82.16 0.0005718255    1.234    0.189
       231 -10.1902    222.1661     13.8190   3.4896926384e+01   2.8985581475e+01    0.1545351    0.1408866  62.30 0.0003391247    1.311    0.237
       232  -9.1308      7.3303     14.3047   9.2280733176e+01   7.2373366493e+01    0.1211732   0.06470694 -21.70 0.0007036751    1.656    0.396
       233 -10.6739    208.0871     12.9843   3.5961205289e+01   3.2257002049e+01     0.192235     0.160528 -76.19 0.0003740236    1.030    0.029
       234  -9.8716     43.0000     12.8969   7.2672738443e+01   6.8652141793e+01    0.1751157    0.1177167  -3.54  0.001061426    1.366    0.268
       235 -10.0474     91.0908    237.3464   1.0990405867e+02   1.3595955931e+01    0.1841608    0.1628136 -62.47 0.0005080535    1.334    0.250
       236 -11.7155     25.7160    235.9806   1.2256080344e+02   2.1934849260e+01    0.2762954    0.1896294  33.87  0.001005715    1.621    0.383
       237  -9.8682    249.4573    233.9765   7.8202393778e+01  -9.3167781314e+00    0.1722299    0.1262734  10.26  0.000425589    1.105    0.095
       238 -12.5990     10.0637    227.5407   1.2497965162e+02   2.5148560867e+01    0.4108693    0.2858171  89.42  0.001938234    1.218    0.179
       239  -8.9116    243.4694    230.4500   7.8640647493e+01  -8.0919272504e+00    0.1209656   0.09174516   1.86 0.0002671914    1.012    0.012
       240  -9.9250     47.8781    230.1119   1.1794092513e+02   2.0633490748e+01    0.1827314    0.1257355  65.31 0.0003309932    1.215    0.177
       241  -9.4675      3.7526     10.6204   9.2751118797e+01   7.3221583281e+01    0.1264105   0.09263517  13.02 0.0002694679    1.453    0.312
       242 -11.9720      4.0467    232.6018   1.2630153182e+02   2.4712073511e+01    0.2441297    0.1545443  66.30  0.001733591    1.187    0.157
       243  -9.1736    209.5094    229.5042   8.4695895351e+01  -3.2090862734e+00    0.1268943     0.103127  10.08 0.0001929859    1.007    0.007
       244 -10.5184    140.5281    228.5846   9.8517974961e+01   7.7481807492e+00    0.2456026    0.1313529 -52.34  0.001019035    2.162    0.537
       245 -10.1105    223.3064    226.5838   8.1607701077e+01  -4.7974669218e+00    0.2095785    0.1286617 -12.05 0.0005992033    1.714    0.417
       246 -11.0690      1.5134    225.1726   1.2642104890e+02   2.6396846486e+01    0.2785981   0.08819368 -81.57 0.0007511986    2.749    0.636
       247 -11.1035      2.7417    220.2880   1.2597072805e+02   2.7266331907e+01    0.2620704    0.1341299  80.65  0.001507167    1.618    0.382
       248  -9.4512    126.5146    220.9525   1.0044297813e+02   1.1407197651e+01    0.1775068    0.1325879 -56.16 0.0006847908    1.507    0.337
       249 -11.0469      8.8645    217.9787   1.2471092647e+02   2.7187678810e+01    0.2306896    0.2036821  37.71  0.001785386    1.458    0.314
       250  -9.7763    205.8076    212.7561   8.2515531823e+01  -8.6071176099e-02    0.2024284    0.1561233   4.38 0.0007512054    1.198    0.165
       251  -9.9534     15.4721    213.4732   1.2318600188e+02   2.7506171182e+01    0.1169809   0.08791324  74.08 -2.881611e-06    1.025    0.024
       252  -9.2842    249.3358    211.3132   7.4241271220e+01  -6.2988740615e+00    0.1294264   0.07920645  -0.58 0.0007046019    1.688    0.408
       253  -9.2005     56.4492    210.5459   1.1450995051e+02   2.3672044823e+01    0.1231268    0.1071331  74.14    5.849e-05    1.062    0.058
       254  -9.8776     20.2299    209.7304   1.2200865984e+02   2.7839150745e+01    0.1903765    0.1086723  58.06 0.0008498123    1.496    0.332
       255  -9.4996    247.0000    207.0138   7.3857445872e+01  -5.3724496120e+00    0.1991902   0.06203859 -36.31 0.0008061734    2.968    0.663
       256  -9.8386     10.4910    203.4977   1.2357975233e+02   3.0077255822e+01     0.118738   0.08808193  75.48 7.859634e-05    1.051    0.049
       257  -9.9649     23.7057    196.6507   1.2037634696e+02   3.0343335161e+01    0.2382721    0.1774483 -47.41   0.00150691    1.741    0.426
       258 -11.0001     13.8657    192.5830   1.2218511511e+02   3.2159884495e+01    0.2171184    0.1440216  74.54  0.000471191    1.264    0.209
       259 -10.5145      1.5079    191.5257   1.2470776804e+02   3.3429470458e+01    0.2684434    0.1083263  88.23  0.001156196    2.237    0.553
       260 -10.9474      6.0912    191.9239   1.2378009762e+02   3.2971149571e+01    0.1826323    0.1421442  85.58  0.001282886    1.042    0.040
       261  -9.2073     15.0000    183.9923   1.2133062943e+02   3.3989253724e+01    0.1907448   0.05764796 -76.03 0.0003952798    2.809    0.644
       262  -9.6636     13.3720    180.6857   1.2144799514e+02   3.4882240417e+01    0.1803441    0.0982472  83.01 0.0009796587    1.658    0.397
       263  -9.4522     22.2203    179.8605   1.1937975356e+02   3.4289722255e+01    0.1574118    0.1314558 -62.95  0.000589548    1.304    0.233
       264 -10.8206      5.2186    167.3518   1.2231858129e+02   3.8599963277e+01    0.2630912    0.1552619  73.20  0.001504007    1.547    0.354
