#   1 NUMBER                 Running object number                                     
#   2 MAG_AUTO               Kron-like elliptical aperture magnitude                    [mag]
#   3 X_IMAGE                Object position along x                                    [pixel]
#   4 Y_IMAGE                Object position along y                                    [pixel]
#   5 X_WORLD                Barycenter position along world x axis                     [deg]
#   6 Y_WORLD                Barycenter position along world y axis                     [deg]
#   7 A_WORLD                Profile RMS along major axis (world units)                 [deg]
#   8 B_WORLD                Profile RMS along minor axis (world units)                 [deg]
#   9 THETA_WORLD            Position angle (CCW/world-x)                               [deg]
#  10 FWHM_WORLD             FWHM assuming a gaussian core                              [deg]
#  11 ELONGATION             A_IMAGE/B_IMAGE                                           
#  12 ELLIPTICITY            1 - B_IMAGE/A_IMAGE                                       
         1 -14.4523     68.6034    144.3258   9.9111524102e+01   3.7464632204e+01     4.715686     2.529586  67.28   0.01315037    3.481    0.713
         2 -13.3418    200.9195     42.0421   4.1214972715e+01   3.0451552884e+01     1.193138     1.046463 -31.40  0.004372415    1.262    0.208
         3 -13.5745    211.3577     31.9804   3.7648998289e+01   2.9402322823e+01    0.9360946    0.8362463  13.29  0.001775128    1.515    0.340
         4 -12.8816    236.8848      6.1773   2.9972774558e+01   2.6951448190e+01    0.7878956    0.5870087 -86.14  0.005593682    1.165    0.141
         5 -10.7288    122.0165    198.2543   9.4421413044e+01   1.6441325643e+01    0.4191241    0.2826754 -76.84   0.00194823    2.047    0.511
         6 -10.3405    140.1087    250.1516   9.8033680513e+01   3.6509780543e+00    0.3947563    0.1215144  41.05  0.001542465    2.826    0.646
         7 -10.8977    102.0000    248.5558   1.0566294138e+02   9.3772940136e+00    0.4117908    0.2214446 -58.16  0.001408289    2.121    0.529
         8 -11.5388    101.2176    243.4017   1.0525112683e+02   1.0438739706e+01    0.8112195    0.4464955  80.90  0.003221657    3.585    0.721
         9 -12.9536     53.6958    186.5063   1.0937181297e+02   2.8980821089e+01     1.864139      1.19351  84.53  0.009521898    1.707    0.414
        10 -14.6416      9.5735    207.3461   1.2120876443e+02   2.8736548588e+01     1.136001     1.003711 -30.62  0.005434212    1.592    0.372
        11  -9.4802     59.3083    196.9732   1.0924432196e+02   2.5851453568e+01    0.2044801    0.1770653  49.31  0.001261111    1.139    0.122
        12  -8.6159     82.4259    194.7668   1.0342124633e+02   2.3293555006e+01    0.1883505    0.1229454 -52.32 0.0009438937    1.584    0.368
        13 -13.5495     20.2623    221.2185   1.1994472926e+02   2.4776593422e+01      0.89491    0.7214542  55.80  0.004414829    1.159    0.137
        14 -10.3979    183.6485    213.1212   8.3237618702e+01   3.4253870178e+00    0.2341271    0.1757559  36.60  0.001316893    1.341    0.254
        15 -10.1281    147.8535    187.5384   8.6448792676e+01   1.4358372262e+01    0.4804233     0.310492 -62.53  0.001997955    1.989    0.497
        16  -9.9972    110.6980    203.2856   9.7888297284e+01   1.7158423821e+01    0.2108074    0.1864977  58.75 0.0003989039    1.137    0.120
        17  -9.9639    107.6225    203.8388   9.8695308949e+01   1.7516197750e+01    0.2357264    0.1976566  52.32 0.0004598004    1.166    0.142
        18  -9.0061     79.9318    182.9300   1.0235613753e+02   2.6414618082e+01    0.3304859    0.1873613  88.39  0.001303545    2.752    0.637
        19  -8.1876     76.4251    184.5404   1.0347231397e+02   2.6522903171e+01    0.1369604    0.1273334  83.96 0.0001098722    1.014    0.014
        20 -15.3575      3.6792    183.6327   1.2087550074e+02   3.4526654662e+01     15.89204    0.3321709 -74.14   0.02860658   10.229    0.902
        21  -9.7327     99.4505    180.9401   9.7098541278e+01   2.3971048969e+01    0.2689338    0.2116899  34.24 0.0006187559    1.274    0.215
        22 -10.9250     41.5198    177.0957   1.1128682520e+02   3.2610236135e+01    0.7123812    0.4071371 -24.94  0.003030665    3.174    0.685
        23 -14.5806     38.1950    192.7827   1.1375535017e+02   2.9252509031e+01     6.773923     2.619309  72.42   0.01475147    6.067    0.835
        24 -10.1857    186.9923    175.4681   7.5339058183e+01   9.8507224815e+00    0.3853268    0.2870578 -43.39  0.001269917    1.358    0.263
        25 -12.0973     80.9907    159.1735   9.8260730915e+01   3.2028025103e+01     1.079928    0.5798152  61.29 0.0003842557    2.814    0.645
        26 -12.9676     69.1430    154.1400   1.0068445650e+02   3.4941579102e+01    0.6758852    0.4600551 -51.26  0.001060133    1.402    0.287
        27 -10.8342    124.4357    243.0770   1.0036215701e+02   7.1673961964e+00     0.571507    0.2352164 -67.24  0.002016665    4.994    0.800
        28 -11.4129     67.8708    172.5849   1.0393954582e+02   3.0556982859e+01    0.4443247    0.2969136 -35.23  0.001768462    1.862    0.463
        29 -10.9046    239.8672    169.9337   6.4168927431e+01   1.9950767031e+00    0.3691173    0.1648121 -28.05  0.001567378    2.341    0.573
        30  -8.9782     34.6955    171.8243   1.1240684928e+02   3.4592597758e+01    0.2027382    0.1767918  65.94 0.0005086207    1.133    0.118
        31  -8.3768    193.4738    170.4652   7.2953836384e+01   9.6587988549e+00    0.1441892    0.1300506 -12.27 8.036462e-05    1.009    0.009
        32  -8.6775    110.6993    167.9296   9.1904468928e+01   2.5202694494e+01     0.211983    0.1881832 -54.81 0.0004983527    1.123    0.110
        33  -8.4568    120.5042    165.5643   8.8913031477e+01   2.4066017806e+01    0.1469103    0.1453805  45.06 0.0001409433    1.032    0.031
        34 -11.5401     88.1649    152.4906   9.5049144551e+01   3.2595563654e+01    0.6699141    0.4487479 -22.17  0.002849641    2.079    0.519
        35 -10.5127    133.6531    144.8413   8.1115032652e+01   2.6432937488e+01     1.313566    0.3154925 -53.67  0.002825524    6.674    0.850
        36 -11.4883     72.2916    167.6062   1.0201694582e+02   3.1181720730e+01    0.4851992    0.3258897 -55.49  0.000945708    1.422    0.297
        37  -8.7799    111.2612    149.6951   8.8111256111e+01   2.9441818183e+01    0.3546679     0.213707  76.50  0.001129704    3.849    0.740
        38  -9.0471    174.8673    149.1324   7.2263846651e+01   1.7394204299e+01    0.2235184    0.2091078 -70.28 0.0005389965    1.242    0.195
        39 -11.1681     28.9918    144.2595   1.1057716631e+02   4.1919743591e+01     0.496596    0.2933635  38.37  0.002577409    1.840    0.457
        40 -10.2921    101.9260    138.6512   8.8316826220e+01   3.3723826581e+01    0.6133739    0.3723461 -21.07  0.002294324    2.646    0.622
        41 -10.0747    105.9890    131.0449   8.5430928108e+01   3.4831110149e+01     0.398324    0.3371032 -43.89  0.001557274    1.138    0.121
        42  -9.5052    111.3108    129.3488   8.3519188731e+01   3.4263080305e+01    0.3129475     0.237755 -11.22 0.0007952332    1.646    0.393
        43 -11.5592     89.4671    138.0303   9.1768615060e+01   3.5947088629e+01    0.2943133    0.2532263 -33.34 0.0004859994    1.185    0.156
        44 -10.9577     25.6717    137.5179   1.1062580374e+02   4.3882919900e+01    0.3461719    0.2397894  32.89  0.001051879    1.628    0.386
        45  -8.2500    147.7670    174.0061   8.3847466100e+01   1.7264217002e+01    0.1847569    0.1227381 -46.62 0.0002929835    1.514    0.340
        46 -10.1447    135.4539    128.7985   7.6851820032e+01   2.9705220464e+01    0.4716451     0.190318 -46.56  0.001623605    2.428    0.588
        47  -9.1444    160.4904    127.9723   7.0514269608e+01   2.4720684318e+01    0.2241994     0.132716 -63.60 0.0008103386    2.613    0.617
        48 -10.2009     98.5679    125.3065   8.6230912229e+01   3.7506887045e+01     0.309844     0.248792 -10.33  0.001023259    1.456    0.313
        49 -10.0485    117.3278    124.0592   8.0543177271e+01   3.4357519993e+01    0.3472612    0.2426126   2.16  0.001313079    2.073    0.518
        50  -9.1382     89.1192    210.9402   1.0399072002e+02   1.8723694068e+01    0.1958906    0.1790239  71.24 0.0004836597    1.050    0.048
        51  -9.0659     86.9057    120.4965   8.8599107671e+01   4.0618094988e+01    0.3327718    0.2302236  70.15  0.001312998    2.189    0.543
        52 -10.5077     32.8235    119.1012   1.0559069881e+02   4.7823800868e+01    0.2425713    0.1911356 -29.86 0.0008076443    1.344    0.256
        53  -9.3226    107.6012    118.2978   8.1862058029e+01   3.7524313951e+01    0.2471902     0.203511  32.39 0.0003317856    1.254    0.202
        54 -10.9589     28.2887    128.8252   1.0859343733e+02   4.5817858362e+01    0.3288749    0.2746748   6.30  0.001995444    1.426    0.299
        55 -10.0419    231.2987    113.8531   5.3682259852e+01   1.3025238086e+01    0.2842973    0.2385533 -43.47 0.0007455884    1.066    0.062
        56 -11.4480     33.9673    109.2499   1.0341406358e+02   5.0131175728e+01    0.4077926    0.2646719 -61.42  0.002150856    1.341    0.254
        57  -9.3340    205.5020    110.1784   5.7041053451e+01   1.8742754593e+01    0.2423288      0.20662  49.80 0.0006287551    1.279    0.218
        58  -9.8093    114.8165    108.7661   7.7295201228e+01   3.8295074750e+01    0.3681871    0.2066839 -46.40  0.001512803    1.743    0.426
        59  -9.2964    134.8211    105.6083   7.1004026704e+01   3.4865282619e+01    0.3040909    0.1147155 -40.61  0.001001395    2.653    0.623
        60 -10.2252     41.4825    103.9775   9.9760067124e+01   5.0671297983e+01    0.2251855    0.1879523  41.61 0.0007616408    1.393    0.282
        61 -10.2923    241.4852    101.6507   4.9552574585e+01   1.3151909307e+01    0.2101092    0.1258338  54.65  0.001090341    1.944    0.486
        62 -10.4128     32.8079     99.6774   1.0189890232e+02   5.2538555930e+01    0.2534327    0.2379503  52.41 0.0009519404    1.268    0.211
        63  -8.9191     53.3124     90.6770   9.2384402168e+01   5.2446192388e+01    0.1332086    0.1104918  78.17 0.0003292704    1.656    0.396
        64  -9.8916     15.0387     89.4977   1.0629027550e+02   5.6320981285e+01    0.2606218    0.1082252  27.24  0.001202211    2.703    0.630
        65  -9.5824    234.1646     86.1796   4.7157369628e+01   1.7013253034e+01    0.1874811    0.1397307 -60.71 0.0004669965    1.338    0.252
        66  -8.4078    154.6482     86.3263   6.0886184857e+01   3.4259418702e+01    0.1559334    0.1184674 -78.52 0.0007047848    1.763    0.433
        67  -8.9028     74.9527     85.1254   8.3133543887e+01   5.0614154295e+01    0.2044011      0.19413  77.97 0.0005416269    1.308    0.236
        68  -8.7848    158.8402     82.8312   5.9001809751e+01   3.3930640124e+01    0.2033504     0.175655 -81.61 0.0004728808    1.323    0.244
        69  -8.5618    150.9712     82.9704   6.0760442418e+01   3.5704315994e+01    0.2207531    0.1774382 -74.94  0.001076688    1.537    0.349
        70  -9.2402    112.1420     81.9121   7.0343575248e+01   4.4421774033e+01     0.381229    0.2469297  69.57  0.001509671    2.590    0.614
        71  -9.1026     69.9632     81.7952   8.3892798877e+01   5.2099460736e+01    0.2023892    0.1879316  67.64 0.0006759039    1.370    0.270
        72  -9.1749     54.2758     65.5773   8.4687370222e+01   5.7682076454e+01    0.2041345    0.1985184  18.15 0.0004284757    1.268    0.212
        73 -11.0423     12.7757     59.4383   1.0030050491e+02   6.3115624757e+01    0.3564891    0.2524936  48.53  0.001965353    2.072    0.517
        74 -11.5017    196.5941    204.3180   7.8992159306e+01   2.9204795910e+00    0.4115583    0.2772143  23.91  0.002200258    1.432    0.302
        75 -10.7397    192.9727    194.4686   7.7871820932e+01   5.2581039283e+00    0.7006715    0.3951093 -64.57  0.002287447    5.017    0.801
        76 -10.5432     13.5414     31.9821   9.1132191009e+01   6.8342218978e+01    0.2113405    0.1517618  27.65  0.001374836    1.666    0.400
        77 -12.9139    190.5981     49.6397   4.4468616635e+01   3.1777214509e+01     1.098478    0.7696925  40.01 0.0009767191    1.726    0.421
        78  -9.1662    198.1097     23.6555   3.7117242830e+01   3.3295595274e+01    0.2211092    0.1798885 -29.39 0.0006929103    1.394    0.282
        79  -8.9309    189.7116     14.9481   3.5916060625e+01   3.6119842551e+01    0.1712427    0.1507933 -73.46   0.00065656    1.065    0.061
        80 -16.9753     14.5217    243.1685   1.2234729714e+02   2.0900779336e+01     6.327904     2.167248  24.07   0.02657343    4.532    0.779
