#   1 NUMBER                 Running object number                                     
#   2 MAG_AUTO               Kron-like elliptical aperture magnitude                    [mag]
#   3 X_IMAGE                Object position along x                                    [pixel]
#   4 Y_IMAGE                Object position along y                                    [pixel]
#   5 X_WORLD                Barycenter position along world x axis                     [deg]
#   6 Y_WORLD                Barycenter position along world y axis                     [deg]
#   7 A_WORLD                Profile RMS along major axis (world units)                 [deg]
#   8 B_WORLD                Profile RMS along minor axis (world units)                 [deg]
#   9 THETA_WORLD            Position angle (CCW/world-x)                               [deg]
#  10 FWHM_WORLD             FWHM assuming a gaussian core                              [deg]
#  11 ELONGATION             A_IMAGE/B_IMAGE                                           
#  12 ELLIPTICITY            1 - B_IMAGE/A_IMAGE                                       
         1 -14.7728     68.4148    144.4399   1.0318812720e+02   3.7433882002e+01      5.12959     2.377131  67.47    0.0118496    3.779    0.735
         2 -13.7856    196.4215     42.7794   4.6908209072e+01   3.0034689374e+01     1.226764     1.028724 -39.37  0.002185891    1.112    0.101
         3 -14.1752    205.7024     36.3604   4.4090208132e+01   2.8636377757e+01     1.849537     1.275736   8.55    0.0087207    2.084    0.520
         4 -14.0882    220.7522     21.3448   3.8768249350e+01   2.6902546565e+01     1.385587     1.097172  25.31  0.005895466    1.678    0.404
         5 -10.6433      2.4272      3.7606   9.8402006384e+01   7.7812857037e+01    0.3053736   0.09073439 -56.12  0.001314991    2.714    0.632
         6 -12.1204    243.7124      2.2844   3.2730514806e+01   2.3901826147e+01    0.6109605    0.2502129  81.20  0.002891938    2.607    0.616
         7  -9.8250      6.3271      4.3172   9.5139749240e+01   7.7413305769e+01    0.1293757   0.07477698 -27.58  0.000704554    1.677    0.404
         8 -10.6670     47.5117      2.2460   6.4822851207e+01   7.1866877133e+01    0.2252858    0.1996557  53.52 0.0005454471    1.293    0.226
         9  -9.2758    113.7748    208.1698   1.0032545247e+02   1.7591514525e+01    0.2066027    0.1119022  62.70 0.0009379039    2.765    0.638
        10 -10.3901    139.4561    249.7960   9.9843758432e+01   7.7368990700e+00    0.2209398    0.1414854  46.60  0.001483038    1.495    0.331
        11 -14.5872     85.5411    227.0346   1.0824680957e+02   1.8234519242e+01     2.204178    0.9652402  47.14   0.00387503    1.863    0.463
        12 -14.1808      5.6970    187.0573   1.2321994345e+02   3.4660701038e+01     1.694462    0.5792882 -82.84  0.002100356    2.740    0.635
        13 -14.0353     23.2173    224.6788   1.2091887537e+02   2.5767514446e+01     1.238267    0.3956388  63.99  0.003033441    3.017    0.668
        14 -15.9359     53.4711    247.1334   1.1605043085e+02   1.8761011711e+01     9.309732     2.519789  25.10   0.01196985   10.062    0.901
        15 -13.2355     36.9536    204.5095   1.1701991252e+02   2.8160166978e+01     0.440345    0.3881738  -2.96  0.001406339    1.616    0.381
        16 -15.2275     46.0000    194.7650   1.1432261971e+02   2.9112733905e+01     2.431458     1.281095  62.79   0.01026202    1.787    0.440
        17 -10.8397     61.5835    199.1608   1.1107004529e+02   2.6384316823e+01     0.255661    0.2145478  86.21 0.0005535887    1.234    0.190
        18  -9.1319     80.5695    183.7774   1.0505203006e+02   2.6995943756e+01    0.1684199    0.1189584  88.30  0.000936428    1.601    0.375
        19  -9.5680    152.5829    198.2473   9.0774159601e+01   1.3359441799e+01    0.2167737    0.1261934 -51.91  0.001143698    2.170    0.539
        20 -10.8513    144.5398    180.2249   8.9656685727e+01   1.7681244884e+01      0.34948    0.2681284 -75.47  0.001396322    1.889    0.471
        21  -9.8300     99.4038    180.7746   1.0012688022e+02   2.4854157462e+01    0.2388257    0.1969009  23.83 0.0006701102    1.281    0.219
        22  -9.5110    150.2527    178.3875   8.8114095238e+01   1.7045538909e+01    0.1967983    0.1635785 -81.38 0.0006131574    1.694    0.410
        23 -12.1006     63.7297    177.3593   1.0850552384e+02   3.0614226174e+01    0.3966243    0.2949093 -27.03  0.001234952    2.017    0.504
        24 -12.0885     68.7008    172.1666   1.0668086202e+02   3.1084077368e+01    0.3739752    0.2728749  28.60  0.001583336    1.421    0.296
        25 -13.6194     65.5702    158.5644   1.0588642336e+02   3.4541419688e+01    0.5026553    0.4175131 -52.95  0.001473485    1.378    0.274
        26 -13.2840     76.9111    159.7301   1.0298073234e+02   3.2693845392e+01     1.512573    0.7606943  60.72  0.003147746    2.447    0.591
        27 -12.6750     85.1900    156.0361   1.0023528940e+02   3.2291194616e+01     0.938306    0.6427004 -40.21  0.001388652    1.832    0.454
        28 -10.2884    134.2672    248.0379   1.0063005074e+02   8.6476700937e+00    0.2124696    0.1399512 -64.08  0.001409264    2.310    0.567
        29  -9.3958    239.3271    155.3152   6.7389506683e+01   5.8448616187e+00    0.1258152   0.08050828   4.27 0.0003452641    1.672    0.402
        30 -10.9783    133.5103    143.7921   8.5574215850e+01   2.6570157046e+01     1.086328    0.2632974 -53.74  0.002594917    6.807    0.853
        31 -12.1818     56.9047    146.7379   1.0681895118e+02   3.8435857907e+01    0.7333221    0.4711318  52.47  0.003799876    1.457    0.314
        32  -9.8596    174.4501    148.6038   7.7431485823e+01   1.7907111664e+01    0.3168465    0.2427697 -69.86  0.001613081    1.977    0.494
        33 -10.5677    208.8839    197.3398   7.9939845065e+01   4.9558644983e+00    0.1846121    0.1515658 -23.38 0.0004940043    1.334    0.250
        34 -10.2380    111.1032    196.1106   9.9420390565e+01   2.0135148724e+01    0.3394214    0.2064156 -89.26    0.0015767    2.872    0.652
        35 -11.0495    100.2581    140.8621   9.3608501452e+01   3.3255482785e+01    0.5791594    0.3799836 -19.80  0.002393593    2.645    0.622
        36 -12.3327     87.2422    140.7639   9.7216713177e+01   3.5450534581e+01    0.2670628    0.2610664 -36.63 0.0004187903    1.157    0.135
        37  -9.7645    125.3195    174.3415   9.3036551450e+01   2.1975322858e+01    0.1359366    0.1038729  -2.57 1.769157e-06    1.717    0.418
        38 -10.8963     46.1652    134.9566   1.0850974116e+02   4.2593612432e+01    0.2207232    0.1666706  72.22  0.001123021    1.262    0.207
        39 -10.3142    105.9774    130.9944   9.0108128364e+01   3.4462520380e+01    0.3391184    0.3093189 -72.97  0.001873337    1.134    0.118
        40 -10.1646    109.9518    130.5715   8.8927189431e+01   3.3824804732e+01    0.3303212    0.2551085   4.29 0.0008982858    1.761    0.432
        41 -10.9855    135.9021    128.2904   8.1679573938e+01   2.9268903740e+01    0.4283533    0.1706158 -51.95  0.001484902    2.909    0.656
        42  -8.7159    159.7107    196.6893   8.9083587866e+01   1.2491137184e+01    0.1246745   0.08937772   5.23 0.0002527464    1.581    0.368
        43 -10.3135     31.2249    129.4947   1.1250937062e+02   4.5543326654e+01    0.2802432    0.1782917  47.41  0.001494211    1.486    0.327
        44 -11.0357     97.0990    127.1235   9.1824818253e+01   3.6944477257e+01    0.2959051    0.2622283 -18.93 0.0005499157    1.344    0.256
        45  -9.7333    160.3152    127.6527   7.5861963554e+01   2.4425682716e+01    0.1453736    0.1172283 -84.82 0.0007047565    1.721    0.419
        46  -9.3482    116.1922    125.0049   8.6031250204e+01   3.3871267237e+01    0.2431001    0.1703952 -21.23 0.0006609097    2.034    0.508
        47 -10.5568    138.2045    169.9710   8.9348194579e+01   2.0615180551e+01    0.3313396    0.2547762  62.93  0.001799734    1.556    0.357
        48 -10.0357    106.8783    119.4843   8.7375240630e+01   3.6894674185e+01    0.2292818    0.2041148 -59.44 0.0002670979    1.148    0.129
        49 -10.8541     23.7238    118.6528   1.1376314326e+02   4.8933291048e+01    0.2620198     0.136984 -65.11  0.001276933    1.734    0.423
        50  -8.9823     84.4993    118.4884   9.3808907671e+01   4.1158431521e+01    0.1500342    0.1363385  73.43 8.360949e-05    1.078    0.072
        51  -9.3978    168.0525    113.0216   7.0728602166e+01   2.5498674505e+01    0.2393315    0.1846329 -78.06    0.0011357    1.825    0.452
        52 -10.4777     39.6276    113.0831   1.0764045393e+02   4.8778366991e+01    0.2302945    0.1746995  49.89 0.0005488871    1.303    0.232
        53 -10.0736    205.3340    110.2731   6.3147696138e+01   1.8193686844e+01    0.3222038    0.1991547  36.01  0.001192999    1.792    0.442
        54 -11.2756    193.3561    195.3425   8.2377082097e+01   7.5033813537e+00    0.7902432    0.4594683 -62.06  0.002836267    6.343    0.842
        55 -10.6879     28.8594    107.0900   1.1058081174e+02   5.1382550599e+01    0.2197084     0.204403 -16.46 0.0006483606    1.279    0.218
        56  -9.8139    134.5985    105.2242   7.6406118206e+01   3.4289753610e+01    0.2181927    0.1453046 -32.95 0.0009533716    1.667    0.400
        57  -9.2714    157.6344    160.2966   8.3282104292e+01   1.8948398997e+01    0.2034267    0.1650778  78.63  0.001083061    1.755    0.430
        58 -11.8264    248.9286    102.3064   5.5120475031e+01   1.1186554576e+01    0.3520896    0.2256535 -15.25  0.001980577    1.558    0.358
        59 -10.2700     39.0270    101.9963   1.0610766157e+02   5.1649402553e+01     0.230073    0.1480886  62.84 0.0007117357    1.700    0.412
        60 -11.9094    241.6752    100.3038   5.5584475988e+01   1.2722914072e+01    0.2856974    0.2069205 -39.32  0.001712545    1.278    0.217
        61 -10.7740     53.1703     91.2881   9.8699414172e+01   5.2635206885e+01    0.4198989    0.2006571 -64.82  0.001132668    2.049    0.512
        62 -10.0861     41.7214     91.9468   1.0326048373e+02   5.3893216497e+01    0.2175402    0.1995586  32.68  0.000443082    1.183    0.155
        63  -9.1684    167.4901    157.0611   8.0564225140e+01   1.7732157673e+01    0.1977568    0.1338362 -40.53  0.001021309    1.561    0.359
        64 -11.5857      2.4276     77.2600   1.1718430201e+02   6.0780973751e+01      0.53814    0.1004457 -76.15  0.001687173    4.262    0.765
        65 -10.9653    249.7556     87.7966   5.1835038060e+01   1.2913619508e+01    0.2135599     0.178809  84.79 0.0006468204    1.555    0.357
        66 -10.3979     72.6007     83.3045   8.9376692199e+01   5.1626301985e+01     0.501691    0.2590076  58.91  0.001791155    2.942    0.660
        67  -9.3496    159.8055     81.8090   6.4130539194e+01   3.2980111909e+01    0.2087084    0.1775067 -74.57 0.0005048682    1.325    0.245
        68 -11.0963    243.0302     78.3003   5.0451315392e+01   1.5367489769e+01    0.1736062    0.1601712 -36.25 0.0007956839    1.098    0.089
        69 -10.5135     13.5269     59.9822   1.0932103545e+02   6.4448298970e+01     0.261057    0.2028926 -72.18 0.0004655742    1.151    0.131
        70  -9.9359    172.9069    243.5360   9.3014816888e+01   4.1477048041e+00    0.2658579    0.1606325 -60.31  0.001494344    3.515    0.715
        71  -9.2713     72.1983    188.1838   1.0754977045e+02   2.7233239749e+01    0.1766436    0.1239906  59.57 0.0004432424    1.307    0.235
        72  -9.5130    197.8289    223.0835   8.5854369304e+01   3.3020179314e+00    0.1582512    0.1302387  22.14 0.0004247453    1.203    0.168
        73 -11.5118     32.8516    155.5767   1.1454683561e+02   3.9112552673e+01    0.3693925    0.2512028  69.27  0.001299658    1.327    0.247
        74 -14.8791      9.7317    207.2018   1.2304556992e+02   3.0287374777e+01      1.26344      1.00255 -13.55  0.003490894    2.037    0.509
        75  -9.4354      2.3002     49.6557   1.1323908409e+02   6.7573692826e+01    0.1264967   0.08666134  66.44  0.000703723    1.678    0.404
        76 -10.2692    137.6913     43.7920   5.6605827001e+01   4.4807032739e+01    0.2840258    0.2332113 -84.15 0.0006189803    1.328    0.247
        77  -8.8434     48.5619     42.5712   8.5964332323e+01   6.4723319898e+01    0.1352329    0.1286553 -34.34 0.0001221027    1.049    0.047
        78  -9.9413    140.9624     38.4847   5.4065418569e+01   4.4726775370e+01    0.2603865     0.196042 -52.16 0.0005172869    1.371    0.271
        79  -8.8709    137.5621     35.7771   5.3757317983e+01   4.5997529116e+01    0.2014114    0.1340739 -44.54  0.000394913    1.524    0.344
        80 -12.6008    214.1935     28.0212   4.1041772207e+01   2.7648508854e+01    0.4873689    0.4248549  43.13   0.00111329    1.374    0.272
        81  -8.5748    115.5331     31.4496   5.6883799152e+01   5.2336821132e+01    0.1473184    0.1419276  65.18 0.0001185213    1.007    0.007
        82 -10.1323    189.8064     15.1199   3.9719212561e+01   3.4886645304e+01    0.2186851    0.1670448 -57.88 0.0007246683    1.200    0.167
        83 -16.4905      8.6159    239.6038   1.2423964688e+02   2.4534137852e+01     8.935916     2.290037 -81.31   0.04358669    4.051    0.753
        84  -9.9324     37.7347    215.4508   1.1747765647e+02   2.5981568317e+01    0.2485713    0.1207816  56.44 0.0007529768    1.689    0.408
        85  -9.1205    106.6739    210.2860   1.0210399958e+02   1.8246638030e+01    0.1268044   0.08002759  55.39 0.0002223636    1.607    0.378
