#   1 NUMBER                 Running object number                                     
#   2 MAG_AUTO               Kron-like elliptical aperture magnitude                    [mag]
#   3 X_IMAGE                Object position along x                                    [pixel]
#   4 Y_IMAGE                Object position along y                                    [pixel]
#   5 X_WORLD                Barycenter position along world x axis                     [deg]
#   6 Y_WORLD                Barycenter position along world y axis                     [deg]
#   7 A_WORLD                Profile RMS along major axis (world units)                 [deg]
#   8 B_WORLD                Profile RMS along minor axis (world units)                 [deg]
#   9 THETA_WORLD            Position angle (CCW/world-x)                               [deg]
#  10 FWHM_WORLD             FWHM assuming a gaussian core                              [deg]
#  11 ELONGATION             A_IMAGE/B_IMAGE                                           
#  12 ELLIPTICITY            1 - B_IMAGE/A_IMAGE                                       
         1 -14.8899    163.0357     45.2416   7.7242901965e+01   3.8763403857e+01     1.349273     1.090248 -14.05  0.003864759    1.380    0.275
         2 -14.2506    189.4247     13.8286   6.3935157524e+01   3.5890127789e+01     1.213768    0.6769155 -67.36  0.005502491    2.104    0.525
         3 -14.6303    177.7844     10.9349   6.4504845324e+01   3.9109093841e+01     1.414511    0.8025461 -72.88  0.005493026    2.157    0.536
         4 -13.9264    175.4529     17.7422   6.6816707395e+01   3.8999460327e+01    0.9191325    0.5585532  83.53  0.004138181    1.747    0.427
         5 -11.3880    134.9838    241.3339   1.2684910730e+02   7.6646614110e+00    0.2115037    0.1748212  -3.54  0.001119733    1.702    0.412
         6 -20.0730     75.8782    171.1316   1.3004673617e+02   3.0405145979e+01     17.15942     7.208257 -66.05    0.0736027    2.360    0.576
         7 -12.4378    202.2148    166.8192   1.0135523555e+02   8.2913137646e+00    0.9724772    0.5775915  18.53   0.00410863    2.381    0.580
         8 -12.5079    197.1971    176.7133   1.0434673536e+02   7.5581739509e+00    0.3791171    0.3378707 -49.65  0.001418579    1.305    0.234
         9 -12.9702    193.5568    166.2627   1.0293644544e+02   1.0076720052e+01    0.4377483    0.3459196 -35.84 0.0006559613    1.287    0.223
        10 -13.4618    190.5731    161.0748   1.0244257278e+02   1.1598761931e+01     1.173509    0.5022149 -42.04  0.003292323    2.383    0.580
        11 -11.6469     26.0452    172.8916   1.4146927958e+02   3.6017981932e+01    0.2899037    0.1985501  81.73  0.001271781    1.223    0.182
        12 -10.2022     17.7769    173.7871   1.4331139301e+02   3.6612203990e+01    0.1525927    0.1293478 -80.77 0.0005747087    1.218    0.179
        13  -9.6556     13.2435    236.1582   1.4802167425e+02   2.4662700935e+01   0.07707537   0.06331229  58.49 0.0003145216    1.350    0.259
        14 -11.3265     21.6109    234.9847   1.4658517807e+02   2.4015104631e+01    0.1430371   0.08873966  89.47  0.001023709    1.356    0.263
        15 -10.9061    135.7248    237.0661   1.2619426003e+02   8.2246460359e+00    0.1622755    0.1358076  64.12 0.0003861711    1.199    0.166
        16 -10.5416      4.7427    233.4391   1.4927385614e+02   2.5980773577e+01     0.100826   0.06364232  77.99 0.0002601447    1.155    0.134
        17 -10.3604    141.0786    228.4695   1.2408351378e+02   8.7598661552e+00    0.2758859    0.1516871 -65.26  0.001373838    2.614    0.617
        18 -11.7262    218.3373    220.5945   1.0844143246e+02  -2.7598425309e+00    0.3148381    0.1358872 -45.36  0.001420468    3.194    0.687
        19 -10.8804     22.9664    156.0805   1.4059084212e+02   4.0056960107e+01    0.1831212    0.1581682  75.63 0.0004643107    1.152    0.132
        20 -10.5686     17.5231    158.9968   1.4211214514e+02   3.9893077074e+01    0.2599053    0.1763013  13.33  0.000916801    2.231    0.552
        21 -11.3222     17.8094    154.6912   1.4165085448e+02   4.0833392858e+01    0.3925861    0.2285484 -71.94  0.002342362    1.406    0.289
        22 -11.3342     18.2766    221.0727   1.4638986096e+02   2.6930469183e+01    0.1475505    0.1014172 -87.40 0.0007775606    1.255    0.203
        23 -11.5736    111.0947    212.4450   1.2790511422e+02   1.6442236542e+01    0.3041459    0.1990395  79.79 0.0009916615    1.898    0.473
        24 -12.3198    166.9804    155.7049   1.0622489927e+02   1.7403865816e+01    0.2311174    0.2059438  79.40 0.0006205926    1.296    0.229
        25 -13.7938    105.8141    205.5890   1.2810465149e+02   1.8594726137e+01     0.685383    0.4343074 -63.88  0.001861451    1.700    0.412
        26 -11.8462    111.6802    196.8776   1.2569949943e+02   1.9370757728e+01    0.5655583    0.3345776  18.44  0.002333899    3.214    0.689
        27 -12.4108    174.0809    148.5415   1.0313363998e+02   1.7341664779e+01    0.4456467     0.333333 -58.05  0.001743164    1.548    0.354
        28 -13.1963     11.4992    206.0389   1.4673734864e+02   3.0505480007e+01    0.3993068    0.2373685  33.46  0.002154635    1.975    0.494
        29 -10.4460      7.3156    149.7964   1.4363401427e+02   4.2793156190e+01    0.2522797    0.1325363 -41.20  0.001317262    2.771    0.639
        30 -11.1832    140.5197    199.4279   1.2000905310e+02   1.3958982124e+01    0.3641396    0.2897765  19.62  0.001429312    1.470    0.320
        31 -10.3568    121.8770    198.5009   1.2377442221e+02   1.7351735235e+01    0.1769418    0.1642162  83.59 0.0003987703    1.099    0.090
        32 -10.5793      1.1450    197.3771   1.4814622531e+02   3.3166531457e+01    0.0999128   0.05642462 -72.74 0.0006417597    1.592    0.372
        33 -11.9093    125.2848    238.2183   1.2828292941e+02   9.6765345782e+00    0.2593175    0.1425624 -58.64  0.001364403    2.198    0.545
        34 -10.2366    170.2746    136.6366   1.0123207440e+02   2.0502550438e+01    0.1526099    0.1200539 -76.22 0.0003702405    1.664    0.399
        35 -12.9682    160.4858    127.9857   1.0133402510e+02   2.4383000999e+01    0.4980614    0.3526488 -51.63  0.001655576    1.476    0.322
        36 -12.8295     28.2931    127.0197   1.3589097768e+02   4.6272503901e+01    0.4419681    0.3415101  -2.39  0.002731869    1.839    0.456
        37 -10.4117    150.8894    239.6846   1.2369858182e+02   5.4044933804e+00    0.1606487    0.1266424  43.14 0.0002989932    1.035    0.034
        38 -11.3575     13.2542    240.0001   1.4820175709e+02   2.3979566373e+01     0.139066    0.1079054  83.81  0.001032815    1.242    0.195
        39  -9.8749    242.2768    184.6650   9.7696533622e+01  -1.6938177140e+00    0.1136295    0.1009155 -53.63 0.0003049728    1.607    0.378
        40 -10.8595    205.3248    110.2296   8.7712266897e+01   1.7702043359e+01    0.3079481    0.2091752  44.73  0.001056875    1.542    0.352
        41 -11.3532    167.5629    112.4429   9.5835364010e+01   2.5931099124e+01    0.3421066    0.2436192 -73.85  0.001296766    2.006    0.502
        42 -12.3116     23.3987    218.5015   1.4533832162e+02   2.6892728441e+01    0.3241037    0.1480777 -66.61  0.001911051    2.167    0.539
        43 -11.0008    160.4683    238.0072   1.2170178035e+02   4.1225508404e+00    0.2083585    0.1799065 -63.67 0.0007761389    1.477    0.323
        44 -10.4701     27.9274    236.9767   1.4564025530e+02   2.2982317949e+01    0.1498154      0.11481 -87.06 0.0005838569    1.301    0.231
        45 -13.2521    204.4297    175.7935   1.0276478333e+02   6.3506878096e+00    0.5472572    0.4611471  26.28  0.001112187    1.109    0.099
        46 -10.6773    144.2597     81.2453   9.2426657636e+01   3.7431177187e+01    0.2100957    0.1824271 -76.78 0.0006952016    1.325    0.245
        47 -14.3063    151.6318     59.6591   8.4065722344e+01   3.9434464643e+01     1.199893    0.9459291  10.38 0.0009339202    1.539    0.350
        48 -11.0912    163.5138    248.4975   1.2252712395e+02   2.1279031133e+00    0.1932384    0.1188966 -46.01 0.0008361103    2.040    0.510
        49 -13.2192    167.2966     36.8805   7.3885480871e+01   3.8814654500e+01    0.4687417    0.4334685  35.89 0.0008636851    1.134    0.118
        50 -11.1236     13.5035     59.9586   1.2855352145e+02   6.2606070764e+01     0.181492    0.1627506  54.57 0.0004411144    1.449    0.310
        51 -10.6589    127.1166    249.3917   1.2920860163e+02   7.6248222459e+00   0.09281605    0.0726651 -44.53 0.0002396948    1.683    0.406
        52  -9.7603    138.8657    242.7358   1.2630102911e+02   6.8385538294e+00    0.1788851    0.1482241 -80.08 0.0004605578    1.487    0.328
