#   1 NUMBER                 Running object number                                     
#   2 MAG_AUTO               Kron-like elliptical aperture magnitude                    [mag]
#   3 X_IMAGE                Object position along x                                    [pixel]
#   4 Y_IMAGE                Object position along y                                    [pixel]
#   5 X_WORLD                Barycenter position along world x axis                     [deg]
#   6 Y_WORLD                Barycenter position along world y axis                     [deg]
#   7 A_WORLD                Profile RMS along major axis (world units)                 [deg]
#   8 B_WORLD                Profile RMS along minor axis (world units)                 [deg]
#   9 THETA_WORLD            Position angle (CCW/world-x)                               [deg]
#  10 FWHM_WORLD             FWHM assuming a gaussian core                              [deg]
#  11 ELONGATION             A_IMAGE/B_IMAGE                                           
#  12 ELLIPTICITY            1 - B_IMAGE/A_IMAGE                                       
         1 -12.3584    225.9689     45.8690   5.9143719281e+00   2.7056746440e+01    0.6106254    0.5656847 -66.81  0.002870881    1.405    0.288
         2 -10.0631    250.1993     24.6751   8.0752513858e-01   2.5740717736e+01    0.3998584    0.1053296 -39.73  0.002117162    2.923    0.658
         3  -9.3460     18.4718      6.0000   3.8904575735e+01   7.3993694954e+01     0.275634   0.05666387  41.52 0.0009469233    4.034    0.752
         4  -8.4481     21.6766      2.3186   3.4831260120e+01   7.3916525260e+01    0.1085028   0.08976061  66.18 -0.0002300599    1.671    0.402
         5  -7.8556    216.2123    236.0557   3.9036970509e+01  -6.9437655418e-01    0.1416487   0.07078134 -39.51 0.0006749604    1.671    0.402
         6  -8.9164     74.7472    249.0707   7.0627489614e+01   1.1631485410e+01    0.3001551    0.1789168 -43.46  0.001566607    1.910    0.476
         7 -13.8745     57.0839    233.6779   7.3670586014e+01   1.6782977199e+01     5.191494     2.989218 -25.31   0.02356151    2.380    0.580
         8 -13.7395     10.1057    206.3837   8.4355261361e+01   2.7677293113e+01     1.371496    0.8628756  13.65  0.003795852    1.634    0.388
         9  -8.5176     73.2956    234.3692   6.9545076892e+01   1.4877623490e+01    0.2154881    0.1716299 -29.11 0.0006356201    1.381    0.276
        10  -8.7666     80.4963    220.5014   6.6151897626e+01   1.7119573642e+01    0.2561978     0.138755 -62.77 0.0008179193    2.042    0.510
        11 -13.1948     39.7092    174.1536   7.2616900232e+01   3.3303360144e+01     5.569351    0.6550162  35.66   0.01446251    4.773    0.790
        12 -10.4202     95.6956    198.5047   5.9223633022e+01   2.0260283917e+01    0.4169573    0.2791604  23.62  0.002043371    1.419    0.295
        13  -8.3285    210.7712    198.5754   3.4357228685e+01   5.6476630013e+00    0.1323852     0.107521  33.12  0.000433085    1.534    0.348
        14 -14.4604      3.8201    237.3080   8.7570354757e+01   2.0882975563e+01      2.33011     1.424599  42.60    0.0131627    1.363    0.266
        15  -9.0632    101.7713    195.2381   5.7117141265e+01   2.0199900078e+01    0.2065144    0.1635632 -14.88  0.001040902    1.354    0.261
        16  -9.1942     68.2790    192.3031   6.6076971792e+01   2.5298959133e+01    0.3878374    0.2550062  74.89  0.001713692    2.013    0.503
        17 -14.7226      5.9681    217.2212   8.6085899290e+01   2.5359860240e+01     3.072374     1.220073  24.60   0.00193682    2.186    0.543
        18  -9.5189    127.4265    190.2875   4.9791811203e+01   1.7745325192e+01    0.2729144    0.1259882 -48.83  0.001146246    2.109    0.526
        19  -9.5140     73.5173    189.4017   6.4162733380e+01   2.5359260304e+01     0.459155     0.146775 -63.71  0.001451963    3.322    0.699
        20  -8.6598     72.7202    231.6651   6.9414878714e+01   1.5530655220e+01     0.216909    0.1849697 -38.78 0.0005607181    1.282    0.220
        21  -9.8540    108.0000    187.9533   5.4340465130e+01   2.1014656425e+01    0.4163432    0.1256803 -62.15  0.001177862    4.728    0.788
        22  -9.2133    110.3198    184.3301   5.3145590508e+01   2.1517183793e+01    0.2945293    0.1411345 -27.72 0.0009473998    3.731    0.732
        23  -8.6560    171.5073    174.5256   3.7387707593e+01   1.4735717633e+01    0.1282667    0.1160503 -31.63 0.0008095737    1.050    0.048
        24  -9.1570     73.1263    171.2202   6.1644437028e+01   2.9994253784e+01    0.3739676    0.2169877 -88.30  0.001185761    2.638    0.621
        25  -8.6559     70.6546    166.8417   6.1730398296e+01   3.1453878241e+01    0.2630209    0.2218807  83.04 0.0005819599    1.334    0.250
        26  -8.9248    179.1995    164.3905   3.4129123506e+01   1.5570409341e+01    0.1699907    0.1200701  48.13 0.0009562609    1.707    0.414
        27 -10.3569     56.8911    161.8293   6.5378099522e+01   3.4576132290e+01    0.5235605    0.3328782 -21.11  0.002190241    2.063    0.515
        28 -10.4087     62.3439    157.9235   6.2986353940e+01   3.4894815624e+01    0.4321849    0.3390209  -0.04 0.0009804278    1.423    0.297
        29  -9.6293     34.9864    159.0064   7.2366186241e+01   3.7856474014e+01     0.246114    0.2122888 -72.99 -0.007547014    1.170    0.146
        30 -10.0053     32.2484    153.2006   7.2587987802e+01   3.9706056105e+01    0.5230877    0.3321925  47.65  0.002383069    1.617    0.381
        31 -11.1732     80.8196    145.1607   5.4769763154e+01   3.5505550276e+01    0.7884049    0.5871913   9.69  0.003180397    1.542    0.352
        32 -12.6095     70.9913    147.4492   5.8370200309e+01   3.6409587452e+01     1.631455    0.9677807  81.35  0.002217551    2.892    0.654
        33 -11.7503     59.5159    145.2445   6.1843532737e+01   3.8605789390e+01    0.6680418    0.5947456 -32.73  0.001226905    1.170    0.145
        34 -10.6395     22.9142    155.5412   7.6147296904e+01   3.9952724955e+01    0.5319554    0.3345396  62.48   0.00151391    1.763    0.433
        35  -8.9298    134.4070    149.1618   4.0678237509e+01   2.5659963116e+01    0.3308001    0.1368118 -58.86  0.001140703    3.108    0.678
        36  -9.4540    109.2068    145.4012   4.6391862544e+01   3.0788359085e+01     0.275966    0.2584569 -59.27 0.0007610342    1.087    0.080
        37  -9.3693     21.6432    145.0659   7.5400080261e+01   4.2912233931e+01    0.3169475    0.1854372  58.67  0.001358913    1.944    0.486
        38  -9.9541     37.8601    143.2407   6.9212678299e+01   4.1810962583e+01    0.3827742    0.2694395  57.75  0.001789753    1.564    0.361
        39 -10.5108     78.6914    137.0378   5.3877071095e+01   3.7881611726e+01    0.6404423    0.2900576  46.24  0.001637758    2.404    0.584
        40 -10.5337     74.0890    130.6685   5.4117908199e+01   4.0209176946e+01    0.6155673    0.4120362  81.42   0.00184905    2.212    0.548
        41  -9.6464     97.0710    134.1741   4.7558985670e+01   3.5521341424e+01     0.474538    0.3130086  -4.92  0.001873341    2.507    0.601
        42 -10.6327     83.7188    132.3326   5.1295548177e+01   3.8232884378e+01    0.3350453    0.2806804 -55.57 0.0004681269    1.216    0.178
        43  -9.3031    105.9346    130.8475   4.4280900375e+01   3.4740458041e+01    0.3736173    0.2799173 -48.47  0.001686818    1.342    0.255
        44  -8.6215    108.1809    126.5761   4.2720028025e+01   3.5311835409e+01    0.2771013    0.2128955  13.79  0.001016374    1.608    0.378
        45  -9.2290     25.4112    128.9731   7.1841082376e+01   4.6929889266e+01    0.3749401    0.2050378  17.50  0.001599322    1.861    0.463
        46  -9.4384     66.3294    124.9341   5.5618515177e+01   4.2862597100e+01    0.3515035    0.2581874 -40.51  0.001060106    1.445    0.308
        47  -9.5635     94.4759    121.6694   4.5617623389e+01   3.8926403969e+01    0.2913446    0.2474804   0.56 0.0007525019    1.381    0.276
        48  -8.7194     43.8142    131.4330   6.5123628591e+01   4.4284327556e+01    0.2051372    0.1439266   4.00 0.0004994606    1.609    0.378
        49  -8.7424     54.3143    119.6367   5.8930711035e+01   4.5979660123e+01    0.1610688    0.1133494  64.68 0.0007040776    1.761    0.432
        50  -8.5938     27.3881    118.4508   6.9410435203e+01   4.9544699274e+01    0.3223111    0.1434607 -67.89  0.001240502    2.256    0.557
        51  -8.0143     30.3157    118.6786   6.8245196165e+01   4.9186622050e+01    0.2406126    0.0985835  43.80 0.0008106151    2.677    0.626
        52  -8.8764    104.9048    116.2265   4.1301734665e+01   3.8245642368e+01    0.2892104    0.2019326  31.59  0.001280852    1.537    0.350
        53  -9.0503     46.8822    115.4643   6.0959744686e+01   4.8061653270e+01    0.2529466    0.2124255 -75.59 0.0002755451    1.288    0.224
        54  -9.3087     36.5055    114.5906   6.4973021156e+01   4.9574758664e+01    0.2864822    0.2301343  51.38 0.0002938087    1.332    0.249
        55 -14.5127     25.1332    177.3859   7.7641410036e+01   3.3877790018e+01     7.294664     2.838464  68.78    0.0215959    4.425    0.774
        56  -9.1363     32.5168    107.5039   6.5291458444e+01   5.1854425440e+01     0.415975    0.1189719 -59.75  0.001359953    3.106    0.678
        57  -9.9731     23.5106    104.2935   6.8612928416e+01   5.3612208648e+01    0.4703476    0.2968367  48.69  0.002157051    1.781    0.439
        58  -9.3410    134.6983    105.5869   3.1255731708e+01   3.4697917561e+01    0.3852785    0.1173532 -51.40  0.001224216    3.634    0.725
        59  -9.6846     72.6763    226.0269   6.8831989457e+01   1.6784006981e+01    0.2904463     0.239915  73.57 0.0008055255    1.418    0.295
        60  -9.9156     32.6950     86.7886   6.0744277372e+01   5.6957212732e+01    0.5828896    0.2605438  47.02    0.0021179    2.792    0.642
        61  -7.9776     98.0013     85.4676   3.5568701574e+01   4.6095398486e+01    0.1986787    0.1205199  68.48 0.0005510449    2.307    0.567
        62  -9.1481    115.5326     75.3449   2.8171819815e+01   4.4320878993e+01    0.3167807    0.2223504 -77.04 0.0008705875    1.781    0.439
        63 -10.7791    202.6816     61.4774   1.0895766539e+01   2.8980624825e+01     0.307729    0.2344209 -78.00  0.001077137    1.172    0.147
        64 -11.9108    212.7157     54.4481   8.5811209610e+00   2.8179424286e+01    0.6712132    0.6073123 -75.56  0.005085288    1.277    0.217
        65  -9.3903    185.1155    244.6901   4.5693792029e+01   8.0555332095e-01    0.1914509    0.1502411 -38.90  0.001186528    1.388    0.280
        66  -9.3490     19.0554     51.9294   5.8229712854e+01   6.6248537904e+01    0.2415424    0.1698276  27.77 0.0004096257    1.328    0.247
        67 -11.0340     12.1159     43.4366   5.9665277770e+01   6.8688096644e+01     0.526118    0.2115901  37.22  0.002266201    2.558    0.609
        68 -14.2865      6.4149    141.7391   8.0666034582e+01   4.4977546320e+01     13.81822     1.574688 -77.78   0.02307373   12.862    0.922
        69 -13.1573      6.4182    188.2077   8.4305290755e+01   3.2562877041e+01     1.793118     1.144728  42.37  0.006850983    1.452    0.311
        70  -8.8252     60.3112     21.1393   2.6251145275e+01   6.4373393092e+01    0.2276293    0.1546868  79.05 0.0006631493    1.967    0.492
        71  -9.9380    118.4120    231.2726   5.7982757144e+01   1.0330195869e+01     0.350086    0.1202274  36.52  0.001371244    2.748    0.636
        72 -10.1412     97.6476    222.4806   6.1947328718e+01   1.4631044703e+01    0.4037268    0.1788877 -67.21  0.001597032    3.025    0.669
        73  -8.8902    103.8838    237.6185   6.2260999109e+01   1.0739050193e+01    0.2173462     0.168574 -33.46 0.0005310015    1.346    0.257
