#   1 NUMBER                 Running object number                                     
#   2 MAG_AUTO               Kron-like elliptical aperture magnitude                    [mag]
#   3 X_IMAGE                Object position along x                                    [pixel]
#   4 Y_IMAGE                Object position along y                                    [pixel]
#   5 X_WORLD                Barycenter position along world x axis                     [deg]
#   6 Y_WORLD                Barycenter position along world y axis                     [deg]
#   7 A_WORLD                Profile RMS along major axis (world units)                 [deg]
#   8 B_WORLD                Profile RMS along minor axis (world units)                 [deg]
#   9 THETA_WORLD            Position angle (CCW/world-x)                               [deg]
#  10 FWHM_WORLD             FWHM assuming a gaussian core                              [deg]
#  11 ELONGATION             A_IMAGE/B_IMAGE                                           
#  12 ELLIPTICITY            1 - B_IMAGE/A_IMAGE                                       
         1 -14.8636     68.5591    144.8176   8.8115379285e+01   3.7430841084e+01     4.776309     2.308596  78.15  0.002723681    4.238    0.764
         2 -13.7436    230.2620     29.6780   2.5110050910e+01   2.4776117335e+01    0.8583155    0.7962653  -1.05  0.002630884    1.272    0.214
         3 -14.0726    213.3810     44.1810   3.0218433183e+01   2.6670709626e+01     1.651956      1.25852  16.52  0.006895835    1.696    0.410
         4 -11.8162    249.9501      8.2842   1.8956583085e+01   2.3038915924e+01    0.6267438    0.1790017 -25.27   0.00271871    2.889    0.654
         5 -12.9548    108.3851    212.4001   8.6291677031e+01   1.8196338464e+01     1.009928    0.3513884  23.73  0.003678604    3.746    0.733
         6 -11.0003    139.5809    249.9017   8.3906987470e+01   8.7672855052e+00    0.2323103     0.103487  40.22  0.001329007    1.929    0.482
         7 -12.6017    125.2328    245.9741   8.6277176857e+01   1.0988661916e+01    0.3956969    0.3284615   4.22  0.003080088    1.288    0.224
         8 -11.5447    102.3876    250.2639   9.1162558570e+01   1.3072709127e+01    0.4148794    0.1106014  33.05   0.00188129    2.536    0.606
         9 -12.3457    101.2733    243.1689   9.0791113205e+01   1.4227174251e+01    0.4933739     0.317684 -86.85  0.002851417    2.513    0.602
        10 -16.4197     37.1075    187.9538   1.0110289180e+02   3.1392513970e+01     8.815228     3.131259  70.10   0.03325305    3.914    0.744
        11 -14.2578     55.0243    233.4992   9.9700080178e+01   2.0945608204e+01    0.9581868    0.6298078  59.14 0.0006204737    1.413    0.292
        12 -13.3730     15.8490    248.7927   1.0826830246e+02   2.2155392898e+01    0.2728833    0.1807984  56.75 0.0009183727    1.212    0.175
        13 -16.6560      8.5237    242.6595   1.0955923023e+02   2.3766946700e+01     8.243011     2.222817  18.31   0.02813452    6.817    0.853
        14 -10.2309     72.4928    204.1822   9.3687585571e+01   2.4217760140e+01    0.2472829    0.1798916  71.68  0.001197923    1.502    0.334
        15  -8.7417    223.7432    206.7161   6.3131519266e+01   3.7351478602e+00    0.1076267   0.06542221   1.73            0    1.477    0.323
        16 -11.4864    192.8085    194.7504   6.6528797977e+01   9.1805224356e+00    0.6988519     0.393433 -59.01   0.00244026    7.209    0.861
        17 -13.3199     27.5126    196.1013   1.0391855528e+02   3.0639060068e+01    0.4686216    0.3844515 -24.42  0.001150722    1.710    0.415
        18  -9.6069     99.2949    181.0904   8.4653731619e+01   2.5166390735e+01    0.2162751    0.1627874  25.40  0.000526536    1.250    0.200
        19 -12.8940    241.0445    170.0241   5.4316648196e+01   5.7651817142e+00     0.727056    0.3662646  26.35  0.003646107    2.001    0.500
        20 -12.4045     80.7100    152.0320   8.5577149855e+01   3.4042315001e+01    0.6600535    0.4750429  -5.37  0.001589862    1.972    0.493
        21 -12.1785    116.2358    245.4406   8.7997552923e+01   1.2133534581e+01    0.4964828    0.2866394 -21.57  0.002759668    2.944    0.660
        22 -10.6308    110.7414    167.8212   7.9884818398e+01   2.6100307477e+01    0.2489992     0.226013 -77.06 0.0005704798    1.277    0.217
        23 -12.6159     73.5130    157.6357   8.8411522085e+01   3.3780939444e+01    0.7770652    0.4618801  37.88 0.0005945013    1.487    0.328
        24 -13.5653     59.7467    153.1099   9.1828247310e+01   3.6624526908e+01    0.5876577    0.4561885 -76.38  0.001695691    1.337    0.252
        25 -10.3495    133.7430    143.7614   6.9838000267e+01   2.7052669808e+01     0.670252     0.216538 -56.71  0.001714383    6.403    0.844
        26 -15.4754      8.3112    209.3402   1.0885324834e+02   2.9695468915e+01     1.959534     1.192935 -81.80  0.009795568    1.776    0.437
        27 -10.2402     96.0120    139.5104   7.9111831232e+01   3.4525508979e+01    0.2943008    0.2468392  40.86 0.0007624654    1.111    0.100
        28  -9.7532     99.0446    136.4945   7.7679179648e+01   3.4702942678e+01    0.3458382    0.2386614   3.03 0.0008953965    2.137    0.532
        29 -12.4043     83.7502    137.5129   8.2375853170e+01   3.6944998095e+01    0.2836344     0.275542 -53.38 0.0003152095    1.113    0.102
        30 -12.0892     57.2357    171.4145   9.4513803969e+01   3.2762913478e+01    0.3986547    0.2820294 -20.38  0.002091421    2.074    0.518
        31 -10.9881    106.8573    130.2961   7.4216695150e+01   3.4737884521e+01    0.4418323    0.3465243   6.46  0.001455469    1.568    0.362
        32  -9.7064    174.8572    149.2055   6.1759873710e+01   1.8736724347e+01    0.1907841    0.1831914  37.85  0.000661682    1.252    0.201
        33  -8.9246     96.0736    124.4604   7.6175614424e+01   3.7968881610e+01     0.215684    0.1420225  34.98 0.0005343233    1.478    0.323
        34  -9.8409    105.4798    118.1833   7.1999950413e+01   3.7710592107e+01    0.2226295    0.1946606  25.81 0.0003774281    1.174    0.148
        35 -10.6194    231.3316    114.0763   4.4704721338e+01   1.4206355227e+01    0.2553599    0.2154254 -23.99 0.0008277946    1.088    0.081
        36 -12.0190     62.5747    166.6588   9.2560359009e+01   3.3172116196e+01    0.3442945    0.2780221  -2.77 0.0009968847    1.568    0.362
        37 -10.2353    205.2871    110.6964   4.7809329934e+01   1.9268104464e+01    0.2917614    0.2254091  30.52  0.001182647    1.362    0.266
        38 -10.4062     69.9729    106.3182   8.0942771215e+01   4.6682811391e+01    0.3814934    0.2402612  64.88  0.001028192    2.007    0.502
        39  -9.6992     64.0987    101.1174   8.1978084674e+01   4.8883348457e+01    0.2165134    0.1999273 -30.50 0.0004281462    1.187    0.157
        40 -11.1198     53.2545     90.3835   8.3875472907e+01   5.3165126336e+01    0.3727349    0.2305911 -58.92  0.001318379    1.545    0.353
        41 -10.7176     44.4310     90.4003   8.7552238842e+01   5.4283722224e+01    0.2947751    0.2261737  62.06 0.0001879821    1.378    0.274
        42  -9.1614     71.7932     87.1587   7.5690080493e+01   5.1149938542e+01    0.2630916    0.1578819  72.54 0.0009416817    2.868    0.651
        43  -9.8676    234.1796     86.4069   3.8199278179e+01   1.7306693341e+01    0.1482315    0.1224653  84.58 0.0004788961    1.614    0.381
        44  -8.6870    184.3628     77.2945   4.2858658456e+01   2.8573620906e+01    0.1453141    0.1067864  19.79 0.0007030569    1.709    0.415
        45 -11.0216     56.7825     76.2336   7.8864798758e+01   5.6252853617e+01    0.4279987    0.2704677  53.37  0.001519473    1.810    0.447
        46 -10.8098     50.3510     71.9508   8.0560007406e+01   5.8253254453e+01    0.5750136    0.2449642  49.75  0.001998504    3.046    0.672
        47 -11.7541    119.8025    245.2359   8.7273033003e+01   1.1737724552e+01    0.2090348    0.2027676  11.60  0.001066648    1.342    0.255
        48 -12.6077    222.3358     36.3873   2.7399847078e+01   2.5675460103e+01    0.5087315    0.4116014  41.67  0.001104446    1.510    0.338
        49 -13.3348    204.5772     49.6075   3.2585369621e+01   2.7920806462e+01     1.079478    0.6455063  46.81  0.002854132    1.949    0.487
        50 -11.1301    124.3220    203.7454   8.1739362347e+01   1.7491075879e+01    0.3211667    0.2167904 -70.58  0.001596148    2.225    0.551
        51 -11.9026     12.5985     59.7670   9.7070017628e+01   6.5149468078e+01    0.5044282    0.2676725  43.69  0.001283243    2.064    0.516
        52 -11.3608     11.8049     52.4599   9.6162309104e+01   6.7072978102e+01    0.3919044    0.2094065  36.59  0.001816595    2.019    0.505
        53  -8.9709     23.7067     44.3095   8.6733702228e+01   6.8238626787e+01    0.1341226    0.1023481  66.13 0.0002633133    1.587    0.370
        54 -10.1359    197.9431     24.2421   2.6327140361e+01   3.2389348152e+01    0.2553302    0.1877267 -15.81  0.001046724    1.471    0.320
        55  -9.3108    189.5086     15.0745   2.4454032297e+01   3.5337890890e+01    0.1991131    0.1235327 -27.20 0.0006710592    1.540    0.351
