#   1 NUMBER                 Running object number                                     
#   2 MAG_AUTO               Kron-like elliptical aperture magnitude                    [mag]
#   3 X_IMAGE                Object position along x                                    [pixel]
#   4 Y_IMAGE                Object position along y                                    [pixel]
#   5 X_WORLD                Barycenter position along world x axis                     [deg]
#   6 Y_WORLD                Barycenter position along world y axis                     [deg]
#   7 A_WORLD                Profile RMS along major axis (world units)                 [deg]
#   8 B_WORLD                Profile RMS along minor axis (world units)                 [deg]
#   9 THETA_WORLD            Position angle (CCW/world-x)                               [deg]
#  10 FWHM_WORLD             FWHM assuming a gaussian core                              [deg]
#  11 ELONGATION             A_IMAGE/B_IMAGE                                           
#  12 ELLIPTICITY            1 - B_IMAGE/A_IMAGE                                       
         1 -12.7665      4.0816     51.8336   1.0100666982e+02   6.5856953672e+01     1.093168    0.3394617 -51.84  0.005006389    2.255    0.557
         2 -13.5717     13.3141     47.0982   9.5049447155e+01   6.6220344389e+01     1.623284    0.6020653 -43.74  0.006897954    2.095    0.523
         3 -12.9440      7.2534     38.6670   9.5388291107e+01   6.8255069465e+01    0.7692291    0.4500189 -45.37  0.003193415    1.396    0.283
         4 -12.3114    222.8414     40.9381   3.6343223957e+01   2.5741362634e+01    0.8126276    0.3963864 -42.36  0.003692479    1.810    0.447
         5 -13.4423    214.7822     38.2092   3.6575690384e+01   2.7814730335e+01     1.484318    0.8611174 -52.66  0.008091379    1.551    0.355
         6 -12.9922    234.6927     31.4638   3.3249940298e+01   2.4512834897e+01    0.8514071    0.5939153 -89.94  0.003412564    1.328    0.247
         7 -12.2287     25.5900     29.0967   8.2061666347e+01   6.8327413092e+01    0.6490811    0.4026792 -37.25  0.003006531    1.481    0.325
         8 -12.3966     59.7448     23.3592   6.3984424454e+01   6.4246033174e+01    0.7006375    0.4717177  22.58  0.003958398    1.364    0.267
         9 -12.2305     49.5938     26.4567   6.9509107549e+01   6.5520423910e+01    0.5698501    0.3889911   6.18  0.003321363    1.433    0.302
        10 -12.5392     42.8285     22.8130   7.0864781862e+01   6.7041298092e+01     1.013541      0.45448 -41.65  0.004849839    2.607    0.616
        11 -13.6560    123.2225      5.3564   3.9935631074e+01   5.2593178498e+01     1.352387    0.8671032  75.35  0.007557418    1.478    0.324
        12 -12.6844    140.8388     12.6076   3.9349143603e+01   4.7818035645e+01    0.8067645    0.4074231 -44.94  0.003940933    2.215    0.549
        13 -13.2625    146.7597      7.9346   3.7102393175e+01   4.6838842371e+01    0.8916348    0.6276169 -44.15  0.005309279    1.553    0.356
        14 -12.7847    120.3131     17.5554   4.4527173805e+01   5.2184348093e+01    0.6776398    0.6398622 -89.62   0.00446525    1.153    0.132
        15 -12.6090    169.2533     11.5781   3.5229474805e+01   4.1198372532e+01    0.7188584     0.327081 -60.57  0.003152288    2.713    0.631
        16 -12.2690    201.6554     21.5635   3.4163333415e+01   3.2719872070e+01    0.5791006    0.3380915  69.39  0.003234306    1.580    0.367
        17 -11.7684    185.3954     10.2015   3.3127544786e+01   3.7600751873e+01    0.3429897    0.1760454 -44.48  0.001821261    1.890    0.471
        18 -13.0139     78.1107     34.6294   6.2047199317e+01   5.9405514992e+01     1.057305     1.026712 -40.10  0.006864758    1.301    0.231
        19 -11.1820     89.6402      3.5199   4.6136732468e+01   6.0308778269e+01    0.3664444    0.3212895  23.92  0.002503931    1.143    0.125
        20 -11.4924    172.5287      2.1276   3.2452047210e+01   4.1315936017e+01    0.3719073    0.1555845  73.11  0.001776031    2.035    0.508
        21 -13.7722      3.9272    132.5655   1.1520885590e+02   4.6964845096e+01      1.97958    0.4975603 -75.87   0.00670257    3.608    0.723
        22 -11.7343     87.3460    249.8689   1.0697961143e+02   1.0147535582e+01    0.3638582    0.1981305  37.02  0.001932818    1.567    0.362
        23 -11.0870     37.2877    211.2663   1.1423458633e+02   2.4713442973e+01    0.4213796    0.2598319  78.30  0.001374127    1.578    0.366
        24 -10.5580     67.7106    206.7869   1.0670123939e+02   2.2021602600e+01    0.4312639    0.2804715  62.13  0.002103545    1.568    0.362
        25 -11.3592     41.9392    180.1421   1.1003039825e+02   3.1656673316e+01    0.2837903    0.2525743 -53.06  0.000526231    1.240    0.193
        26 -11.4676     49.9443    173.5451   1.0712805498e+02   3.2395023032e+01    0.2638008    0.2551521 -56.04  0.000463787    1.160    0.138
        27 -10.5183     63.0885    163.4652   1.0208801723e+02   3.3323566177e+01    0.2600665    0.2128482 -61.63  0.000386413    1.155    0.134
        28 -12.8521     48.1259    159.9206   1.0579168724e+02   3.6089454622e+01      0.54447    0.3145718 -35.85  0.001764605    2.253    0.556
        29  -8.9896    132.6662    159.3009   8.2131643308e+01   2.2875156451e+01    0.1578107    0.1241566  75.80 0.0007034398    1.655    0.396
        30 -11.9171     72.4267    156.2441   9.8234734519e+01   3.3899603520e+01    0.5759513    0.4840508 -30.17  0.003023626    1.341    0.254
        31 -12.9906     40.8221    148.4090   1.0625372205e+02   3.9871221624e+01    0.7048793    0.4855671  15.63  0.003077205    1.764    0.433
        32 -12.3140     42.4377    143.4094   1.0502083841e+02   4.0992636013e+01    0.7656609    0.3019208  39.86  0.003025098    2.653    0.623
        33 -12.1980     67.7764    143.5050   9.7323928401e+01   3.7846580219e+01    0.7766185    0.4627088  61.00  0.002897026    2.239    0.553
        34 -13.2657     87.9230    126.1424   8.7442097021e+01   3.9185090877e+01    0.9810442    0.8209163 -82.82  0.004875863    1.381    0.276
        35 -11.5312     76.1504    141.5885   9.4407966664e+01   3.7133002744e+01    0.3264406    0.2761389 -50.15 0.0003088683    1.132    0.116
        36 -12.4171     28.2218    136.2540   1.0829985243e+02   4.4232592221e+01     0.549403    0.3879535 -43.09  0.002976607    1.438    0.304
        37 -12.1110    243.9036    132.5319   5.3322486079e+01   7.1431646044e+00     0.402789    0.2773203  44.46  0.002268722    1.736    0.424
        38 -10.6159    104.9737    131.2231   8.3467245069e+01   3.4917340238e+01    0.4610204       0.3509  10.63  0.001907272    1.619    0.382
        39 -11.2983     63.5901    124.8005   9.4939322596e+01   4.3227884987e+01    0.4161804     0.235249 -67.45  0.001750426    1.890    0.471
        40 -10.8381     28.3401    129.4228   1.0725289631e+02   4.5972152662e+01    0.2868991     0.176563  10.94  0.001417041    2.029    0.507
        41 -11.2616     25.3119    104.8808   1.0412403663e+02   5.2403822724e+01     0.659839    0.3551605  19.62  0.003203605    2.127    0.530
        42 -12.1017     35.0236    102.2995   1.0007920542e+02   5.2178212260e+01     1.277079    0.5029948 -67.12  0.004825319    2.682    0.627
        43 -13.0141     32.3051    116.5334   1.0381049513e+02   4.8893512809e+01     1.123793    0.5913075 -47.79  0.005252384    1.700    0.412
        44 -11.9763     24.5859    111.7897   1.0562899500e+02   5.0749200538e+01    0.6176388    0.4121021   2.09  0.003266779    1.825    0.452
        45  -9.7067    102.8112    119.8217   8.1326859112e+01   3.8086469358e+01    0.2262578     0.206753 -18.13 0.0003509908    1.127    0.113
        46 -11.6322     90.4559    141.0839   8.9992399263e+01   3.5002711174e+01    0.8322591    0.5728014 -10.51  0.003461543    2.151    0.535
        47 -11.1837     94.7182    134.2824   8.7227077273e+01   3.5993909818e+01    0.4900431    0.4220646  40.33  0.001826663    1.202    0.168
        48 -10.9880     51.4747     91.3317   9.1340299924e+01   5.2992559561e+01    0.6104988    0.3863062 -19.61  0.002827875    1.908    0.476
        49 -11.3230     51.1445     97.1759   9.2953465969e+01   5.1659245382e+01     0.465041    0.3279597 -49.88  0.001773011    1.270    0.213
        50 -11.4245     50.8923    108.5868   9.5734238763e+01   4.8921297664e+01    0.5495558    0.4511591 -89.06  0.002305549    1.447    0.309
        51 -11.0375     49.4855    103.3511   9.5043123370e+01   5.0372514497e+01    0.4147758    0.3504201  10.58  0.001598038    1.280    0.219
        52 -11.1808     72.4985    103.5653   8.6944309616e+01   4.7183250403e+01    0.6261373    0.3653391 -24.75   0.00247617    2.361    0.576
        53 -10.0406     90.4996     98.8659   7.9613219803e+01   4.5254533564e+01    0.2657885    0.2181375   2.57   0.00131931    1.357    0.263
        54 -11.5846     29.7302     79.9381   9.6968022467e+01   5.7947545791e+01    0.6661423    0.4000351  39.60  0.003279949    2.039    0.509
        55 -10.1922      8.6830     76.9970   1.0499476905e+02   6.0159937159e+01    0.2754676    0.2076241 -30.56  0.001503297    1.219    0.180
        56 -11.1532     35.5486     71.6008   9.2290373765e+01   5.9229146186e+01    0.5740737    0.3590726 -53.85  0.003013047    1.503    0.335
        57  -9.6862     50.3892     73.2081   8.6629054787e+01   5.7160435653e+01    0.1965236    0.1275631 -58.69 0.0009594082    1.741    0.426
        58 -10.6881      8.1651     70.4821   1.0378550177e+02   6.1652230967e+01     0.359232    0.2032575 -45.47  0.001998175    1.394    0.283
        59  -8.9991     14.8382    248.1854   1.2133095151e+02   1.9206470972e+01    0.1345767    0.1130833 -89.25 0.0003908058    1.259    0.206
        60 -11.5028    132.3096    247.2399   9.7103841513e+01   4.1631311025e+00    0.2335255    0.1660247  35.78 0.0009824407    1.201    0.167
        61  -9.9486     59.5301    246.0445   1.1241042034e+02   1.4568138524e+01    0.1698676    0.1137505 -79.68  0.000506612    1.555    0.357
        62  -9.1994    248.6512     55.6973   3.6876881314e+01   1.8555966707e+01    0.1072376   0.09623554  19.24  0.000703987    1.694    0.410
        63 -10.8987     55.2251     49.1918   7.6431085129e+01   6.1127697244e+01    0.6933188    0.2712891  37.32  0.002896459    2.544    0.607
        64 -14.9036    107.8300    228.6297   1.0005133152e+02   1.1427473789e+01     2.786874    0.9950928  35.34   0.01040755    2.477    0.596
        65 -13.1299     84.3834    231.4245   1.0566055087e+02   1.4265265450e+01    0.7910235    0.6628292   7.51    0.0033105    1.495    0.331
        66 -13.5902     72.5532    229.6493   1.0809693094e+02   1.6266953283e+01     1.381762     0.902041 -61.95  0.006247566    1.634    0.388
        67 -11.8303     83.7785    223.9976   1.0495129176e+02   1.5931989194e+01     0.640776    0.3641425  27.11  0.003087499    1.892    0.472
        68 -11.0640     53.3650     30.6347   6.9728080889e+01   6.4343498405e+01    0.4554568    0.2527777  20.36  0.002246846    1.980    0.495
        69 -11.0671     59.1865    228.4289   1.1092014331e+02   1.8275120385e+01    0.5869443    0.2499427  49.39  0.002686368    2.128    0.530
        70 -13.3713     53.6954    212.5344   1.1061509105e+02   2.2497323139e+01     1.689591    0.7674009  86.64  0.006498497    3.264    0.694
        71 -12.2232     43.6398    197.6062   1.1148052910e+02   2.7194554962e+01    0.7424251    0.4938366  56.81  0.003502088    1.424    0.298
        72  -9.7509     56.0716    238.6264   1.1250080853e+02   1.6510855900e+01    0.2616641    0.1792407 -42.88  0.001483514    2.041    0.510
        73 -11.0482     10.5659    235.8213   1.2149163076e+02   2.2128057877e+01    0.4000711     0.235557 -81.33   0.00250637    1.537    0.350
        74 -11.2989     43.3369    233.5397   1.1475236838e+02   1.9111910460e+01    0.4022391    0.2935863  70.89  0.001612461    1.196    0.164
        75 -10.0493     36.3122    236.2390   1.1640668566e+02   1.9349352133e+01    0.3238678    0.1467406  38.48  0.001682448    1.914    0.478
        76 -10.7343     26.7256    228.0069   1.1779738691e+02   2.2142014099e+01    0.4863876    0.2157162  62.15  0.002378225    2.181    0.541
        77 -11.3168     39.4674     44.6246   8.1567654482e+01   6.4094755526e+01    0.5545861    0.3180453  18.43  0.002266448    1.790    0.441
        78 -14.7907     14.5707    202.2426   1.1860428281e+02   2.9104501899e+01     1.994867     1.181396 -47.54   0.01080249    2.154    0.536
        79 -13.9231      4.2737    184.6818   1.1970061968e+02   3.4107308016e+01     2.793511    0.6258314 -77.45  0.009704867    3.850    0.740
        80 -14.3974     13.4340    153.8909   1.1475863140e+02   4.0957044957e+01     2.052858    0.9881592 -76.69  0.008410066    1.787    0.440
        81 -14.6789     14.9079    133.1243   1.1196245858e+02   4.6101254563e+01     2.625625     1.145828 -75.11   0.01076321    2.048    0.512
