#   1 NUMBER                 Running object number                                     
#   2 MAG_AUTO               Kron-like elliptical aperture magnitude                    [mag]
#   3 X_IMAGE                Object position along x                                    [pixel]
#   4 Y_IMAGE                Object position along y                                    [pixel]
#   5 X_WORLD                Barycenter position along world x axis                     [deg]
#   6 Y_WORLD                Barycenter position along world y axis                     [deg]
#   7 A_WORLD                Profile RMS along major axis (world units)                 [deg]
#   8 B_WORLD                Profile RMS along minor axis (world units)                 [deg]
#   9 THETA_WORLD            Position angle (CCW/world-x)                               [deg]
#  10 FWHM_WORLD             FWHM assuming a gaussian core                              [deg]
#  11 ELONGATION             A_IMAGE/B_IMAGE                                           
#  12 ELLIPTICITY            1 - B_IMAGE/A_IMAGE                                       
         1 -14.1735     68.6247    144.3829   9.8563206971e+01   3.7356210268e+01       4.2932     2.305588  77.79  0.003118919    4.169    0.760
         2 -13.5001    203.6561     41.8419   3.9381238617e+01   2.9585942643e+01     1.325302      1.21845  -2.85  0.005821383    1.425    0.298
         3 -13.5107    215.6346     30.7507   3.5510576452e+01   2.8343422082e+01    0.9846299    0.8344193  32.95  0.003212916    1.663    0.399
         4 -12.6984    241.5948      5.6976   2.8240426938e+01   2.5813037955e+01    0.7630675    0.5424597 -84.81  0.005364773    1.187    0.158
         5 -10.7143      2.3755      4.4482   8.5505956488e+01   7.4186054745e+01    0.3219734    0.1529294 -46.94  0.001821307    2.352    0.575
         6  -8.6277    168.8369    235.7796   8.8953912500e+01   6.7014175226e-01    0.1583755    0.1500133  40.63 0.0004907674    1.292    0.226
         7 -10.6436    101.9796    248.3361   1.0496407562e+02   8.4480047633e+00     0.523121    0.2097209 -65.56  0.002238374    3.272    0.694
         8 -15.1649      6.9760    157.4329   1.1795319087e+02   4.0355492162e+01     7.116726     1.317337 -74.98    0.0218225    4.515    0.779
         9 -10.4392     81.4346    182.3954   1.0128830297e+02   2.5872411068e+01    0.4554484    0.3396701  70.62  0.001839798    1.468    0.319
        10  -9.2821     99.4778    180.9263   9.6331519195e+01   2.3440376510e+01    0.2569763    0.2087632  11.51 0.0007183019    1.442    0.307
        11 -10.1393    187.0268    175.4167   7.3981670678e+01   8.9533286189e+00    0.3816356    0.3025297 -45.43  0.001343656    1.313    0.238
        12  -8.6703     87.4485    177.4275   9.8928619720e+01   2.6193244247e+01    0.1440377    0.1384163  78.86 4.284031e-05    1.008    0.008
        13 -11.4540     65.3303    172.5589   1.0411390744e+02   3.0584287507e+01    0.5070469    0.3218836 -30.05  0.002242101    2.242    0.554
        14 -11.3396     70.0026    167.8786   1.0213900633e+02   3.1134679832e+01    0.3516484    0.2869276 -32.66 0.0007583022    1.424    0.298
        15 -12.7775     78.3268    158.6242   9.8279114502e+01   3.2302890763e+01     1.901696    0.8127847  56.59 0.0007350284    4.110    0.757
        16 -12.7767     66.6552    154.7486   1.0096723046e+02   3.4952037207e+01    0.5840844    0.4189253 -49.66  0.001071917    1.369    0.269
        17  -9.6031    119.6705    245.8183   1.0090600801e+02   6.3371859101e+00    0.2406094    0.1073895 -47.20  0.001093848    2.657    0.624
        18  -9.7302     36.1879    161.3894   1.1054804935e+02   3.6849643842e+01     0.387854    0.1734986  39.23  0.001540225    2.258    0.557
        19 -10.3541     32.4960    155.2517   1.1080989664e+02   3.8777207377e+01    0.3344433    0.2281815 -74.20  0.001600852    1.290    0.225
        20 -11.4470     86.1535    152.8645   9.4978991339e+01   3.2578853803e+01    0.6358883    0.4371014 -23.76  0.001690954    1.953    0.488
        21 -10.4418    133.6579    144.1114   7.9818602689e+01   2.6165296185e+01     1.186094    0.3115554 -54.56  0.002628184    5.981    0.833
        22  -8.0230    112.2718    150.3155   8.7025686202e+01   2.8763480658e+01    0.1567145    0.1207791 -21.02  0.000263954    1.558    0.358
        23  -9.1191    174.5472    149.0584   7.0971504268e+01   1.6777628908e+01    0.2424625    0.2071139  37.30 0.0005854737    1.210    0.173
        24  -9.1872     54.3290    149.6535   1.0373338661e+02   3.7848407541e+01    0.2440945    0.1716831 -87.49  0.000942613    1.537    0.350
        25 -10.5504     54.5049    145.5269   1.0301094520e+02   3.8894174058e+01    0.3789524    0.2222411 -82.09  0.001631684    1.998    0.500
        26  -9.3565     48.7159    145.0077   1.0466108083e+02   3.9708909871e+01    0.3010792    0.2066802  10.43  0.001476617    1.844    0.458
        27 -14.7469     36.0576    192.6508   1.1397488641e+02   2.9131363077e+01      4.41165     1.739682  67.04  0.008205326    3.921    0.745
        28 -10.1836    100.8840    138.7020   8.7744101592e+01   3.3697238003e+01    0.5714934    0.3739722 -15.79   0.00221278    2.375    0.579
        29 -11.7028     87.9961    138.1792   9.1470009454e+01   3.6022651094e+01    0.3247337    0.2688039 -41.69 0.0004005245    1.197    0.164
        30 -13.5200     49.3947    187.6467   1.1019567181e+02   2.8837415167e+01     1.519585     1.079175  68.73  0.007164476    1.392    0.281
        31 -10.6642    192.9593    194.8792   7.6630972425e+01   4.1673836735e+00    0.8342634    0.4117808 -60.34  0.002486435    5.490    0.818
        32 -10.0156    105.9033    130.8844   8.4465516678e+01   3.4723448352e+01    0.4253254    0.3242929 -52.74  0.001923217    1.289    0.224
        33  -9.3852    110.4879    129.5241   8.2795680551e+01   3.4195272517e+01    0.3207848    0.2570285  -3.20 0.0007770466    1.512    0.339
        34 -10.2288     44.5742    130.4533   1.0352653128e+02   4.3924249482e+01    0.4017346    0.1639265 -64.81  0.001568211    2.210    0.548
        35 -10.2426     46.0965    124.6517   1.0199397830e+02   4.5246430325e+01    0.3342681    0.1812389 -52.50  0.001290228    1.615    0.381
        36  -9.7604    122.1458    198.5038   9.3538041760e+01   1.5592930404e+01    0.3543699    0.2586593 -76.82  0.001715744    1.739    0.425
        37  -9.9513    134.6160    128.7108   7.5860544794e+01   2.9566985134e+01    0.3421745    0.2980648  11.95  0.001066428    1.250    0.200
        38 -16.7678     15.9661    242.8307   1.2185915675e+02   2.0193339596e+01     6.530295     2.361946  24.08   0.02786858    4.122    0.757
        39 -10.3322     97.6966    125.3912   8.5612620688e+01   3.7565260718e+01    0.3315792    0.2635062   1.87   0.00107268    1.510    0.338
        40  -9.1515    116.8186    123.7716   7.9541399370e+01   3.4345809830e+01    0.2694124     0.173439  -7.83 0.0009439166    2.769    0.639
        41  -9.1223    135.0000    119.9738   7.3534132114e+01   3.1481194042e+01    0.2669269    0.0896418 -45.52 0.0007999933    2.926    0.658
        42  -9.1034    107.0454    118.5286   8.1073219263e+01   3.7497159483e+01    0.2242303    0.2034537 -37.98 0.0003428632    1.069    0.065
        43 -10.0880     22.9255    119.2482   1.0869383731e+02   4.8790094698e+01    0.2749815    0.1674444  39.14  0.001411252    1.880    0.468
        44  -8.5724     82.2381    116.8123   8.8400636990e+01   4.2314567864e+01    0.2066119    0.1728261 -17.68 0.0004828834    1.293    0.226
        45 -10.1193    231.3384    113.8269   5.2167216912e+01   1.2345977424e+01    0.2896081    0.2267962 -43.83 0.0007965165    1.110    0.099
        46 -11.0948    246.3125    113.0264   4.9818219861e+01   9.7384088991e+00    0.2800931    0.2369427  -6.28   0.00147141    1.414    0.293
        47  -9.2083    205.2521    110.2021   5.5604837045e+01   1.8198102625e+01    0.2755567    0.1994953  38.03 0.0008191412    1.596    0.373
        48 -10.0936     33.1416    109.1887   1.0347428010e+02   5.0454903972e+01    0.3054808    0.2041425 -76.72  0.000440335    1.572    0.364
        49  -9.5748     39.6887    113.1578   1.0196330416e+02   4.8834756268e+01    0.2097371    0.1904102  47.05 0.0003739332    1.258    0.205
        50  -8.7917     45.1994    105.1766   9.8370069346e+01   5.0242945042e+01    0.1838374    0.1637251  80.29 0.0004625694    1.319    0.242
        51  -9.7897    119.1362    103.8549   7.3571228614e+01   3.8441457089e+01    0.2380244    0.2209208 -86.74 0.0005995516    1.227    0.185
        52 -10.0460     38.9321    101.9410   9.9928418570e+01   5.1693453456e+01    0.3857877    0.2262175  53.92  0.001718006    2.414    0.586
        53  -9.4100    241.3239    101.6821   4.8085348780e+01   1.2542779332e+01    0.1366021   0.09269586 -64.17 0.0004673017    1.671    0.402
        54  -9.4058    120.6924     98.1805   7.1518553363e+01   3.9345145357e+01    0.2464213    0.1991046 -63.68 0.0007415586    1.440    0.306
        55  -9.0380     33.0493     96.6514   1.0095518982e+02   5.3542166327e+01    0.2285729    0.1778565 -72.46 0.0007253287    1.343    0.255
        56 -10.2413    244.2309     95.4243   4.6362200627e+01   1.3031411023e+01     0.166777    0.1245571  81.56 0.0007442764    1.640    0.390
        57  -8.8990     89.0794    210.6219   1.0332668158e+02   1.8098418305e+01    0.2226707    0.1793251 -88.98 0.0006030996    1.314    0.239
        58  -9.6653     53.3914     90.7603   9.1869684345e+01   5.2742903930e+01    0.2135961    0.1157633 -45.15 0.0007568849    1.646    0.393
        59  -8.6888    151.9636     83.9443   5.9407204139e+01   3.5124268454e+01    0.2442325    0.1850091 -77.29 0.0007600822    1.714    0.416
        60  -9.8032     72.8352     83.4594   8.2576184296e+01   5.1610247783e+01    0.3596709    0.2389863  57.55   0.00120788    2.212    0.548
        61  -8.6451    159.9715     82.9842   5.7372641824e+01   3.3418882188e+01    0.1819378    0.1752504 -50.36 0.0004803526    1.033    0.032
        62  -8.5535     93.0564     67.5159   7.0405013749e+01   5.1203689212e+01    0.2148912    0.1401961  42.32 0.0004413962    1.516    0.341
        63 -13.4458     16.7844    216.7245   1.2016975404e+02   2.5571976534e+01    0.8073738    0.5341216  30.91  0.005014147    1.672    0.402
        64  -9.9406    147.4306    187.6919   8.5481507434e+01   1.3577708069e+01    0.4926229    0.3119873 -78.52  0.001821827    3.158    0.683
        65 -10.5267     13.4170     59.8840   1.0019351640e+02   6.3436339857e+01    0.2576765    0.1946041 -51.64 0.0004226465    1.191    0.160
        66 -12.8508    194.0345     48.5750   4.2255336241e+01   3.0871614094e+01    0.9264851    0.8022916  21.23  0.001212342    1.526    0.345
        67 -11.1326     94.9465    241.9376   1.0575267731e+02   1.0675585397e+01    0.5393459    0.2076023 -58.21  0.002375423    2.856    0.650
        68 -10.3421    240.0668    169.6503   6.2579503130e+01   1.0641093526e+00    0.1842656    0.1572096  -8.45 0.0006046681    1.098    0.089
        69 -14.6859      9.3880    207.5198   1.2113063532e+02   2.8296925208e+01     1.337026     1.108796 -27.54  0.007719113    1.775    0.437
        70 -10.3591      2.2186     25.0869   9.4784076876e+01   7.0897210885e+01    0.2513703    0.1098879 -40.82  0.000646783    1.729    0.422
        71  -9.1380    198.0639     23.5382   3.5666868934e+01   3.3117822602e+01    0.2051073    0.1815076  -6.61 0.0006546829    1.519    0.342
        72  -8.9757    189.4865     14.9873   3.4525767654e+01   3.6021828697e+01    0.1726628    0.1213415 -34.51  0.000625211    1.548    0.354
        73  -9.7889    110.9221    203.1493   9.7012470885e+01   1.6402104008e+01    0.2229299    0.1804067  61.04 0.0004988497    1.299    0.230
