#   1 NUMBER                 Running object number                                     
#   2 MAG_AUTO               Kron-like elliptical aperture magnitude                    [mag]
#   3 X_IMAGE                Object position along x                                    [pixel]
#   4 Y_IMAGE                Object position along y                                    [pixel]
#   5 X_WORLD                Barycenter position along world x axis                     [deg]
#   6 Y_WORLD                Barycenter position along world y axis                     [deg]
#   7 A_WORLD                Profile RMS along major axis (world units)                 [deg]
#   8 B_WORLD                Profile RMS along minor axis (world units)                 [deg]
#   9 THETA_WORLD            Position angle (CCW/world-x)                               [deg]
#  10 FWHM_WORLD             FWHM assuming a gaussian core                              [deg]
#  11 ELONGATION             A_IMAGE/B_IMAGE                                           
#  12 ELLIPTICITY            1 - B_IMAGE/A_IMAGE                                       
         1 -12.3346    225.2682     29.6203   3.6555324898e+01   2.6449072833e+01     1.603514    0.8521966  44.35  0.004790822    3.133    0.681
         2  -9.8153      1.7469     10.1526   8.9410777411e+01   7.3300690785e+01    0.3821178   0.07358524 -47.18  0.001537679    4.109    0.757
         3  -8.9144      2.0000      3.1003   8.5900270254e+01   7.4310448766e+01    0.3025202    0.1161231 -42.11  0.001669012    2.299    0.565
         4 -11.4394    244.1721     13.4746   3.1746737396e+01   2.4495227801e+01    0.6511258    0.4348089 -65.06  0.002827569    1.174    0.148
         5  -8.7964    102.0176    240.0080   1.0421100834e+02   1.0354156614e+01    0.1594728    0.1376837  54.44   0.00102187    1.030    0.029
         6 -11.2286     59.1965    245.9549   1.1358884809e+02   1.5165396976e+01    0.6692023    0.5856387  67.61  0.001905015    1.144    0.126
         7 -11.6239     69.7631    247.2676   1.1158685060e+02   1.3517204701e+01     1.028889     0.515956  34.58  0.005368232    1.877    0.467
         8 -10.1247     33.0831    248.6365   1.1884685972e+02   1.7827861975e+01    0.4894936    0.3272101  29.35  0.003106338    1.773    0.436
         9  -9.9047     15.1295    249.4423   1.2221175806e+02   1.9645351563e+01    0.3489486    0.2305214  28.90 0.0009984102    1.859    0.462
        10 -12.7799      2.9051    240.0922   1.2398087751e+02   2.2716395923e+01      6.11943    0.3808446 -78.65   0.01161791   18.697    0.947
        11 -10.4705      9.6003    244.0740   1.2295026969e+02   2.1265061137e+01    0.5480471      0.21086  88.07  0.002748306    2.534    0.605
        12 -11.4992     11.4936    233.0980   1.2203909819e+02   2.3282088349e+01    0.7357866    0.3225283  85.66  0.003407913    2.134    0.531
        13 -12.1630     10.3963    206.7212   1.2072645310e+02   2.9037420408e+01    0.8398445    0.6326497  39.27  0.003465175    1.440    0.305
        14  -9.3871     85.1273    233.7016   1.0709493118e+02   1.4078729830e+01    0.3508273    0.1793689 -82.70  0.001312656    2.686    0.628
        15  -8.9211    135.0000    231.9768   9.6188110179e+01   6.8020091292e+00    0.1983296   0.07632071 -53.81  0.000796647    2.961    0.662
        16 -10.6532    114.9500    230.6900   1.0032592139e+02   1.0203070204e+01    0.3896552    0.2622906  61.23  0.002067616    1.603    0.376
        17  -8.5389     58.5724    231.0724   1.1245529988e+02   1.8267073265e+01     0.279529    0.1098676 -66.73  0.001278603    2.563    0.610
        18  -8.4489    124.3331    229.3217   9.8116327062e+01   8.9980751019e+00    0.1304785     0.102274  -2.53 0.0007049881    1.702    0.412
        19  -9.5664     99.4703    229.3153   1.0351300947e+02   1.2854205911e+01    0.3536113    0.1207111  30.54  0.001234423    3.509    0.715
        20  -9.8732     85.7878    223.0855   1.0578287536e+02   1.6185908665e+01    0.5131956    0.3374963 -85.42  0.001933051    1.713    0.416
        21  -7.8565    113.3214    246.3633   1.0258236487e+02   7.4694460413e+00    0.1225447   0.09694187  -5.73 0.0007040887    1.781    0.438
        22  -8.9921     74.7811    220.5736   1.0793580246e+02   1.8305957512e+01    0.3151588   0.08310953  42.49  0.001146397    3.047    0.672
        23  -8.8233     43.0493    218.1723   1.1463122578e+02   2.2981547373e+01    0.2187469    0.1546898  83.44 0.0003784882    1.262    0.208
        24  -8.1981     17.0000    218.9086   1.2013230134e+02   2.5713201077e+01    0.1911339   0.05846719 -76.84 0.0008047615    2.959    0.662
        25  -9.9277     59.0087    211.7924   1.1053404169e+02   2.2392431456e+01    0.6198961    0.2161667  52.09  0.002404899    2.894    0.654
        26 -11.0968     20.6193    206.3932   1.1853259000e+02   2.8104258454e+01    0.3720707    0.3163453 -57.98 0.0007994332    1.458    0.314
        27  -7.6342     49.4704    237.5010   1.1486464660e+02   1.8095236101e+01    0.1198718    0.1011867  66.45 0.0003874114    1.093    0.085
        28  -9.5186      8.4390    189.0124   1.1997251415e+02   3.3243955561e+01       0.4295   0.08858361  46.60  0.001600293    3.861    0.741
        29  -9.9121     51.6706    179.1395   1.0867795696e+02   3.1026052872e+01    0.3952076    0.2826585 -31.50  0.002021102    1.993    0.498
        30  -9.9256     58.2669    173.2975   1.0624657471e+02   3.1621757677e+01     0.312291    0.2693731 -29.35 0.0008231929    1.475    0.322
        31 -11.2484      1.7919    161.3734   1.1947706048e+02   4.0324956723e+01     1.283067    0.1101331 -74.58  0.003182833    7.331    0.864
        32 -11.3540      2.3686    111.2761   1.1423981127e+02   5.2436422411e+01      1.12325    0.2201675 -72.84  0.003542322    4.391    0.772
        33 -12.8003     31.9099    196.6390   1.1525046140e+02   2.9145377057e+01     1.700006     1.294862  67.75   0.01056427    1.133    0.117
        34 -11.4732     55.7253    159.9620   1.0507900396e+02   3.5287596252e+01    0.5265449    0.3233612 -40.42  0.001478166    2.023    0.506
        35 -10.6844     77.4061    156.9679   9.8624845806e+01   3.3009949821e+01    0.6029391    0.4941814 -18.69  0.001836174    1.586    0.370
        36  -8.5568     32.5219    157.0004   1.1102347608e+02   3.8709691380e+01    0.2119095    0.1163262 -70.80  0.000698438    1.587    0.370
        37  -8.5325     22.4268    157.2321   1.1376483258e+02   3.9634063058e+01    0.1915136    0.1091736 -87.29 0.0009510652    1.654    0.395
        38 -10.8270     69.8228    146.1764   9.8894774026e+01   3.6859605423e+01    0.7776273    0.4022963 -65.76  0.002885352    1.897    0.473
        39 -10.7978     67.5974    142.7524   9.8932459608e+01   3.8046337342e+01    0.5162284     0.392656  65.04  0.001601279    1.425    0.298
        40 -10.2816     81.1906    141.4972   9.4730083970e+01   3.6321040217e+01    0.3392927    0.2706971 -48.25 0.0004328532    1.260    0.206
        41  -7.9872     93.2828    142.9900   9.1555923281e+01   3.3956029973e+01    0.2212876    0.1901893 -60.59 0.0006387195    1.123    0.109
        42 -11.4646      2.2981    129.5325   1.1639871788e+02   4.8020217581e+01     1.140215    0.2311748 -77.00   0.00334881    5.071    0.803
        43  -7.6369    151.7287    132.9937   7.3912134740e+01   2.4891335216e+01    0.2067277     0.134145 -46.45 0.0005959487    1.512    0.339
        44  -8.9886    106.3072    131.2363   8.5330182720e+01   3.4509425824e+01    0.3518367    0.3005104 -53.68  0.001298103    1.142    0.124
        45  -8.1024     32.7984    130.3826   1.0734069769e+02   4.5373319901e+01    0.2672303    0.1000655 -70.72  0.001020006    2.524    0.604
        46  -8.8538     93.5109    127.9060   8.8267119844e+01   3.7645900434e+01     0.277669    0.2341236  -8.26 0.0006730441    1.455    0.313
        47  -9.4795     69.7406    163.5433   1.0179489674e+02   3.2485519074e+01    0.2728365     0.258103  21.52 0.0004303501    1.228    0.186
        48  -8.9737    246.5632    121.2644   5.3553241647e+01   8.0743023520e+00    0.2953636    0.1617882 -62.53   0.00127696    2.670    0.625
        49  -8.0539    104.3836    120.0230   8.3242633761e+01   3.7562095071e+01    0.2133617    0.1861792 -52.50    0.0010845    1.116    0.104
        50  -9.6380     56.3824    119.1421   9.7887084336e+01   4.5513872914e+01    0.4596229    0.2749434  62.73  0.001965921    2.325    0.570
        51  -8.2581    205.3304    110.5304   5.7607291497e+01   1.7962644161e+01    0.2533884    0.2068958 -88.50  0.001212807    1.405    0.288
        52  -9.9663      2.4037     70.2031   1.0758341865e+02   6.1920587952e+01    0.5499497    0.1259461 -70.36  0.001652321    5.572    0.821
        53 -10.2693      1.8147     87.4687   1.1097274466e+02   5.8074383205e+01    0.6208299    0.1339768 -69.51  0.002126004    3.899    0.743
        54  -8.0111    163.3153     83.3263   5.8674982423e+01   3.2474698232e+01    0.1483472    0.1201795  13.93 0.0005205097    1.670    0.401
        55  -8.6095     13.3895     59.9791   1.0050788988e+02   6.3438578273e+01     0.251844    0.1003353 -58.84 0.0007399847    2.156    0.536
        56  -8.6362     21.6599     49.8313   9.3836035007e+01   6.4824695260e+01    0.2842864    0.1215146 -44.69  0.001316056    1.939    0.484
        57 -10.6306     83.3243    245.3701   1.0866021498e+02   1.2022248942e+01    0.4227822    0.3264202  75.76  0.002699733    1.269    0.212
        58  -9.3902      2.3074     42.2846   1.0082668709e+02   6.7690116891e+01    0.3463833   0.06877562 -51.39  0.001425554    3.039    0.671
        59  -8.7083     28.6286    244.4544   1.1943220560e+02   1.9158298650e+01    0.1800402   0.09661214 -79.41  0.001056487    1.782    0.439
        60 -12.2493     12.0248    157.9522   1.1657512066e+02   4.0360561438e+01     2.963419     1.001747  79.81  0.007802621    6.999    0.857
        61  -7.9418     33.0000     20.0590   7.6980575801e+01   6.8644189437e+01    0.1862263   0.06096865 -39.59 0.0008059543    2.967    0.663
