#   1 NUMBER                 Running object number                                     
#   2 MAG_AUTO               Kron-like elliptical aperture magnitude                    [mag]
#   3 X_IMAGE                Object position along x                                    [pixel]
#   4 Y_IMAGE                Object position along y                                    [pixel]
#   5 X_WORLD                Barycenter position along world x axis                     [deg]
#   6 Y_WORLD                Barycenter position along world y axis                     [deg]
#   7 A_WORLD                Profile RMS along major axis (world units)                 [deg]
#   8 B_WORLD                Profile RMS along minor axis (world units)                 [deg]
#   9 THETA_WORLD            Position angle (CCW/world-x)                               [deg]
#  10 FWHM_WORLD             FWHM assuming a gaussian core                              [deg]
#  11 ELONGATION             A_IMAGE/B_IMAGE                                           
#  12 ELLIPTICITY            1 - B_IMAGE/A_IMAGE                                       
         1 -11.6452      6.2655     33.6079   9.0652241682e+01   6.9409542885e+01    0.9346597    0.8009632 -15.51  0.006742459    1.211    0.174
         2 -11.9581    107.9807     63.3407   5.9226415348e+01   4.8639193132e+01     2.171419     1.338102   2.14  0.008267913    3.024    0.669
         3 -11.7822     18.2773     52.9072   9.0944004063e+01   6.4862271045e+01     1.232424     0.649319 -70.31   0.00369461    3.650    0.726
         4 -10.6536     57.5046     15.6740   5.7580675868e+01   6.5277478524e+01    0.7990272    0.5172108  -2.14  0.003024053    1.675    0.403
         5 -11.7505     58.0853     49.9034   7.1563521307e+01   6.0494833072e+01     1.025437    0.8419734 -57.62   0.00318394    1.723    0.419
         6 -12.7248     62.2388     30.3805   6.2133548979e+01   6.2690430713e+01     2.395816     1.592591  -7.37    0.0131967    1.650    0.394
         7 -12.6845     95.2025     44.0252   5.6341485623e+01   5.4353868850e+01     1.809683     1.523466  88.57   0.01016598    1.600    0.375
         8 -11.9367    150.6858     48.1451   4.4757363480e+01   4.1088330715e+01     1.110149    0.6401359 -17.06   0.00254502    2.624    0.619
         9 -10.9371     83.0095     30.7664   5.5114127950e+01   5.8630750864e+01    0.7451629    0.4621373  13.15  0.002635239    2.069    0.517
        10 -13.2375    242.9719     13.6442   2.6544800678e+01   2.5401452594e+01     1.976531    0.9058701 -49.82   0.01190144    1.720    0.419
        11 -10.0970     38.3432     23.7532   6.9443712266e+01   6.7456207310e+01    0.5077354     0.418463  21.30  0.003416616    1.215    0.177
        12 -10.7054     44.5004     18.8520   6.4367049986e+01   6.7141432009e+01    0.5771368    0.3644351  30.49  0.002506841    1.343    0.255
        13  -9.8850     38.0109     15.6073   6.5797851934e+01   6.8538972101e+01    0.3227595    0.2225317 -31.85  0.001351537    1.634    0.388
        14  -9.5312     92.0193     17.3142   4.7424977550e+01   5.8180658561e+01    0.4989839    0.2775757  -4.60  0.002410987    2.507    0.601
        15  -8.8000     92.1695      3.8855   4.2356055610e+01   5.9300511737e+01    0.1676798    0.1427101  56.09 0.0002322019    1.084    0.078
        16  -8.3777      7.3334    175.3141   1.1595212308e+02   3.5777817788e+01    0.1331202   0.08658416 -47.10 0.0004751604    1.684    0.406
        17  -9.2700    206.8187    250.6035   7.8358918161e+01  -7.4237674347e+00    0.1672198    0.1015969  32.91 0.0008220739    1.680    0.405
        18  -9.3816    215.0543    249.3048   7.6549013817e+01  -8.2274014518e+00    0.1764772    0.1333442   5.94 0.0007849943    1.087    0.080
        19 -10.3103    194.1353    250.1874   8.0820922537e+01  -5.7631753982e+00    0.3978826    0.1510645  32.35  0.001793086    2.384    0.581
        20 -10.2060    188.4789    249.4499   8.1856629454e+01  -4.9104638491e+00    0.2914168     0.206074   8.62  0.001370727    1.234    0.190
        21  -9.8894    154.7896    249.4061   8.8982950445e+01  -2.8598494683e-01    0.2607712     0.119414  26.81  0.001095108    2.026    0.506
        22  -9.8156     20.3914    172.2783   1.1221916154e+02   3.5484714087e+01    0.2492915    0.1400699  49.16  0.001211065    1.837    0.456
        23 -10.2084      7.6324    166.7343   1.1512837894e+02   3.7934342210e+01    0.3194777    0.1849257  16.08  0.001633613    2.126    0.530
        24 -10.8740      5.5490    159.3503   1.1501938156e+02   3.9972499318e+01    0.5102527    0.3088028 -48.39  0.002690382    1.675    0.403
        25  -8.5734    236.6628    146.6858   5.3527363190e+01   6.2694628528e+00     0.133433   0.09551149 -12.33 0.0007046943    1.694    0.410
        26  -9.8666      1.8034    144.7407   1.1467360259e+02   4.3964721909e+01    0.4095964    0.1974377 -85.09  0.001872527    1.965    0.491
        27  -9.9557     36.2550    144.1447   1.0403790904e+02   4.1398396604e+01    0.2166718    0.2049351  51.85  0.001273161    1.155    0.134
        28  -8.9271     29.4659    143.4919   1.0608219979e+02   4.2219855798e+01    0.1427779     0.124359 -63.39 0.0001973164    1.025    0.024
        29  -8.5250     48.9778    139.2220   9.9140748615e+01   4.1329637248e+01    0.1948982    0.1831116 -53.38            0    1.035    0.034
        30  -8.9075     15.4781    136.3580   1.0952670776e+02   4.5237087066e+01    0.2995057    0.1885552  85.27  0.001473731    1.736    0.424
        31  -9.6278     24.7657    134.4977   1.0627800418e+02   4.4999131683e+01    0.3044006    0.2066721  75.93 0.0006520417    1.734    0.423
        32  -9.9311      8.5571    131.6323   1.1113042122e+02   4.6930490247e+01     0.308846    0.2618599 -62.56 0.0006891316    1.039    0.037
        33  -8.6054     61.8242    132.7863   9.3685706342e+01   4.1415422503e+01    0.1996719    0.1745345  79.11 0.0002134228    1.295    0.228
        34  -8.9686     43.5167    132.3172   9.9710748474e+01   4.3768953548e+01    0.2671342    0.2015446 -61.57 0.0005688965    1.198    0.166
        35  -9.1176     73.5625    130.2888   8.9271729576e+01   4.0388491034e+01    0.2483519     0.237926  35.97 0.0003037094    1.107    0.097
        36  -9.9190     30.6318    132.9503   1.0411276293e+02   4.4892062185e+01    0.3117656    0.2376291 -81.61 0.0001169115    1.315    0.240
        37  -9.2869     83.0400    129.3748   8.5973236855e+01   3.9132195865e+01    0.2616222     0.217279 -50.15 0.0004572294    1.152    0.132
        38  -7.8772     13.6890    129.2776   1.0915953934e+02   4.7202495920e+01    0.1315899   0.09642451  66.29  0.000232799    1.560    0.359
        39 -10.2904      3.7250    124.9011   1.1185644042e+02   4.8943248633e+01    0.3173567    0.2551436 -72.59 0.0009324066    1.073    0.068
        40  -8.8939      9.7759    125.4205   1.0992787649e+02   4.8454068238e+01    0.2604924    0.1988081 -49.98  0.001422288    1.180    0.152
        41 -10.9694     43.3467    122.5507   9.7936235078e+01   4.6338800210e+01    0.4205356    0.2670895 -69.85  0.000208929    1.594    0.373
        42  -9.9581     46.5502    116.0320   9.5472710909e+01   4.7656602630e+01    0.4161957    0.2877057   6.21 0.0008640187    1.680    0.405
        43 -10.6008     46.7170    109.8715   9.4068631018e+01   4.9194722673e+01    0.5321354    0.3064083 -68.22  0.002004214    1.911    0.477
        44 -10.8822     41.0791    109.8670   9.6147874851e+01   4.9823164883e+01    0.5915857     0.307528 -42.37  0.001233032    1.805    0.446
        45  -9.2429     76.5598    120.8504   8.6104769531e+01   4.2331929489e+01    0.3782761    0.2685889 -77.47  0.001572265    1.838    0.456
        46  -9.4012     34.4718    122.0285   1.0094193515e+02   4.7383993883e+01    0.2509968    0.1550637 -47.92  0.001204822    1.445    0.308
        47  -9.0207     89.3323    120.3409   8.1767250102e+01   4.0334867842e+01    0.2997764    0.2223615  76.05 0.0007984926    1.960    0.490
        48  -9.4296     10.6063    119.8811   1.0887747381e+02   4.9821782868e+01    0.3326451    0.1627699 -58.92  0.001573735    1.622    0.384
        49  -9.1674    108.0003    119.9980   7.5848081372e+01   3.6966562774e+01    0.2301662    0.2203731 -19.56            0    1.020    0.019
        50  -8.5414     70.3887    119.7698   8.7939240625e+01   4.3552700721e+01    0.2159809      0.13251 -45.90 0.0003725659    1.534    0.348
        51 -11.2221      3.8810    113.7328   1.1033070026e+02   5.1767800165e+01    0.7367029    0.2962374 -60.81 0.0009769719    1.874    0.466
        52  -9.8835      3.4846    102.8890   1.0887511074e+02   5.4491643352e+01    0.5407776    0.3076465  65.50  0.002527683    2.535    0.606
        53  -9.1951      4.9128     97.5589   1.0747446009e+02   5.5726547926e+01    0.3289606    0.1727753 -50.14 0.0003644302    1.515    0.340
        54  -8.3825     21.2510    112.6093   1.0396544028e+02   5.0938998300e+01    0.2657632    0.1409354  14.71  0.001177915    2.177    0.541
        55  -8.8668     27.1686    113.8190   1.0203768575e+02   5.0154291296e+01    0.3199068    0.1891976 -37.63 0.0006772296    1.657    0.396
        56  -9.4063     25.4958    109.7442   1.0189152786e+02   5.1327307321e+01    0.3682895    0.2718941  62.24  0.001351035    1.725    0.420
        57  -8.4024     32.9218    112.5176   9.9695288946e+01   4.9970941653e+01    0.1898555    0.1403354   7.47 0.0005891353    1.514    0.340
        58  -8.6515     82.1334    110.9184   8.1744058984e+01   4.3869401180e+01    0.2389973    0.1772639 -18.23 0.0004687039    1.560    0.359
        59  -8.4217    105.5485    110.5374   7.4097523167e+01   3.9664568777e+01    0.1570627    0.1501964 -14.73 9.902532e-05    1.017    0.017
        60  -8.9307     98.7969    109.3819   7.5883891081e+01   4.1237186970e+01    0.2194021    0.1483706  26.09 0.0004563991    1.625    0.385
        61  -9.5141     66.0458    108.8601   8.6805965880e+01   4.6910029823e+01    0.2817357    0.2075069  -4.11 0.0008887607    1.590    0.371
        62  -8.6814     89.9075    107.8690   7.8342186548e+01   4.3237505219e+01     0.228041    0.1994611  -7.23  0.001151844    1.186    0.157
        63  -9.6611     77.5106    107.3495   8.2387873274e+01   4.5496115858e+01    0.4812302    0.2458101 -52.63   0.00191228    1.919    0.479
        64 -10.4863     80.3530    100.1242   7.9445232773e+01   4.6718346072e+01    0.3856729    0.2919175  19.68 0.0004682534    1.397    0.284
        65  -9.7094     75.1626     98.9966   8.0950736310e+01   4.7847101120e+01    0.4814515    0.3268697 -57.08  0.002214371    1.583    0.368
        66 -10.0194     58.9328    107.9163   8.9134531820e+01   4.8145006953e+01      0.45535    0.1989977  33.27  0.001763024    2.357    0.576
        67 -10.4954     12.8535    112.7910   1.0702027899e+02   5.1482544940e+01    0.5477099    0.2269421 -46.04  0.002370742    2.092    0.522
        68  -9.7293     12.1574    105.7174   1.0611535550e+02   5.3303304539e+01    0.3721525    0.2598813 -23.46  0.001453891    1.501    0.334
        69  -9.9628    114.1205    104.8125   6.9964965963e+01   3.9228897025e+01    0.3701745    0.2449526   7.99  0.001199086    2.403    0.584
        70 -10.1162     64.8861    102.9047   8.5699536940e+01   4.8522172816e+01    0.5420094    0.3216935 -37.61  0.002370277    1.686    0.407
        71  -9.0483     70.1047    103.2469   8.3906686494e+01   4.7654736809e+01    0.3432078    0.2524215 -83.56 0.0005895782    2.008    0.502
        72  -9.0268     36.0106    105.0770   9.7010135307e+01   5.1542514787e+01    0.2654543    0.1988463  -4.57   0.00121956    1.461    0.315
        73 -11.8758     46.3848     96.4848   9.1012974206e+01   5.2511253561e+01     1.601154     0.787213 -71.62  0.005678082    3.284    0.695
        74 -10.1872     72.3283     76.0976   7.5133809409e+01   5.3294483027e+01    0.6700482    0.4140405  13.06   0.00245868    2.071    0.517
        75 -10.9324     48.8451     85.3714   8.7080805506e+01   5.4791894315e+01    0.4469441    0.3999607 -30.91  0.001860878    1.055    0.053
        76 -11.5786     51.4442     80.7091   8.4687587646e+01   5.5490413905e+01     1.264417    0.6009279 -53.50  0.004340617    2.119    0.528
        77 -10.9769     66.7038     81.9052   7.9066769011e+01   5.3010975688e+01      1.79295    0.8071718  52.98  0.005358147    4.810    0.792
        78  -8.6719    145.0005    103.0126   6.1230924718e+01   3.2943869974e+01    0.2312903    0.2245324 -41.58 0.0003810064    1.019    0.019
        79  -9.7739     96.5350    102.0344   7.4579460610e+01   4.3351661104e+01    0.3350922    0.2696843 -24.88 0.0008003467    1.299    0.230
        80  -9.1601     97.7737     98.1811   7.3089254834e+01   4.3973110820e+01    0.2476255    0.2289294  -0.35 0.0006174557    1.068    0.063
        81  -8.2353     29.1881    103.6039   9.9292082495e+01   5.2548493651e+01    0.1899925    0.1274876  -5.25 0.0009494509    1.702    0.413
        82 -10.2610    112.5306     99.4932   6.8938960781e+01   4.0718869645e+01    0.3399363    0.2621303 -23.58 3.715889e-05    1.438    0.305
        83 -10.2026    119.7053     99.1543   6.6777866893e+01   3.9280545704e+01    0.3006279    0.1949372 -38.32  0.001304743    1.571    0.363
        84  -8.5471     14.8541     99.8939   1.0406355984e+02   5.4571887105e+01    0.2095093    0.1479498 -46.16 0.0004462704    1.193    0.162
        85  -9.6505     10.8304     97.5008   1.0518000089e+02   5.5411753815e+01    0.2900156    0.2030764 -14.07 0.0005506821    1.535    0.348
        86  -9.2422     15.5140     94.9582   1.0286230111e+02   5.5732612048e+01    0.2434611    0.1876617 -11.48 0.0006043259    1.362    0.266
        87  -9.6126    130.8704     99.1791   6.3746880241e+01   3.6857263503e+01     0.239035    0.2172501 -84.60 0.0008568506    1.234    0.189
        88  -9.0044     34.0371     99.0929   9.6446412344e+01   5.3209077699e+01    0.2106608    0.1839743 -38.54 0.0003300395    1.012    0.012
        89 -10.1465    105.5754     97.7043   7.0513887932e+01   4.2531415491e+01    0.5135424    0.3124063 -27.69  0.001891529    2.025    0.506
        90 -11.1690    116.5101     88.4654   6.4595592847e+01   4.2168729812e+01    0.8002741    0.3482407 -36.74  0.002765395    2.521    0.603
        91 -11.0964    110.7634     93.3180   6.7682929639e+01   4.2397101828e+01    0.7339343    0.3760566  55.38  0.001490723    2.487    0.598
        92  -9.8516    108.3979     89.7439   6.7334522360e+01   4.3630179251e+01    0.3462238    0.2703835   1.16 0.0005472926    1.555    0.357
        93 -10.9490    106.7817     85.9001   6.6668310742e+01   4.4746705621e+01    0.5191252    0.2972338  43.42 0.0002774168    1.718    0.418
        94  -8.5829     62.3250     97.8104   8.5291335472e+01   5.0102975919e+01    0.2924517    0.1382514 -61.78  0.001063354    2.639    0.621
        95  -9.4519     39.4748     95.9392   9.3579753824e+01   5.3418811544e+01    0.4537464    0.2812532 -80.92  0.001743674    2.432    0.589
        96  -9.5939     22.3164     96.9290   1.0057310153e+02   5.4760516218e+01    0.2686824     0.191312  16.84  0.000696824    1.553    0.356
        97  -9.0101     65.0018     94.1919   8.3303836124e+01   5.0549850367e+01    0.2467192    0.2155786 -61.23 0.0004770472    1.281    0.219
        98  -8.8493     31.4196     93.8944   9.6290133150e+01   5.4714870665e+01    0.3957333    0.2540044  76.67   0.00170681    2.750    0.636
        99  -9.3995     84.0140     93.5572   7.6308949864e+01   4.7560819504e+01    0.4867859    0.1900659  46.31  0.001611593    3.049    0.672
       100  -9.3802    134.0982     93.4719   6.1318415111e+01   3.7302525589e+01      0.23824    0.1495076  47.97  0.001030429    1.587    0.370
       101  -9.5655     97.9516     85.1385   6.9167728106e+01   4.6704568600e+01    0.4847976    0.2291498 -35.59  0.001115081    2.345    0.574
       102 -10.1906     98.9686     91.7870   7.0845260636e+01   4.5121735451e+01    0.4860896    0.2411934  36.11  0.001122483    2.086    0.521
       103  -9.2194     96.8164     89.3801   7.0814550102e+01   4.6053823402e+01    0.3331661     0.272639  10.90 0.0005882244    1.318    0.241
       104 -11.1040     62.0323     83.8669   8.1445925861e+01   5.3306629606e+01    0.7227334    0.5808555 -88.00  0.003612645    1.891    0.471
       105 -10.3672     72.4245     88.9444   7.9058052835e+01   5.0565185986e+01    0.4134988    0.3426889  67.40  0.001525549    1.636    0.389
       106  -9.3958     16.4874     88.6483   1.0117735839e+02   5.7179371166e+01    0.3262946    0.1921083 -67.49 0.0009348134    1.662    0.398
       107  -8.9767     15.1949     84.6279   1.0084490524e+02   5.8214574895e+01    0.3216766    0.1764531 -10.85  0.001551475    2.092    0.522
       108  -9.6110    121.5773     87.1877   6.2811312248e+01   4.1319613289e+01    0.2990159      0.24885  83.54  0.001055745    1.497    0.332
       109 -10.1701      6.9795     87.9206   1.0492408338e+02   5.7936884640e+01    0.2107207    0.1885362  -9.62 0.0003517506    1.225    0.183
       110  -9.2645    174.9320     86.4255   5.0499184416e+01   2.9391403622e+01    0.4599538    0.2146583  40.69            0    2.833    0.647
       111 -10.1225    139.7190     83.0579   5.6995554318e+01   3.8031346287e+01    0.6697055    0.3040176 -41.88  0.002489503    2.221    0.550
       112 -10.3103    115.3134     80.4178   6.2524614611e+01   4.3995713952e+01    0.6665726     0.340504  49.08  0.002690886    1.944    0.486
       113 -10.9897    115.1785     73.6458   6.0484228045e+01   4.5275770826e+01    0.7695816    0.5303194  64.72  0.003530234    1.757    0.431
       114 -10.4696    128.2190     80.1070   5.8972269530e+01   4.1188984167e+01    0.6166909    0.3950893  41.74 0.0006341909    1.567    0.362
       115 -10.5938    126.8047     74.6203   5.7701995785e+01   4.2501652903e+01      0.74502    0.3067438  46.48  0.002755858    2.347    0.574
       116 -11.4894    149.7734     67.1606   5.0278276754e+01   3.8457077988e+01    0.7596656    0.6893816 -78.27  0.003896734    1.117    0.105
       117 -10.5182    137.0057     77.3904   5.6015851353e+01   3.9680673039e+01    0.6224827    0.3543735  69.82 0.0008443326    2.537    0.606
       118 -11.8634    139.7474     72.3656   5.3926924180e+01   3.9925050031e+01    0.8525038    0.4564324  54.28   0.00102723    1.816    0.449
       119  -9.6381    162.0042     84.3376   5.2464149748e+01   3.2691535260e+01    0.4017755    0.2496309  85.23  0.001387511    2.619    0.618
       120  -9.2864    145.2503     83.2806   5.5773193175e+01   3.6724011312e+01    0.2481792    0.2270196  19.88 0.0005510318    1.206    0.171
       121  -8.7942     88.4638     84.0195   7.1929143833e+01   4.8779290230e+01      0.24694    0.1876737  27.35  0.001216328    1.319    0.242
       122 -10.6844    165.7254    248.8864   8.6544343609e+01  -1.7322479364e+00    0.4301112    0.1683095  31.68  0.001861988    2.244    0.554
       123  -9.2149    132.7436    246.4930   9.3434961987e+01   3.4106859302e+00    0.2890047    0.1712452  80.10 0.0009022543    6.137    0.837
       124 -11.4286    119.0520     62.0288   5.5814416446e+01   4.6391975500e+01    0.9777618    0.7547782 -30.72  0.003264008    1.388    0.279
       125 -10.8282     61.7833     63.9094   7.5125160147e+01   5.7409546470e+01     1.048435    0.7191759  29.31  0.004363259    1.410    0.291
       126  -9.9788    198.2412    245.3188   7.9209626551e+01  -5.5234045127e+00    0.3024331    0.1806324  12.92  0.001640717    1.606    0.377
       127 -10.3572      9.0953     44.0342   9.2754387041e+01   6.7289258459e+01    0.4400026    0.3249356 -71.84  0.002630169    2.003    0.501
       128 -11.0512     87.9010     47.0878   5.9675696113e+01   5.5441005301e+01    0.6706093    0.3490836  39.47 0.0007679356    1.795    0.443
       129 -11.8923     34.8790     71.5972   8.8970746428e+01   5.9443459606e+01     1.612262    0.8439335 -24.82  0.007154956    2.174    0.540
       130 -11.2421     29.1462     62.0489   8.8641618909e+01   6.2029885409e+01    0.7374988    0.3513732 -40.63  0.003502034    1.825    0.452
       131 -10.4664     70.5763     40.6053   6.3138747378e+01   5.9769014315e+01    0.5519261    0.3107619  33.31  0.001666646    1.667    0.400
       132 -12.1971    178.6086    241.4395   8.2636672179e+01  -2.2507466112e+00    0.8003026    0.5192439  19.10  0.004413591    1.397    0.284
       133 -11.8693     39.4576     61.2871   8.3688334858e+01   6.1044836849e+01    0.6222461    0.3516967  19.99 -4.002671e-05    1.797    0.443
       134 -10.9668     42.2982     54.0924   7.9917194735e+01   6.2061763269e+01    0.7688829    0.3946952   9.96  0.003105991    2.612    0.617
       135 -10.1592    245.6945    241.8698   6.9684003631e+01  -1.0619848824e+01    0.2578258    0.1376562 -34.96   0.00114926    1.654    0.396
       136  -8.4932    200.8067    240.6979   7.7935046640e+01  -5.1169389953e+00    0.1995302    0.1335132   7.93  0.000480426    1.370    0.270
       137  -8.8927     81.3681     63.7759   6.7767975042e+01   5.4014431977e+01    0.3657809    0.2672763 -56.92   0.00181312    1.804    0.446
       138 -11.5011     81.6689     55.6769   6.4828976672e+01   5.5344101779e+01    0.6628308    0.5405747 -28.89 0.0005402169    1.263    0.208
       139  -8.2431      5.0371     74.8845   1.0308147089e+02   6.1063101208e+01    0.2614009    0.1301624  34.88  0.001269861    2.525    0.604
       140  -9.7945      8.6599     79.6672   1.0254115920e+02   5.9773330448e+01    0.4925943    0.1966328 -16.03  0.001917656    3.397    0.706
       141  -9.3274      9.5025     76.4758   1.0147199796e+02   6.0454363377e+01    0.2564745    0.2360733 -28.10 0.0008706123    1.162    0.139
       142  -8.7820      1.8365     80.8616   1.0569393774e+02   5.9849739609e+01    0.1988822    0.1394505 -42.67  0.000456043    1.157    0.136
       143  -9.8981    163.8324     74.7611   4.9569973364e+01   3.3936486658e+01    0.4764789    0.2584979  68.19   0.00197357    2.194    0.544
       144 -10.3768    167.9534     68.4429   4.7145766424e+01   3.4024574334e+01    0.4915672    0.1916002  66.21  0.001666558    3.342    0.701
       145 -11.2574    171.4050     76.9594   4.8732812512e+01   3.1830438661e+01    0.5325391    0.4663154  31.83  0.001913104    1.348    0.258
       146  -8.1868     44.5898     80.7161   8.7493045055e+01   5.6356734695e+01    0.1525165   0.09556473 -17.73 0.0003562757    1.805    0.446
       147  -8.9223    157.9218     77.4034   5.1437187492e+01   3.4849581988e+01    0.3057125    0.2228791 -71.75  0.001467909    1.647    0.393
       148  -9.2379     16.3562     74.9557   9.8090727469e+01   6.0350801109e+01    0.3986233    0.2577807  59.22  0.001948115    2.571    0.611
       149 -10.0722    187.3045     73.1961   4.5089688141e+01   2.8875819757e+01     0.326264    0.1127604 -40.68  0.001200259    2.685    0.628
       150 -10.7707    193.3318     71.6986   4.3801251154e+01   2.7789618391e+01    0.3118388    0.2028455 -69.74  0.001534931    1.749    0.428
       151 -10.8890     10.5665     68.0452   9.8982781447e+01   6.2269560700e+01    0.5378879    0.3019131 -24.91  0.001155051    1.696    0.410
       152  -9.3440    181.7465     71.2507   4.5505615083e+01   3.0430789773e+01    0.1807247    0.1643146  33.02  0.001048715    1.329    0.247
       153  -8.8345     18.9731     70.8157   9.5857988487e+01   6.1074267302e+01    0.3477305    0.1904696  47.48  0.001503227    2.897    0.655
       154  -9.2579     18.0954     65.9309   9.4934039206e+01   6.2199172579e+01    0.3274531    0.1750221 -32.35  0.001219264    1.687    0.407
       155  -8.3036      1.6267     71.7123   1.0390685064e+02   6.1945527464e+01    0.1398753   0.07006002 -34.92 0.0007019836    1.718    0.418
       156  -8.7333    220.9451    239.3058   7.3768375162e+01  -7.4271722921e+00    0.1813968     0.135736  -1.57   0.00116838    1.074    0.069
       157 -10.0445     93.7443     66.7129   6.4628679906e+01   5.1063818270e+01    0.2805767    0.2569973  16.30 0.0006982126    1.015    0.015
       158 -10.5059    173.6321     65.8576   4.5492105943e+01   3.3129467915e+01    0.3550714    0.1996021  68.86  0.001604747    1.914    0.478
       159  -9.7212    161.5863     34.8626   3.9326423626e+01   4.0245378036e+01    0.4056997    0.2264756 -66.39  0.001863986    2.261    0.558
       160 -11.6174    138.8847     56.2922   4.9421885851e+01   4.2698569664e+01    0.8778971    0.7078794 -24.53  0.002485054    1.406    0.289
       161 -12.8135    162.9515     56.5193   4.4875198445e+01   3.7019117913e+01     1.297409    0.9885707 -19.40  0.006920713    1.650    0.394
       162 -10.3925    191.8962    233.5794   7.8559645145e+01  -2.7457138687e+00    0.2881289    0.2456949 -56.71  0.001748947    1.692    0.409
       163  -8.5273      1.5792     62.4309   1.0180096349e+02   6.3986782525e+01     0.150109     0.142549  66.68 0.0007972219    1.429    0.300
       164  -9.9263    176.5908     60.8449   4.3732816180e+01   3.3223498215e+01    0.3475809    0.1393899  56.58  0.001407512    2.390    0.582
       165  -9.0755    123.0576     31.8268   4.5251133105e+01   4.9645222459e+01     0.375513    0.2033327  63.69  0.001450593    1.719    0.418
       166 -10.0536    124.4378     54.6260   5.2155960120e+01   4.6309727977e+01    0.5520728    0.3612474  79.85  0.002466709    2.141    0.533
       167 -10.3649    138.3755     42.6333   4.5483829320e+01   4.4727782406e+01    0.6692047    0.4135509 -67.58  0.002479156    2.244    0.554
       168  -9.1841    141.6138     41.3557   4.4487850877e+01   4.4130407171e+01    0.4050532    0.1858361 -45.87  0.001731012    2.420    0.587
       169  -9.7567    127.9064     59.1282   5.2729246342e+01   4.4824850553e+01    0.5520619    0.2553738  36.59  0.002003078    2.902    0.655
       170 -11.7931    130.7126     51.9949   4.9901861469e+01   4.5240185887e+01     1.278792    0.5213172 -40.98  0.005071445    2.593    0.614
       171  -9.8841    123.0597     39.6940   4.7756965605e+01   4.8689986293e+01    0.4648629    0.2980708 -42.44  0.001490922    1.729    0.422
       172 -10.0779     97.6782     61.0080   6.1487094740e+01   5.1232487398e+01    0.1981504    0.1820358   9.86 0.0005294659    1.055    0.052
       173  -8.8410    238.0000    220.0132   6.7286131690e+01  -6.4920030302e+00    0.2050903   0.05957593 -40.36 8.378569e-05    3.011    0.668
       174 -10.2221     25.4862     68.5438   9.2275578490e+01   6.1020920290e+01    0.5527443    0.2028953  26.89  0.002325354    2.771    0.639
       175 -12.2591    204.8169     57.0767   3.8843010347e+01   2.7530465666e+01     0.521346    0.3218027  87.95  0.002021225    1.818    0.450
       176 -12.5932    194.2240     51.9915   3.9031022399e+01   3.0553395525e+01    0.9131249    0.3904574 -60.81  0.003460748    3.259    0.693
       177 -12.5715    191.7066     49.0473   3.8669025693e+01   3.1519776333e+01     1.617589    0.2648182  59.96  0.004912414    4.925    0.797
       178  -9.9255      3.9597     56.6235   9.9163153114e+01   6.5094565191e+01    0.4676069    0.2776016  14.15  0.002294208    1.791    0.442
       179  -9.9142      3.6032     51.7507   9.7993530373e+01   6.6115958811e+01    0.3508869    0.2217545  -2.31  0.002098816    1.554    0.356
       180 -10.2592    217.4644     56.6975   3.7252814393e+01   2.4941891798e+01    0.2087754    0.1505806  47.14  0.001206774    1.803    0.445
       181  -9.9693    174.9754     55.5752   4.2653320487e+01   3.4373758117e+01    0.3037008    0.2277266 -26.45   0.00112154    1.584    0.369
       182 -10.4357    180.1200     55.4759   4.1842635101e+01   3.3213201703e+01    0.3014265    0.2197177 -45.67  0.001409898    1.344    0.256
       183  -9.1174     40.0333     80.9595   8.9455738174e+01   5.6832692967e+01    0.2109591    0.1821646 -25.23 0.0003189161    1.008    0.008
       184 -11.8223    162.0439     40.6951   4.0805285333e+01   3.9410265242e+01     0.912083    0.4521891  51.76  0.002198204    1.993    0.498
       185 -11.0443    181.2438     47.6726   3.9751709006e+01   3.4056124314e+01    0.3589338    0.2512228  37.68  0.001889664    1.921    0.479
       186 -10.1880    180.9895     42.7865   3.8588189244e+01   3.4768752458e+01    0.2662552    0.1566723  47.64   0.00132582    1.977    0.494
       187 -10.2061    128.3728     38.0063   4.6090523412e+01   4.7664834787e+01     0.730635    0.3426609  68.83  0.002984822    2.433    0.589
       188  -9.7125     41.8761     43.9502   7.6309857084e+01   6.3904269595e+01    0.5125934    0.2867677 -54.59  0.002248424    2.716    0.632
       189 -11.0529    193.7086     44.0483   3.7246908954e+01   3.1754705998e+01    0.2490792    0.1962359 -54.39 0.0009364049    1.190    0.160
       190  -8.3699    110.9608     44.9753   5.2353315309e+01   5.0763259683e+01    0.1888368    0.1594309 -75.02  0.001050596    1.469    0.319
       191  -9.2670     23.3453     43.7015   8.5210586905e+01   6.6138076809e+01    0.2506613    0.2049596   0.24 0.0008931239    1.134    0.118
       192 -11.0190     30.7225     37.8273   7.9221150740e+01   6.6348567532e+01    0.3086861    0.2276786  -9.97 0.0007055223    1.154    0.133
       193  -8.8381     25.4872     38.4819   8.2128917065e+01   6.6832849179e+01    0.2170423    0.1707635  -6.40 0.0008923486    1.037    0.036
       194  -9.7587    212.9085    216.2096   7.1284762341e+01  -2.6537050307e+00    0.1869435    0.1681405  -2.13 0.0005375942    1.219    0.180
       195  -9.2500    109.1121     38.8688   5.0764463028e+01   5.1986806174e+01    0.3256299    0.2264292  72.96  0.001518017    1.702    0.412
       196  -9.7637    111.7291     34.3113   4.8586212152e+01   5.1958898015e+01    0.4936192    0.3727673 -30.42  0.002580659    1.479    0.324
       197 -10.3177    137.9066     35.1017   4.3338268300e+01   4.5782273885e+01    0.5173879     0.238872  61.93  0.001364087    1.938    0.484
       198  -9.9489    131.0182     30.5014   4.3248097005e+01   4.7938993174e+01    0.4869709    0.2338001  63.27  0.001600869    1.876    0.467
       199  -9.6531    125.6199     27.7566   4.3443578272e+01   4.9507809981e+01    0.2829382    0.2189012 -38.45  0.001661002    1.450    0.310
       200  -9.0993     38.0877     30.9117   7.2734450066e+01   6.6482576939e+01    0.1852996    0.1484884   1.18 0.0003753435    1.013    0.012
       201  -8.9338    154.5664     30.0413   3.9090432802e+01   4.2457550905e+01    0.2508213    0.1791272  76.55 0.0009229582    1.286    0.222
       202  -9.0169    138.5756     27.9323   4.1098648801e+01   4.6453159121e+01    0.3427069    0.1424485 -18.14  0.001262612    4.036    0.752
       203  -8.5852    219.5156    210.0382   6.8888379339e+01  -2.4949021120e+00    0.1931147      0.11346 -37.92 0.0004660735    1.537    0.349
       204  -8.8672    229.6295    203.3003   6.5764247393e+01  -2.7067371733e+00    0.1126031    0.1051805 -79.51 0.0007031214    1.743    0.426
       205  -7.8264     13.6937    203.6703   1.1661270800e+02   2.8253197752e+01    0.1246256   0.08859149 -48.85 0.0004731552    1.658    0.397
       206  -8.6737    147.7397     25.4674   3.8879516895e+01   4.4570423780e+01    0.3096726    0.1939696   2.82  0.001459482    2.757    0.637
       207  -9.2766    111.7860     22.8231   4.4701975882e+01   5.3225953225e+01    0.2328687    0.1501543  50.40 0.0004207539    1.331    0.249
       208  -9.6772    107.6812     25.0728   4.6389704195e+01   5.3923061170e+01    0.2958471      0.22364  44.88   0.00091326    1.173    0.148
       209  -9.3968    103.6623     23.7167   4.6862113586e+01   5.4970387244e+01    0.2648949    0.1690059  44.88 0.0007201936    1.378    0.274
       210  -9.4807     24.5978     26.0382   7.7398368875e+01   6.8932111945e+01    0.3940435    0.1509297  21.99  0.001722259    2.822    0.646
       211  -8.8480     94.7655     24.1917   4.9264548831e+01   5.6885940609e+01    0.2011119    0.1546576  59.23 0.0002541823    1.247    0.198
       212 -10.4473     82.1805     78.3504   7.2307933240e+01   5.1101158154e+01     1.101356    0.3831475 -42.61  0.003805528    2.877    0.652
       213  -7.9299    101.2570    176.2740   9.0139919048e+01   2.4052722114e+01    0.1475864    0.1170396 -23.10            0    1.461    0.315
       214  -9.2521     89.4978     23.4315   5.0404333933e+01   5.8103585445e+01    0.2416896    0.2069605  63.91 0.0009113211    1.263    0.208
       215  -9.5670     85.3085     22.0840   5.1071649529e+01   5.9134644939e+01     0.386957    0.1540074  50.33  0.001516263    2.069    0.517
       216 -10.1252    131.6717     20.8850   4.0197934967e+01   4.8818547347e+01    0.3549903    0.2344825 -76.45  0.001858205    1.885    0.469
       217  -8.7415     30.4512     19.7085   7.1452999071e+01   6.9098578653e+01    0.1814739     0.167432 -16.28  0.000910037    1.489    0.328
       218  -8.3939      4.3611     20.5774   8.6566720954e+01   7.1751508719e+01    0.1501661   0.09011147  -0.07 0.0009248657    1.466    0.318
       219 -10.2286     88.2589     71.8383   6.8119475528e+01   5.1218429285e+01     1.240007    0.4851743 -48.96  0.003091783    3.104    0.678
       220  -8.5762     74.8871     55.8740   6.7292834792e+01   5.6590838846e+01    0.2103484    0.1895558   7.54 0.0003914252    1.034    0.033
