#   1 NUMBER                 Running object number                                     
#   2 MAG_AUTO               Kron-like elliptical aperture magnitude                    [mag]
#   3 X_IMAGE                Object position along x                                    [pixel]
#   4 Y_IMAGE                Object position along y                                    [pixel]
#   5 X_WORLD                Barycenter position along world x axis                     [deg]
#   6 Y_WORLD                Barycenter position along world y axis                     [deg]
#   7 A_WORLD                Profile RMS along major axis (world units)                 [deg]
#   8 B_WORLD                Profile RMS along minor axis (world units)                 [deg]
#   9 THETA_WORLD            Position angle (CCW/world-x)                               [deg]
#  10 FWHM_WORLD             FWHM assuming a gaussian core                              [deg]
#  11 ELONGATION             A_IMAGE/B_IMAGE                                           
#  12 ELLIPTICITY            1 - B_IMAGE/A_IMAGE                                       
         1 -16.0078    182.3534     83.5305   7.7677254997e+01   2.7905147068e+01     6.715392     2.297493 -48.44    0.0219198    3.508    0.715
         2 -17.9960    233.4032     14.5346   5.5702202211e+01   2.6050884152e+01     7.504292      2.18131  64.75   0.03391384    2.961    0.662
         3 -14.0244    167.5675     63.3269   7.5224953126e+01   3.4451143447e+01     1.023539    0.5328708 -25.94  0.001649284    2.389    0.581
         4 -14.7257    216.1151     40.8990   6.2735732478e+01   2.6576509403e+01     1.100431    0.8182453  52.29  0.004612616    1.494    0.331
         5 -14.4207    220.2868     27.8067   5.9539988016e+01   2.7277725380e+01    0.9792695    0.3970675  58.29  0.003263637    2.359    0.576
         6 -16.8901    242.8147     87.7634   6.9316934274e+01   1.4287576164e+01     8.384439     3.128348 -34.45    0.0330914    2.869    0.652
         7 -11.7189    173.1538     38.0061   6.7784934489e+01   3.6538942365e+01    0.6146076     0.345183 -46.41  0.002627331    1.919    0.479
         8 -14.5273    201.6528     53.2900   6.7317077084e+01   2.8116863769e+01     1.325942     1.099767  84.45  0.007445119    1.139    0.122
         9 -10.7912    142.1112     14.6366   6.6533614346e+01   4.6033056958e+01    0.1861087    0.1733192   2.12 0.0004497544    1.242    0.195
        10 -10.4525    156.8092      9.5980   6.2962168350e+01   4.3190354106e+01    0.2696018    0.1796068 -12.53  0.001133082    1.963    0.490
        11 -10.3349     11.0952      9.5190   1.0271063578e+02   6.9323277485e+01    0.1613719    0.1101505 -15.61 0.0005333661    1.142    0.124
        12 -12.4797     64.0890      3.8595   8.0341744134e+01   6.2670246975e+01    0.4436043    0.2560326  13.95  0.002637115    1.748    0.428
        13 -12.3194     49.0595      7.7014   8.6724872535e+01   6.4764488476e+01    0.2878739    0.1069845  38.31  0.001454761    2.250    0.556
        14 -11.4304    153.8674      3.0739   6.1694188849e+01   4.4394247895e+01    0.2963254    0.2388915 -65.06  0.001292813    1.384    0.277
        15 -10.7077    133.5365      2.8607   6.4632318931e+01   4.8902637181e+01    0.3000379    0.1809762 -48.50  0.001693038    2.098    0.523
        16 -12.3712    199.1445      2.3686   5.6361601253e+01   3.4467173779e+01    0.2508701    0.1918153 -50.99 0.0009973288    1.359    0.264
        17 -10.4572    105.2096      2.4813   6.9639891460e+01   5.4963946856e+01    0.2004747     0.167952  -0.11  0.001401062    1.326    0.246
        18  -9.1800     98.5050    137.5410   1.1127093109e+02   3.4561053086e+01    0.1476552    0.1406109 -36.56  0.000143415    1.005    0.005
        19 -10.2794    165.9737    134.4923   9.3630331162e+01   2.1939206979e+01    0.2234785    0.1510724  43.54 0.0003816883    1.509    0.337
        20 -10.7275    135.7421    129.7382   9.9635487032e+01   2.9274234385e+01    0.6284137    0.1357502 -47.30  0.001566246    4.822    0.793
        21 -11.0202    135.0368    121.6063   9.7792084617e+01   3.1153316056e+01    0.5718845    0.2052966 -47.29  0.001858334    2.856    0.650
        22 -12.2692    160.4380    128.0707   9.3328639380e+01   2.4443173312e+01     0.478338    0.3607029 -58.80  0.001218169    1.494    0.331
        23 -10.9018     11.7529    162.5477   1.3838215359e+02   3.9399546968e+01    0.2004698    0.1630985 -71.20 0.0005533462    1.040    0.038
        24 -11.3783    152.3715    120.2010   9.3240632282e+01   2.7786781339e+01    0.3650521     0.260537 -14.10  0.001598402    1.843    0.458
        25 -12.9591    166.8394    113.8483   8.8390728426e+01   2.5904343187e+01    0.7262034    0.4855194 -27.48  0.001430682    1.691    0.409
        26 -10.7336    135.0000    112.5445   9.5481894446e+01   3.3040652610e+01    0.4739062    0.1892596 -39.74  0.001649295    2.558    0.609
        27 -11.6006    134.5015    105.9899   9.3885641961e+01   3.4463645796e+01    0.6777814    0.3237797 -44.00  0.002640003    2.100    0.524
        28 -11.9966      1.9181    218.0423   1.4541899032e+02   2.8029055435e+01    0.8477753     0.242118 -81.95  0.003352531    3.828    0.739
        29 -12.1871    155.9037    101.1132   8.7543588827e+01   3.0760231096e+01    0.6010353    0.4045148 -70.27  0.002513394    2.248    0.555
        30  -9.4329     72.3133    105.2359   1.1113319791e+02   4.5948914878e+01    0.1355153    0.1014937 -11.12 0.0002296671    1.499    0.333
        31 -10.6344    140.6694    103.0347   9.1587816201e+01   3.3728214971e+01    0.3112639    0.2519183  -1.69  0.001226264    1.457    0.314
        32 -11.7560    121.7740    102.1549   9.6115237041e+01   3.7858456632e+01    0.4111395    0.2939811  19.31  0.001003995    1.671    0.402
        33  -9.8147    111.9776    103.7745   9.9180431287e+01   3.9474640588e+01    0.1958578    0.1210778  40.22 0.0008694069    1.635    0.389
        34 -11.4351    145.9879     98.5433   8.9129196497e+01   3.3430026943e+01     0.379574    0.3200099 -39.30 0.0006932844    1.193    0.162
        35 -11.0120    133.8042    146.6150   1.0411502235e+02   2.5953620989e+01    0.8240702     0.221535 -53.35  0.001978601    5.423    0.816
        36 -11.3643    212.9585     95.1411   7.5226564148e+01   1.9198759257e+01    0.3285735    0.2019384 -29.93   0.00117954    1.803    0.445
        37 -11.0171    132.8349     95.5593   9.1490218131e+01   3.6834227222e+01    0.3472933    0.2945738 -31.46  0.001139051    1.184    0.155
        38  -9.1369     92.2810     96.7053   1.0284746403e+02   4.4523044360e+01    0.1321704    0.1160123 -88.00 0.0002550343    1.535    0.349
        39  -9.5712    113.4578     94.9897   9.6368191784e+01   4.0923909680e+01    0.2125992    0.1413032 -39.72 0.0003470132    1.491    0.329
        40 -12.4153    154.7505     91.0917   8.5160323991e+01   3.2852501962e+01    0.5694046    0.4123654  24.01  0.002294927    1.690    0.408
        41 -11.6074    221.3025     87.6703   7.2270134745e+01   1.8670466948e+01    0.4456685    0.2987618 -60.25  0.002295908    1.568    0.362
        42 -11.7820    211.1000     82.8287   7.2710730844e+01   2.1629094316e+01    0.5677817    0.2777731 -39.82  0.002528528    1.949    0.487
        43 -12.0238    215.1715     80.4751   7.1567097688e+01   2.1126826605e+01    0.6936246    0.3456361 -53.27  0.003026523    2.161    0.537
        44 -11.6417    221.2411     79.1903   7.0405922276e+01   2.0035847219e+01    0.5717766    0.3785726  79.16  0.002460676    1.757    0.431
        45 -11.3613    200.0421     87.2726   7.5505961610e+01   2.3322025778e+01    0.3901691    0.2830899  69.53   0.00082474    1.482    0.325
        46 -10.1847     88.2250     78.3014   9.8770323774e+01   4.8738515101e+01    0.3408307     0.158874 -57.20  0.001079027    4.555    0.780
        47 -12.2777    192.2961     70.4898   7.2770973247e+01   2.7730459320e+01    0.9598637    0.4279116 -42.36  0.004065132    2.200    0.546
        48 -12.5484    184.2244     66.8092   7.3198213730e+01   3.0118090578e+01    0.3225212    0.3055322  12.66  0.001016382    1.210    0.173
        49 -12.8024    188.6952     63.4987   7.1657347664e+01   2.9590559322e+01    0.4558262    0.2817351  43.28  0.001458334    1.814    0.449
        50 -11.8108    139.3195     87.6188   8.7734993541e+01   3.6890556188e+01    0.3354441    0.3237988  65.50  0.000678581    1.101    0.092
        51 -10.5230    143.9795     67.7777   8.1143907279e+01   3.9154802124e+01    0.3477403    0.1788404 -51.53  0.001400408    2.530    0.605
        52  -9.7130     92.8048    218.7892   1.2710082311e+02   1.6850124152e+01    0.1845068    0.1443492  71.77 0.0005735275    1.313    0.239
        53 -15.1033     19.8864    200.9420   1.4055237402e+02   3.0002510588e+01     1.032173    0.9152271 -89.96  0.003873412    1.134    0.118
        54 -10.7157    130.7474     66.7371   8.3839215247e+01   4.2241638552e+01    0.3027179    0.2491627 -57.30   0.00164434    1.445    0.308
        55  -9.1206     76.2639     59.6928   9.6672936860e+01   5.3922410087e+01    0.1146604    0.1067206 -67.20 0.0001517362    1.529    0.346
        56 -10.5691     68.1446    144.6799   1.2110602914e+02   3.7564054185e+01      3.02833     1.274187 -70.45  0.007607132    4.111    0.757
        57 -13.9673     55.9696    173.0009   1.2907992731e+02   3.2425558473e+01    0.7978173    0.6120368  66.43  0.002562448    1.397    0.284
        58 -13.1148    152.7222     80.0520   8.2638534328e+01   3.5215766604e+01    0.6227015    0.4272062  62.39 0.0007973009    1.575    0.365
        59 -12.1010     75.5364     47.6045   9.2875476665e+01   5.5861576900e+01     0.369979    0.2346171 -42.23 0.0009753597    1.838    0.456
        60 -14.4282     38.8710    187.6500   1.3506172764e+02   3.1017303391e+01     1.819497     1.225477 -71.97   0.01054797    1.303    0.233
        61 -14.1412     60.4684    167.4826   1.2711609530e+02   3.3162363274e+01       1.0076    0.8625958  46.05  0.001814822    1.248    0.199
        62  -9.8211    166.2976     40.8724   6.9598221255e+01   3.7762909341e+01    0.1657561    0.1584617  54.82 0.0003063591    1.091    0.084
        63 -10.6599    190.1067     37.4901   6.5225802760e+01   3.2746262783e+01    0.4440785    0.2297052 -56.48  0.001731198    2.262    0.558
        64 -11.4793     72.2452     37.0509   9.0241251519e+01   5.7834955581e+01    0.3648931    0.1904983 -42.16  0.001805577    2.391    0.582
        65 -10.8881    194.4517     26.7666   6.2196688812e+01   3.3020027695e+01    0.2189659    0.1997969 -60.89  0.000952619    1.162    0.140
        66 -11.8093     93.1136     23.8423   7.9587503650e+01   5.5542666395e+01    0.3946011     0.255183  80.26  0.001811578    3.216    0.689
        67  -9.4482     81.4921     22.5374   8.2272564336e+01   5.7874498512e+01    0.1241857    0.1013315  24.57 0.0001312556    1.008    0.008
        68 -10.0133     67.6361     17.9615   8.4683900762e+01   6.0787323724e+01    0.1618893    0.1302185   0.48 0.0004281969    1.158    0.137
        69 -11.1319     33.9799    209.0744   1.3844490355e+02   2.6748745049e+01    0.1820248    0.1513116  88.89 0.0003194144    1.014    0.014
        70  -9.8280    119.0000     14.9674   7.0799990691e+01   5.1065488969e+01    0.1763703   0.07110824 -23.62 0.0005127912    2.871    0.652
        71  -9.4870    107.6523     12.3061   7.2302216003e+01   5.3686894566e+01    0.1152733   0.09345847 -82.49  0.000704248    1.700    0.412
        72  -9.0855    118.7303    208.6484   1.1983778974e+02   1.4856949545e+01     0.137639    0.1084606 -19.68 0.0006993932    1.628    0.386
        73 -11.9320      5.5642    170.4262   1.4065217851e+02   3.8097431567e+01    0.2506656    0.2228834  18.76  0.001479983    1.468    0.319
        74 -11.4016    192.4247    194.3693   1.0099086330e+02   4.5785881932e+00    0.9629123    0.4922239 -64.02  0.002510967    6.954    0.856
        75 -14.0726     49.7961    178.0341   1.3129331216e+02   3.1993851559e+01    0.6726918    0.5760673 -78.69  0.001598567    1.037    0.036
        76  -9.7328    202.1624    248.1732   1.0883816330e+02  -6.2774467029e+00    0.1555723    0.1395444  31.02 0.0002837873    1.277    0.217
        77 -10.5987    108.0060    233.4752   1.2585371330e+02   1.1463635090e+01    0.2005544     0.118561  39.82 0.0003954781    1.550    0.355
        78 -11.8762    174.7532    139.7316   9.2936257061e+01   1.9007402999e+01    0.4090609    0.2498459 -26.91  0.001683833    1.973    0.493
        79 -12.1663    246.2316    163.5214   8.4542435405e+01   7.8370985897e-01    0.5211462    0.3113383  -8.53  0.002248729    2.688    0.628
        80  -9.1301     20.3612    139.2527   1.3319334704e+02   4.4070909365e+01    0.1245786   0.08285899 -36.61 0.0005001211    1.616    0.381
