#   1 NUMBER                 Running object number                                     
#   2 MAG_AUTO               Kron-like elliptical aperture magnitude                    [mag]
#   3 X_IMAGE                Object position along x                                    [pixel]
#   4 Y_IMAGE                Object position along y                                    [pixel]
#   5 X_WORLD                Barycenter position along world x axis                     [deg]
#   6 Y_WORLD                Barycenter position along world y axis                     [deg]
#   7 A_WORLD                Profile RMS along major axis (world units)                 [deg]
#   8 B_WORLD                Profile RMS along minor axis (world units)                 [deg]
#   9 THETA_WORLD            Position angle (CCW/world-x)                               [deg]
#  10 FWHM_WORLD             FWHM assuming a gaussian core                              [deg]
#  11 ELONGATION             A_IMAGE/B_IMAGE                                           
#  12 ELLIPTICITY            1 - B_IMAGE/A_IMAGE                                       
         1 -13.8138    134.4863     66.8738   4.6434093661e+01   4.1788499402e+01     1.806003     1.000449 -32.18  0.007480719    1.920    0.479
         2 -13.4946    135.0179     51.0335   4.1111029735e+01   4.4283664008e+01     1.138242     1.092717  44.21  0.004856241    1.058    0.055
         3 -12.3226    139.7802     27.3935   3.1938770331e+01   4.6368639200e+01    0.7473804    0.3558291 -20.25  0.001294224    2.514    0.602
         4 -13.5667    143.4300      5.6654   2.3659064252e+01   4.7729117114e+01     1.910386     1.061819  71.69  0.007809069    1.653    0.395
         5  -9.7512    190.0401      8.9447   2.0148537649e+01   3.5808435581e+01    0.1916267    0.1687815 -59.53 0.0003415228    1.017    0.017
         6  -8.9163      4.9184    190.0828   1.0663556566e+02   3.3242710109e+01    0.1705334    0.1374057  51.28  0.001195395    1.021    0.020
         7 -11.7590    247.5441    247.2878   6.1627043534e+01  -2.7418481216e+00    0.5620449    0.3185038  -4.54  0.004356904    1.346    0.257
         8  -9.1200    133.5770    250.7287   8.1925340934e+01   9.0495389966e+00    0.1802289   0.07258414  30.06 0.0004143955    1.797    0.443
         9 -10.8433    134.8918    245.7548   8.1149407639e+01   9.5631624719e+00    0.4907013    0.2306425  21.39  0.002011633    1.849    0.459
        10  -9.7435    148.3441    238.3008   7.7652025438e+01   8.9745020897e+00    0.2251205    0.1433036  11.82 0.0007878451    1.417    0.294
        11 -18.8541    122.3096    187.3325   7.6680867441e+01   2.0455546301e+01     6.017807      4.78663  28.77   0.01680542    1.067    0.063
        12 -10.3628     98.0548    109.4564   6.8945428476e+01   4.0869398601e+01    0.2966813    0.2375839 -49.96   0.00122969    1.292    0.226
        13  -9.6606     10.6223    109.8316   1.0105441453e+02   5.1762919943e+01    0.2356226    0.1841976 -41.76 0.0005166245    1.393    0.282
        14 -11.7162     10.7683    206.8089   1.0572558335e+02   2.9436024500e+01    0.5871441    0.3272365   8.40  0.003305276    2.222    0.550
        15 -10.2670    230.1814    166.6119   5.1693134313e+01   7.8895472070e+00    0.2568066    0.1499946 -35.84  0.001296841    1.723    0.420
        16  -9.2820      1.4141    205.6215   1.0784978854e+02   3.0373191243e+01    0.1786016   0.09915227 -89.53 0.0002073394    1.840    0.457
        17 -11.7347    201.7183    189.0209   6.0371115214e+01   8.8023121953e+00    0.4429083    0.2525813  34.36  0.002596601    1.671    0.402
        18  -9.3425     25.8718    151.6524   9.9045373648e+01   4.0202011110e+01    0.2204039    0.1664115 -68.47 0.0006701272    1.376    0.273
        19 -11.5100    115.8566     92.9963   5.9243035668e+01   4.0964580115e+01    0.6086624    0.4720086  59.52  0.002923202    1.418    0.295
        20 -10.4797    122.9894     91.5298   5.6815888231e+01   3.9740348958e+01    0.4941435    0.2009341  48.53  0.001584076    2.488    0.598
        21 -10.8961    131.4307     90.8176   5.4362894401e+01   3.8040596127e+01    0.3423193    0.2671153 -34.28  0.001245609    1.318    0.241
        22 -10.2124    198.0016     84.9639   3.9427084195e+01   2.4645926577e+01    0.4333915    0.2847154 -79.69  0.001401193    2.650    0.623
        23 -11.6784    127.9215     81.4803   5.2578468440e+01   4.0635492605e+01    0.5422071    0.4841537  69.01  0.001505339    1.203    0.169
        24  -9.6870    161.0693    248.3230   7.6361317426e+01   6.1991360123e+00    0.1600145    0.1211781  11.05 0.0003766115    1.102    0.093
        25 -12.5034     43.6642    140.1040   9.2368162454e+01   4.1309190261e+01     1.030815    0.4803751 -83.73  0.004218788    2.523    0.604
        26  -8.6888    236.8607    144.1276   4.6502516260e+01   9.8117120563e+00    0.1621891    0.1148943  -3.87 0.0004029833    1.285    0.222
        27  -8.7207     20.6569     84.7335   9.4116418600e+01   5.7652008501e+01    0.1421086    0.0953984 -35.51 0.0005146538    1.604    0.377
        28  -9.1901    106.8015     58.5029   5.1042123847e+01   4.9887890659e+01    0.2850873     0.223288  13.83 0.0009249296    1.587    0.370
        29  -9.8410      4.6255    129.2109   1.0442789654e+02   4.7203795058e+01    0.2227079    0.2027799 -42.15 0.0004873248    1.256    0.204
        30  -9.2908    174.4326     49.8911   3.3610478528e+01   3.4802833075e+01     0.292323    0.1818509  88.24  0.001316538    2.093    0.522
        31 -11.0968     47.8656    125.2798   8.9086301717e+01   4.4550614776e+01     0.387499     0.247339 -83.40 0.0005796782    1.695    0.410
        32 -10.6202    146.0045     41.9066   3.5824231053e+01   4.2869190763e+01    0.3370395    0.2127943  74.21 0.0008743832    1.722    0.419
        33  -8.3373    103.4816     42.4727   4.5993120567e+01   5.3501683540e+01    0.1508232    0.1432623  42.30 0.0008096352    1.026    0.025
        34  -8.4028    249.5318     39.5310   2.3133191604e+01   2.0443122793e+01    0.1179984   0.09002551 -43.44 0.0001120484    1.072    0.067
        35  -8.8802    203.0362     39.1020   2.7065111852e+01   2.9657054590e+01    0.2282169    0.1580582 -70.46 0.0007512844    1.564    0.361
        36  -8.2757    194.4705     34.5307   2.6754911764e+01   3.2090363238e+01     0.132766    0.1165493 -54.41 0.0004128943    1.033    0.032
        37  -9.8715    154.2018     32.1320   3.1208841585e+01   4.2079949056e+01    0.2083521    0.1900529  37.83 0.0004259643    1.201    0.167
        38 -11.6709    185.5593    121.2875   5.0163090081e+01   2.1466483200e+01    0.6581164    0.4484405 -42.83  0.003370816    1.521    0.342
        39 -15.0030    176.4509    171.4554   6.2114560370e+01   1.4965889894e+01     1.578458    0.8568164  21.17  0.007686391    1.984    0.496
