#   1 NUMBER                 Running object number                                     
#   2 MAG_AUTO               Kron-like elliptical aperture magnitude                    [mag]
#   3 X_IMAGE                Object position along x                                    [pixel]
#   4 Y_IMAGE                Object position along y                                    [pixel]
#   5 X_WORLD                Barycenter position along world x axis                     [deg]
#   6 Y_WORLD                Barycenter position along world y axis                     [deg]
#   7 A_WORLD                Profile RMS along major axis (world units)                 [deg]
#   8 B_WORLD                Profile RMS along minor axis (world units)                 [deg]
#   9 THETA_WORLD            Position angle (CCW/world-x)                               [deg]
#  10 FWHM_WORLD             FWHM assuming a gaussian core                              [deg]
#  11 ELONGATION             A_IMAGE/B_IMAGE                                           
#  12 ELLIPTICITY            1 - B_IMAGE/A_IMAGE                                       
         1 -13.4242     39.6682    118.0540   1.1786598335e+02   4.7092771701e+01     2.689488     1.072715  62.90   0.01042251    3.223    0.690
         2 -14.0160     66.7423    134.1870   1.1205203485e+02   4.0157038099e+01     3.692771     1.883576 -54.40   0.01762381    2.104    0.525
         3 -14.0972     58.5303     89.7956   1.0724320014e+02   5.1684711672e+01     3.108875     2.271305  34.05   0.01681091    1.466    0.318
         4 -13.4201    114.1187     73.5999   8.4549558221e+01   4.5525496385e+01     2.817354     2.225977  43.14   0.01389744    1.275    0.216
         5 -13.3054     90.6104     40.5493   8.0189314057e+01   5.7216586029e+01      1.91831     1.590003  39.70   0.01004188    1.233    0.189
         6 -10.7487     66.3606     39.9329   8.9420052790e+01   6.2028541137e+01    0.7531422    0.5088128  -8.20  0.003135321    2.241    0.554
         7 -11.6440     55.0540     36.5883   9.3165434193e+01   6.4554153087e+01     1.349615    0.7635258 -76.14  0.004508669    4.402    0.773
         8 -13.1287    123.1693     33.9612   6.7652741350e+01   5.0599717941e+01     3.326027     2.230908 -10.13   0.01436233    1.833    0.454
         9 -11.5777    108.5143     34.0159   7.1655479847e+01   5.4262325250e+01     1.020497    0.6006371  30.60  0.004066712    2.189    0.543
        10  -9.5560     90.2009     22.3517   7.2093843275e+01   6.0448819180e+01    0.4808791    0.2686323 -12.69  0.001846445    2.570    0.611
        11 -11.3868    101.9248     20.9041   6.7696614374e+01   5.7886504959e+01     1.383201    0.8905706 -14.16  0.006164275    1.778    0.437
        12 -10.1451     93.1954      5.3202   6.2369395566e+01   6.2050889768e+01    0.7702231    0.1980766 -29.62  0.002466792    3.468    0.712
        13 -10.1558    105.7935      2.4078   5.7560901953e+01   5.9175249620e+01    0.4045848    0.3118306  48.69  0.001353539    1.220    0.181
        14 -10.4774     91.6227     14.6787   6.7778196571e+01   6.1245176087e+01    0.6880749    0.2490547 -27.80  0.002107867    2.821    0.646
        15 -10.6416     88.4130     11.7591   6.7287606404e+01   6.2398445125e+01    0.6979234    0.3782578  -8.39  0.002731095    2.544    0.607
        16 -10.4464    107.9736      8.0534   5.9852690905e+01   5.8005398065e+01    0.5325795     0.337656 -38.21  0.001675148    1.641    0.391
        17 -10.9575    101.2263      6.8271   6.0947975360e+01   5.9874292952e+01    0.8015248    0.3949501  65.22  0.001988734    2.110    0.526
        18  -9.9964     68.0329     19.4819   7.9144026855e+01   6.5614400423e+01    0.4766394    0.2807447  -9.36  0.001885116    2.776    0.640
        19  -9.0559     50.0436      1.3631   7.6951354555e+01   7.1854341582e+01    0.1793041    0.1225267  42.43   0.00030124    1.529    0.346
        20 -10.3402    160.5307    227.4853   1.0322961386e+02   9.8777978197e+00    0.1964997    0.1522456  17.15  0.000729595    1.285    0.222
        21 -11.7815    165.3751    248.8840   1.0476800474e+02   6.7791284035e+00    0.5330456    0.2656877  40.18   0.00298094    1.452    0.312
        22 -11.6560    167.1824    242.3515   1.0375886967e+02   7.2424511439e+00    0.4292129    0.1862879  41.51   0.00201287    1.729    0.422
        23  -8.6755      7.0308    250.5082   1.3192562513e+02   2.4997046335e+01    0.1330859   0.06348244  39.33 0.0005703151    1.508    0.337
        24  -9.8135    107.4443    237.0695   1.1379882317e+02   1.5922497545e+01     0.281486     0.167114  73.42  0.001769995    2.379    0.580
        25 -11.0997    232.6158    236.2413   9.2388307441e+01  -8.2332979557e-01    0.2775911    0.1664234  -1.06  0.002020248    1.643    0.391
        26 -12.3378    236.1690    230.4367   9.1054120784e+01  -7.8137136523e-01    0.6486142    0.3296645  38.65  0.004312205    1.722    0.419
        27 -10.0809     10.8755    236.3006   1.3099993369e+02   2.6764911378e+01    0.2188579    0.1161033 -74.62  0.001636694    2.243    0.554
        28 -10.7505     53.3717    234.4943   1.2345974091e+02   2.2820775881e+01    0.4709932    0.2882297  22.05  0.003127468    2.166    0.538
        29 -10.3928     68.6020    231.4078   1.2050904380e+02   2.1562978153e+01    0.4035112    0.1930964  26.69  0.002259993    2.472    0.595
        30 -11.4011     60.1674    228.5488   1.2189943206e+02   2.2974732882e+01    0.5993949    0.1758034  43.58   0.00319866    2.175    0.540
        31 -11.5100      6.9555    229.9928   1.3153651391e+02   2.8086400320e+01    0.4099622    0.3184071  40.05   0.00232538    1.392    0.282
        32 -11.9776     13.3647    207.1778   1.2979750642e+02   3.1279810735e+01    0.7637001    0.4880118  49.67  0.005852297    1.151    0.131
        33 -11.7011     13.9335    222.7695   1.3013192324e+02   2.8620482470e+01    0.5875715    0.3201112  34.06  0.004242115    1.645    0.392
        34 -12.2134      5.7208    213.8296   1.3140382018e+02   3.0813235724e+01    0.9481701    0.3813681  49.77  0.006284965    1.614    0.380
        35 -10.3719     46.8384    230.3376   1.2444282375e+02   2.4167151708e+01    0.3142782   0.09965632  38.14  0.001593927    2.152    0.535
        36 -11.7804     50.1971    223.7311   1.2349587017e+02   2.4846289805e+01    0.5041268    0.3109604 -48.61  0.003314277    2.708    0.631
        37 -11.9598     51.6681    215.8295   1.2279058960e+02   2.5970875025e+01    0.7099702    0.3978218 -46.77  0.004159026    3.182    0.686
        38  -8.9186    114.7710    228.9849   1.1174698645e+02   1.6070628206e+01    0.1154902   0.09306872 -66.10 0.0004584999    1.656    0.396
        39  -9.0884     20.7660    228.5938   1.2907521898e+02   2.7059650258e+01    0.2051225   0.08338709  73.23  0.001280807    2.237    0.553
        40  -8.5024    144.6760    228.6843   1.0621840415e+02   1.1975051367e+01    0.1085748   0.07393087  17.09 0.0007042856    1.666    0.400
        41 -10.7200    128.4980    225.4955   1.0885522510e+02   1.4667780460e+01    0.2118137    0.1797889 -17.91  0.001613456    1.618    0.382
        42 -11.4458    125.7312    221.0289   1.0891453261e+02   1.5676267253e+01     0.357515     0.310264  26.13 0.0007130264    1.248    0.199
        43  -9.6520    184.9241    227.1039   9.8913406982e+01   6.4587750547e+00    0.1623499    0.1234571  39.09 0.0009939183    1.279    0.218
        44  -9.1260     88.5233    224.8445   1.1632608340e+02   2.0124315570e+01    0.2360288    0.1069851 -66.51  0.001381368    2.807    0.644
        45 -10.4802    108.5645    223.0558   1.1236790996e+02   1.7757696809e+01    0.3077759    0.2105309  22.68  0.001654712    1.673    0.402
        46  -9.2749     35.9185    221.3324   1.2605185092e+02   2.6743112886e+01    0.1709968    0.1114942  34.81 0.0008353178    1.456    0.313
        47 -10.6116     39.1555    223.2679   1.2553343342e+02   2.6096597414e+01     0.215027    0.1569946 -50.24  0.001602623    2.184    0.542
        48  -9.3065    157.7910    221.8669   1.0305669921e+02   1.0964353740e+01    0.1679137    0.1239793  24.87 0.0005850485    1.204    0.170
        49 -11.1472    131.8872    217.3869   1.0735879547e+02   1.5312804021e+01    0.5053299    0.2858433 -69.04  0.002851454    2.955    0.662
        50  -9.3542    114.9980    221.4081   1.1098906018e+02   1.7119010939e+01    0.1753396    0.1524232  -9.74 0.0008305151    1.601    0.375
        51  -8.6477    226.2939    221.3104   9.1300112344e+01   1.3226086068e+00    0.1098074     0.062766  14.42 0.0007003642    1.590    0.371
        52  -9.2482    148.8378    220.4473   1.0452866244e+02   1.2445053437e+01    0.1781352    0.1565182 -11.50  0.000650572    1.420    0.296
        53 -10.7403     99.9318    218.7471   1.1363291812e+02   1.9563023081e+01    0.4314801    0.2107222  56.92  0.002409799    2.082    0.520
        54  -8.5531     75.2231    219.8110   1.1849391847e+02   2.2568256920e+01    0.1373101    0.1100724  35.59 0.0005690659    1.300    0.231
        55  -8.8793    191.7230    217.7397   9.6508969974e+01   6.5214873123e+00     0.162864    0.1216178  58.77  0.001066392    2.075    0.518
        56  -9.6210    175.8902    216.6407   9.9138076818e+01   8.9601678143e+00    0.2044558    0.1708556 -32.78  0.001498733    1.548    0.354
        57  -9.4511    143.8204    216.3504   1.0498467639e+02   1.3723133340e+01    0.2058488    0.1607454 -36.84   0.00112556    1.678    0.404
        58 -11.0236     99.2740    226.9480   1.1446543837e+02   1.8423109282e+01    0.3211727    0.2423582  37.85  0.001443103    1.167    0.143
        59  -9.4052    112.0710    214.2834   1.1085225974e+02   1.8581540276e+01    0.2157767    0.1660846 -11.99  0.001415076    2.057    0.514
        60  -9.4170    185.7497    212.8791   9.6881906336e+01   7.9497348905e+00    0.2414269      0.13946 -22.95  0.001448028    2.230    0.552
        61  -9.5527     78.5954    211.2061   1.1718966786e+02   2.3538909611e+01    0.2265587    0.1184821  39.64  0.001371815    1.475    0.322
        62  -9.6888    202.7356    209.2036   9.3412900277e+01   5.8612017859e+00    0.2286729    0.1811338   5.76  0.001179787    1.199    0.166
        63  -8.7365    135.0566    208.5585   1.0574309567e+02   1.6113202823e+01    0.1869582   0.09067754  39.91  0.001019337    1.581    0.367
        64 -10.1319    124.0000    205.9993   1.0761880629e+02   1.8130063698e+01    0.1691315    0.1300972  42.76            0    1.015    0.015
        65  -8.3800     99.3127    206.6258   1.1263194049e+02   2.1552057156e+01    0.1231572   0.07141513  60.93 0.0007031651    1.786    0.440
        66  -8.6553     25.4833    205.4845   1.2739410602e+02   3.0452951748e+01    0.1095861   0.07389446  57.66 7.358077e-05    1.058    0.055
        67  -9.2968    115.8330    210.6906   1.0974674087e+02   1.8596737808e+01    0.2069302    0.1306686  70.11   0.00121485    2.090    0.522
        68 -10.0110     74.3413    201.0327   1.1724059748e+02   2.5794911848e+01    0.3488856    0.2303484  12.05  0.001924989    2.505    0.601
        69  -9.4098    210.6823    201.3173   9.0878272918e+01   5.5541680929e+00    0.1007276   0.08644685  49.52 0.0007039742    1.655    0.396
        70  -9.7074    213.1411    207.4996   9.1407833747e+01   4.5278073870e+00    0.1880758    0.1252884  11.36 0.0007337229    1.361    0.265
        71  -9.3080    164.4427    199.3595   9.8888894020e+01   1.2910511297e+01    0.2558464    0.1670094 -19.37  0.001494681    2.091    0.522
        72  -8.6974    230.4881    199.5737   8.7352403387e+01   2.8477880535e+00    0.1918049    0.0934173 -14.69   0.00103936    2.427    0.588
        73  -9.1457     89.2225    199.7349   1.1404091548e+02   2.4073204180e+01    0.2237881    0.1323967  55.52 0.0007940027    1.485    0.327
        74  -8.5055    149.3080    198.9846   1.0175363732e+02   1.5332168040e+01    0.1615134   0.09887321 -78.19 0.0007035719    4.166    0.760
        75 -10.0437    126.5367    197.1927   1.0606950386e+02   1.9116410220e+01    0.2523799    0.1997142  18.20    0.0011758    1.427    0.299
        76 -10.9009    173.0948    195.1914   9.6651566821e+01   1.2107213532e+01    0.3542573    0.2645274 -26.35  0.001709813    1.582    0.368
        77  -8.7050    180.8036    193.8095   9.5006635162e+01   1.1063540958e+01     0.153996    0.1285877  45.78 0.0004934761    1.334    0.250
        78  -8.3601    215.3129    193.6702   8.8890554980e+01   5.7037369015e+00    0.1002996   0.09048733  51.77 0.0006601245    1.673    0.402
        79  -8.7864    135.5561    193.3899   1.0375200270e+02   1.8322462179e+01    0.2571617   0.07843109  48.01 0.0009540136    3.387    0.705
        80  -9.6506     59.9277    192.0796   1.1957162333e+02   2.9161890890e+01    0.2219408    0.1510103 -68.24 0.0007738985    1.685    0.406
        81  -9.4820    224.5265    192.0557   8.7100402596e+01   4.4966337813e+00    0.1560797    0.1028383 -18.90 0.0005037122    1.550    0.355
        82  -9.1526    124.4255    192.0079   1.0585978779e+02   2.0268734727e+01    0.1916516    0.1371599  42.29 0.0004808035    1.122    0.109
        83  -9.4917     28.0343    188.1607   1.2612040370e+02   3.3340509686e+01     0.152388    0.1321533 -43.96  0.001153309    1.732    0.423
        84  -8.7092    179.3686    189.7326   9.4645727582e+01   1.1830936619e+01    0.1543645    0.1093798 -19.16 0.0009452541    1.651    0.394
        85  -8.7110    138.5249    189.5331   1.0262962667e+02   1.8457619033e+01    0.1958886    0.1529144  80.25  0.001205366    1.743    0.426
        86  -9.4333    140.4539    185.1891   1.0162796511e+02   1.8834224278e+01    0.3600954    0.1915189  19.39  0.001506974    3.188    0.686
        87  -9.8624    203.9280    188.4604   8.9995549407e+01   8.0629351218e+00    0.3009163    0.1785782  50.51  0.001661744    2.053    0.513
        88  -8.8840    156.2222    188.0470   9.8851406266e+01   1.5831968454e+01    0.1748886    0.1399477  83.53  0.001061675    1.890    0.471
        89  -8.2562    129.3335    188.6703   1.0441010984e+02   2.0048526774e+01    0.1269612   0.08468855  61.57 0.0007052023    1.723    0.420
        90  -8.7406    120.7421    187.4769   1.0605784864e+02   2.1583945346e+01    0.1851555    0.1091384 -56.25 0.0008092957    2.067    0.516
        91  -9.6635     95.6200    187.5728   1.1145465844e+02   2.5305554706e+01    0.3705988    0.1624679  54.84   0.00158734    2.370    0.578
        92 -11.3552    230.7830    186.0550   8.5084935047e+01   4.2024807761e+00    0.3946915    0.3116923 -16.45  0.002828417    1.354    0.262
        93  -8.8940    108.8023    185.3794   1.0835000213e+02   2.3763024565e+01    0.3017186    0.1427733  65.09  0.001146955    3.990    0.749
        94  -9.9761    211.0298    183.1369   8.7876686434e+01   7.5736646172e+00    0.4057629    0.2312779  14.92  0.002182826    1.958    0.489
        95  -8.5101     66.4757    185.5406   1.1763137536e+02   2.9575774589e+01    0.1220546   0.09098398  57.25 0.0008077073    1.074    0.068
        96  -9.6798     13.6360    182.9825   1.2894720871e+02   3.5640182197e+01    0.3231209    0.2150283   0.69  0.002006911    2.698    0.629
        97  -9.3880    203.6623    182.8335   8.9108269006e+01   8.7870685069e+00     0.220037    0.1131401 -26.59   0.00116359    2.204    0.546
        98 -10.3102    204.8273    176.0533   8.7739683585e+01   9.4375655442e+00    0.3059957    0.2293937 -12.55  0.001243465    1.355    0.262
        99 -10.2314    174.3628    180.8951   9.4192250574e+01   1.3868611620e+01     0.406529    0.2168124 -28.68  0.002053611    2.400    0.583
       100  -9.1769     27.4663    182.9757   1.2598940834e+02   3.4376830890e+01    0.1643562   0.06314417  68.86 0.0008091797    2.509    0.601
       101 -10.8037    231.8671    177.9608   8.3513706360e+01   4.9091804529e+00    0.3675556    0.1680031 -20.42  0.001877688    2.399    0.583
       102  -8.8510    197.4884    181.9556   9.0059651497e+01   9.8968916289e+00    0.1645499    0.1160899 -25.58 0.0005773169    1.554    0.356
       103  -8.4831    157.3118    181.2896   9.7612623740e+01   1.6665002995e+01    0.1245128   0.08893945  14.94 0.0002427076    1.584    0.369
       104  -8.8148    148.6018    186.7807   1.0019222190e+02   1.7263167198e+01    0.1486126     0.121824 -66.89 0.0009461746    1.638    0.389
       105  -9.8325    148.9378    175.1158   9.8363456897e+01   1.9038647244e+01    0.2649791    0.2116163  29.62  0.001642853    1.132    0.117
       106  -9.7956     76.3242    175.6406   1.1449874718e+02   3.0189307140e+01     0.331698    0.1491439  53.46  0.001355308    2.057    0.514
       107  -8.7242    218.3863    174.6764   8.5153836786e+01   7.3979869392e+00    0.1590389    0.1026515 -12.35 0.0009378488    1.590    0.371
       108  -9.6068    182.9167    174.2140   9.1439710100e+01   1.3361574734e+01    0.3036959    0.1605642 -20.08  0.001391915    2.783    0.641
       109 -10.5427    208.6593    170.0898   8.6005630655e+01   9.5499231516e+00    0.4378965    0.2593584  27.51  0.002436384    1.528    0.345
       110  -9.8680    214.0921    168.1788   8.4714767052e+01   8.8824055880e+00    0.2655331    0.1442378  31.91  0.001067867    1.630    0.387
       111  -8.7774     20.3035    173.3103   1.2709856455e+02   3.6924472011e+01    0.2350011   0.08927674  70.61  0.001163737    2.484    0.597
       112  -8.8389    193.3446    173.1530   8.9304187599e+01   1.1731879538e+01    0.2181151    0.1388912  28.63 0.0005972647    1.383    0.277
       113 -11.4441     21.9751    139.3220   1.2479793201e+02   4.3895527451e+01    0.9179121    0.5468959  35.47  0.003952584    1.629    0.386
       114 -11.6710     16.9652    111.9329   1.2421754070e+02   5.0545431106e+01    0.9859785    0.4639202  62.22  0.004204168    2.049    0.512
       115 -11.8692     46.5677    103.9102   1.1381343346e+02   4.9723142158e+01     1.045064    0.5118243  53.09  0.004763895    2.157    0.536
       116 -12.1965    233.0792    152.0322   7.8493144396e+01   7.6614931583e+00     2.419871     1.427882 -58.49  0.007876332    7.406    0.865
       117 -14.1670    245.0688    143.6582   7.4971063736e+01   6.6402140049e+00     2.803223     1.035031 -23.48   0.01222855    2.742    0.635
       118 -12.8454     36.4097    132.0388   1.2027763789e+02   4.4187707503e+01     2.295287    0.9043289  65.32  0.009367805    3.035    0.671
       119  -8.9805    196.1422    248.2977   9.9638801200e+01   2.7867894803e+00    0.1781708   0.09528602  25.74  0.001208322    1.464    0.317
       120  -9.0886    176.6241    171.2822   9.2145762810e+01   1.4862233377e+01    0.1624541    0.1171456 -21.06 0.0009389414    1.584    0.369
       121  -8.6198    162.6983    170.3516   9.4756725589e+01   1.7423916509e+01    0.1236039   0.09938081  70.97 0.0006213881    1.699    0.411
       122  -9.4726    121.4712    168.6391   1.0331955352e+02   2.4749714129e+01    0.3875477    0.2163703 -77.17  0.001641679    3.329    0.700
       123 -12.4201     56.0360    147.0768   1.1648398040e+02   3.8662564984e+01     1.093059    0.5502464  43.45  0.004594441    1.728    0.421
       124  -9.2734     29.9796    170.2854   1.2474983907e+02   3.6619910499e+01    0.1580629    0.1208851  52.19 0.0003247268    1.127    0.113
       125  -8.4269     14.6700    170.6893   1.2824340504e+02   3.7938172167e+01    0.0968688   0.08155099 -50.93 0.0007042063    1.668    0.401
       126  -8.3631    199.3530    167.3010   8.7160148461e+01   1.1486204469e+01    0.1340441   0.08509243  15.39 0.0007038229    1.700    0.412
       127  -8.7117     98.9424    166.1431   1.0814191082e+02   2.8793564685e+01    0.2253536     0.116292  56.60 0.0006773022    2.057    0.514
       128 -13.4913    248.6885    229.0757   8.8985533068e+01  -2.2373546356e+00       2.0413    0.7385839 -31.80   0.01180789    3.285    0.696
       129  -9.0726    185.4252    164.1832   8.9186992483e+01   1.4345320416e+01    0.2484738    0.1669596  -4.87  0.001165555    1.839    0.456
       130  -9.1917    149.4887    164.5164   9.6521149518e+01   2.0680086852e+01    0.3269729    0.1910458  55.92  0.001570392    1.998    0.499
       131  -9.1413    158.1276    163.7890   9.4574439861e+01   1.9268234736e+01    0.2813169    0.1429902  56.68  0.001164238    2.742    0.635
       132 -12.1511     39.6081    146.6538   1.2072511433e+02   4.0603180076e+01     2.416445    0.8847346  77.47  0.008618563    4.268    0.766
       133  -9.7348     71.0661    163.6764   1.1448617225e+02   3.3259549261e+01      0.33897    0.1870084  42.24  0.001337197    1.542    0.351
       134  -8.3457    192.3329    162.9883   8.7661860249e+01   1.3293966385e+01    0.2020915   0.09873382 -13.61  0.000704962    4.324    0.769
       135 -12.2989    249.1844    200.6866   8.4633986538e+01   1.4543904161e-01     1.050288    0.4606913 -17.45  0.005900837    2.435    0.589
       136  -8.7708     93.0093    160.7978   1.0884475589e+02   3.0740828138e+01    0.2301932    0.1207933  58.14  0.001074891    2.057    0.514
       137  -8.9069    205.4320    159.8146   8.4673541306e+01   1.1424832317e+01    0.1711037    0.1121091 -12.74 0.0007468226    1.657    0.397
       138  -8.9225    150.6413    160.3085   9.5552219302e+01   2.1181412440e+01    0.1343472   0.09976157  66.82 0.0007041501    1.734    0.423
       139 -10.2396     23.1823    151.2191   1.2524458830e+02   4.1206073956e+01    0.2400677    0.1290878  57.79  0.001395337    1.550    0.355
       140  -9.5980     26.8597    149.4098   1.2420535119e+02   4.1259485678e+01    0.2654484    0.1362842  65.89  0.001457846    1.735    0.424
       141  -9.3863     23.1966    159.2280   1.2570896471e+02   3.9517838350e+01    0.2477609    0.1319308  77.55  0.001130743    1.667    0.400
       142  -8.6018    144.4961    159.5549   9.6753105202e+01   2.2409172225e+01    0.1347913    0.1165059  39.86 8.075532e-05    1.017    0.017
       143  -9.1614    106.2761    158.2861   1.0531254055e+02   2.9172952612e+01    0.3486494    0.1743867  60.98  0.001438908    2.721    0.632
       144  -9.4121    105.0250    153.9635   1.0496867057e+02   3.0227928022e+01    0.3361998    0.2466491  20.04  0.001629644    1.687    0.407
       145 -10.1334    212.9417    155.5581   8.2534123972e+01   1.0669578807e+01    0.3203744    0.2759696 -12.93  0.001954374    1.199    0.166
       146 -10.2958     81.5891    152.5735   1.1057620397e+02   3.4101267831e+01    0.4722999     0.316028 -66.61  0.002650479    1.579    0.367
       147  -8.7077    119.4931    155.5163   1.0175321236e+02   2.7519151313e+01    0.1362267    0.1171016  52.99 0.0008097043    1.060    0.057
       148 -10.4254    133.6050    151.2381   9.7746272653e+01   2.5850874140e+01    0.6022475    0.3008937 -56.38  0.002652167    2.479    0.597
       149  -9.3927     97.9748    151.1261   1.0627445395e+02   3.1927838370e+01    0.2504459    0.1686943  37.71  0.001347178    1.387    0.279
       150  -9.2787    189.9962    146.2517   8.4864952927e+01   1.6125591499e+01    0.2868476    0.1689864 -29.55 0.0008619314    1.819    0.450
       151  -9.3740     91.3192    149.2910   1.0767205269e+02   3.3341568093e+01    0.2176631    0.2126659  -9.76  0.001411009    1.257    0.204
       152  -8.8443    221.1682    149.3681   7.9911162776e+01   1.0022353946e+01    0.1682994     0.113487  48.64 0.0009389914    1.655    0.396
       153  -9.4227    149.3306    145.3253   9.3091959121e+01   2.4019414913e+01    0.4034403    0.2533587  73.76  0.001606454    3.150    0.683
       154  -9.7092    106.9633    145.0079   1.0307565294e+02   3.1714072117e+01    0.4527026    0.2347301  64.90  0.001734793    3.078    0.675
       155  -8.4370     13.3333    146.6819   1.2746008701e+02   4.3008757144e+01    0.1279285   0.06260508  59.60 0.0003887978    1.694    0.410
       156  -8.7026    218.7305    143.5995   7.9153606481e+01   1.1191190237e+01    0.1696665    0.1182236  49.35 0.0009444864    1.605    0.377
       157 -13.2379     98.8988    133.1238   1.0313444734e+02   3.5551391443e+01     2.199812     1.107272  38.53  0.009821241    1.878    0.468
       158 -12.7889    139.1227    127.3717   9.1804310843e+01   2.9326204110e+01     2.214417     1.323335 -41.32   0.01024683    1.827    0.453
       159 -13.4021    112.0814    119.1382   9.6912047947e+01   3.6226159616e+01     2.455445     1.237642  48.93   0.01029903    1.961    0.490
       160 -12.3950    134.6187     94.3455   8.4967326849e+01   3.6782937032e+01     1.880854     1.352729   9.45   0.00816297    2.039    0.510
       161 -11.0385    174.1797    244.9632   1.0286585252e+02   6.0197743599e+00     0.298024    0.2279289  61.19  0.002233137    1.975    0.494
       162  -8.4233      3.6632    246.7256   1.3240412533e+02   2.5837289395e+01   0.07365859   0.06582855  36.94 0.0005787974    1.606    0.377
       163 -13.0097    119.9837     92.4293   8.8348034901e+01   4.0340035866e+01     2.288302      1.18646  63.09  0.007626371    3.044    0.671
       164 -12.1638     93.4387    112.1747   1.0067687006e+02   4.1093235717e+01     1.553854    0.6056975 -50.26  0.005869143    2.632    0.620
       165  -8.3821    197.3071    137.7018   8.1716542798e+01   1.5990765342e+01    0.1219482    0.1098318 -87.55 0.0002250644    1.592    0.372
       166 -13.3416    247.3475    183.5326   8.2064618256e+01   2.0349888333e+00     3.095762     1.138014 -13.34    0.0113042    5.226    0.809
       167 -11.9159     96.9187     97.0055   9.6243262530e+01   4.3903735217e+01     2.075763    0.8105895  56.28  0.005867601    4.626    0.784
       168  -9.5367    232.0140    133.4662   7.4870497621e+01   1.0094902142e+01    0.2103021    0.1544571 -18.23  0.001251731    1.254    0.203
       169  -8.8056     10.0017    132.7432   1.2760336082e+02   4.6304941036e+01    0.2000919    0.1255266  59.66 0.0006495679    1.336    0.251
       170 -11.0286     11.6091    127.3300   1.2685835117e+02   4.7398377370e+01    0.7830072    0.2942108  74.04  0.003522403    2.642    0.622
       171 -11.1601    249.2862    123.3466   7.0126183153e+01   8.2663696346e+00    0.3913385    0.2861702 -44.89   0.00231038    1.773    0.436
       172 -10.7799    249.0310    117.9833   6.9000719401e+01   8.9373656928e+00    0.3182804    0.2065884  -3.88  0.001777112    1.514    0.339
       173  -9.8073    151.9510    122.5158   8.7733210365e+01   2.7641467964e+01    0.2969976    0.2257517 -39.78  0.001528647    1.398    0.285
       174  -8.8909    107.6820    248.9350   1.1470376340e+02   1.4316291115e+01     0.138017    0.1036304  46.50 0.0007259893    1.103    0.093
       175 -11.1803     95.1367     66.4926   8.8212418600e+01   5.1015625071e+01     0.725805     0.491629 -36.23  0.002787771    1.570    0.363
       176  -9.7759    165.3523    116.2011   8.3285890193e+01   2.5958575694e+01    0.3749022     0.287057  18.18  0.001700531    1.467    0.318
       177  -9.6976    153.3824    114.7265   8.5597438118e+01   2.8779505662e+01    0.2189527    0.1468984 -42.18 0.0005202921    1.567    0.362
       178 -12.1202    103.1000     57.0707   8.2386911008e+01   5.1301126468e+01     1.060923    0.8299497  60.88  0.005196033    1.397    0.284
       179 -10.5334    158.9976    112.4923   8.3790687048e+01   2.7983394342e+01     0.357084    0.2123872 -46.53 0.0009865355    1.831    0.454
       180 -10.2563    159.0458    107.5481   8.2562307297e+01   2.8866677851e+01     0.416825    0.3227085  48.80  0.002107576    1.261    0.207
       181  -9.9507    146.6433    108.7330   8.5716576759e+01   3.1349249323e+01    0.4609787    0.2438176  32.69  0.001780497    2.310    0.567
       182 -11.0657    150.3164    103.1733   8.3450672428e+01   3.1598958550e+01     0.644673    0.5010201  60.69  0.002232912    1.389    0.280
       183 -11.8960    249.3630    104.7535   6.6010956412e+01   1.0438834612e+01    0.7490563    0.2450251 -23.93  0.002873895    2.980    0.664
       184 -10.0928    197.2883    102.9116   7.3691602613e+01   2.1200494634e+01    0.2925894    0.2479793  -8.42  0.001231416    1.154    0.133
       185 -11.8007     72.4769    117.0860   1.0780195397e+02   4.3271600474e+01    0.9590726    0.6398338  38.76  0.005002684    1.481    0.325
       186 -11.2874    154.1587     94.4569   8.0260057027e+01   3.2352845990e+01    0.8490033    0.5764143  44.85  0.003931576    1.436    0.304
       187  -9.4752      8.4617     96.3038   1.2570329869e+02   5.4811235918e+01     0.215245    0.1441482  -9.61  0.001257195    2.111    0.526
       188  -9.8610     15.0723     93.1046   1.2315733652e+02   5.5156422524e+01    0.2984117     0.132149 -65.41 0.0009424744    1.922    0.480
       189 -10.2760     20.6663     91.6544   1.2103954292e+02   5.5109728686e+01    0.3131498    0.2139253  25.64  0.001559116    1.671    0.402
       190 -12.0268     60.3668    110.6534   1.1043647512e+02   4.6441409052e+01     1.618368    0.4341385  32.62  0.005546053    3.680    0.728
       191 -10.9561    249.7191     88.0807   6.2108515625e+01   1.2350599422e+01    0.2726466    0.2149554  -6.65  0.001650974    1.152    0.132
       192  -9.1711     86.2027     86.8069   9.7085916961e+01   4.8148969435e+01    0.2920777    0.2079891  79.15 0.0009743957    1.837    0.456
       193 -11.0981    128.8987     82.4219   8.3098143246e+01   4.0439667019e+01    0.5864135    0.5125102  69.86  0.002276403    1.226    0.185
       194 -11.1588     51.7305     65.2716   1.0414894209e+02   5.8476609370e+01     1.070954    0.2837484 -54.09  0.003654643    3.119    0.679
       195 -10.1013     49.9250     57.4705   1.0275642081e+02   6.0557350063e+01    0.4032145    0.1860948 -57.89  0.001741686    1.937    0.484
       196 -10.1530     47.7638     84.1073   1.0999574441e+02   5.4396571609e+01    0.3268177    0.2865502 -83.72  0.001121477    1.042    0.040
       197 -10.3689     49.3331     77.9322   1.0813254926e+02   5.5716371414e+01    0.4623357    0.2542132 -46.16  0.001964759    1.901    0.474
       198  -9.5723     17.8740     82.7718   1.2101267222e+02   5.7467497246e+01    0.3904855    0.1165233 -67.49  0.001600035    2.578    0.612
       199  -9.8876      8.5517     83.2966   1.2454654120e+02   5.7921489533e+01     0.326187    0.2203724 -75.56 0.0009277352    1.233    0.189
       200 -10.3173    137.6222     80.2933   8.0206344786e+01   3.8849920902e+01    0.3547845    0.3203984  25.20  0.000994907    1.159    0.137
       201  -9.1135     24.2760     80.9833   1.1834595635e+02   5.7433404992e+01    0.2643971    0.1550497  69.31  0.001236679    1.835    0.455
       202  -8.3896    184.3036     77.6654   6.9334756751e+01   2.8071574139e+01     0.152936     0.115361 -63.67 0.0007037679    1.663    0.399
       203  -9.6071      3.2604     75.8895   1.2586323813e+02   5.9975937356e+01    0.2609453    0.2069059  62.97  0.001744824    1.251    0.200
       204 -11.0202    248.4944     74.9401   5.9113864187e+01   1.4142938722e+01    0.3631491    0.1156367 -25.78  0.001372005    2.767    0.639
       205  -9.9655    217.7064     73.2919   6.2702721847e+01   2.0886909101e+01    0.3629987    0.2666411   1.60  0.001397438    1.508    0.337
       206  -8.1866     10.2882     74.7040   1.2299184805e+02   5.9902834524e+01    0.1245646   0.07992075  66.79 0.0002003257    1.551    0.355
       207  -8.9877     82.1215     72.6332   9.4586193317e+01   5.2113170261e+01    0.2589406    0.1947849 -67.56 0.0009299145    1.419    0.295
       208  -9.6342     58.7605     72.0759   1.0310330170e+02   5.5920041017e+01    0.2518623    0.1786354 -17.01 0.0009756236    2.012    0.503
       209 -12.2880     75.9722    102.6393   1.0403411989e+02   4.6130151765e+01     1.275604    0.7989159 -55.21  0.006228566    1.569    0.363
       210  -9.2510     64.3994     68.1651   9.9861558037e+01   5.6038560299e+01    0.2821689    0.2083279 -68.60 0.0009030164    1.369    0.270
       211 -10.0430     62.8724     63.2808   9.9054112912e+01   5.7407851823e+01     0.424808    0.2516874 -50.78  0.001602149    1.565    0.361
       212 -10.1884     83.8099     64.3069   9.1418414532e+01   5.3675063962e+01    0.5163721     0.305777 -31.64  0.002136943    2.156    0.536
       213  -8.9416     43.2392     66.9916   1.0810587173e+02   5.9074806313e+01    0.1932868    0.1652062 -66.46 0.0006959109    1.044    0.042
       214 -10.4762    249.1331     64.1352   5.6398797734e+01   1.5273292294e+01    0.2069415    0.1717818   4.69  0.001254597    1.228    0.186
       215  -9.1103     73.1112     59.9147   9.3970606646e+01   5.6548389702e+01    0.2643304     0.178303 -66.62  0.001231618    1.688    0.408
       216 -10.4950    248.8825     55.2493   5.4224004368e+01   1.6338691664e+01    0.2637134    0.1625436   7.00  0.001266944    2.104    0.525
       217 -11.8800     18.2465    240.2063   1.2984054650e+02   2.5503551453e+01    0.5260586    0.3808023  38.78  0.004539131    1.373    0.272
       218 -11.0710     11.9366    243.5863   1.3098310691e+02   2.5573473285e+01    0.3395341     0.140295  44.85  0.001854664    1.510    0.338
       219  -8.9740     62.6193     55.2412   9.6646581626e+01   5.9295712003e+01    0.2033255    0.1209347 -45.35 0.0005287144    1.602    0.376
       220 -10.4970     22.3351     52.3928   1.1415541785e+02   6.4553818096e+01    0.4319246    0.3741827  74.05  0.002226133    1.231    0.188
       221 -11.9099     30.8335    229.7291   1.2731354928e+02   2.5910264299e+01    0.6366633    0.3307335  88.96  0.004510207    1.978    0.494
       222  -9.6012     22.3237     48.0041   1.1317326352e+02   6.5609647217e+01    0.3273966     0.153416 -46.56   0.00138565    1.994    0.499
       223  -9.6199     34.4827    213.3015   1.2597613618e+02   2.8221019669e+01     0.247957    0.1960666 -33.47  0.001824517    2.238    0.553
       224  -9.5649     46.4810     49.2114   1.0179607230e+02   6.2919347024e+01    0.2377237    0.1929493  26.50  0.001154925    1.374    0.272
       225 -10.0440      4.7118     41.5592   1.2093589756e+02   6.8171588717e+01    0.4125226    0.1550579  86.39  0.001580115    3.514    0.715
       226  -8.7297     25.7776     36.7239   1.0833096447e+02   6.7995784238e+01    0.2007108   0.09871743 -75.48 0.0008721501    2.361    0.577
       227 -10.9470     53.5563     48.9831   9.8482927957e+01   6.2040717131e+01    0.8181839      0.25724 -50.06  0.002939287    2.782    0.641
       228  -9.4403      6.6857     34.0464   1.1840679189e+02   6.9866904356e+01    0.1834181    0.1677537  48.84 0.0006775921    1.297    0.229
       229  -8.9835     12.8285     31.3660   1.1417903223e+02   7.0177616090e+01    0.1759472    0.1375581 -72.12 0.0006715829    1.154    0.134
       230 -13.1650    116.1787    103.3671   9.2211952985e+01   3.8806531634e+01      2.71296     1.558727  70.45  0.009506017    3.227    0.690
       231 -11.0172     65.6595     27.9208   8.4420467375e+01   6.4539819641e+01    0.6005915    0.2961165  53.31  0.002240514    2.659    0.624
       232 -10.8955     66.0075     23.2903   8.1996807044e+01   6.5331544425e+01     0.464752    0.3210031  30.93  0.002354824    1.565    0.361
       233  -9.9330    222.5493     32.8729   5.1054350186e+01   2.4732964194e+01    0.2436977    0.1992299 -86.21 0.0004311363    1.333    0.250
       234  -9.1191     44.0206     25.7518   9.4064397651e+01   6.8407865147e+01    0.1992263    0.1623093 -16.86  0.000482537    1.270    0.213
       235  -8.8442    110.5414     24.3316   6.6842816030e+01   5.5250992814e+01    0.1923287    0.1466681 -11.39 0.0009172728    1.424    0.298
       236 -10.3362     33.3579    208.2509   1.2596958500e+02   2.9196822264e+01    0.3395327    0.2034946  45.87  0.001694485    1.246    0.198
       237 -10.4619     28.7161    218.3679   1.2727672993e+02   2.7950217141e+01    0.3715436    0.1731598  81.47  0.002375574    2.103    0.525
       238 -10.8845     27.9748    211.3762   1.2714475302e+02   2.9195691871e+01    0.3989165    0.3116208 -41.61  0.002831361    2.157    0.536
       239 -11.6528    237.5987    240.4152   9.2192308460e+01  -1.7876404857e+00     0.342467    0.1916136  27.60  0.001945789    1.242    0.195
       240  -9.8003     36.3458    240.4897   1.2673770507e+02   2.3709391439e+01    0.1702071    0.1301686 -36.37    0.0013024    2.524    0.604
       241  -8.8253     43.5770    239.7554   1.2544547674e+02   2.3076372809e+01    0.1758108   0.09937615  29.99  0.001219903    1.790    0.441
       242 -12.0665    161.7850    234.9058   1.0386066257e+02   8.8220340216e+00    0.9841101    0.5479475   8.78  0.005023513    3.348    0.701
       243 -10.4952    169.8234    232.0183   1.0212594989e+02   8.0330242626e+00    0.3357162     0.212239  49.95  0.001578382    1.704    0.413
       244 -11.4574    164.5532    226.3807   1.0238247427e+02   9.4372616117e+00    0.4459182    0.2593541  29.66  0.002016774    1.396    0.284
       245 -10.0868     13.0213     21.4435   1.1109593251e+02   7.2442783454e+01    0.2379168    0.2140253 -19.81 0.0007690168    1.202    0.168
       246  -8.9805    188.3360     20.8554   5.1252493656e+01   3.4718042464e+01    0.2025197    0.1824748 -20.90 0.0005447653    1.127    0.113
       247 -10.3748     82.0657     19.5001   7.3539260006e+01   6.2712901359e+01    0.5269616    0.3273482  62.69  0.002049734    1.974    0.493
       248  -9.4189     86.6836     18.6866   7.1473368679e+01   6.1810483278e+01    0.2223881    0.1839793  47.68  0.000918764    1.217    0.178
       249  -9.4406      1.5839     19.2637   1.1814183474e+02   7.3502444184e+01    0.1823658   0.08303645 -60.36  0.000952958    1.644    0.392
       250 -10.0095     29.0436     18.1766   9.9339768763e+01   7.1802928878e+01    0.2806677    0.1681525  36.52  0.001094552    1.922    0.480
       251  -8.5661     50.7616     15.4257   8.5216413431e+01   6.9410293438e+01    0.1825824    0.1240158  23.01 0.0009401269    1.665    0.399
       252  -9.4458     40.9786     14.0180   8.9889833858e+01   7.1157213172e+01    0.1981341    0.1704845 -21.06 0.0003096941    1.055    0.052
       253  -8.5005     25.2864     11.3313   9.8461548324e+01   7.3611244804e+01    0.1327707   0.08221734 -29.79 0.0002706332    1.618    0.382
