#   1 NUMBER                 Running object number                                     
#   2 MAG_AUTO               Kron-like elliptical aperture magnitude                    [mag]
#   3 X_IMAGE                Object position along x                                    [pixel]
#   4 Y_IMAGE                Object position along y                                    [pixel]
#   5 X_WORLD                Barycenter position along world x axis                     [deg]
#   6 Y_WORLD                Barycenter position along world y axis                     [deg]
#   7 A_WORLD                Profile RMS along major axis (world units)                 [deg]
#   8 B_WORLD                Profile RMS along minor axis (world units)                 [deg]
#   9 THETA_WORLD            Position angle (CCW/world-x)                               [deg]
#  10 FWHM_WORLD             FWHM assuming a gaussian core                              [deg]
#  11 ELONGATION             A_IMAGE/B_IMAGE                                           
#  12 ELLIPTICITY            1 - B_IMAGE/A_IMAGE                                       
         1 -14.3061    196.4157     35.6624   5.1314562875e+01   3.0919625639e+01     1.813586     1.352218   4.01  0.004929594    1.466    0.318
         2 -14.6745    207.1392     23.6154   4.6149963770e+01   2.9476399842e+01     2.087004     1.337032  14.89  0.003425951    1.889    0.471
         3 -10.8586     63.0482      8.3423   7.0789732303e+01   6.7466530675e+01    0.1847617      0.17313  -4.34 0.0007847793    1.104    0.094
         4 -12.1507     58.9925      2.8958   6.9225142504e+01   6.9044897300e+01    0.4562338    0.2595894  37.73  0.002247256    1.943    0.485
         5 -12.1147     30.2621      2.6039   8.3689508706e+01   7.3540723126e+01    0.4747273    0.2201294  46.53  0.002195897    3.091    0.677
         6 -11.9350    230.5507      1.9251   3.7455956907e+01   2.5583304883e+01    0.6958176    0.2405737  74.92  0.002447267    3.084    0.676
         7 -12.6790    194.3089    195.5124   8.9026952695e+01   1.0043787631e+01    0.9566467    0.5564103 -58.06  0.004740512    4.081    0.755
         8 -10.8554    139.9128    249.6743   1.0401592276e+02   1.1949579617e+01    0.2046669    0.1275866  46.52   0.00154481    1.157    0.136
         9 -12.9096     73.5534    175.6477   1.0895538339e+02   3.1252942843e+01    0.6911896    0.4108559 -33.24  0.003171723    4.548    0.780
        10 -14.4189     87.6584    229.0886   1.1071738326e+02   2.1123822312e+01     1.757796    0.7988448  45.37  0.003431036    1.543    0.352
        11 -14.4146     21.2048    193.3791   1.2024719438e+02   3.3963113277e+01     1.083354    0.4902384  59.45  0.002965926    1.614    0.380
        12 -16.9888     52.1760    201.2971   1.1502088770e+02   2.9461806072e+01     4.626312     4.264821 -87.24   0.04064867    1.463    0.316
        13  -9.0179    154.2798    194.6384   9.5736737113e+01   1.6457247980e+01    0.1084519   0.08096702  68.19 0.0007013351    1.672    0.402
        14 -10.3474     96.7969    191.4492   1.0593549088e+02   2.5480976625e+01    0.2030728    0.1978461 -36.57  0.001066611    1.444    0.307
        15 -11.0339    149.3778    188.8085   9.5840544668e+01   1.8018227401e+01    0.3492195    0.2147566 -70.59   0.00189553    2.873    0.652
        16 -10.0641    156.9587    200.4777   9.6023621186e+01   1.5283778614e+01    0.2149072    0.1609695  71.09  0.001448451    1.781    0.438
        17 -10.0528     99.4347    180.6785   1.0429899624e+02   2.6864964186e+01       0.1988    0.1677976  49.53 0.0005811026    1.136    0.120
        18 -10.8937    209.4409    199.3189   8.7156391170e+01   7.2977202967e+00    0.2690851    0.2049105  89.97  0.001129016    3.528    0.717
        19 -11.1689     47.4673    172.8521   1.1402687221e+02   3.4888231048e+01    0.2970313    0.1890243 -65.70  0.001142265    1.753    0.430
        20 -10.6385     52.7657    171.2403   1.1282000505e+02   3.4584539884e+01    0.4279186    0.1716819 -69.29  0.002083828    2.484    0.597
        21 -11.6179    125.5853    173.5340   9.8271788958e+01   2.4087283887e+01    0.4988376    0.1829831  41.48  0.002276619    2.318    0.569
        22 -12.7769     50.9615    147.0691   1.1110724493e+02   3.9445146598e+01    0.8423173    0.3374565  35.97  0.004234723    2.409    0.585
        23 -13.2630     84.1454    163.3730   1.0548671559e+02   3.2055317703e+01     1.555045    0.3588196  51.26 0.0004143033    5.127    0.805
        24 -13.7938     72.4176    158.8156   1.0750476210e+02   3.4492288019e+01    0.4641655    0.4467795 -26.42  0.002116665    1.484    0.326
        25 -14.5864     68.4660    144.3808   1.0676762143e+02   3.7833054459e+01     3.938697       1.3493  58.80   0.00338542    4.323    0.769
        26 -10.7862    137.8746    171.1318   9.5532916811e+01   2.2479775685e+01    0.2387645    0.1815318  59.10  0.001139557    1.284    0.221
        27 -10.2068    201.9102    169.0351   8.3533773129e+01   1.1835499299e+01    0.3124183    0.1546998 -41.21  0.001612884    2.528    0.604
        28  -9.9681    204.3096    164.7716   8.2382112293e+01   1.1930208348e+01    0.2309388     0.206479 -50.31 0.0009443338    1.557    0.358
        29 -10.2531    163.6065    169.3197   9.0363395213e+01   1.8408009230e+01    0.2286593    0.1950308 -81.89 0.0009045609    1.587    0.370
        30 -10.1829    230.0000    166.0002   7.8458815086e+01   7.4355492931e+00    0.1744846   0.06315626 -28.13 0.0007989926    2.919    0.657
        31 -16.4722     69.3808    248.1670   1.1480631465e+02   2.0756012839e+01     7.637387     1.827471  34.53   0.02693817    5.573    0.821
        32 -16.8239      2.2843    232.2395   1.2456166896e+02   2.9612303065e+01     12.10315          nan -81.55    0.0181107   20.339    0.951
        33 -10.6700    193.5565    166.0373   8.4437879910e+01   1.3644770855e+01    0.2370934    0.2153561   8.50  0.000755172    1.149    0.130
        34 -12.2590     90.5648    156.3397   1.0326135153e+02   3.2447874482e+01    0.4639997    0.3787465 -20.46  0.002890076    1.961    0.490
        35 -11.5570    143.1650    171.1808   9.4517002487e+01   2.1596461419e+01    0.3367655    0.2311496  32.08  0.002024513    1.449    0.310
        36 -11.2777    134.0000    143.9868   9.1988480285e+01   2.7641394842e+01     0.764621    0.2583353 -57.37  0.002501437    4.923    0.797
        37 -10.7930    174.4900    148.8151   8.4761862578e+01   1.9423762704e+01    0.2686177    0.2230773  56.62   0.00100952    1.295    0.228
        38 -10.5128    189.1941    155.0828   8.3238963614e+01   1.5839683496e+01    0.4004754    0.1612773  41.88  0.001795447    2.173    0.540
        39 -13.6498     58.0954    129.6816   1.0749267135e+02   4.2189974358e+01     2.397571    0.7308943 -77.94  0.007127636    6.088    0.836
        40  -9.0913    109.2437    147.4370   9.7919385664e+01   3.1239219423e+01    0.1701134    0.1050949  53.56 0.0003737047    1.496    0.332
        41 -10.1336     87.2942    146.0924   1.0264798743e+02   3.4883847605e+01    0.2274908    0.1499877  55.32 0.0005545025    1.362    0.266
        42 -10.8434    142.8677    145.4218   9.0384271841e+01   2.5799055856e+01    0.2603402    0.1650099  35.05  0.001362665    1.591    0.371
        43 -11.0295    104.1979    140.4023   9.7955110231e+01   3.3387441031e+01    0.5174726    0.3277262 -28.47  0.002386737    2.968    0.663
        44 -12.4812     91.4840    141.0950   1.0098314299e+02   3.5241428673e+01    0.2376864    0.2182229  71.74 0.0004864368    1.100    0.091
        45 -11.4740     45.8923    137.4518   1.1135847566e+02   4.1986446068e+01    0.4987341   0.07489567 -66.32  0.001705715    4.882    0.795
        46 -12.8961     43.8968    128.1284   1.1088855443e+02   4.4171921985e+01    0.7984672    0.2968494  56.07  0.003546044    2.797    0.643
        47 -10.3828    112.7202    130.7849   9.4369161223e+01   3.3825978384e+01    0.2908632    0.2317167   3.50 0.0009515311    1.880    0.468
        48 -10.3654    105.9686    130.7331   9.5939801793e+01   3.4983259478e+01    0.2864718    0.2460465 -87.79  0.001104582    1.159    0.137
        49 -11.0710    135.6340    123.7989   8.7789558288e+01   3.0969976971e+01     0.290256    0.1794104 -46.55  0.001435982    1.721    0.419
        50 -11.7732    119.0655    125.5968   9.1927976516e+01   3.3713459225e+01    0.8408416    0.4227434 -38.86  0.003593281    2.621    0.618
        51 -11.2144     99.8003    127.4185   9.6835488109e+01   3.6666201859e+01    0.2899356    0.2362695 -23.67  0.001583063    1.746    0.427
        52 -10.1671    160.9918    127.9928   8.3259385192e+01   2.5267154087e+01    0.2150688    0.1716924 -88.20   0.00114664    1.724    0.420
        53 -10.1062    125.7061    127.1080   9.0692128950e+01   3.2216939472e+01    0.2944255    0.1876814  86.17 0.0009265328    2.709    0.631
        54 -10.9274     24.7944    120.8919   1.1508794062e+02   4.7635299577e+01    0.2368166    0.1041999  56.38  0.001235405    2.103    0.524
        55  -9.9986    108.6631    119.7972   9.3283278978e+01   3.6706065050e+01    0.2014013    0.1719149  40.55 0.0003826841    1.220    0.180
        56 -12.2138     45.1711    115.5423   1.0910169260e+02   4.6767678088e+01    0.3480469    0.2315984  89.29  0.001542217    1.357    0.263
        57 -10.3036    108.0347    114.0080   9.2285761033e+01   3.7991681394e+01     0.198505    0.1809106  76.46  0.001191877    1.034    0.033
        58 -10.0641    167.6587    112.3430   7.8412364972e+01   2.6480499742e+01    0.2882997    0.2286639 -81.10  0.001292591    1.757    0.431
        59  -9.7176    135.0026    112.3481   8.5463304857e+01   3.3227103707e+01     0.247683     0.142009 -45.60  0.001008736    1.814    0.449
        60 -11.6046    118.3930    110.0722   8.8894516048e+01   3.6892053753e+01    0.6280613    0.4051313  54.86  0.003094835    1.574    0.365
        61 -11.9510     46.0311    109.9879   1.0814742343e+02   4.7906468094e+01    0.3007859    0.2218243  50.26  0.001679062    1.343    0.255
        62 -11.0273     19.9507    110.8932   1.1549653527e+02   5.0244409694e+01    0.2692275     0.150693  54.42 0.0008540304    1.648    0.393
        63 -10.0301    205.7099    110.1412   7.0821231982e+01   1.8729776426e+01    0.2574808    0.1865091  38.20 0.0006110134    1.314    0.239
        64 -11.6235     41.0228    107.9742   1.0928985134e+02   4.8903204538e+01    0.2546277    0.1526567 -73.70  0.001294048    1.449    0.310
        65  -8.8424     98.7605    107.9841   9.3410517439e+01   4.0860544583e+01    0.1625594    0.1108589 -57.02 0.0008341947    1.449    0.310
        66  -9.9873    134.7822    104.7189   8.3742802674e+01   3.4716014333e+01    0.4292264    0.1159582 -42.01  0.001305442    3.974    0.748
        67 -10.6067     36.5892    101.7824   1.0976166834e+02   5.0760545650e+01    0.1814767    0.1007397 -85.59 0.0008514369    1.677    0.404
        68  -8.9573    103.9753    100.9794   9.0524814428e+01   4.1418962932e+01    0.1589885    0.1481185  72.49 0.0009337232    1.040    0.038
        69 -10.3157     59.5892     97.0566   1.0221840040e+02   4.9196598545e+01    0.2564413    0.1591172  58.08  0.001346726    1.694    0.410
        70 -10.9576     53.1639     90.9791   1.0307156530e+02   5.1393744389e+01    0.3180257    0.1706603 -66.02  0.001599935    1.645    0.392
        71 -11.1951     42.0860     91.7231   1.0664337975e+02   5.2492905883e+01    0.2674263    0.2334143   9.03 0.0007106932    1.553    0.356
        72  -9.4488    157.0248     80.5009   7.2311296299e+01   3.4248565964e+01    0.2222709    0.1467949  52.36 0.0005005771    1.520    0.342
        73  -8.9911    184.3567     77.2989   6.6006437004e+01   2.8278827229e+01    0.1585817    0.1098983  22.54 0.0007035912    1.704    0.413
        74 -10.4409     61.1975     68.6223   9.5569691614e+01   5.5495027067e+01    0.2893448     0.211307  61.69  0.001208414    1.549    0.354
        75 -11.2387    152.6727     55.7262   6.5505233990e+01   3.9457267229e+01    0.4640466    0.3140249 -76.32  0.001164676    2.222    0.550
        76 -13.7039    186.9405     42.8130   5.4996378544e+01   3.2502731764e+01     1.310785    0.8876475  17.13  0.001224013    1.793    0.442
        77 -15.5400      9.8958    206.5235   1.2270058722e+02   3.2838494256e+01    0.7660216    0.5858812  69.92   0.00357885    1.202    0.168
        78 -10.4243    172.8288    243.6989   9.8421593289e+01   8.1845147045e+00    0.2202773    0.1571189 -71.38  0.001617498    2.826    0.646
        79  -9.0173    163.4491    203.5125   9.5296386460e+01   1.3909393569e+01    0.1122352   0.08666084  38.21 4.382638e-05    1.013    0.012
        80 -10.9142    154.9044     49.7135   6.2995521957e+01   3.9842570109e+01    0.3628701    0.2724979 -70.37 0.0008484633    1.676    0.403
        81  -9.7198    107.9693    203.5026   1.0506314538e+02   2.2087061583e+01    0.1649812    0.0842854  43.55 0.0004196739    1.510    0.338
        82 -11.4492     26.7122     35.2942   1.0010248975e+02   6.7109824268e+01    0.3191789    0.1919402  46.87  0.001318392    2.059    0.514
        83 -10.4854     96.7292    200.6557   1.0683251667e+02   2.4053496017e+01    0.2518643     0.202664   8.61  0.001135157    1.993    0.498
        84  -9.8324    189.8047     15.0911   4.5341647640e+01   3.4946089854e+01    0.2372928     0.192506 -47.77 0.0006335116    1.232    0.189
        85 -10.8125    171.0941    233.8339   9.7637778017e+01   9.4003729851e+00    0.1791343    0.1473075 -80.03  0.001448094    2.029    0.507
        86 -15.9995      5.0316    249.0432   1.2448746493e+02   2.7049635278e+01    0.9266597    0.5646669  30.82  0.006546524    2.014    0.504
        87  -8.9925    129.2861    210.6191   1.0201633743e+02   1.8074299227e+01    0.1079025   0.07045873  65.46 0.0007013611    1.733    0.423
