#   1 NUMBER                 Running object number                                     
#   2 MAG_AUTO               Kron-like elliptical aperture magnitude                    [mag]
#   3 X_IMAGE                Object position along x                                    [pixel]
#   4 Y_IMAGE                Object position along y                                    [pixel]
#   5 X_WORLD                Barycenter position along world x axis                     [deg]
#   6 Y_WORLD                Barycenter position along world y axis                     [deg]
#   7 A_WORLD                Profile RMS along major axis (world units)                 [deg]
#   8 B_WORLD                Profile RMS along minor axis (world units)                 [deg]
#   9 THETA_WORLD            Position angle (CCW/world-x)                               [deg]
#  10 FWHM_WORLD             FWHM assuming a gaussian core                              [deg]
#  11 ELONGATION             A_IMAGE/B_IMAGE                                           
#  12 ELLIPTICITY            1 - B_IMAGE/A_IMAGE                                       
         1 -12.2928     60.4725     45.3566   1.0479379190e+02   5.9904386110e+01    0.9249948    0.4208971 -39.78  0.004502859    2.044    0.511
         2 -11.4566    178.2316     21.3577   6.8245447372e+01   3.8279335094e+01    0.5353876    0.3489182  17.37  0.002538541    2.470    0.595
         3 -12.4998    113.0651     24.5497   8.1408180898e+01   5.3229137080e+01    0.8438649    0.3627492  52.83  0.003774954    2.048    0.512
         4 -11.7009     26.0050     27.5475   1.1159184626e+02   6.6708134156e+01    0.4781277    0.4073478  23.91  0.003271229    1.499    0.333
         5 -11.1668     22.7168     11.1700   1.0640202282e+02   6.9311984123e+01     1.307079    0.5433325  12.10  0.005691225    4.103    0.756
         6 -11.9726     16.6602     13.7030   1.1018977556e+02   6.9549042180e+01    0.6924365    0.3371758 -14.71  0.002781428    2.325    0.570
         7 -11.2513     14.2541      9.4218   1.0948340586e+02   7.0334037433e+01    0.3437305    0.2507352  15.63    0.0026649    1.404    0.288
         8 -10.6791    153.3287     25.5007   7.3375441332e+01   4.3888042319e+01    0.5526448    0.3373843   0.16  0.002503437    2.552    0.608
         9 -10.1663     86.9939      7.3759   8.1753333593e+01   6.0225630510e+01    0.5278533    0.3238208  50.96  0.003088627    1.496    0.332
        10 -11.2482     90.7983     19.7775   8.5466873230e+01   5.8270577169e+01    0.4842909    0.3570189 -23.87   0.00276689    1.419    0.295
        11 -11.5199     86.1191     14.0921   8.4610495925e+01   5.9750413283e+01    0.4848076    0.2820298  -4.60    0.0021213    2.010    0.502
        12  -9.8041     32.1510     12.2018   1.0277311716e+02   6.8173088522e+01    0.2102563    0.1583876  43.11 0.0004079426    1.997    0.499
        13 -10.8450     47.1208     18.6126   9.9474479122e+01   6.5530292623e+01    0.3211665    0.2684882   3.12  0.002192621    1.137    0.120
        14 -12.1782     49.2218     12.9406   9.6283659672e+01   6.5924960947e+01    0.5511141    0.2911136  40.51  0.002819885    1.934    0.483
        15 -10.9938     42.4019     14.2493   9.9474725774e+01   6.6682035801e+01    0.3318215    0.1749949  28.91   0.00111005    1.795    0.443
        16 -11.8678     35.8779     18.7359   1.0398969510e+02   6.6910707056e+01    0.5670588    0.2879215 -25.50  0.003284064    1.802    0.445
        17 -11.9771     69.5094     17.8734   9.1192780068e+01   6.2278564015e+01    0.6332003    0.3428975  52.49  0.003328467    2.235    0.553
        18 -11.1516    165.3824     17.0955   6.8967984966e+01   4.1881303277e+01    0.3573761    0.2361134  41.36 0.0006883927    1.638    0.390
        19 -11.8896    243.9408     14.4927   5.9354180081e+01   2.3549790677e+01    0.3298738    0.2649417  44.66  0.001455659    1.765    0.433
        20 -12.2469    238.5124     15.5178   6.0039062461e+01   2.4633305014e+01     0.336075    0.3038877 -32.39  0.001420005    1.450    0.311
        21  -9.7085    145.9877     16.5048   7.1966102841e+01   4.6604933908e+01    0.1985374    0.1593482  64.22  0.001175906    1.105    0.095
        22 -11.3830    125.7905     11.1659   7.4057524529e+01   5.1788328827e+01    0.6439449    0.3777703  85.93  0.002946609    2.596    0.615
        23 -11.2118    134.7738     15.4335   7.3688649833e+01   4.9335622680e+01    0.7673414    0.2413905  53.12   0.00304463    2.516    0.603
        24 -12.0026    104.8945     13.1183   7.9325496800e+01   5.6133149506e+01    0.4096736    0.3222168   1.71  0.001651983    1.324    0.245
        25 -11.9240    211.5474      9.6975   6.1336138575e+01   3.1510235947e+01    0.4446531    0.3518788   4.85  0.001750125    1.952    0.488
        26 -11.4989    192.1970      7.9609   6.3014691518e+01   3.6310380060e+01    0.4369969    0.3117551  -0.56   0.00188292    2.127    0.530
        27 -10.2003    193.9365      1.4476   6.1237316430e+01   3.6535603310e+01    0.1908741    0.1064355  73.48 0.0003892801    1.511    0.338
        28 -10.5639    169.0602     10.0649   6.6488815581e+01   4.1699516371e+01     0.331086    0.1976663  46.19  0.001711158    1.722    0.419
        29 -10.6221     66.4419     10.5398   8.9193873150e+01   6.3571170553e+01    0.2112329    0.1654953  25.51 0.0007533493    1.101    0.092
        30  -9.7326      3.9598     10.6074   1.1482944800e+02   7.0991984008e+01    0.2726958    0.1180052 -17.77  0.001464655    2.674    0.626
        31 -12.7591    239.9520      7.6985   5.8305446611e+01   2.5221992417e+01    0.7530298     0.344419 -51.57 0.0002000207    1.948    0.487
        32 -10.6215    245.6801      9.3194   5.8165658770e+01   2.3776116304e+01    0.2453328    0.1321097 -62.45 0.0008394505    1.664    0.399
        33 -11.5439    247.1337      5.8723   5.7366321067e+01   2.3854757680e+01    0.4919238    0.2488131 -85.69  0.002328186    1.901    0.474
        34 -10.9782    162.9681      5.5700   6.6104355175e+01   4.3591759672e+01    0.4547383    0.2261519 -15.64  0.002107884    2.758    0.637
        35 -10.1478    151.1134      7.8561   6.8523451809e+01   4.6216520177e+01    0.3212137    0.1667768  60.66 0.0009761181    1.596    0.373
        36 -10.5510     62.9189      6.3395   8.8589107235e+01   6.4562399852e+01    0.2743503    0.1611003   0.04  0.001099679    1.812    0.448
        37  -9.9917      1.2653      7.3561   1.1479285951e+02   7.1630695825e+01    0.1516728    0.0700848 -41.69 0.0001659562    1.793    0.442
        38 -10.7265    199.6133      6.0681   6.1735056326e+01   3.4724832518e+01    0.3117377    0.1704293  76.46 0.0009036976    1.593    0.372
        39  -9.4982    184.7057      7.3282   6.3738796216e+01   3.8180566867e+01    0.1336286   0.08691325 -69.55 0.0002649167    1.628    0.386
        40 -10.8234     77.3239      5.0747   8.3562888777e+01   6.2220237958e+01    0.4589554    0.2247434 -21.68  0.002480238    2.125    0.529
        41 -10.6321     42.5809      3.2699   9.4567396577e+01   6.7886123944e+01    0.4124468    0.2087107   2.48  0.002140054    2.561    0.609
        42 -10.6868     71.4991      3.7121   8.4742620210e+01   6.3369935226e+01    0.2907788    0.2111844   0.71  0.001939632    1.290    0.225
        43 -11.3301    223.5138      1.9841   5.8506329506e+01   2.9551262533e+01    0.3929307    0.2156025  81.84  0.001771205    1.584    0.369
        44 -10.3132    171.1774      4.3746   6.4667234675e+01   4.1726801826e+01    0.2856102    0.1134179  73.36 0.0009254045    2.358    0.576
        45 -10.4719    141.6984      3.7288   6.8804110599e+01   4.8792748125e+01    0.3463289    0.1960914  61.91  0.001834046    1.470    0.320
        46 -12.1977    133.8458      2.6664   6.9804372261e+01   5.0694742608e+01    0.3572018    0.2276746  55.56 0.0005658242    1.299    0.230
        47 -10.9911    205.4648      2.2981   6.0251952359e+01   3.3716746498e+01    0.4373814    0.1971755  87.24  0.001394259    2.341    0.573
        48 -11.4672     19.7807     22.9675   1.1250859484e+02   6.7960607609e+01     0.513887    0.2506685 -37.82  0.002503122    1.670    0.401
        49 -11.0738      2.9137      1.7965   1.1158394065e+02   7.2248953366e+01    0.3430147    0.1478806  13.26  0.002046622    2.513    0.602
        50 -11.4817    112.7431      1.9037   7.3575030705e+01   5.5448606353e+01    0.5635181    0.1835593  64.48  0.001463126    3.169    0.684
        51 -10.8842    105.2334      1.7782   7.5147968550e+01   5.7050225117e+01    0.4375678    0.1764629  64.22  0.001488248    2.608    0.617
        52 -10.9871    218.5989      3.3459   5.9238553160e+01   3.0539369256e+01      0.27973    0.2367815  84.26  0.000723736    1.127    0.112
        53  -9.7269    113.9350    115.9049   1.0923880577e+02   3.7054808839e+01    0.2137426    0.1990759 -15.28 0.0003636501    1.173    0.147
        54 -12.1092      9.6464     97.7324   1.3591094737e+02   5.4601217736e+01    0.8326325    0.4797651  40.13  0.004980117    2.184    0.542
        55 -12.2338      7.2845     88.7670   1.3507392090e+02   5.6666615754e+01     1.058764    0.5282065   2.57 0.0009821099    2.896    0.655
        56 -11.9464     25.6535    113.4900   1.3389855579e+02   4.9932679030e+01    0.8149765    0.4077487   5.46  0.003718601    3.512    0.715
        57 -12.8671     26.7672    106.4897   1.3235807320e+02   5.1412530885e+01     1.249605    0.7393701 -23.84  0.006448492    2.301    0.565
        58 -12.2602     18.8370    106.2894   1.3464451893e+02   5.2088272843e+01     0.310041    0.1966264 -51.46 0.0002611395    1.316    0.240
        59 -12.2207     18.4543     90.4957   1.3188949119e+02   5.5563106861e+01    0.4806917    0.2456268 -48.21 0.0006209444    1.578    0.366
        60 -10.2705      7.4899    114.5231   1.3911183039e+02   5.1052748754e+01    0.2159151    0.1666919 -70.18 0.0008289359    1.033    0.032
        61 -11.6841      2.5406    112.0598   1.4011605569e+02   5.1906426692e+01    0.3629985    0.2309746 -66.07 0.0009240495    1.179    0.152
        62 -10.6387      5.5366    108.5333   1.3879209318e+02   5.2500084851e+01     0.199306    0.1662687 -88.76 0.0007935609    1.233    0.189
        63 -11.7982      3.4098    104.9401   1.3886312397e+02   5.3414707592e+01    0.3609371    0.3027583 -36.93  0.001062881    1.319    0.242
        64  -9.3933    126.7775    114.1216   1.0538235532e+02   3.4853662070e+01    0.2006898     0.180011  -8.25   0.00040495    1.279    0.218
        65  -9.4058     88.0573    114.5458   1.1608797100e+02   4.2020138997e+01    0.2096689    0.1175204  60.46 0.0003064242    2.699    0.630
        66 -10.5147     67.1420    112.2123   1.2159615165e+02   4.5690930761e+01    0.4487804    0.2467672 -61.12  0.002079551    1.741    0.426
        67 -10.2059     45.6937    120.6290   1.2948278598e+02   4.6367105354e+01    0.2482666    0.2089503 -86.11  0.001230734    1.206    0.171
        68  -9.7634     48.9356    112.1279   1.2691636483e+02   4.7966745067e+01     0.200241    0.1697444 -88.37  0.001224639    1.274    0.215
        69 -10.3699    170.4987    110.2264   9.3850584127e+01   2.5814458536e+01    0.3122898    0.3036948 -76.60  0.001651545    1.005    0.005
        70 -10.4013     78.4743    108.1132   1.1732270218e+02   4.4994013771e+01    0.3567378    0.2938059 -15.86  0.001371292    1.417    0.294
        71 -13.4370     19.0988     95.6658   1.3267707145e+02   5.4401733412e+01     0.675956    0.4803209 -33.10 0.0005773064    1.455    0.313
        72 -10.0318    175.1492    107.1390   9.2044553947e+01   2.5334409165e+01    0.2351532    0.2174506   3.22 0.0005202414    1.239    0.193
        73  -9.8124    157.8275    105.7406   9.5527808642e+01   2.9720343099e+01    0.2280442     0.214374  18.93 0.0006245939    1.165    0.142
        74  -9.6168    143.2849    106.0084   9.9065657088e+01   3.3010597108e+01     0.223039    0.2069901 -53.32  0.001079339    1.069    0.064
        75 -10.5783     85.8331    105.2945   1.1447224055e+02   4.4472361407e+01    0.3441083    0.2494378 -34.18   0.00166197    1.445    0.308
        76 -10.4837     48.0751    103.0597   1.2528335484e+02   5.0112792419e+01    0.2381458    0.1917545   1.08 0.0003643341    1.506    0.336
        77 -10.1009     52.3415     96.9061   1.2258851880e+02   5.0991993234e+01    0.5152425   0.08262633 -50.47  0.001535378    4.385    0.772
        78  -9.1300     82.2668    102.6860   1.1486660342e+02   4.5620940715e+01    0.1357828    0.1094526 -85.79 0.0004109234    1.547    0.353
        79 -10.0761     68.0126     99.5126   1.1836920113e+02   4.8427398826e+01    0.3232476     0.253709  77.83  0.001742482    1.703    0.413
        80 -10.2467     68.4698     95.4859   1.1722489291e+02   4.9244382215e+01     0.425799    0.2960981 -11.03  0.002124821    1.938    0.484
        81  -9.2897    210.6974     98.3555   8.2927281646e+01   1.8544091156e+01    0.1599427    0.1115033 -69.94 0.0007039005    1.710    0.415
        82  -9.9836     57.6922     97.9508   1.2116964386e+02   5.0120777966e+01    0.1947973    0.1564826 -53.60 0.0006818994    1.105    0.095
        83  -9.2843     78.1045     97.1764   1.1470648906e+02   4.7473466385e+01    0.1770495    0.1589822 -86.98  0.000360902    1.294    0.227
        84  -9.9491     42.2897     94.6106   1.2521840241e+02   5.2594057164e+01    0.2145368    0.1831534 -74.89 0.0006221496    1.260    0.206
        85 -11.5902     81.9594     93.1936   1.1248564581e+02   4.7730609022e+01    0.4157737    0.3366588  88.01 0.0009143805    1.661    0.398
        86 -10.6762     34.7758     92.6148   1.2715577730e+02   5.3761556326e+01    0.4294302    0.2928511 -71.63  0.002482909    1.536    0.349
        87 -11.6333     37.4592     86.0900   1.2481940366e+02   5.4904278818e+01    0.3915654    0.2799281  22.77  0.000831857    1.635    0.389
        88 -11.4664     44.5506     85.3587   1.2231996605e+02   5.4340781843e+01    0.7962135    0.5064355  71.48   0.00364142    3.131    0.681
        89 -10.3942    125.6224     93.2778   1.0006116848e+02   3.9530521303e+01    0.4977066    0.2147965  43.50   0.00180524    2.371    0.578
        90  -9.7988    116.8110     93.0051   1.0234669910e+02   4.1426011344e+01    0.2761539    0.1876298  30.76  0.001252903    1.675    0.403
        91  -9.7417    101.7503     90.6232   1.0590137766e+02   4.4856327056e+01    0.1977245    0.1763583 -28.33 0.0006006723    1.099    0.090
        92 -10.8632     89.3556     89.9637   1.0936607241e+02   4.7197729303e+01    0.3499152    0.2610944 -44.81 0.0009834806    1.259    0.206
        93 -10.4775    113.3160     83.8708   1.0067457235e+02   4.3967970438e+01    0.4560756    0.2268968 -36.68  0.001826943    2.101    0.524
        94 -11.1570     66.6638     81.7605   1.1415072451e+02   5.2386743367e+01    0.4568027    0.2955039  22.47  0.002369181    1.789    0.441
        95 -11.0652     79.9335     82.8367   1.1023656470e+02   5.0202883922e+01    0.5524157    0.4744165 -87.35   0.00261087    1.530    0.347
        96 -11.5176     73.6362     77.5567   1.1070348902e+02   5.2227590430e+01    0.6012049    0.4516704   2.50  0.003281643    1.552    0.356
        97  -9.5060     92.9327     85.5108   1.0703170318e+02   4.7495556874e+01    0.1970542    0.1400969  37.01 0.0003618909    1.472    0.321
        98  -9.8721    165.8722     83.0869   8.7579936316e+01   3.2210017797e+01    0.2475473    0.2090952 -73.04  0.001237742    1.283    0.220
        99 -11.3164     58.2390     78.1981   1.1591926656e+02   5.4227180982e+01    0.2680839    0.2369043  20.20  0.000943477    1.239    0.193
       100 -11.3095     52.9440     76.1667   1.1712703741e+02   5.5287751707e+01    0.4874756    0.3121091 -49.60  0.002702107    1.391    0.281
       101 -12.0816    247.8486     77.4675   7.2418127865e+01   1.3728080547e+01    0.4888036    0.3174229 -27.10  0.002401898    1.854    0.461
       102 -10.9343    108.1834     79.9279   1.0094193475e+02   4.5757263958e+01    0.4825003    0.3555222 -81.02  0.001871454    2.137    0.532
       103  -8.9850    121.6529     78.7474   9.6886989964e+01   4.3220169388e+01    0.1478828    0.1128771  16.55 0.0002876419    1.587    0.370
       104 -10.3747     13.8093     54.3727   1.2518464253e+02   6.3147511555e+01    0.2048998    0.1388835 -43.77 0.0002209433    1.131    0.116
       105 -11.9426     13.8208     74.4472   1.3008373417e+02   5.9232941682e+01    0.4259698    0.3052205 -55.08  0.001648243    1.124    0.110
       106 -11.0307     13.9767     66.5274   1.2821353160e+02   6.0807136273e+01    0.2856565    0.2461387 -89.36 0.0009450586    1.527    0.345
       107 -12.0133      2.0750     70.6892   1.3330577634e+02   6.0683449899e+01    0.5429667    0.1462624 -60.71  0.002089841    2.633    0.620
       108 -12.4668      8.8794     61.6894   1.2889201256e+02   6.2074593495e+01    0.6149335    0.4331269 -38.41   0.00274065    1.149    0.130
       109  -9.5174      4.8255     77.8765   1.3382183737e+02   5.9078558019e+01    0.1497459    0.1176019 -73.94  0.001058762    1.303    0.233
       110 -10.2562     93.7928     76.2563   1.0403629586e+02   4.9167088942e+01    0.3731494    0.2558135  25.89  0.001189197    1.629    0.386
       111 -10.0870     84.7939     67.5471   1.0410298138e+02   5.2358618419e+01    0.3176389     0.230796  65.10  0.001270288    2.077    0.518
       112 -11.7225     73.9873     50.0555   1.0180172450e+02   5.7133615886e+01    0.9705811    0.5587679 -48.62  0.004832135    2.048    0.512
       113 -11.5606     78.7354     67.2896   1.0594552674e+02   5.3400504714e+01    0.6405935     0.467016 -70.47  0.003051921    2.156    0.536
       114 -11.1982     32.5889     71.9062   1.2297680148e+02   5.8278379380e+01     0.512994     0.234914  26.42  0.002035258    2.507    0.601
       115 -10.5023     38.5096     73.5080   1.2133825731e+02   5.7396046610e+01    0.1974192    0.1624866 -15.28  0.000655366    1.224    0.183
       116 -11.0527     41.0824     70.4017   1.1960838489e+02   5.7753410692e+01    0.3551831    0.2493584 -54.60  0.001717857    1.358    0.264
       117 -11.2485    187.3470     69.7184   7.9742364245e+01   2.9256532123e+01    0.4921854    0.4362914 -38.19   0.00203956    1.192    0.161
       118  -8.7493    162.3332     70.6568   8.4838204177e+01   3.5269848697e+01    0.1591138    0.1153971 -75.75 0.0007050613    1.758    0.431
       119 -11.1575    122.4088     68.3004   9.3502585386e+01   4.4947793751e+01    0.5502961     0.330827  46.90  0.002399484    1.628    0.386
       120  -9.4052    208.8163     68.1462   7.5759298735e+01   2.4246903065e+01    0.1872425     0.173221  32.22  0.000465625    1.308    0.235
       121  -9.9253    172.1918     67.6941   8.2017371428e+01   3.3344645833e+01    0.3002502    0.1899481 -58.65  0.001302541    1.855    0.461
       122 -11.0378    219.5800     66.4226   7.3727645253e+01   2.1943991891e+01    0.5986211    0.2639758  64.78  0.002392083    2.347    0.574
       123 -10.8275    143.5101     83.6598   9.2801082476e+01   3.7427432945e+01    0.3720272    0.2888964 -29.53  0.001284811    1.381    0.276
       124 -10.9942     58.2326     61.7225   1.1104833056e+02   5.7401432096e+01    0.4074112    0.2743811 -53.70  0.001407669    1.644    0.392
       125 -11.4441    127.3154    242.4108   1.2905932058e+02   6.9339476428e+00    0.3208375    0.2056222 -68.17   0.00178222    1.841    0.457
       126 -10.8206     60.6338     36.4905   1.0151447529e+02   6.1237936500e+01    0.2970397    0.1912965 -32.22 0.0009907885    1.445    0.308
       127 -10.2142     20.9222     65.0750   1.2536168034e+02   6.0597905867e+01    0.1776451    0.1370281 -38.16  0.000761741    1.049    0.047
       128 -10.4848    204.4150     63.9023   7.5382334492e+01   2.5999368021e+01    0.2585267    0.2122821  45.07 0.0001218421    1.381    0.276
       129  -9.7058    167.6244     63.0370   8.1605266255e+01   3.5231796504e+01    0.1957564     0.183771 -59.62 0.0006333841    1.086    0.079
       130 -10.5357     87.5672     56.7199   9.9710464982e+01   5.3772172986e+01    0.3722785    0.1682265 -38.56  0.001218973    2.158    0.537
       131 -10.9240     91.9257     62.1782   1.0017241207e+02   5.2069886980e+01    0.3518277    0.3138481 -40.67  0.001208923    1.192    0.161
       132 -10.4481     91.4854     57.9720   9.8922539196e+01   5.2864949525e+01    0.3581372    0.2484831  33.56  0.001196096    1.438    0.305
       133 -10.3318    159.7252     61.6510   8.2794822520e+01   3.7392121667e+01    0.3819393    0.2277621  37.11  0.001619088    2.000    0.500
       134 -10.0135    113.6138     61.0276   9.3550526718e+01   4.8047767147e+01    0.3720571    0.1646849 -39.00  0.001499926    2.283    0.562
       135  -9.7642     98.2310     62.3289   9.8330825964e+01   5.0881444589e+01    0.2155785    0.1657414  25.50   0.00116024    1.330    0.248
       136 -11.4631     40.3210     55.8685   1.1563679927e+02   6.0581911096e+01    0.4605157    0.3494062  55.42   0.00230481    2.074    0.518
       137 -11.5182     51.1548     61.3037   1.1340141537e+02   5.8366584157e+01     0.476377    0.2796682 -52.04 0.0009476889    1.731    0.422
       138 -11.0242     46.4840     58.4924   1.1420122123e+02   5.9428861829e+01    0.3499854    0.2234287 -49.97  0.001266261    1.525    0.344
       139  -8.6240     26.2156     60.0281   1.2208215641e+02   6.1145393740e+01    0.9162195    0.3924338  46.58  0.003688719    4.901    0.796
       140 -11.2886     25.4693     55.3032   1.2102026751e+02   6.2090848268e+01    0.6982686     0.322068  10.84  0.003454075    2.930    0.659
       141 -10.3608     29.3306     52.6971   1.1878356091e+02   6.2230478874e+01    0.3253432    0.1787261  36.35  0.001848267    2.271    0.560
       142  -9.0670    146.5282     60.5576   8.5291892666e+01   4.0747487749e+01    0.1452875    0.1381485  54.55 0.0001647832    1.005    0.005
       143 -10.7845    122.7292     58.6013   9.0369575828e+01   4.6500361096e+01    0.3841141    0.3374626  71.00  0.001911705    1.286    0.222
       144 -10.3938    117.3212     56.1881   9.0997322822e+01   4.8050927889e+01    0.3362776    0.2250694  55.13  0.001039724    1.554    0.356
       145 -10.6869    136.2349     56.5447   8.6414004155e+01   4.3790302753e+01    0.4903409    0.3403189   7.63  0.001565832    2.048    0.512
       146  -9.9851    157.4754     56.5319   8.1765809043e+01   3.8742149731e+01     0.265116    0.2147773 -18.74 0.0006199638    1.422    0.297
       147 -10.6859    156.9815     53.4782   8.0971025976e+01   3.9325066439e+01    0.6101747    0.3823423 -71.08  0.002536241    2.399    0.583
       148  -9.5615     34.9681     57.0426   1.1797634248e+02   6.0910364613e+01    0.1442748    0.1183576 -27.66 0.0009809573    1.029    0.028
       149  -9.8736      2.1019     56.1236   1.3005388805e+02   6.3521983466e+01     0.173222    0.1110685 -38.10 0.0006084422    1.245    0.197
       150  -9.7336     67.1230     54.9442   1.0578048184e+02   5.7368093906e+01    0.1801656    0.1715384 -33.48 0.0006683366    1.251    0.200
       151 -10.7088    248.8342     53.3822   6.7038468983e+01   1.7259757932e+01    0.2313889    0.1628977  63.10  0.001297027    1.502    0.334
       152 -11.1529    145.7796     46.1773   8.1092902423e+01   4.3083139265e+01    0.5116464    0.2768817 -30.89  0.002011841    2.007    0.502
       153 -11.3598    240.0275     50.5308   6.7415327209e+01   1.9636916391e+01     0.278999    0.2305661  84.96 0.0008210989    1.147    0.128
       154 -10.6832    112.9236     50.1789   9.0189018413e+01   4.9906084316e+01    0.6941023    0.3322012  29.64  0.002544593    3.121    0.680
       155 -12.4566    117.2013     42.8873   8.6645583168e+01   5.0049084513e+01    0.9568387    0.5672649  66.53  0.004009889    2.202    0.546
       156 -12.8477    120.0332     38.7732   8.4565998620e+01   4.9990295712e+01    0.8106228    0.6504906 -89.62  0.001948868    1.672    0.402
       157 -11.6860     46.0719     48.9536   1.1127241963e+02   6.1158678403e+01    0.4276457    0.3215472 -13.27  0.001317056    1.222    0.182
       158 -12.1549     41.8486     45.4568   1.1167802004e+02   6.2230514737e+01    0.3699259    0.3041103  35.21 0.0003546885    1.524    0.344
       159 -10.5434    173.7338     48.2868   7.6328011338e+01   3.5959168170e+01    0.4108738    0.2370924  71.62  0.001448226    1.834    0.455
       160 -10.1510     52.0102     47.7996   1.0869256543e+02   6.0632250604e+01    0.2751338    0.1407081 -32.46  0.001408628    1.832    0.454
       161  -9.8238      3.2111     49.0390   1.2784652391e+02   6.4781927061e+01    0.2030408    0.1454875  13.63  0.001481841    1.644    0.392
       162 -10.3911    201.9118     46.5963   7.1398340878e+01   2.9223279498e+01    0.3510817    0.2265369 -52.89  0.001737871    1.548    0.354
       163 -10.4962     27.3218     47.4401   1.1793112678e+02   6.3345213933e+01    0.4034983     0.201975  -4.10  0.001282261    3.045    0.672
       164 -10.7630     20.8861     46.9989   1.2031665318e+02   6.3964970480e+01    0.2823419    0.2041478 -42.99 0.0009833857    1.173    0.147
       165 -11.4100     85.9448     73.5872   1.0562214205e+02   5.1039400061e+01    0.5188267    0.4784237 -28.08  0.002277174    1.053    0.050
       166  -9.0375    132.3180     45.3113   8.3787520547e+01   4.6350523230e+01    0.1453772    0.1029083  24.82 0.0002551895    1.642    0.391
       167 -10.1620    100.2172     42.6338   9.1110778670e+01   5.3586815168e+01     0.390425    0.2298054 -58.16  0.001629418    3.103    0.678
       168 -11.1832     94.1236     41.3613   9.2421633241e+01   5.4941890634e+01    0.4948525    0.2354588  45.69  0.001726681    2.015    0.504
       169 -10.5778     33.9403     43.8517   1.1417962399e+02   6.3336472570e+01     0.246839    0.1768964 -27.23 0.0007865586    1.142    0.124
       170  -9.9202     30.5663     40.2467   1.1428730690e+02   6.4268812486e+01    0.2903659    0.1568852  37.73  0.001440972    2.364    0.577
       171  -9.8272      3.0341     44.5106   1.2669533823e+02   6.5611190699e+01    0.1922706    0.1020201  12.17 0.0007137408    2.173    0.540
       172 -11.2732    156.2398     41.7942   7.7672959758e+01   4.1165285023e+01    0.4246211    0.3059442  60.10 0.0008659398    1.277    0.217
       173  -9.6433    139.4109     43.6692   8.1680742141e+01   4.4935574929e+01    0.2576708    0.1212613  55.41  0.001076912    1.952    0.488
       174 -10.0473     18.2900     42.0895   1.1982527873e+02   6.5024615273e+01    0.2447506     0.136724  -3.75  0.001431784    2.088    0.521
       175 -11.0810    231.5556     39.2464   6.5872395011e+01   2.3174040761e+01    0.3343935    0.2109296 -52.35   0.00177682    1.454    0.312
       176 -10.9824     81.3627     39.1920   9.5537597311e+01   5.7560571273e+01    0.4130566     0.335121  64.75  0.001553286    1.761    0.432
       177 -10.8544     77.8273     34.2067   9.4828748753e+01   5.8858548902e+01    0.3836078    0.2145466  30.23  0.000972104    1.805    0.446
       178 -11.2677     82.4204     31.5517   9.2384946755e+01   5.8414003188e+01    0.3606023    0.2947014 -54.11  0.002187713    1.717    0.418
       179 -11.3064      4.4158     36.2313   1.2371652069e+02   6.6977229010e+01     0.381027    0.1999413 -29.65  0.001151716    1.613    0.380
       180  -9.8314      6.4820     30.7974   1.2110436853e+02   6.7755608153e+01    0.2589173    0.1294091  -0.30  0.001527222    2.339    0.572
       181  -9.4795    219.3052     38.3548   6.7099697968e+01   2.6166046688e+01    0.1296504     0.104511  33.22 0.0007040938    1.715    0.417
       182 -10.5194    176.7295     36.9760   7.2701432424e+01   3.6759827839e+01    0.3485669    0.2429702 -39.42  0.001815177    1.515    0.340
       183 -11.6773    183.0005     24.9897   6.8532812796e+01   3.6691699062e+01    0.5819833    0.2654417  53.25  0.002182841    2.067    0.516
       184 -10.0184    150.6641    237.6599   1.2388499649e+02   3.7378081096e+00    0.1280452    0.1000498  10.02 0.0007051053    1.757    0.431
       185 -10.4154    172.4801     33.0441   7.2303038257e+01   3.8311047408e+01    0.2736276     0.195429  76.80  0.001130796    1.356    0.262
       186 -10.6838    175.8414     29.6672   7.0843996153e+01   3.7897291368e+01    0.2980624    0.2542098  13.11   0.00112302    1.485    0.327
       187  -9.7305    133.6707     37.6526   8.1034048597e+01   4.7070218966e+01    0.3326701    0.2000341 -66.21  0.001363201    2.882    0.653
       188 -10.9247     22.5532     36.5746   1.1627244271e+02   6.5602696551e+01    0.3348665    0.2133915  38.38  0.001718612    2.162    0.538
       189  -9.5025    206.9666     37.2775   6.8394558850e+01   2.9275824127e+01     0.176089    0.1115503  71.07 0.0007423135    1.462    0.316
       190 -10.2880    153.3858     36.1950   7.6552748567e+01   4.2589993684e+01    0.2581981    0.2102842  83.03 0.0006226269    1.287    0.223
       191 -11.2663    105.7797     32.7985   8.6137507273e+01   5.3781271991e+01     0.598136    0.3307444  11.79  0.001654606    3.049    0.672
       192  -9.6998     80.5058    230.4664   1.3665535783e+02   1.6756044334e+01    0.1278078    0.1006032  70.79 0.0002923499    1.014    0.014
       193 -10.9284    105.9418     20.1406   8.1596212760e+01   5.5209414564e+01    0.3296341     0.192247 -29.44   0.00106393    1.843    0.457
       194 -10.8954     69.6517     32.5093   9.6883437533e+01   6.0433440730e+01    0.4203636    0.2494995  32.06 0.0007638445    1.617    0.382
       195  -9.7280    160.8613     33.2897   7.4332442895e+01   4.1135913819e+01    0.2292624    0.1666674  84.67 0.0008643938    1.488    0.328
       196 -10.8102    240.7116     31.3353   6.3169132060e+01   2.2154080074e+01     0.287885    0.2457912 -34.89  0.001642282    1.414    0.293
       197 -10.0033    190.1808     32.3818   6.9446867790e+01   3.4023207088e+01    0.2713385    0.2037194 -89.33   0.00147757    1.298    0.230
       198 -10.4862    189.5051     27.5636   6.8296921099e+01   3.4786065230e+01    0.3299115    0.2517543  28.41  0.001622896    1.752    0.429
       199 -10.1955     60.1125     24.6216   9.7119618732e+01   6.2942223144e+01    0.4562414    0.1741163 -43.68  0.001913078    3.575    0.720
       200 -10.9226     56.3094     30.8698   1.0094026640e+02   6.2655685009e+01    0.3690023    0.1971484  36.70  0.001713658    1.885    0.470
       201 -11.9099     48.2402     30.2913   1.0372413994e+02   6.3820096222e+01    0.6205692    0.2643793  29.67  0.002828222    2.458    0.593
       202  -8.9076    182.6778     31.7192   7.0362145040e+01   3.5957545134e+01    0.1370703   0.09880027  41.24 0.0002995659    1.588    0.370
       203  -9.3303      9.2847    227.3163   1.4916741610e+02   2.6357473910e+01   0.09605382   0.07302973 -68.27 0.0001904223    1.584    0.369
       204  -9.8522      9.6415    217.7547   1.4851103938e+02   2.8232126013e+01    0.1573035   0.07875476 -89.46 0.0007006088    1.604    0.377
       205  -9.7720    152.4855    207.5068   1.1884215673e+02   9.0196218312e+00    0.1416314    0.1276931  55.63 -2.683596e-05    1.019    0.019
       206 -10.2606      4.5561    204.8300   1.4855581189e+02   3.1374624268e+01    0.2122962   0.08017869 -72.52  0.001131927    2.087    0.521
       207 -11.0193     15.1724     22.8226   1.1447270163e+02   6.8372751518e+01    0.3130693    0.1860732 -37.71  0.002119469    1.371    0.271
       208 -10.8234    198.2462     28.6543   6.7403575710e+01   3.2510714537e+01    0.3307783    0.2323154  58.09  0.001798842    1.385    0.278
       209 -10.1053    199.6879     24.9750   6.6306717839e+01   3.2608568147e+01    0.2323552    0.2021529 -73.01 0.0004611926    1.093    0.085
       210 -11.7323    125.5109     27.4321   7.9509125055e+01   5.0172821612e+01    0.4998723    0.4037813  79.48  0.002630672    1.442    0.306
       211  -9.6965    159.8525     29.1762   7.3314560674e+01   4.1880701917e+01    0.2148134     0.188675  56.99 0.0005312101    1.066    0.062
       212 -11.3546    164.5203     27.5929   7.2071034799e+01   4.0927319044e+01    0.3949178    0.2588566  82.90  0.001411711    1.655    0.396
       213  -9.5134    158.3513     20.2965   7.0990733011e+01   4.3248097221e+01     0.313332    0.1006734  53.36 0.0009212604    2.606    0.616
       214 -10.0717    233.5977    196.8074   1.0060729047e+02  -4.2416380625e+00    0.1797918    0.1217461 -44.26 0.0006071972    1.606    0.377
       215  -9.6442    156.7229     25.0173   7.2640520928e+01   4.3122537001e+01     0.221731    0.1743336  86.56 0.0003823805    1.323    0.244
       216 -11.2350    242.0652     24.4183   6.1574009229e+01   2.2745134045e+01    0.3790928    0.1043093 -45.63  0.001485402    3.029    0.670
       217  -9.1385     98.3209     26.6674   8.5943336434e+01   5.6028791002e+01    0.1207156    0.1026149 -72.46 0.0007049447    1.699    0.411
       218 -11.6167    246.9570     21.2486   6.0470839787e+01   2.2061720968e+01    0.3730505    0.2170703 -69.04  0.001810762    1.594    0.373
       219 -11.0164    214.9521     23.4325   6.4132485728e+01   2.9123392331e+01    0.3934153    0.2974814 -41.45  0.001874505    1.396    0.284
       220 -10.5889    133.7299     24.5925   7.6828615665e+01   4.8620920920e+01    0.3630938    0.2713798 -43.36  0.002045085    1.523    0.343
       221 -10.5212    138.5013     21.4957   7.4893305965e+01   4.7849546854e+01    0.3715921    0.1530703  51.69  0.001598316    2.061    0.515
       222 -10.9800    142.2135     19.6287   7.3606990989e+01   4.7175992482e+01    0.3684179    0.1954804  47.43  0.001503637    1.719    0.418
       223  -9.8968    169.5355    191.2260   1.1230378487e+02   8.9470850603e+00    0.3668012    0.1967894  27.93  0.001399834    2.575    0.612
       224  -9.8521     80.7592     19.3507   8.8229921602e+01   6.0176929663e+01    0.2594981    0.1510924  46.74  0.001435274    1.632    0.387
       225 -12.5588      5.2013    184.8755   1.4700323526e+02   3.5549125175e+01    0.6984611    0.3913862  80.83  0.004286709    1.517    0.341
       226  -9.5021     28.3232    176.3183   1.4152167708e+02   3.5247787587e+01    0.1172482   0.08357149 -50.69 0.0007044233    1.670    0.401
       227  -9.6848     34.6158    170.2135   1.3948906250e+02   3.5977291882e+01     0.185059   0.09352048 -62.77 0.0009567015    1.697    0.411
       228 -10.4050      9.0250    155.9756   1.4366151371e+02   4.1618843929e+01    0.2132865     0.163961  56.99  0.001163099    1.400    0.286
       229 -12.1877      9.1870    166.6314   1.4465172607e+02   3.9217958120e+01    0.5242281    0.2884997 -72.01  0.002423695    1.411    0.291
       230 -12.0286     13.6072    158.2435   1.4287062285e+02   4.0729033357e+01    0.5830238    0.1873256 -68.72  0.001928976    2.331    0.571
       231 -10.8460     38.5527     22.0205   1.0424748204e+02   6.6160204741e+01    0.2404109    0.1449573 -26.40 0.0005888477    1.434    0.303
       232  -9.9615    198.2316    167.5542   1.0147360091e+02   7.8005759537e+00    0.2645209    0.2032137 -39.47 0.0006818534    1.304    0.233
       233  -9.4338    223.4790     22.4667   6.2992444200e+01   2.7233054788e+01    0.1313848     0.109661 -83.80 0.0004053694    1.016    0.016
       234 -10.3668     66.2479     22.0266   9.3951059288e+01   6.2321524448e+01    0.2394565    0.1767042  13.86 0.0003700649    1.207    0.172
       235 -10.2719     18.9826    165.1856   1.4239673884e+02   3.8681939330e+01    0.2267307     0.144598 -77.24 0.0009035109    1.234    0.190
       236  -9.5767      1.9180     20.5217   1.1958794462e+02   6.9673738630e+01    0.1412745   0.08925599   3.60  0.001019987    1.576    0.365
       237 -10.2878    220.9503     18.9640   6.2470029160e+01   2.8246429071e+01    0.1943005     0.163132 -86.26 0.0003115356    1.034    0.033
       238 -10.7156    205.2257    163.4471   9.9177011497e+01   7.1513641554e+00    0.2728369    0.2585143 -22.52 0.0006733686    1.035    0.034
       239 -10.0429    170.8768     17.6274   6.8296971917e+01   4.0486778223e+01    0.1850183    0.1735058  57.82 0.0003274411    1.139    0.122
       240  -9.6153    188.6014    164.2143   1.0274918777e+02   1.0488637344e+01     0.212821    0.1419982 -32.47 0.0009456837    1.646    0.392
       241 -10.4483     31.2879    153.9242   1.3830660391e+02   4.0088805887e+01    0.3585295    0.2031739  65.44  0.001872477    1.996    0.499
       242 -11.2659    234.0044     16.5292   6.0661666890e+01   2.5528270794e+01     0.227301    0.1862437 -62.17 0.0003577688    1.144    0.126
       243 -10.7822     30.6311    149.0878   1.3784706426e+02   4.1277425211e+01    0.2741618    0.1812825  86.33 0.0008000265    1.479    0.324
       244 -12.2101     22.8699    149.3619   1.3974352423e+02   4.1945165368e+01    0.6398998    0.3405045 -47.26  0.003385839    2.084    0.520
       245 -12.0728     15.9367    148.1552   1.4124115006e+02   4.2825124758e+01    0.5644904     0.250363  56.89  0.002714391    2.732    0.634
       246 -10.4391    186.2797     15.1387   6.5532872201e+01   3.6994355091e+01     0.245767    0.1893152  60.07 0.0006613028    1.230    0.187
       247 -10.6565    130.3228     15.3003   7.4511532840e+01   5.0370154912e+01    0.2889601    0.1674251  40.84   0.00054793    1.654    0.395
       248 -12.5127      5.2899    147.2731   1.4361968938e+02   4.3862905152e+01    0.6341695    0.3508942 -59.24  0.003326732    1.556    0.357
       249 -11.5148      2.5121    141.5723   1.4366840236e+02   4.5339897707e+01    0.3369322    0.3146059 -85.19  0.002428133    1.270    0.213
       250 -11.4630      3.9525    136.5436   1.4278088883e+02   4.6366493652e+01    0.2199239    0.1877023 -72.73  0.000495114    1.155    0.134
       251  -9.4895    104.5124    153.0000   1.1998408660e+02   3.0148123873e+01    0.3229512   0.08388382  39.75 0.0009404032    3.981    0.749
       252  -9.7288     42.3868    148.1918   1.3484165155e+02   4.0265858376e+01    0.2214787    0.1847757  44.62  0.001404129    1.370    0.270
       253 -10.0284     47.1373    151.5045   1.3414429697e+02   3.8949247222e+01    0.3830545     0.204418  45.87  0.001928859    2.006    0.502
       254 -10.9440     46.8696    146.6097   1.3348865722e+02   4.0136164497e+01    0.4638348    0.2580919 -69.65  0.002165386    1.566    0.361
       255 -10.6084     62.3324    149.9461   1.3010980391e+02   3.7438532576e+01     0.405957    0.2852939 -84.84  0.002169954    1.428    0.300
       256  -9.7737     56.4544    149.0208   1.3144515040e+02   3.8415466140e+01    0.2029057    0.1157883 -64.75 0.0003053157    1.519    0.342
       257 -10.6769     33.1502    144.3986   1.3660295901e+02   4.2120817500e+01    0.2417055    0.2128192  89.23 0.0008045665    1.120    0.108
       258  -9.3779    133.3730    140.8487   1.1017259082e+02   2.7425974974e+01    0.2243107    0.1412056 -39.39 0.0009083685    1.740    0.425
       259 -11.3800     14.3052    133.2419   1.3983673950e+02   4.6355743103e+01    0.4390202    0.2505574  19.30  0.002514247    2.399    0.583
       260 -11.4517     14.5001    140.0020   1.4062712757e+02   4.4801496885e+01    0.2313236    0.2145248  31.96  0.001712918    1.405    0.288
       261 -12.5521     23.3911    136.4962   1.3797219725e+02   4.4863408071e+01    0.6711292    0.4411086  60.83  0.003980624    1.710    0.415
       262 -11.7764     29.8752    133.0782   1.3582697771e+02   4.5068912056e+01    0.4932758    0.2889642 -75.94 0.0004822068    1.524    0.344
       263 -10.0872     82.4026    134.6395   1.2207005835e+02   3.8218465919e+01    0.3021939    0.2269916  24.47  0.001550445    1.635    0.388
       264 -10.0380     47.6523    134.4371   1.3136108611e+02   4.2920611589e+01    0.2549277    0.1393059 -60.12 0.0008410014    1.534    0.348
       265 -10.1869     71.8614    134.0127   1.2478749235e+02   3.9934175672e+01    0.3193527    0.2048454 -24.91  0.001404948    2.472    0.596
       266 -10.9635     10.6614    127.2177   1.3998828115e+02   4.7992429340e+01    0.4554215    0.1265689 -55.57  0.001613382    2.677    0.626
       267  -9.9575     92.8380    128.9102   1.1803758111e+02   3.7888387271e+01    0.3144693    0.2065145  46.72  0.001490981    1.617    0.382
       268  -9.5171     78.6195    128.2228   1.2178199411e+02   4.0317346662e+01    0.1985863    0.1200797 -49.45 0.0003638835    1.544    0.352
       269 -10.0484     18.6627    124.7327   1.3756161646e+02   4.7950994329e+01    0.2814418   0.09954795 -58.29 0.0009977027    2.111    0.526
       270 -10.0894      1.8661    125.0002   1.4195657629e+02   4.9083277991e+01    0.3455927    0.1359492 -66.55  0.001787992    1.833    0.455
       271 -10.3529      4.3745    121.7739   1.4091199239e+02   4.9641525345e+01    0.2933052    0.1608693  64.91  0.001605432    2.318    0.569
       272 -10.7650     55.8995    123.1868   1.2709413101e+02   4.4595452462e+01    0.4410976    0.3306995  13.41  0.002458232    1.741    0.426
       273 -11.3504    104.9153    121.1024   1.1295685053e+02   3.7581257544e+01    0.4695312    0.4513077 -69.27  0.002086239    1.019    0.018
       274 -10.7839     34.4786    119.3904   1.3241198235e+02   4.7796832984e+01    0.2368358    0.1912765 -51.59 0.0006918889    1.154    0.134
       275  -9.1684     81.4401    117.5650   1.1867287847e+02   4.2379185378e+01    0.1416657    0.1295956 -56.66 8.331079e-05    1.005    0.005
