#   1 NUMBER                 Running object number                                     
#   2 MAG_AUTO               Kron-like elliptical aperture magnitude                    [mag]
#   3 X_IMAGE                Object position along x                                    [pixel]
#   4 Y_IMAGE                Object position along y                                    [pixel]
#   5 X_WORLD                Barycenter position along world x axis                     [deg]
#   6 Y_WORLD                Barycenter position along world y axis                     [deg]
#   7 A_WORLD                Profile RMS along major axis (world units)                 [deg]
#   8 B_WORLD                Profile RMS along minor axis (world units)                 [deg]
#   9 THETA_WORLD            Position angle (CCW/world-x)                               [deg]
#  10 FWHM_WORLD             FWHM assuming a gaussian core                              [deg]
#  11 ELONGATION             A_IMAGE/B_IMAGE                                           
#  12 ELLIPTICITY            1 - B_IMAGE/A_IMAGE                                       
         1 -14.4893    153.6778     56.8828   8.3993782563e+01   3.9444530512e+01     1.275309      1.11313  40.95  0.001012872    1.139    0.122
         2 -14.8677    165.3541     42.1882   7.7343386073e+01   3.8715980018e+01     1.257771     1.063496  -9.76  0.004045655    1.394    0.283
         3 -14.8021    182.3945      9.0671   6.5508982753e+01   3.8384093992e+01     1.794981    0.8800647  63.20  0.006377364    1.718    0.418
         4 -11.6887    125.0488    243.8085   1.3090784059e+02   7.1972324432e+00    0.2031452    0.1612007 -63.82 0.0006396117    1.453    0.312
         5 -20.1554     69.0703    176.9151   1.3369734322e+02   2.9984090805e+01     17.81426     6.355382 -65.39   0.07073855    2.637    0.621
         6 -14.1325    176.3696    172.2887   1.0852385236e+02   1.1300631625e+01     1.255021      0.74015 -21.62  0.004649888    2.874    0.652
         7 -13.2616    180.3504    193.4419   1.1188513101e+02   6.3116289570e+00    0.4642259    0.4112754  78.69  0.002394264    1.304    0.233
         8 -13.8906    165.2867    188.9585   1.1421574767e+02   1.0196588053e+01    0.6706856    0.4834417  43.91   0.00336301    1.303    0.233
         9 -14.5609    174.1006    187.7641   1.1210888705e+02   8.6614706882e+00     1.151016    0.6226434 -41.95  0.004975811    1.993    0.498
        10 -12.2808    170.3523    183.3441   1.1204876442e+02   1.0302139272e+01    0.3800091    0.2421427  45.18  0.001275342    1.489    0.328
        11 -11.3506    104.9780    193.9070   1.2820843272e+02   2.0526001619e+01     0.332236    0.2195785  49.36 0.0007211558    1.415    0.293
        12 -10.8526    139.1370    249.8475   1.2902567830e+02   3.7862736620e+00    0.2333373    0.2060997  -2.75  0.001536018    1.586    0.369
        13 -10.0015    138.6806    246.3095   1.2866105043e+02   4.4556995133e+00    0.1836578    0.1382098  78.38 0.0004388989    1.495    0.331
        14 -14.0833    203.5245    174.5167   1.0333018326e+02   5.2311769095e+00     2.422153    0.8507162 -54.54  0.005526135    7.553    0.868
        15 -12.8659    202.4661    170.4657   1.0268830130e+02   6.2151979869e+00    0.5020929    0.2668747 -49.65  0.001560121    2.095    0.523
        16 -12.6327    205.2659    169.0075   1.0181434447e+02   5.9156169023e+00    0.8963812    0.4074554 -55.38  0.002996557    3.442    0.709
        17 -12.5426    153.7509    186.7309   1.1629376491e+02   1.2958862949e+01    0.3869823     0.242273 -60.52  0.001671688    1.843    0.457
        18 -12.4414    151.5474    182.2555   1.1593741569e+02   1.4336143059e+01     0.325977    0.2522877 -58.05  0.001656141    1.366    0.268
        19 -11.7576     16.3870    249.8433   1.5015477912e+02   2.1388273263e+01    0.1779828    0.1228628  76.37 0.0006115938    1.036    0.035
        20 -12.1684    199.1942    178.8980   1.0511616958e+02   5.2852391669e+00    0.5252251    0.2719318 -59.68  0.001671358    3.305    0.697
        21 -13.2720    195.2732    168.7216   1.0378447048e+02   8.0458539120e+00    0.5297531    0.4291087 -42.37 0.0007282064    1.257    0.205
        22 -12.6679    192.7490    164.3320   1.0336326438e+02   9.4417113596e+00    0.4923628    0.3619895  38.08  0.001651408    1.366    0.268
        23 -14.1136    137.6863    171.4756   1.1699581794e+02   1.9443082107e+01    0.9735921    0.6026951  58.39  0.003474986    1.761    0.432
        24 -14.3573    144.6583    168.3500   1.1477941125e+02   1.8731322865e+01     1.117265    0.6710662  74.53  0.004067453    2.883    0.653
        25 -12.0789    125.8002    172.0981   1.1985798746e+02   2.1621471611e+01    0.3600587    0.2926525  85.31  0.001429702    1.308    0.235
        26 -12.5420    164.5842    171.1291   1.1085562931e+02   1.4010612801e+01    0.3896119     0.270768 -80.28  0.001605115    2.130    0.530
        27 -10.9666      7.9586    238.7503   1.5083721625e+02   2.4324484218e+01    0.1670368    0.1095272  65.82 0.0006714811    1.177    0.150
        28 -11.2012    112.6022    196.1799   1.2689893486e+02   1.8710841589e+01    0.5376277    0.3661081   3.46  0.002122401    3.569    0.720
        29  99.0000     12.5085    244.4279   1.5044777790e+02   2.2795933861e+01    0.1651271    0.1358236 -89.11 0.0006215508    1.413    0.292
        30 -11.6598    229.9963    166.9821   9.6612769739e+01   1.3244252341e+00    0.3275306    0.1890605 -58.10  0.001324581    2.646    0.622
        31 -10.6028     13.3722    163.3269   1.4432525143e+02   3.9382018293e+01    0.1854984    0.1464929 -83.60 0.0002544641    1.063    0.059
        32  -9.7173      3.3036    164.2145   1.4651511145e+02   4.0017194454e+01    0.0966562    0.0747973 -56.93 0.0003109933    1.459    0.315
        33 -11.6427     13.4675    239.3937   1.5001492076e+02   2.3627945010e+01    0.2832895    0.1641731  82.66  0.001981071    1.290    0.225
        34 -11.4458    189.6322    158.1835   1.0266871841e+02   1.1339893161e+01    0.3678185    0.2489351  27.10  0.001301562    1.786    0.440
        35 -12.5459    134.6625    109.8439   1.0369700757e+02   3.3901529772e+01      1.28777     0.173278 -45.44  0.002571331    7.368    0.864
        36 -14.8536    132.5839    145.2664   1.1278798965e+02   2.6400460895e+01     1.434149    0.8338028 -63.77  0.004215453    2.066    0.516
        37 -14.5298    135.4499    128.7648   1.0827099962e+02   2.9555152796e+01     1.871761    0.4921198 -49.42  0.005135516    3.920    0.745
        38 -10.6747    176.9583    154.9444   1.0466341810e+02   1.4763411467e+01    0.2326188     0.186565 -89.13 0.0005324819    1.575    0.365
        39 -12.2359    174.2746    148.5054   1.0379973585e+02   1.6709152746e+01    0.3899888    0.3298898 -64.25  0.001240056    1.272    0.214
        40 -13.5646    144.3141    145.6257   1.1003313522e+02   2.3874919088e+01    0.6376629    0.4825135 -84.08  0.002603893    1.664    0.399
        41 -13.5365    143.0161    140.0052   1.0906534317e+02   2.5414883529e+01    0.5868447    0.4490742 -86.18  0.002670883    1.642    0.391
        42 -10.6061    131.3174    237.4255   1.2891014774e+02   7.2629757904e+00    0.2643607    0.1451186 -56.11  0.000356185    2.101    0.524
        43  -9.6339     13.4642    234.0654   1.4970357370e+02   2.4633989137e+01    0.1400997   0.08002297 -88.47 0.0003974373    1.361    0.265
        44 -11.4032      5.3358    137.3210   1.4341782643e+02   4.5806272405e+01    0.2471036    0.2065456 -29.93  0.001801554    1.588    0.370
        45 -10.8539    170.9520    137.4596   1.0196393810e+02   1.9800697601e+01    0.2407694    0.1538064  50.12  0.001019333    1.575    0.365
        46 -10.2680    139.4943    229.9989   1.2631208172e+02   7.1745603108e+00     0.179327    0.1309454 -56.99   0.00102362    1.563    0.360
        47 -10.9731    130.8203    213.5237   1.2567205046e+02   1.1859900886e+01    0.2330808    0.1686905 -83.73   0.00070801    1.622    0.383
        48 -12.5973    160.4335    127.8744   1.0203788847e+02   2.4245955198e+01    0.4670107    0.3382063 -58.22  0.001625943    1.485    0.327
        49 -12.6937    161.5125    153.2679   1.0773207490e+02   1.8488362551e+01    0.3403451    0.3027867 -72.42 0.0008808665    1.187    0.157
        50 -10.3264    116.5489    213.3951   1.2859008014e+02   1.4414010245e+01    0.1793727    0.1583976  51.67 0.0001566367    1.151    0.131
        51 -10.2074    115.9496    209.9973   1.2823255431e+02   1.5211847281e+01    0.2269676    0.1778985 -74.77 0.0004437981    1.310    0.237
        52 -11.2223    167.7378    112.6601   9.6523974433e+01   2.5769114137e+01    0.3996826    0.2611936  89.69  0.001449114    2.677    0.626
        53 -12.1355    153.7301    195.1202   1.1782629605e+02   1.1243324450e+01    0.4791377    0.2925815 -63.01  0.002156198    2.007    0.502
        54 -13.3882    162.5863    201.5358   1.1708596832e+02   8.2466017288e+00    0.9480681    0.5003691 -69.32  0.003280405    3.885    0.743
        55 -10.7369      7.2086    111.0284   1.3963280688e+02   5.1506225840e+01     0.211389    0.1503901 -29.46    0.0014017    1.690    0.408
        56 -10.9473    205.4282    110.1851   8.8130951531e+01   1.7312406930e+01    0.3312596    0.2212195  45.03  0.001013393    1.588    0.370
        57 -11.2041      7.4774    102.0400   1.3821796434e+02   5.3451656106e+01    0.2248744    0.2060477 -78.61   0.00168688    1.211    0.174
        58 -11.7210    157.5294    199.5269   1.1779736297e+02   9.6217084551e+00    0.2985769    0.2333627  63.81 0.0006650281    1.341    0.254
        59 -10.6213    153.5422    202.2558   1.1911426233e+02   9.8530772593e+00    0.2459017    0.1405195 -56.31 0.0006698832    1.986    0.497
        60 -10.6979    139.8605    200.2917   1.2168785526e+02   1.2857828608e+01    0.3598926    0.2412035  41.72 0.0009610954    1.416    0.294
        61 -10.0968    160.0231    246.9989   1.2473457420e+02   6.6864442566e-01     0.181145    0.1461158   6.25 0.0008209666    1.635    0.388
        62 -11.3283    133.8441    246.4341   1.2958405299e+02   5.2575422642e+00    0.1622705    0.1411528  60.20 0.0002884543    1.080    0.074
        63 -12.9073    169.5459     34.2246   7.4312020696e+01   3.8721496146e+01    0.3746564    0.3523888   4.55 0.0008397886    1.222    0.182
        64 -10.9211     13.5141     59.9688   1.2790700825e+02   6.1757887749e+01    0.1649098    0.1580304  38.73 0.0004182719    1.412    0.292
        65 -10.9231    139.0421     31.8960   7.9361152701e+01   4.6408467979e+01    0.3543957    0.1909646  71.37  0.001496796    2.303    0.566
