#   1 NUMBER                 Running object number                                     
#   2 MAG_AUTO               Kron-like elliptical aperture magnitude                    [mag]
#   3 X_IMAGE                Object position along x                                    [pixel]
#   4 Y_IMAGE                Object position along y                                    [pixel]
#   5 X_WORLD                Barycenter position along world x axis                     [deg]
#   6 Y_WORLD                Barycenter position along world y axis                     [deg]
#   7 A_WORLD                Profile RMS along major axis (world units)                 [deg]
#   8 B_WORLD                Profile RMS along minor axis (world units)                 [deg]
#   9 THETA_WORLD            Position angle (CCW/world-x)                               [deg]
#  10 FWHM_WORLD             FWHM assuming a gaussian core                              [deg]
#  11 ELONGATION             A_IMAGE/B_IMAGE                                           
#  12 ELLIPTICITY            1 - B_IMAGE/A_IMAGE                                       
         1 -14.9821    162.4555     40.2305   8.2431159405e+01   3.9506761805e+01     1.505655     1.037212 -16.72  0.004108021    1.541    0.351
         2 -14.4546    175.6781      7.1956   6.8786949476e+01   3.9979906988e+01     1.017697    0.9766316  39.40   0.00382955    1.033    0.032
         3 -12.6787    125.0572    246.6669   1.2981088995e+02   1.3780596010e+01    0.2702116    0.1312612 -55.71  0.001864269    2.798    0.643
         4 -19.9961     75.5502    173.9774   1.3143764621e+02   3.1301473753e+01      14.1425     5.574472 -68.64   0.07252152    2.664    0.625
         5 -11.4190    159.2380    205.3877   1.2006909076e+02   1.3904925205e+01    0.2229857     0.160553  46.58  0.001204638    1.096    0.088
         6 -10.8219    114.1346    248.9204   1.3161994929e+02   1.4965240092e+01    0.1232538   0.09285798  61.40 0.0003918066    1.149    0.130
         7 -11.8550    169.0161    202.5752   1.1807587923e+02   1.2698657720e+01    0.1755322    0.1528826  86.34 0.0001834139    1.460    0.315
         8 -10.3992    150.7604    247.3105   1.2603424928e+02   1.0170106054e+01    0.1204933    0.0895616  36.50 0.0003640119    1.265    0.210
         9 -11.6319    137.9192    198.1071   1.2277932747e+02   1.8266808488e+01    0.5356015    0.2391888  61.07  0.002404342    3.202    0.688
        10 -11.9032    160.7540    194.5656   1.1838514654e+02   1.5093630165e+01     0.220199    0.1647313  47.27 0.0008469737    1.089    0.082
        11 -12.3607    157.1828    191.8455   1.1862689265e+02   1.6053738791e+01    0.1988597    0.1777492  82.77 0.0003691776    1.292    0.226
        12 -14.3544    206.4133    179.9724   1.0847494760e+02   9.1904373417e+00    0.7449554     0.551975  37.04  0.003439802    1.116    0.104
        13 -13.5258    197.2014    173.4976   1.0891664292e+02   1.1607972636e+01    0.6162439    0.3908362 -49.16  0.002641834    2.114    0.527
        14 -10.2399    153.4733    194.4944   1.1962716468e+02   1.6293380713e+01    0.1162585    0.0938532  50.26 3.411531e-05    1.034    0.033
        15 -10.9481     36.7376    186.1819   1.3961992920e+02   3.3712973184e+01    0.1658523    0.1224532  51.29 0.0006138419    1.311    0.237
        16 -10.9415     13.5399    244.5367   1.4592461907e+02   2.6959240369e+01    0.1098846   0.07354891  76.61 0.0005722559    1.222    0.182
        17 -10.7803     28.5301    179.4183   1.4066255258e+02   3.5732262296e+01    0.2097236    0.1463248  29.41  0.001547989    1.975    0.494
        18 -10.1191     14.0000    240.9398   1.4574611228e+02   2.7416120018e+01    0.1502486   0.05624903 -80.49  0.001070839    2.565    0.610
        19 -11.4450     25.9522    184.8632   1.4144447153e+02   3.5033512190e+01    0.1549013    0.1104848  60.08 0.0002902579    1.164    0.141
        20 -12.0056     30.6720    183.0862   1.4050361602e+02   3.4873809790e+01    0.2512952    0.1575927  45.14 0.0006713873    1.507    0.336
        21 -11.1668      4.0157    179.7850   1.4502836952e+02   3.7911530421e+01    0.1890247    0.1305333  60.37   0.00121015    1.189    0.159
        22 -11.1471    157.3903    178.1988   1.1662809595e+02   1.7967029391e+01    0.1516044    0.1138637 -64.41 0.0008088583    1.684    0.406
        23 -11.0624    168.2930    175.9713   1.1433717842e+02   1.6397721476e+01    0.1587716    0.1491293  36.34 0.0003101795    1.114    0.103
        24 -12.7982    138.6597    172.2631   1.1918209251e+02   2.2064849356e+01     0.484944    0.3127611  84.15  0.002523402    2.406    0.584
        25 -11.7278    119.3335    243.9007   1.3043822447e+02   1.4883545662e+01    0.1719312    0.1043461  54.75 0.0006631954    1.241    0.194
        26 -12.6979    177.5015    169.9928   1.1173327464e+02   1.5608555087e+01    0.3494041     0.213988  53.31  0.001937487    1.574    0.365
        27 -11.9728    148.0170    173.0018   1.1755254443e+02   2.0358980062e+01    0.2964942    0.1753197  56.40  0.001133318    1.650    0.394
        28 -13.0448    144.2774    168.5120   1.1756611247e+02   2.1706221180e+01    0.4776567    0.2747762  55.42  0.002353278    1.671    0.402
        29 -10.3358     11.3750    174.2597   1.4346820835e+02   3.8251983132e+01    0.1292312   0.07040989  84.64 0.0005789335    1.439    0.305
        30  -9.7075    150.2856    239.7266   1.2536694461e+02   1.1081102646e+01   0.09675764   0.06235912  59.65  0.000220479    1.506    0.336
        31 -12.0634    202.5860    166.4328   1.0677689268e+02   1.1539619563e+01    0.3683089    0.2843505  56.13  0.001565074    1.420    0.296
        32 -11.6670    123.2852    166.2263   1.2123593754e+02   2.5612757226e+01    0.3068184    0.1813116  65.23  0.001410857    1.931    0.482
        33 -11.5089    223.9596    164.2206   1.0286290897e+02   7.9485052912e+00    0.2262581     0.174057 -37.66 0.0007403318    1.573    0.364
        34 -10.1335     25.0455    165.4259   1.4041755843e+02   3.8602048009e+01    0.1333597   0.09059558  43.72 0.0005635172    1.519    0.342
        35 -10.9096    237.5228    159.4881   9.9846253652e+01   6.0697300041e+00    0.1223682    0.1024975  19.67 0.0008098792    1.035    0.034
        36 -10.8909    131.8539    236.8259   1.2790827851e+02   1.4029689449e+01    0.1489076    0.1264274  71.66 0.0005186807    1.274    0.215
        37 -11.0000     22.8669    156.0525   1.4020614666e+02   4.0564556619e+01    0.1681993    0.1266815  63.71 0.0005449281    1.167    0.143
        38 -14.4299    134.1307    145.3379   1.1576196752e+02   2.7389953318e+01     1.684896    0.3917233 -53.89  0.004807433    6.249    0.840
        39 -14.1506    143.2373    143.4043   1.1356867440e+02   2.6073664921e+01    0.8852208    0.4423751 -62.67  0.003664081    3.072    0.674
        40 -14.3127    135.9031    127.1191   1.1197997890e+02   3.0360388715e+01     1.725121    0.3684867 -51.04  0.004674669    5.985    0.833
        41 -11.1131    135.1623    235.1828   1.2724307113e+02   1.3764602893e+01    0.1620557    0.1332273 -87.52 0.0006281573    1.494    0.331
        42 -10.2020    175.6676    142.2985   1.0703794511e+02   2.0052130443e+01    0.1291516    0.1032923  82.46 0.0004480022    1.646    0.393
        43  99.0000     17.9142    233.6321   1.4494076998e+02   2.8084701631e+01    0.2718775   0.06832159  56.65  0.001630716    2.579    0.612
        44 -10.9042      5.4754    138.0075   1.4256703472e+02   4.5539399211e+01    0.2002765    0.1086741  57.09  0.001128114    1.594    0.373
        45  -9.1653     25.6861    232.0011   1.4374768454e+02   2.7567369070e+01    0.1117585    0.0714353  69.57 0.0002119282    1.099    0.090
        46  -9.2967     28.5197    229.0137   1.4320512122e+02   2.7721172947e+01    0.1042366   0.06959281  81.49 0.0009132976    1.265    0.210
        47 -12.2184    160.5306    127.9983   1.0705849236e+02   2.5386567625e+01    0.3341159    0.2683845 -58.36  0.001662607    1.400    0.286
        48 -10.9825    174.5923    149.1446   1.0855871036e+02   1.9207185606e+01    0.2450051    0.1711906  47.12 0.0006470898    1.294    0.227
        49 -11.8547     24.9057    226.1096   1.4362227675e+02   2.8508004856e+01    0.2684762    0.1161292 -65.20  0.001735491    2.805    0.644
        50 -11.2110    219.2198    224.0886   1.1310134321e+02   2.4959678371e+00    0.1469232    0.1446213 -49.14 0.0006525362    1.568    0.362
        51 -11.8686     19.6537    222.8760   1.4427902479e+02   2.9500798370e+01    0.1326915    0.1115415  82.11    0.0011301    1.448    0.310
        52 -11.3058    139.0432    249.7397   1.2799675813e+02   1.1523845045e+01    0.2419006    0.1271941  52.07  0.001717066    1.453    0.312
        53 -10.8597    157.1968    106.0156   1.0278258133e+02   2.9892835115e+01    0.3405882    0.1994456  68.78  0.001377436    2.498    0.600
        54 -10.7274     24.1228    213.9198   1.4321651203e+02   3.0436906664e+01    0.1140514   0.09927309  48.09 0.0007108542    1.597    0.374
        55 -12.6504    133.7277    249.1502   1.2873254816e+02   1.2316432768e+01     0.169832    0.1502691 -66.31   0.00120248    1.558    0.358
        56 -10.8272    205.3568    110.2403   9.4626867858e+01   1.8725947089e+01    0.2973358    0.1854138  44.74 0.0009583571    1.539    0.350
        57 -13.3768     11.7288    206.1460   1.4483767526e+02   3.2834949670e+01    0.3800035    0.2284549  39.40  0.002458655    1.755    0.430
        58  -9.8918    121.4877    248.8323   1.3052223353e+02   1.4002863513e+01    0.1026318   0.08812983  74.25 0.0003951708    1.316    0.240
        59 -14.4875    151.1236     54.9813   8.9631059179e+01   4.0090119397e+01     1.050766     1.005939   3.15  0.002099064    1.048    0.045
        60 -13.1166    163.4893    203.5787   1.1912783759e+02   1.3460229223e+01    0.3941898    0.2478392 -56.76  0.002162274    2.170    0.539
        61 -12.9500    166.2409     31.8754   7.8875893244e+01   3.9666099706e+01    0.4249882    0.3762533  -6.30 0.0008647748    1.142    0.124
        62 -11.0197     13.5121     59.9585   1.3194241702e+02   6.1375344415e+01    0.1612332    0.1354198 -74.44 0.0004138768    1.092    0.084
