#   1 NUMBER                 Running object number                                     
#   2 MAG_AUTO               Kron-like elliptical aperture magnitude                    [mag]
#   3 X_IMAGE                Object position along x                                    [pixel]
#   4 Y_IMAGE                Object position along y                                    [pixel]
#   5 X_WORLD                Barycenter position along world x axis                     [deg]
#   6 Y_WORLD                Barycenter position along world y axis                     [deg]
#   7 A_WORLD                Profile RMS along major axis (world units)                 [deg]
#   8 B_WORLD                Profile RMS along minor axis (world units)                 [deg]
#   9 THETA_WORLD            Position angle (CCW/world-x)                               [deg]
#  10 FWHM_WORLD             FWHM assuming a gaussian core                              [deg]
#  11 ELONGATION             A_IMAGE/B_IMAGE                                           
#  12 ELLIPTICITY            1 - B_IMAGE/A_IMAGE                                       
         1 -11.6087    243.6490     25.9783   3.6135448231e+01   2.2104387405e+01    0.8642228     0.413044 -67.71  0.004114932    2.271    0.560
         2 -11.3644    239.0572     12.6288   3.3664016854e+01   2.4645828778e+01    0.6593083    0.3910487  71.15  0.003265919    1.652    0.395
         3 -11.8576    248.1627     11.9475   3.2869372090e+01   2.2810457067e+01    0.8657802    0.4939975 -18.73  0.004487979    2.655    0.623
         4 -12.1027    243.9862      6.3938   3.2021305157e+01   2.4292671175e+01    0.8803534    0.5208397 -73.71  0.005238877    1.499    0.333
         5 -10.0486    216.7598     17.6929   3.6633820145e+01   2.9010627063e+01    0.3377952    0.1352249 -40.51  0.001546607    2.207    0.547
         6 -11.2573    228.3378     11.7352   3.4294781855e+01   2.7071795395e+01    0.6542094    0.3250459 -23.92  0.003184008    2.545    0.607
         7 -10.4325    152.1295     16.2878   4.3972992973e+01   4.4844714507e+01    0.4259076    0.2179622 -75.04  0.001614647    3.220    0.689
         8 -11.2977    201.8636     13.7546   3.7111681645e+01   3.2917139276e+01    0.4827673    0.2272092 -67.09  0.002086329    2.514    0.602
         9 -11.6540    221.2617      4.1768   3.3176570523e+01   2.9449666287e+01    0.6425611    0.4762453 -42.35  0.003616596    1.344    0.256
        10 -11.3672    210.1949      8.9176   3.5170023311e+01   3.1478336330e+01    0.3722657    0.3088196  44.41  0.001796355    1.524    0.344
        11 -11.7188    193.6215      6.0205   3.5995741106e+01   3.5670991962e+01    0.6348783     0.426985 -62.98  0.003112762    1.420    0.296
        12 -11.7954    202.8892      5.0722   3.4901760430e+01   3.3571538777e+01    0.5069473    0.4053055  81.32  0.003235448    1.125    0.111
        13 -11.5895    174.8198      4.1942   3.7466831623e+01   4.0391153886e+01    0.6255379    0.4067841 -38.66  0.003497498    1.609    0.379
        14 -11.5346    182.3362      2.5080   3.6216244298e+01   3.8717097122e+01    0.6445722    0.5090051 -64.47  0.004001005    1.215    0.177
        15 -11.3423    159.5103      6.9908   4.0106907700e+01   4.3902335558e+01     0.429554    0.2690359 -45.74  0.002281718    1.702    0.413
        16 -10.6155    149.2437      6.9752   4.1511845763e+01   4.6438142416e+01    0.2508476    0.1753646  68.28  0.001150839    1.246    0.197
        17  -8.5840    128.3478      7.7028   4.5091289201e+01   5.1481096310e+01     0.132804   0.09655197 -73.29 0.0007034662    1.679    0.404
        18  -9.3448     75.7536      4.5803   5.6099111709e+01   6.3506878701e+01    0.1679789     0.114507  62.51 0.0009467236    1.683    0.406
        19  -9.3048     14.0300      8.4809   8.4860519690e+01   7.2508162545e+01     0.157481   0.09682928  17.26 0.0005700389    1.551    0.355
        20  -9.3724    100.7140      2.4251   4.8639374805e+01   5.8366779410e+01    0.2646668    0.1683791 -74.13  0.001260719    2.636    0.621
        21  -9.4766     33.0354      3.0263   7.1886696006e+01   7.0971949026e+01    0.1821208     0.140811   1.75 0.0007600918    1.037    0.036
        22 -10.5317    161.9798      2.9743   3.8620249113e+01   4.3648459333e+01    0.2657635    0.2217068  33.45   0.00163672    1.386    0.278
        23  -9.8541    116.1352      1.9455   4.5274658322e+01   5.4857640813e+01     0.333858    0.1218081  54.43  0.001439085    2.135    0.532
        24  -8.3576     48.6659      2.3098   6.4535711925e+01   6.8675711871e+01    0.1009683   0.09696285 -56.74 0.0003318895    1.676    0.403
        25  -9.3328    235.9850    143.9455   6.3594891543e+01   5.3241663931e+00    0.2140544    0.1658359 -62.94  0.001028263    1.706    0.414
        26 -12.1182    244.7642    247.9121   8.1982566478e+01  -1.1430506986e+01    0.8144627    0.4861963  21.75   0.00523971    1.386    0.279
        27 -10.5571    242.8065    133.3018   6.0150938769e+01   5.8930935232e+00     0.351545    0.2046712  49.37  0.001716666    1.993    0.498
        28 -11.2855    241.1310    126.2382   5.8851530710e+01   7.3996125079e+00    0.4515255    0.3243148  35.36   0.00242681    1.618    0.382
        29  -8.3162    180.9766    126.0225   6.9794991590e+01   1.9900220232e+01    0.1863839    0.1808365 -25.64 0.0005632283    1.010    0.010
        30  -8.2956    164.4708    125.9609   7.3423815003e+01   2.3580957332e+01    0.2119098    0.1358295 -66.01  0.000399108    2.249    0.555
        31  -7.9823     86.4719    120.4564   9.2991277631e+01   4.0641190267e+01    0.1499456    0.1412676 -53.10 0.0008083669    1.011    0.010
        32 -10.3548    245.8179    114.6344   5.5562411688e+01   8.4692432233e+00     0.198764    0.1596749 -30.00  0.001141155    1.131    0.116
        33  -8.0717    126.7327    114.3483   7.9837818684e+01   3.4414368122e+01     0.158571    0.1253202 -80.55 0.0004270947    1.616    0.381
        34  -8.5725    194.9811    113.5204   6.3838206179e+01   1.9239902306e+01    0.2150596    0.1519198  51.52  0.000377195    1.498    0.332
        35 -10.3828    249.9579    110.1362   5.3975056876e+01   8.4323244768e+00    0.2828206    0.2042474 -48.36  0.001571635    1.281    0.219
        36  -9.4015    238.5016    111.4791   5.5933032829e+01   1.0409685662e+01    0.1400061    0.1225584 -37.39 0.0006542978    1.007    0.007
        37  -9.0151    147.1206    111.6258   7.3831960065e+01   3.0538263841e+01    0.3068568     0.149743  55.16  0.001072678    2.408    0.585
        38  -8.2146     70.3417    109.6997   9.5503721957e+01   4.5775491734e+01    0.1463391    0.1123842  75.15 0.0007036785    1.672    0.402
        39 -11.6613    242.7791    100.2944   5.2777340292e+01   1.1434194512e+01    0.6155322    0.3221889 -54.19  0.002708989    2.136    0.532
        40  -8.6659    224.8052    105.3964   5.6630882741e+01   1.4235758101e+01    0.1970854    0.1326982  41.36 0.0009550825    1.721    0.419
        41  -8.4875    161.3234    104.1963   6.8451190939e+01   2.8820610398e+01    0.2173854    0.1988616  23.17 0.0008490017    1.167    0.143
        42  -8.1599    209.2749    103.6425   5.8771458311e+01   1.7891570617e+01    0.1531784     0.108616 -62.99 0.0007005212    1.652    0.395
        43  -7.8605    149.6593     97.3427   6.9276159965e+01   3.2935440800e+01    0.1656199    0.1256336 -80.05 0.0007048594    1.777    0.437
        44  -8.2404    171.5462     96.5892   6.4136877114e+01   2.7914187731e+01    0.1527361    0.1489583 -67.70 6.521127e-05    1.023    0.023
        45  -9.6620    250.2394     91.6261   4.9839406911e+01   1.1371977372e+01    0.2673563    0.1351751 -45.28  0.001256282    1.712    0.416
        46  -8.2887    210.9793     92.4805   5.5719330155e+01   1.9486853706e+01     0.198993    0.1275043 -89.24 0.0008090049    2.439    0.590
        47 -11.1099    239.8615     85.6947   4.9851266305e+01   1.4395982716e+01    0.3828792    0.2618797 -24.97  0.001977684    1.598    0.374
        48 -11.3329    241.5829     79.7895   4.8282374585e+01   1.4977713948e+01    0.5816052    0.1912562 -38.97  0.002229429    2.535    0.606
        49 -11.1066    247.4601     78.2467   4.7209653762e+01   1.4020923653e+01    0.5358987    0.3659828  57.65  0.002735153    1.667    0.400
        50 -10.4536    248.1933     83.9808   4.8398042489e+01   1.2982091369e+01    0.3205982    0.2578346 -64.06  0.001543335    1.227    0.185
        51  -8.3228    212.3919     87.2147   5.4183100287e+01   2.0074265840e+01    0.1937168    0.1253494 -46.13 0.0001896006    1.438    0.305
        52  -8.5222    211.0269     81.9961   5.3094904755e+01   2.1263849089e+01    0.2244585    0.1603497 -65.57   0.00036105    1.552    0.356
        53  -9.0592    218.8566     78.1394   5.0966086969e+01   2.0129799812e+01    0.2307704    0.1805418 -62.15  0.000860185    1.266    0.210
        54  -9.0513    100.7045     78.4412   7.6950063776e+01   4.7562844455e+01    0.2525926    0.1461623  46.64 0.0007364857    1.811    0.448
        55  -8.7077    229.0326     76.9984   4.9271245507e+01   1.8070724213e+01    0.1688104     0.151851 -58.78 0.0007178203    1.028    0.027
        56 -10.6756    237.1150     71.2537   4.6888485816e+01   1.7235386770e+01     0.459847     0.281987 -80.07  0.002157394    2.179    0.541
        57  -8.7417    105.8450     72.6493   7.3506091401e+01   4.7656557355e+01    0.3060599    0.1316763  38.28  0.001067734    2.534    0.605
        58 -12.0082    247.3648     66.5492   4.4620056337e+01   1.5811944688e+01    0.8752826    0.4813002 -64.63  0.004116799    2.146    0.534
        59 -11.0719    240.6262     65.3290   4.5115463320e+01   1.7390475311e+01      0.40692    0.2259456 -50.82  0.002012322    1.631    0.387
        60  -8.1142     53.7737     59.0463   8.7033826349e+01   5.9361483054e+01    0.1730105    0.1013924 -45.65 0.0004246389    1.573    0.364
        61  -8.3371     50.5274     67.4264   9.1066812283e+01   5.8084442619e+01    0.1369746    0.1157294 -26.58 8.360255e-05    1.045    0.043
        62 -11.0951    223.3793     50.5292   4.3693360358e+01   2.3309296366e+01    0.4840317    0.2994142 -72.63  0.002376841    1.816    0.449
        63  -9.5151    250.2111     46.3289   3.9909610259e+01   1.8105170170e+01    0.2651151    0.1388656 -46.40 0.0008634164    1.588    0.370
        64 -11.0084    235.6341     43.8248   4.0793654311e+01   2.1522746561e+01    0.3199001    0.2776403  70.47   0.00203748    1.267    0.211
        65  -9.8998    244.2727     43.0929   3.9774816655e+01   1.9775889636e+01    0.2511135    0.1776632 -88.05  0.001474732    1.418    0.295
        66  -9.3431    132.9814     38.9786   5.4932914430e+01   4.6937892347e+01    0.2285384    0.1612838  28.74 0.0005325784    1.604    0.377
        67  -9.7259    127.3557     37.6355   5.5727844314e+01   4.8471828294e+01    0.2620268    0.2271231  33.99 0.0005434154    1.126    0.112
        68 -12.1493    243.6970     33.0278   3.7642513109e+01   2.1214144545e+01     1.080868    0.5263201  79.87  0.005309561    2.220    0.550
        69  -9.5428    224.5814    248.8799   8.5690688577e+01  -8.9012080308e+00    0.2040639    0.1467157 -42.34  0.001315524    1.922    0.480
        70  -9.6082    130.3973    245.1893   1.0328285653e+02   5.8069252083e+00    0.1580268    0.1195674 -77.75 0.0009548279    1.717    0.418
        71  -9.3128    125.1957    250.3754   1.0493770422e+02   5.7336426812e+00    0.1893989   0.09122967  45.57   0.00095577    1.735    0.424
        72  -9.3897     83.3605    134.6258   9.7018112838e+01   3.7655291364e+01    0.3986029    0.2250111 -73.05   0.00157861    2.235    0.553
        73  -8.1195    111.4896     36.4900   5.9179087270e+01   5.2333031516e+01    0.1401999    0.1293309  32.76 8.626968e-05    1.017    0.016
        74  -9.8165    221.0681     33.2124   3.9847997671e+01   2.6159286947e+01    0.2915105    0.1819802 -82.35  0.001510533    1.673    0.402
        75  -8.1318    199.5388     32.5261   4.2087429353e+01   3.1292493043e+01     0.136601    0.1194073 -77.22 0.0002593147    1.022    0.022
        76  -8.5737    130.7054     31.6041   5.2905236381e+01   4.8429312701e+01    0.1502631    0.1003406  25.26 0.0007003701    1.796    0.443
        77  -8.4384    136.2791     27.6554   5.0421782795e+01   4.7539659511e+01    0.1394326    0.1035505 -65.16 0.0004002272    1.632    0.387
        78  -9.5162      8.7901     27.6347   9.6264932353e+01   6.9850505892e+01    0.1468892   0.09866352  23.33 0.0009544415    1.718    0.418
        79  -9.0328    205.8324     24.8250   3.9432543816e+01   3.0729105130e+01    0.3258699     0.139054 -79.54  0.001071479    4.213    0.763
        80  -8.1551     43.3422     26.6879   7.8763589071e+01   6.6419577486e+01    0.1068964    0.1029732  89.03 0.0007046282    1.701    0.412
        81  -8.5138    220.9765     22.4625   3.7349427508e+01   2.7497340354e+01    0.1833265   0.09123959 -76.24 0.0007102284    2.371    0.578
        82  -8.8076    187.1256    240.4963   9.1380880415e+01  -2.3233135035e+00    0.1839726    0.1047889  34.25 0.0003626721    1.482    0.325
        83  -9.5408    177.4096     18.7770   4.1166493254e+01   3.8305523231e+01    0.1706796    0.1331547  -8.93 0.0009168978    1.628    0.386
        84  -9.7453    222.5040     17.7190   3.6122070920e+01   2.7702286938e+01    0.2445523    0.1873553  68.99  0.001382479    1.332    0.249
        85  -8.3926     69.6665     18.3332   6.4382119525e+01   6.3273011162e+01    0.1165306    0.1036323 -68.91 0.0007052239    1.732    0.423
        86 -10.8263    249.9508    231.7719   7.8395187004e+01  -1.0134952395e+01    0.3909551    0.1364916 -33.37  0.001847423    2.740    0.635
        87 -10.2492    249.3247    145.5894   6.1781878326e+01   2.6917435698e+00    0.3506528    0.2034892 -35.35  0.001777038    1.477    0.323
        88  -8.5778    210.7962    229.8223   8.5118267930e+01  -4.3742711859e+00    0.2522677    0.1608335 -63.15  0.001073947    4.169    0.760
        89 -10.9329    241.8423    226.2453   7.8842939426e+01  -8.3451861595e+00    0.2882752    0.1754413   0.80  0.001648328    1.673    0.402
        90 -11.2087    243.9226    217.9053   7.7002735604e+01  -7.5146274488e+00    0.4729112    0.2734844  30.71  0.002728257    1.631    0.387
        91  -8.2718    156.6048    203.4816   9.1628026522e+01   9.0110390547e+00     0.136622     0.127183  30.18 0.0001397653    1.032    0.031
        92  -9.1902    249.7346    190.9905   7.0974398473e+01  -4.5189596585e+00    0.1625472   0.09586113 -30.94 0.0006190471    1.498    0.332
        93  -9.3828    232.2442    186.2776   7.3106793382e+01  -1.0896581855e+00    0.3337315    0.1539326  49.55  0.001387133    3.021    0.669
        94  -9.0496    210.4184    185.4616   7.7031430318e+01   2.7122620086e+00    0.2401178    0.2011643 -87.43  0.001193847    1.975    0.494
        95  -8.4376    175.2278    182.9692   8.3769820215e+01   9.5721318545e+00    0.2202156    0.1533825  17.70  0.001036957    1.654    0.396
        96  -9.0789    201.5135    171.0411   7.5833594754e+01   6.8885091169e+00    0.2035126    0.1845123   6.80 0.0003654237    1.040    0.039
        97  -9.9207    225.2720    169.1043   7.0874113958e+01   2.9207807443e+00    0.3535966    0.3077213 -72.80  0.002008393    1.666    0.400
        98  -9.1471    149.6039    169.0690   8.6766164730e+01   1.7358769982e+01    0.2327165    0.2041679  52.94 0.0004856303    1.170    0.146
        99 -11.5374    156.8010    161.6883   8.3536662387e+01   1.7524074621e+01    0.4200704    0.3864834  75.59 0.0005896545    1.221    0.181
       100  -9.9308    143.8099    154.3594   8.5056557853e+01   2.1752794768e+01    0.4136191    0.3009035 -78.95  0.001003648    1.925    0.481
       101  -8.2310    190.4439    152.4437   7.4046819752e+01   1.2594184856e+01    0.1501387    0.1385721  -8.14 0.0001565668    1.043    0.041
       102  -8.5391    126.0381    163.3154   9.1334410096e+01   2.3190315238e+01    0.2101324    0.1876844  44.86 0.0005821704    1.101    0.092
       103 -10.4723     14.1134    146.0628   1.1828254622e+02   4.2904140624e+01    0.3204504     0.259206  83.03  0.002092064    1.121    0.108
