#   1 NUMBER                 Running object number                                     
#   2 MAG_AUTO               Kron-like elliptical aperture magnitude                    [mag]
#   3 X_IMAGE                Object position along x                                    [pixel]
#   4 Y_IMAGE                Object position along y                                    [pixel]
#   5 X_WORLD                Barycenter position along world x axis                     [deg]
#   6 Y_WORLD                Barycenter position along world y axis                     [deg]
#   7 A_WORLD                Profile RMS along major axis (world units)                 [deg]
#   8 B_WORLD                Profile RMS along minor axis (world units)                 [deg]
#   9 THETA_WORLD            Position angle (CCW/world-x)                               [deg]
#  10 FWHM_WORLD             FWHM assuming a gaussian core                              [deg]
#  11 ELONGATION             A_IMAGE/B_IMAGE                                           
#  12 ELLIPTICITY            1 - B_IMAGE/A_IMAGE                                       
         1 -10.1220      9.4154     19.7455   1.1378057866e+02   6.8711810598e+01    0.3661839    0.1855415   4.54 0.0006331559    2.100    0.524
         2  -9.8887     63.8910     14.1529   8.9696668308e+01   6.2801384018e+01    0.4155235    0.2526077   6.57 0.0009298876    1.733    0.423
         3 -10.0584     24.2554     16.6216   1.0597492190e+02   6.7802232563e+01    0.2663169    0.2212518  12.27 0.0006810856    1.363    0.266
         4  -9.3896     31.6227     10.8527   1.0044280599e+02   6.7705787676e+01    0.3969956    0.1901264 -15.42  0.001393231    2.336    0.572
         5  -8.8469     74.4805     13.7023   8.6126158390e+01   6.1052824425e+01    0.2889337    0.1811081  23.96  0.001000442    1.464    0.317
         6  -8.4747    134.6607     13.5218   7.1545212428e+01   4.8635889118e+01    0.3355256    0.1304982  40.37  0.001210578    2.807    0.644
         7  -8.7339     80.3649     12.8690   8.4045968178e+01   6.0075705447e+01    0.2402267    0.2097082 -36.80 0.0008267079    1.503    0.335
         8  -8.7278     97.4895     12.0016   7.9088650832e+01   5.6850149170e+01    0.2395878    0.1523962  44.69 0.0005994206    1.302    0.232
         9  -7.8928    157.2016     10.4485   6.6875511356e+01   4.3645136717e+01    0.2469317   0.05956142 -38.22 0.0008684034    4.232    0.764
        10  -8.1980    106.0263     10.5336   7.6515508550e+01   5.5222121057e+01    0.1814876     0.156412  24.35 0.0005687231    1.111    0.100
        11 -10.6738     20.1080      8.8499   1.0456028176e+02   6.9208347423e+01    0.2762809    0.1643396  11.85 0.0004107638    1.499    0.333
        12  -8.9173    127.5677      8.2566   7.1251319273e+01   5.0717588883e+01    0.3292354    0.1225285  41.80  0.001363456    2.661    0.624
        13  -8.2722      1.9447      8.0613   1.1268795565e+02   7.0895781271e+01    0.1803215    0.1196547 -30.64   0.00137072    1.259    0.206
        14  -8.0283     39.6178      8.2150   9.6064668908e+01   6.7006179982e+01    0.1524149   0.08782291 -15.10 0.0003822452    1.613    0.380
        15  -8.1017    118.9731      6.8444   7.2481410349e+01   5.2750667537e+01    0.2251682    0.1002227  41.95 0.0008105899    2.037    0.509
        16  -7.6846     84.3521      6.3033   8.0426883512e+01   5.9928896845e+01    0.1315074   0.07303789  28.67 0.0007040121    1.704    0.413
        17  -8.6425     68.4336      4.8228   8.4477416398e+01   6.2941755942e+01    0.2583032    0.1085797 -19.13  0.001281774    2.606    0.616
        18  -9.8350     49.0903      4.6484   9.0928996425e+01   6.6051713082e+01     0.237953    0.1562153  11.05 0.0003822968    1.314    0.239
        19  -8.8312    110.9863      4.5696   7.3383859903e+01   5.4670372804e+01    0.1999153    0.1733862   9.49 0.0003279962    1.234    0.189
        20  -8.5271     56.7591      4.3348   8.8084028642e+01   6.4912358866e+01     0.295056    0.1473739  28.67  0.001587647    1.804    0.446
        21  -8.3066     76.0311      7.4779   8.3234749284e+01   6.1366267007e+01    0.2756107    0.1178973  45.11  0.001399244    1.925    0.480
        22  -8.5093    125.1240      3.5561   7.0237732823e+01   5.1652708308e+01    0.1751151    0.1579049  36.71 0.0006301763    1.129    0.114
        23  -8.3417    104.1135      3.9111   7.4661729911e+01   5.6177216691e+01    0.2646829    0.1342897  23.54  0.001274752    2.394    0.582
        24  -7.8569    153.7402      3.0257   6.5352881656e+01   4.5114206708e+01    0.1699667    0.1478235  60.50 0.0004457266    1.076    0.071
        25  -7.7850    182.1912      2.1830   6.1429070658e+01   3.8474808055e+01    0.1825614    0.1414442  63.90 0.0004191766    1.162    0.139
        26  -8.0549    143.1535      2.1387   6.6712572319e+01   4.7656007182e+01    0.1879062    0.1406583  49.92 0.0003224176    1.182    0.154
        27  -7.7171      3.0238      1.1718   1.0923876575e+02   7.1696521882e+01     0.121868   0.06345078  18.68 0.0003703014    1.801    0.445
        28  -7.5093    137.9852    234.7805   1.2396296156e+02   6.6150558931e+00    0.1805751    0.0953731  41.52 0.0008609265    1.636    0.389
        29  -8.3625    249.1714    250.0829   1.0493529703e+02  -1.3896603561e+01    0.1844186    0.1285671   6.43 0.0006060053    1.236    0.191
        30  -9.3912    212.1962    250.3919   1.1173765538e+02  -8.4655278677e+00    0.2931976    0.1615984  36.42  0.001020412    1.539    0.350
        31  -9.4159    210.1351    246.1216   1.1143230689e+02  -7.5414650234e+00    0.2184514     0.180662 -32.83  0.000708723    1.404    0.288
        32  -9.8177    200.2427    249.2431   1.1381885124e+02  -6.3960824531e+00    0.3989587    0.2266257  19.29  0.001340691    2.063    0.515
        33  -8.1854    123.6850    250.2400   1.2886439932e+02   6.2678633837e+00    0.2597849    0.1536068  35.36  0.001045758    1.645    0.392
        34  -7.2962    153.4794    232.4999   1.2046319872e+02   4.3069597824e+00     0.134828    0.1167756  41.86 0.0001029654    1.006    0.006
        35  -7.3750    204.6443    230.7138   1.0989972377e+02  -4.3491362279e+00     0.135811   0.09151526  11.48 0.0005102858    1.672    0.402
        36  -8.5320    194.7154    229.4480   1.1163455889e+02  -2.4497504152e+00    0.2851011    0.1778987  -2.73 0.0008917261    2.485    0.598
        37  -8.5250    237.3343    227.4004   1.0312388606e+02  -9.1535357906e+00    0.2751017     0.184425 -46.74 0.0009301159    1.964    0.491
        38  -8.9394    247.6197    225.8149   1.0097738051e+02  -1.0486884236e+01    0.3474482    0.2498394  13.98  0.002161519    1.243    0.196
        39  -7.9409    230.3628    226.7823   1.0430046865e+02  -7.9751175898e+00    0.1783492    0.1081133 -23.14 0.0009485265    1.731    0.422
        40  -7.4334     92.6527    227.7227   1.3226697727e+02   1.5526815052e+01     0.116123    0.1027347   5.52 0.0004603926    1.634    0.388
        41  -8.1320    187.0660    226.3459   1.1263307823e+02  -6.0195050610e-01    0.3076665    0.1455911  31.75  0.001319273    2.162    0.538
        42  -7.8954     70.5007    225.9630   1.3650016801e+02   1.9195192968e+01    0.2048262    0.1319764  33.81   0.00114025    1.782    0.439
        43  -7.8485    223.7928    224.9457   1.0520372269e+02  -6.6480550259e+00    0.2117867    0.1326667  -5.49  0.001060308    1.995    0.499
        44  -7.3258    123.5363    230.4556   1.2631211701e+02   9.9160096397e+00    0.1334761    0.1148636  54.29 0.0001147064    1.007    0.007
        45  -8.2912    216.5868    220.4022   1.0575915450e+02  -4.7568436598e+00    0.2809283    0.1754594   3.45  0.001258802    2.132    0.531
        46  -7.9227    130.0858    220.7461   1.2355414938e+02   1.0658438362e+01     0.214573    0.1568717  13.47  0.001071686    1.964    0.491
        47  -8.3819    182.4632    219.8950   1.1245614872e+02   1.3212712587e+00    0.2656151    0.1714462  25.34 0.0008506726    1.632    0.387
        48  -7.6998     40.7864    220.3748   1.4172524334e+02   2.4255048446e+01    0.1479365    0.1105181  31.80  0.000892597    1.712    0.416
        49  -8.2059    240.3801    218.8652   1.0101657424e+02  -8.3915765873e+00    0.2112889    0.1676407  38.18  0.001201941    1.383    0.277
        50  -8.2383    227.0257    218.4840   1.0342063238e+02  -6.1966776403e+00    0.2382639    0.1627734 -16.14 0.0008280809    1.529    0.346
        51  -7.6301     51.2596    221.5863   1.3982516876e+02   2.2700756945e+01    0.1487285    0.1131737  34.52 0.0009379596    1.595    0.373
        52  -7.2851    173.6379    218.7291   1.1407169743e+02   3.1342426179e+00    0.1401637    0.1015248  13.70 0.0004242492    1.654    0.395
        53  -8.5181    193.4373    215.6143   1.0946523406e+02   7.5717304083e-02    0.2816618     0.186026  25.21 0.0009926936    1.544    0.352
        54  -7.6243    210.5175    215.4649   1.0603703121e+02  -2.9286566452e+00    0.1351612    0.1171236  14.05 0.0001761722    1.017    0.017
        55  -7.2782    179.0275    215.0000   1.1230603725e+02   2.8123362479e+00    0.2299351   0.07225638  41.37 0.0007782543    2.878    0.653
        56  -8.2194    121.9324    213.3899   1.2419273248e+02   1.3568834733e+01    0.2561852    0.1628699  30.44 0.0008803979    1.776    0.437
        57  -8.6572    249.8128    211.9001   9.8026476328e+01  -8.8288319917e+00      0.24758    0.1695113  45.89  0.001413331    1.768    0.434
        58  -8.1786    232.8726    211.8178   1.0108875727e+02  -6.1310551792e+00    0.1974421     0.155083   3.59 0.0004498869    1.186    0.157
        59  -7.5374    169.3649    212.2797   1.1384604797e+02   5.0998448072e+00    0.1429131    0.1050785  12.02 0.0007012798    1.679    0.404
        60  -8.0285    186.3820    210.2737   1.0993871478e+02   2.2993837452e+00    0.2627277    0.1544216  30.55  0.001218769    1.724    0.420
        61  -7.9351     54.6658    210.6772   1.3806069713e+02   2.4554195349e+01    0.1145274   0.09538051 -39.83 0.0007050478    1.707    0.414
        62  -7.1551    132.9788    209.7601   1.2123466669e+02   1.2334739498e+01    0.1856581    0.1092402  41.61 0.0006078697    1.555    0.357
        63  -8.0656    162.9212    208.0227   1.1446614598e+02   7.1116327809e+00    0.2305875    0.1702992   6.80 0.0009325821    1.805    0.446
        64  -9.3173    124.0172    205.9747   1.2259428377e+02   1.4730631083e+01    0.2005034    0.1806143  60.17  0.001168849    1.009    0.009
        65  -7.8737    247.0441    204.9301   9.7201751837e+01  -7.3587242778e+00    0.2185884    0.1409026   1.52  0.001137926    1.803    0.445
        66  -8.2002    226.5060    204.4992   1.0089573106e+02  -3.9088995132e+00    0.3761384    0.1562941 -28.49  0.001435719    3.061    0.673
        67  -8.1256    229.0616    199.6766   9.9483621746e+01  -3.5638343434e+00     0.280141    0.1556929  -6.31   0.00106742    3.285    0.696
        68  -7.9176    215.7711    205.4514   1.0313814372e+02  -2.1994668669e+00    0.1908275     0.118639  27.56  0.000939309    1.619    0.382
        69  -7.8824    117.7631    205.3626   1.2387702859e+02   1.5968998773e+01    0.1915093    0.1258024  34.98 0.0006864584    1.571    0.363
        70  -8.6242    237.0698    203.5451   9.8742584875e+01  -5.5330510858e+00    0.2356188    0.1730072 -20.94  0.000411203    1.295    0.228
        71  -7.3545    205.7014    204.6826   1.0497559424e+02  -2.6674841499e-01     0.140353    0.1014707   3.17 0.0003445697    1.614    0.380
        72  -7.7092    148.9684    204.4986   1.1686768857e+02   1.0435685355e+01    0.1923358    0.1224203  18.23 0.0005482862    2.318    0.569
        73  -7.1420     86.3105    204.3588   1.3063828626e+02   2.1407371835e+01    0.1278091    0.1051771 -28.51 0.0007042237    1.739    0.425
        74  -8.2513    250.2131    199.5456   9.5607354524e+01  -7.0392111466e+00    0.3050702    0.1591758 -38.64  0.001522891    1.862    0.463
        75  -7.9480    196.0641    200.4892   1.0612166948e+02   2.2486721742e+00    0.2201159    0.1301481  39.11 0.0009427031    1.589    0.371
        76  -7.8373    184.9224    200.0131   1.0833556466e+02   4.4426296629e+00    0.2317817    0.1666824   9.48 0.0009358829    1.736    0.424
        77  -8.3957    165.7477    197.3752   1.1192897471e+02   8.6408329133e+00    0.2955492    0.2059287  27.14   0.00114075    1.546    0.353
        78  -8.2917    193.0371    193.7758   1.0544514115e+02   4.0468614760e+00    0.3379728    0.1925306 -23.69  0.001387184    2.426    0.588
        79  -7.7312      1.6872    194.6442   1.4709072760e+02   3.3698423669e+01    0.1089015   0.07195172 -55.53 7.904117e-05    1.737    0.424
        80  -7.2720    124.5226    193.4915   1.2043432834e+02   1.7292318732e+01    0.1418727     0.134813  52.46 0.0002587882    1.067    0.063
        81  -7.3119     30.4911    193.5328   1.4127985524e+02   3.1156145146e+01    0.1206275   0.09844112 -89.01 0.0008092074    1.050    0.047
        82  -7.4615     90.0185    192.2137   1.2810833005e+02   2.3507391398e+01     0.178798     0.106324  40.50 0.0005468141    1.658    0.397
        83  -7.8649    246.3466    190.2665   9.4480819354e+01  -4.9623087362e+00    0.1335767    0.0928263   5.41 0.0006984761    1.611    0.379
        84  -7.9145    224.6022    189.2401   9.8269880110e+01  -1.0361290384e+00    0.1907594    0.1225369 -26.13 0.0006842602    1.609    0.378
        85  -7.7284    186.5063    189.4680   1.0596122647e+02   6.1224997673e+00    0.1460176    0.1336738  15.87 2.730384e-05    1.053    0.051
        86  -7.8405     64.5287    189.4765   1.3348779903e+02   2.7903009330e+01    0.2125417     0.131946  21.94  0.001027217    2.341    0.573
        87  -7.4995    179.3392    187.6966   1.0713435121e+02   7.8761856876e+00    0.1454967    0.1163188  77.37  0.000243588    1.673    0.402
        88  -8.2803    244.4047    196.7904   9.6105360525e+01  -5.6767479676e+00     0.185403    0.1117059 -24.02 0.0004598056    1.669    0.401
        89  -7.4525    217.4440    184.4531   9.8680256513e+01   1.1069378807e+00    0.1402331    0.1268299   0.86 9.541296e-05    1.024    0.023
        90  -7.8579    130.2376    183.1669   1.1729497103e+02   1.8476887432e+01    0.2359825    0.1620133  -5.80 0.0009364996    2.737    0.635
        91  -7.7977    156.3743    181.2737   1.1092523695e+02   1.3767716840e+01      0.23633    0.1820091  -0.86  0.001107274    1.755    0.430
        92  -7.5727    224.3832    180.2979   9.6502295642e+01   5.5070309728e-01    0.1475055    0.1029112   6.68   0.00070197    1.770    0.435
        93  -7.1645    183.7188    180.3344   1.0471725268e+02   8.4451806613e+00    0.1430499    0.1184756 -88.64 0.0003808866    1.614    0.381
        94  -7.8407     96.3057    178.5488   1.2450729507e+02   2.5586110322e+01    0.1880452    0.1384267  28.61 0.0009455677    1.584    0.369
        95  -7.4686     68.4990    178.4528   1.3108227580e+02   2.9869677846e+01    0.1339146    0.1192399 -89.51 0.0004976927    1.020    0.019
        96  -7.7999     47.1998    175.6121   1.3564777013e+02   3.3283874443e+01    0.1565167    0.1261168  20.09 0.0007892533    1.636    0.389
        97  -7.7414    148.8103    174.4124   1.1129328974e+02   1.6747667138e+01    0.2134616    0.1403243  31.08 0.0007571766    1.674    0.403
        98  -8.0721    184.0087    171.7811   1.0288123068e+02   1.0080833626e+01    0.2520579    0.1718016  15.03  0.001080486    2.005    0.501
        99  -7.5332     15.5174    170.4401   1.4218416241e+02   3.7743603703e+01    0.1189505    0.0951259 -81.76 0.0001989563    1.035    0.034
       100  -7.4231    143.6592    169.6760   1.1154069885e+02   1.8815249649e+01    0.1545527     0.121485  -1.50  0.000705098    1.727    0.421
       101  -7.8577    177.2501    167.1842   1.0337026794e+02   1.2410032878e+01    0.2491987    0.1638346   0.79 0.0006540611    2.694    0.629
       102  -7.5422    150.6715    165.6969   1.0907543954e+02   1.8256544846e+01    0.1533851    0.1218884   1.60 0.0007033979    1.648    0.393
       103  -7.8149    168.9718    163.6749   1.0445186044e+02   1.4872109021e+01    0.2200183    0.1926825  40.87 0.0008135702    1.115    0.103
       104  -7.7172    122.2093    162.6424   1.1528863802e+02   2.4610899029e+01    0.2173914    0.1405618  32.25 0.0009532101    1.713    0.416
       105  -7.4661    138.4869    158.4604   1.1044809585e+02   2.2345313730e+01     0.151405    0.1476248  60.27 4.500357e-05    1.007    0.007
       106  -8.2430    152.3034    156.4431   1.0671353622e+02   1.9932013782e+01    0.2792599    0.1403798 -47.38  0.001074761    2.032    0.508
       107  -7.4315     21.0101    157.4882   1.3953825201e+02   4.0165897991e+01    0.1557914   0.09866044 -22.17 0.0008105728    2.629    0.620
       108  -7.3572    205.2991    151.7056   9.4106399195e+01   9.5964285125e+00    0.1434289    0.1185895 -81.92 0.0002956025    1.569    0.362
       109  -7.5515    168.7105    151.6639   1.0186576018e+02   1.7453016420e+01    0.1557517    0.1227871  -2.63 0.0005008318    1.635    0.388
       110  -7.2570    146.3034    151.6545   1.0708647075e+02   2.2242531634e+01    0.1586863    0.1229229  88.45 0.0003816679    1.688    0.408
       111  -7.8014    133.2066    147.8086   1.0943478018e+02   2.5809585044e+01    0.2102982    0.1848215  -2.85 0.0007200866    1.341    0.254
       112  -7.8184     51.1369    148.6530   1.3088190298e+02   3.9077059755e+01    0.1701025    0.1272463  12.33  0.000937636    1.784    0.439
       113  -9.4682     67.0721    144.7270   1.2604258577e+02   3.7962495441e+01    0.4792868    0.3159285  68.75  0.002171118    1.932    0.482
       114  -9.3694    223.3602    144.1632   8.8990675174e+01   7.2820895775e+00    0.2446998    0.2381864 -80.67 0.0001596503    1.124    0.111
       115  -8.3481     14.2436    140.0165   1.3906795019e+02   4.4690949688e+01    0.2338613    0.1296768 -28.09  0.001179073    2.751    0.637
       116  -7.8470    139.8084    138.0623   1.0557749293e+02   2.6616349872e+01    0.2556668    0.1799954 -19.33  0.000703406    1.973    0.493
       117  -7.6127     55.6358    134.7102   1.2732987213e+02   4.1791843125e+01    0.1359346   0.09723604 -29.58 0.0003719848    1.701    0.412
       118  -7.7071      4.7895    134.3714   1.4074550276e+02   4.6645916429e+01    0.1402721    0.1101291 -11.09 0.0009520558    1.711    0.415
       119  -8.3472     24.5829    129.7079   1.3496381926e+02   4.6175845705e+01    0.4181455    0.2004784 -21.61  0.001556369    4.809    0.792
       120  -7.5053     41.5073    129.4453   1.3029815788e+02   4.4619458538e+01    0.1299922    0.1110177 -57.84  6.86784e-05    1.047    0.045
       121  -9.0217     12.0145    121.5008   1.3716163661e+02   4.9007639913e+01    0.3664274    0.1097956 -43.81  0.001418652    3.719    0.731
       122  -7.7446     84.2311    121.7916   1.1664890733e+02   4.0762766363e+01    0.2128053    0.1164359  23.87 0.0008599808    2.430    0.588
       123  -7.5090    119.3559    119.3019   1.0630721952e+02   3.4983715288e+01    0.1564225    0.1210532  -0.68 0.0007038427    1.710    0.415
       124  -7.8194    100.5478    118.5115   1.1126101912e+02   3.8738590256e+01     0.270197    0.1437476  26.84  0.001033612    2.488    0.598
       125  -9.0286     13.9765    114.7485   1.3560738145e+02   5.0363978933e+01    0.1570309    0.1424378 -60.77 0.0004802683    1.127    0.112
       126  -8.1626     21.6580    114.6694   1.3340278417e+02   4.9799942515e+01     0.130991   0.07591029 -39.57 0.0007051243    1.748    0.428
       127  -7.4116    142.5202    111.5301   9.8349404079e+01   3.1734179024e+01    0.1534035    0.1504181  19.93 0.0008094172    1.027    0.026
       128  -9.2156      3.0466    109.6826   1.3793726899e+02   5.2186697657e+01    0.4029956    0.2116583 -24.78  0.002010042    2.527    0.604
       129  -7.6587     24.3367    110.3427   1.3188154491e+02   5.0542050561e+01    0.1331382   0.07617144 -38.62 0.0007049986    1.766    0.434
       130  -8.1002    133.8672    106.8833   9.9305798599e+01   3.4594259917e+01    0.3422067    0.2096602 -30.86  0.001414421    1.901    0.474
       131  -7.9690    123.3319    107.6700   1.0226180599e+02   3.6668321984e+01    0.3139107      0.18314  23.58  0.001165962    2.563    0.610
       132  -9.3414     13.8545    106.2316   1.3426926171e+02   5.2240639013e+01    0.3095273    0.1671756 -40.74  0.001507582    1.774    0.436
       133  -8.6359     17.3795    103.3036   1.3271228183e+02   5.2624950641e+01    0.1990379    0.1657525 -15.77  0.000807906    1.362    0.266
       134  -7.7119    109.3638    106.2870   1.0570316418e+02   3.9758751012e+01    0.1529975     0.116647   0.85 0.0007022548    1.693    0.409
       135  -7.5210     78.3625    104.3073   1.1421406527e+02   4.5569089932e+01    0.1466679    0.1052371 -15.23 0.0004335439    1.740    0.425
       136  -7.4320     93.6875    103.6733   1.0949802848e+02   4.3194655799e+01    0.1490213    0.1109125 -13.02 0.0007041866    1.665    0.399
       137  -8.4458      3.6564    101.7398   1.3655130249e+02   5.3861978774e+01     0.191074    0.1312937 -16.06  0.000820032    1.759    0.432
       138  -8.0378    129.7770     97.4171   9.7805879238e+01   3.7396380671e+01    0.2153732    0.1401637  34.55 0.0005106039    1.650    0.394
       139  -9.0383      8.0135     96.4872   1.3436732127e+02   5.4720986185e+01    0.1900878    0.1148901   3.54  0.001134956    2.126    0.530
       140  -9.5473     18.8295     92.4155   1.3022133284e+02   5.4851463287e+01    0.4612491     0.178658 -67.29   0.00200925    2.706    0.630
       141  -8.8223     44.1320     92.2723   1.2201797220e+02   5.2603821890e+01    0.3636341    0.1974894 -16.82  0.001575988    2.909    0.656
       142  -7.5221     57.0269     92.0019   1.1778174923e+02   5.1165772734e+01    0.1594585    0.1389375 -36.62 0.0003850967    1.011    0.011
       143  -8.1611     97.4604     90.0349   1.0469369242e+02   4.5340478780e+01    0.3666724     0.192831  20.88   0.00129913    3.218    0.689
       144  -8.3819     67.2303     86.0102   1.1292111665e+02   5.1043406393e+01    0.3239335    0.1849734  13.29  0.001420587    2.491    0.599
       145  -9.4416     36.0020     81.7188   1.2217824013e+02   5.5616600105e+01    0.5638691    0.2593688 -26.04  0.002336716    3.179    0.685
       146  -7.6805    126.8329     83.4138   9.4627127574e+01   4.0718808080e+01    0.2139318    0.1336573  35.53 0.0009346999    1.691    0.409
       147  -8.4338     88.9528     78.7329   1.0398489561e+02   4.9047695091e+01    0.3980977    0.1879287  27.36  0.001514429    2.825    0.646
       148  -9.6723      8.2760     77.4794   1.3066177835e+02   5.8643468355e+01    0.3932791    0.1532987 -42.74  0.001544429    2.083    0.520
       149  -7.9291    183.9557     78.1661   8.0487732554e+01   2.8245038706e+01    0.2278599    0.1937059 -80.82 0.0005837945    1.245    0.197
       150  -8.9572     48.6370     76.8281   1.1659936827e+02   5.5256618630e+01    0.3323635    0.2396679 -10.56  0.001678894    1.486    0.327
       151  -7.4457    119.6821     76.6361   9.4526189870e+01   4.3480894007e+01    0.1542333    0.1123172   6.71  0.000704066    1.772    0.436
       152 -10.0216     23.9515     73.2066   1.2425438481e+02   5.8389691289e+01    0.7549192    0.2938391 -28.91  0.002983485    3.716    0.731
       153  -8.1895     23.4684     69.4828   1.2349738093e+02   5.9157100311e+01    0.2102946    0.1494088 -34.63 0.0005250403    1.171    0.146
       154  -7.7757     74.9558     74.4937   1.0713332168e+02   5.2146070306e+01     0.189448    0.1296119  32.86 0.0004881519    1.496    0.332
       155  -8.3325     62.0000     66.9846   1.0917254894e+02   5.5430580217e+01    0.3025096    0.1347077 -34.06  0.001034544    2.342    0.573
       156  -9.6377     65.4029     61.2701   1.0622919016e+02   5.5965539607e+01    0.4288294    0.2734718 -17.94  0.002233223    1.729    0.422
       157  -9.3469    237.3449     70.1729   7.0240018433e+01   1.7095061084e+01    0.2380954    0.2126907 -77.71 0.0004222429    1.035    0.034
       158  -7.6426    127.8672     70.7501   9.0641744374e+01   4.2729148527e+01    0.2514587    0.1536538  13.99 0.0009454605    2.837    0.648
       159  -8.9861     43.4771     68.0804   1.1595985908e+02   5.7522021132e+01    0.2911176    0.1780682  -6.56  0.001520425    2.026    0.506
       160  -8.0098     80.5548     68.2013   1.0341401796e+02   5.2399497999e+01    0.2334825    0.1788144   6.38 0.0006299275    1.372    0.271
       161  -8.5639     84.2742     63.6773   1.0080870053e+02   5.2561742425e+01    0.3828347     0.239782  10.99  0.001413068    2.131    0.531
       162  -7.7624    106.0993     67.4213   9.5462235680e+01   4.7873519718e+01    0.2058647     0.112029  25.34 0.0008046941    2.520    0.603
       163  -9.5902     17.8267     62.1085   1.2365724482e+02   6.1003501661e+01    0.4173918    0.1777922 -40.69  0.001600111    1.901    0.474
       164  -8.7149     51.6865     60.8202   1.1087179486e+02   5.7891518761e+01    0.2966157     0.258003 -38.62  0.001508605    1.230    0.187
       165 -10.8440     38.4894     57.5254   1.1465870212e+02   5.9993264818e+01    0.4484448    0.2621705  -7.08 0.0005073435    2.103    0.525
       166  -8.4073    239.6583     59.3036   6.7601437997e+01   1.8224900034e+01    0.1406852   0.08947862 -71.03 0.0005243689    1.679    0.405
       167  -7.4328    111.3242     58.3439   9.1156077584e+01   4.8287538066e+01    0.1482414     0.103736  13.23 0.0007050555    1.736    0.424
       168  -9.7396     17.0653     39.0042   1.1721024967e+02   6.5141194496e+01    0.4939381    0.1724823 -31.46  0.002205824    3.030    0.670
       169  -9.4939      2.3957     55.3242   1.2773182421e+02   6.3263636477e+01    0.4969217    0.2568184 -45.45   0.00310173    1.425    0.298
       170  -9.8904      9.8017     47.8808   1.2286148277e+02   6.4159849854e+01    0.5592429    0.2422789 -21.72  0.002269308    2.780    0.640
       171  -8.3943     98.8389     55.2517   9.3663858540e+01   5.1269474256e+01    0.3605632    0.1820934 -21.93  0.001470341    2.628    0.620
       172  -8.2269    118.5256     51.2065   8.6990271679e+01   4.7832507659e+01    0.2691293    0.1786978  66.27   0.00106262    1.881    0.468
       173  -8.9646     75.0918     50.2307   9.9331561965e+01   5.6287584983e+01     0.284229    0.1910873  18.61 0.0002929574    1.531    0.347
       174 -10.3064     45.2481     49.0897   1.0945300172e+02   6.0684475471e+01    0.2865557    0.2000457  -0.37 0.0007767689    1.418    0.295
       175  -8.1702    106.9677     48.0619   8.9015255940e+01   5.0715577999e+01    0.2007045    0.1756274  25.60 0.0002866294    1.029    0.029
       176  -9.5993     24.6803     47.1385   1.1673303386e+02   6.3139757564e+01     0.470852    0.2028775  10.49  0.002172938    3.227    0.690
       177  -8.7411     31.5025     44.4450   1.1317933529e+02   6.2951002397e+01    0.2721143    0.1595824  15.04  0.001111206    1.776    0.437
       178  -8.8837      2.0937     45.9048   1.2539162971e+02   6.4981310566e+01    0.1992737    0.1873862 -68.77  0.001143262    1.493    0.330
       179 -10.2427     83.2298     40.1375   9.3219314494e+01   5.6372132026e+01    0.3789908     0.249806  10.12  0.002008087    1.712    0.416
       180  -8.1071     92.7063     42.6421   9.1225972581e+01   5.4286323874e+01    0.2188316    0.1413783  16.21  0.001099594    1.782    0.439
       181  -9.2583     38.2554     42.2655   1.0980819592e+02   6.2593262082e+01    0.2639838    0.1344345  27.81  0.001451682    2.009    0.502
       182  -7.9144    122.8037     40.9577   8.2667830467e+01   4.8296516954e+01    0.2244151     0.145946  14.61  0.001057962    2.021    0.505
       183  -8.7056      3.3029     40.2795   1.2330268505e+02   6.5886758620e+01    0.1934218    0.1267127 -44.12   0.00135597    1.227    0.185
       184  -8.6856    106.5639     36.8953   8.5402453346e+01   5.2294236326e+01    0.3693272    0.1974009  28.98  0.001652892    2.188    0.543
       185  -9.5196     54.6503     36.5920   1.0159966289e+02   6.1405621198e+01    0.2812411    0.2080259  11.23   0.00106882    1.216    0.177
       186  -7.4894     46.7228     38.6636   1.0529747695e+02   6.2149084237e+01    0.1244838    0.0787075 -10.54 0.0006011247    1.611    0.379
       187  -8.3268     92.0827     37.2165   8.9526471202e+01   5.5130706371e+01    0.2437062    0.1529725  35.01 0.0005507284    1.461    0.315
       188  -9.5359     96.0554     33.2988   8.7020925004e+01   5.4858280554e+01    0.2803566    0.2067766  12.74 0.0002896418    1.380    0.275
       189  -9.3735     38.3513     35.2922   1.0731239250e+02   6.3658578319e+01    0.2805132    0.1810503   6.29 0.0005873253    1.523    0.343
       190  -9.2971      7.7446     33.8530   1.1945025716e+02   6.6671785397e+01    0.3463128    0.2099498 -18.35  0.001539086    1.449    0.310
       191  -7.4173    143.9457     33.9792   7.5921559640e+01   4.4314009851e+01    0.1663867    0.1387479  55.62 0.0003483313    1.062    0.059
       192  -7.8214    105.0099     31.6548   8.4031953738e+01   5.3255142522e+01     0.189107    0.1508241  39.91 0.0006046303    1.104    0.094
       193  -8.2648     82.1318     32.1467   9.0700387075e+01   5.7616739188e+01    0.1934746    0.1450139  19.06  0.000321978    1.213    0.175
       194  -8.5003     77.1444     34.2941   9.3045127600e+01   5.8218586025e+01    0.2612971    0.1966037  36.86  0.001595584    1.269    0.212
       195  -9.1157    127.8326     30.1933   7.8101731847e+01   4.8477940383e+01    0.2272282    0.1866052  36.41 0.0002445932    1.132    0.117
       196  -8.3770    112.5601     29.9490   8.1549340599e+01   5.1868403816e+01    0.2833307    0.1493979  39.84  0.001355851    1.760    0.432
       197  -9.2382     71.6128     26.1064   9.1795679109e+01   6.0183309835e+01    0.3688424    0.1855323  38.76  0.001422272    1.790    0.441
       198  -8.3419     62.0470     26.8964   9.5321741757e+01   6.1626508469e+01    0.2169735    0.1422933  25.01 0.0006930917    1.371    0.271
       199  -8.8717     57.4228     25.2529   9.6321117548e+01   6.2531427120e+01    0.2414169    0.1848861  28.67 0.0009141352    1.253    0.202
       200  -9.0226      1.5674     29.7366   1.2078608277e+02   6.7733614907e+01    0.2593217    0.1086212 -48.74  0.001160288    1.955    0.488
       201  -8.8764     48.2055     25.8739   9.9956850926e+01   6.3754456391e+01    0.3545334    0.1385701  28.95  0.001471236    2.697    0.629
       202  -7.5199    102.3025     25.3373   8.2560187755e+01   5.4531860560e+01    0.1363836   0.08686619  23.38 0.0004279253    1.666    0.400
       203  -9.4441     83.3299     22.1531   8.6668877393e+01   5.8573213919e+01    0.5144693    0.2238668  38.28  0.001504021    2.074    0.518
       204  -8.7828     64.7588     23.2915   9.3000956521e+01   6.1640925971e+01     0.211149    0.1865418  52.11  0.001429764    1.586    0.370
       205  -8.6901    229.8815     21.5320   6.0683120084e+01   2.5412710290e+01    0.2454577    0.1740693 -43.77  0.001348954    1.437    0.304
       206  -7.6845    130.5730     21.9126   7.4926290397e+01   4.8752803901e+01    0.1715137    0.1031727  17.50 0.0005385546    2.276    0.561
       207  -8.3341     92.4577     20.8659   8.3598045661e+01   5.6979739035e+01    0.2240268    0.1823429  -1.38  0.001433337    1.225    0.184
       208 -10.0451    192.3878    244.9213   1.1464336662e+02  -4.4676669503e+00    0.4472268    0.2891859  -9.42  0.002260552    2.155    0.536
       209  -7.0871    117.0131     20.2255   7.7279434996e+01   5.1952915823e+01    0.1631926   0.09389027  54.68  0.000352823    1.505    0.336
       210  -8.0835    112.0000     19.9760   7.8342252400e+01   5.3062858211e+01    0.1921468   0.07339415 -25.58 0.0008023893    2.942    0.660
       211  -7.7621     45.5446     20.4491   9.8831474085e+01   6.4800970526e+01    0.1168816   0.09134535   1.73 0.0001179448    1.013    0.013
       212  -8.5751    151.1885    249.4681   1.2339173756e+02   1.7884016356e+00     0.247006    0.1089846  36.93 0.0008726714    2.033    0.508
       213  -8.6685    218.4921    246.4712   1.0991557920e+02  -8.9087089847e+00    0.3242429    0.1151113 -34.48  0.001380331    3.235    0.691
       214  -7.9672     18.0091    248.2049   1.4779351889e+02   2.1400488422e+01    0.1334388   0.07241981  44.30 0.0007838678    1.724    0.420
       215  -7.8418    127.7791     16.8275   7.3898259731e+01   4.9892863911e+01    0.1609814    0.1431382  88.87 0.0002609685    1.293    0.227
       216  -8.7025     50.6510     15.1667   9.4765382474e+01   6.4719483357e+01    0.2519641    0.1461075  24.92  0.000756516    1.547    0.353
       217  -8.9697    233.8453    246.8513   1.0714191369e+02  -1.1292487918e+01     0.263722    0.2202903  28.93  0.001094638    1.264    0.209
       218  -8.4108    146.8474     14.0465   6.9542960990e+01   4.5753970540e+01    0.1931265    0.1637877  57.26 0.0003937097    1.027    0.026
       219  -7.7798     74.6746    247.6474   1.3788505520e+02   1.4346450331e+01    0.1053508   0.09599281 -21.19 0.0007047537    1.762    0.433
       220  -7.3513     32.3090    247.3064   1.4536151666e+02   1.9947944672e+01   0.09337028   0.08341515 -63.89 0.0005215985    1.612    0.380
       221  -8.8301     88.8114     13.0301   8.1729742156e+01   5.8469528225e+01    0.3155515    0.1180209  38.89  0.001382706    2.439    0.590
       222  -9.6700    157.3861    245.2011   1.2156448453e+02   1.4388532556e+00    0.3381013    0.1942706  29.53  0.001683829    1.821    0.451
       223  -8.9456    243.2699    244.0962   1.0497042666e+02  -1.2307900939e+01    0.2808684    0.1620729  -9.32   0.00151806    2.007    0.502
       224  -9.1943    176.0845    244.2763   1.1773041860e+02  -1.6158135236e+00    0.2920307    0.1764513  10.73  0.001309177    2.699    0.630
       225  -8.8320    224.6663    243.5436   1.0827498741e+02  -9.4620223295e+00    0.2128798    0.2092438  40.70 0.0008563314    1.467    0.318
       226  -8.2162     95.7830    243.6299   1.3348668879e+02   1.1948134618e+01    0.1614243    0.1431829  70.04 0.0004688183    1.121    0.108
       227  -7.4384     25.6494    241.2936   1.4607728758e+02   2.1857523663e+01    0.1202468   0.06118915  66.24 0.0005658303    1.677    0.404
       228  -8.2876    214.2336    239.7571   1.0959675341e+02  -7.2860522876e+00    0.1870322   0.09476271 -26.04 0.0008781654    2.429    0.588
       229  -8.9274    170.6313    239.6682   1.1810027858e+02   6.8117020334e-02    0.2677853    0.1948791  10.38  0.001173694    1.687    0.407
       230  -8.8944    249.2892    238.0482   1.0285189036e+02  -1.2382364312e+01     0.276417    0.1521548 -15.87  0.001473026    2.013    0.503
       231  -9.5131    250.1576    233.4262   1.0188588494e+02  -1.1895657361e+01    0.3608816    0.2524422   6.98 0.0007398193    1.293    0.227
       232  -9.1463    241.8544    236.6419   1.0393746112e+02  -1.1116822690e+01    0.3223496     0.271455 -38.22  0.001837295    1.541    0.351
       233  -7.8936    121.2337    239.4041   1.2797489659e+02   8.6243803279e+00    0.1868462    0.1032596  49.76 0.0009325244    1.574    0.365
       234  -7.7987    224.4797    238.4770   1.0744863995e+02  -8.7279409381e+00    0.1261727    0.1035098  14.38 6.837594e-05    1.005    0.005
       235  -8.0372     79.3038    238.4405   1.3609700141e+02   1.5433915315e+01    0.2217686    0.1112656  37.39 0.0009641969    2.011    0.503
       236  -8.4113    231.8588    236.0746   1.0566341028e+02  -9.5344035158e+00    0.1743965    0.1586095  11.49 0.0003806608    1.233    0.189
       237  -8.2943    195.0514    236.0452   1.1267924716e+02  -3.5535038102e+00    0.1883508    0.1535552  62.74   0.00056193    1.620    0.383
       238  -9.6009    188.6824    234.3707   1.1365787852e+02  -2.1977904768e+00    0.3465004    0.2316503  52.36  0.001347431    1.665    0.400
       239  -7.1610    129.6833    235.2882   1.2572231304e+02   7.9545596072e+00    0.1337551    0.0917511  65.50 0.0007001881    1.592    0.372
       240  -8.2038    162.0079    234.1868   1.1898567839e+02   2.5032320863e+00    0.2074566     0.162948  25.08 0.0005909718    1.277    0.217
