#   1 NUMBER                 Running object number                                     
#   2 MAG_AUTO               Kron-like elliptical aperture magnitude                    [mag]
#   3 X_IMAGE                Object position along x                                    [pixel]
#   4 Y_IMAGE                Object position along y                                    [pixel]
#   5 X_WORLD                Barycenter position along world x axis                     [deg]
#   6 Y_WORLD                Barycenter position along world y axis                     [deg]
#   7 A_WORLD                Profile RMS along major axis (world units)                 [deg]
#   8 B_WORLD                Profile RMS along minor axis (world units)                 [deg]
#   9 THETA_WORLD            Position angle (CCW/world-x)                               [deg]
#  10 FWHM_WORLD             FWHM assuming a gaussian core                              [deg]
#  11 ELONGATION             A_IMAGE/B_IMAGE                                           
#  12 ELLIPTICITY            1 - B_IMAGE/A_IMAGE                                       
         1 -14.5542    150.4391     55.3242   8.9818577431e+01   4.0597531887e+01     1.217411     1.083153  18.74  0.002013859    1.127    0.112
         2 -14.8948    161.7440     40.4589   8.2522052845e+01   3.9929411928e+01     1.385002     1.006612 -13.07  0.004020224    1.418    0.295
         3 -14.4543    174.5800      7.4243   6.9327406942e+01   4.0253597936e+01    0.9674715     0.947972  26.64  0.003887126    1.032    0.031
         4 -12.5989    125.0430    246.1211   1.3322779121e+02   1.2775688580e+01    0.3058769     0.143253 -53.30  0.001925977    2.839    0.648
         5 -20.0517     76.9096    175.9993   1.3570606579e+02   3.0051142670e+01      15.0892     6.224907 -67.45    0.0714227    2.699    0.629
         6 -11.6391    139.0696    249.6508   1.3112965005e+02   1.0615028188e+01    0.2795728     0.148163  42.11  0.001874213    1.506    0.336
         7 -10.4149     28.4736    179.4734   1.4680352386e+02   3.4534301776e+01    0.2050198    0.1633991 -12.55 0.0007774557    1.889    0.471
         8 -10.2707     25.7341    184.9943   1.4770795994e+02   3.3715319366e+01    0.1371195    0.1104703  69.07 0.0002772663    1.037    0.036
         9 -10.2755    126.4784    237.6935   1.3216663217e+02   1.3693474928e+01    0.1122703   0.09836933  -9.38 0.0004770474    1.409    0.290
        10 -10.0412     13.5007    233.1268   1.5202350575e+02   2.6452872369e+01    0.1104117   0.07590295  76.31 0.0002885511    1.291    0.226
        11 -11.2262     28.9585    227.7520   1.4913800308e+02   2.5957868799e+01    0.1444091    0.1206942 -88.03  0.000528304    1.357    0.263
        12 -12.1146      4.7501    178.3470   1.5180381842e+02   3.6677369700e+01    0.2597605    0.2353392  39.17  0.001373949    1.328    0.247
        13 -12.9078    178.5034    173.5108   1.1348547558e+02   1.5297454929e+01    0.3087748     0.270685  77.57  0.001921185    1.788    0.441
        14 -11.6477     25.0754    225.7267   1.4974679941e+02   2.6629881716e+01     0.225718    0.1186035 -67.58  0.001316211    2.196    0.545
        15 -11.0707    168.3074    176.0097   1.1592327128e+02   1.6572959797e+01    0.1709908    0.1523876  -1.02 0.0004021143    1.118    0.105
        16 -11.9937    123.4393    166.5377   1.2385120382e+02   2.5318719299e+01    0.3763536    0.2076608  56.35  0.001442132    2.357    0.576
        17 -13.1615    138.4380    172.0656   1.2144167069e+02   2.1991022501e+01    0.5080088    0.3773646  80.01  0.002743825    2.146    0.534
        18 -10.8150    219.2594    224.0415   1.1438024416e+02   3.1552565123e+00    0.1446901    0.1106241   6.06 0.0003962343    1.141    0.124
        19 -12.5518    148.0401    173.0335   1.1956069432e+02   2.0301214726e+01    0.3539982     0.239317  55.82     0.001787    1.823    0.452
        20 -13.0538    144.6130    168.9074   1.1959630590e+02   2.1541785416e+01    0.4591451    0.2643051  35.97  0.002310392    1.562    0.360
        21 -11.9367    157.0834    178.1865   1.1854481717e+02   1.8031216680e+01    0.2020644    0.1807096 -20.71  0.000710502    1.208    0.172
        22  -9.5404     19.6328    223.0578   1.5061556509e+02   2.7536582918e+01      0.11831   0.09763724  84.26  0.001032341    1.284    0.221
        23 -10.6018      7.7711    220.7948   1.5264763165e+02   2.8889580316e+01   0.07173928   0.06514877  56.32 0.0002528911    1.332    0.250
        24 -12.1622    202.7000    166.3943   1.0763506158e+02   1.2356197845e+01     0.374769    0.3002982  36.01  0.001662641    1.314    0.239
        25 -11.5185    223.9665    164.2394   1.0351798560e+02   9.2232503078e+00    0.2354844    0.1645306 -33.25 0.0007145554    1.591    0.371
        26 -10.7697     23.7662    214.2100   1.4951213036e+02   2.8644110398e+01    0.2385456    0.1164753 -63.35  0.001542069    2.402    0.584
        27 -11.3043    237.4313    159.2533   1.0035158476e+02   7.7241603156e+00    0.1597279    0.1030579 -31.08 0.0008382834    1.601    0.375
        28 -10.4602     22.9601    156.2872   1.4657142548e+02   3.9703543130e+01    0.1518099     0.128671  59.87 0.0004614722    1.104    0.094
        29 -14.2355    134.1532    145.5392   1.1771853810e+02   2.7464180317e+01     1.169883    0.3761544 -53.30  0.003835859    4.185    0.761
        30 -14.2679    143.4616    143.3676   1.1515121554e+02   2.6243274829e+01     0.913155    0.5285705 -60.04  0.004000545    2.520    0.603
        31 -14.3846    135.7677    128.7410   1.1389313026e+02   3.0379619979e+01     1.751703    0.3561726 -48.09  0.004588919    5.660    0.823
        32 -10.3419    150.8214    246.8292   1.2882026581e+02   9.4894588385e+00    0.1434083    0.1139848  17.30 0.0007739222    1.198    0.165
        33 -13.2007     11.7824    205.9150   1.5143116417e+02   3.1079613428e+01    0.3981502    0.2483271  20.47  0.002347438    1.965    0.491
        34  -9.8828    183.2919    149.7049   1.0800530148e+02   1.8067966602e+01    0.1171951    0.1089048  85.77  0.000287366    1.556    0.357
        35 -10.1425      1.6952    139.9821   1.5081169854e+02   4.4732931569e+01    0.1511189    0.1163227  82.52 0.0003589544    1.046    0.044
        36 -10.6115      7.6804    138.0667   1.4918786595e+02   4.4763607290e+01     0.183016    0.1467667 -43.66 0.0007750564    1.554    0.357
        37 -13.0660    148.6733    132.7905   1.1175647405e+02   2.7234675642e+01    0.3925586    0.3161618 -36.92  0.001878118    1.272    0.214
        38 -12.4294    160.6094    128.1871   1.0806850825e+02   2.5806560573e+01    0.3495141    0.3134792 -43.25  0.002015246    1.238    0.193
        39  -9.0804     13.6927    244.5156   1.5232588995e+02   2.4706685669e+01   0.08828349   0.06319658  60.95 -4.386304e-05    1.086    0.079
        40 -11.2415    174.4823    148.7526   1.0956969981e+02   1.9782828121e+01    0.2597281    0.2277271  81.69  0.000877526    1.694    0.410
        41 -12.9673    152.7459    145.4829   1.1350058682e+02   2.4214900956e+01    0.3519397    0.3142657  21.63  0.002121018    1.026    0.026
        42 -10.8080    205.3851    110.1201   9.4927393982e+01   1.9881167528e+01    0.2369062    0.1785501  27.11 0.0006833467    1.311    0.237
        43 -11.8726    168.9607    202.6494   1.2002526200e+02   1.2643781326e+01    0.1808634    0.1706383 -21.13 0.0002904863    1.328    0.247
        44 -10.7947     14.0000    240.8627   1.5217031526e+02   2.5226757020e+01    0.1841932   0.04665555 -81.45 0.0009628658    4.165    0.760
        45 -11.0301    157.1137    106.0504   1.0347354832e+02   3.0442203223e+01    0.2348123    0.2140506  57.94            0    1.254    0.203
        46 -11.8045    137.7690    198.0849   1.2543045552e+02   1.7856681381e+01    0.5330241    0.2573239  54.04  0.002422906    2.932    0.659
        47 -12.1601    153.6456    189.1401   1.2097133264e+02   1.6873235466e+01    0.3438803    0.1655241 -45.63  0.001557577    2.418    0.586
        48 -11.8636    160.7435    194.5650   1.2039426173e+02   1.4995474360e+01    0.2092688    0.1768136  13.59 0.0007274461    1.090    0.083
        49 -12.2969    157.1805    191.8757   1.2068560411e+02   1.5926338260e+01    0.2498051    0.2194367  84.27 0.0003948221    1.664    0.399
        50 -10.3989    153.4833    194.4939   1.2180349213e+02   1.6092068696e+01    0.1211446    0.1011447  29.04 2.444516e-05    1.036    0.035
        51 -14.3689    206.3153    179.9189   1.0947398250e+02   1.0008393694e+01    0.7634611    0.5686106  23.18  0.003476996    1.129    0.115
        52 -13.4829    197.1962    173.5154   1.0996185871e+02   1.2281466893e+01    0.6029341    0.3695654 -42.02  0.002430891    1.991    0.498
        53 -10.3010    138.0695    242.4624   1.3058586752e+02   1.1622100612e+01    0.2299698    0.1458502  -9.38 0.0007849181    2.629    0.620
        54 -10.7520    160.0557    248.6886   1.2744046129e+02   8.1175671127e+00     0.143201    0.1334743  28.37 0.0005367007    1.360    0.265
        55 -12.3330    133.7962    247.7876   1.3185987141e+02   1.1491955464e+01    0.1560364    0.1466711  -4.30 0.0005491895    1.341    0.254
        56 -10.6639     13.6561     59.9401   1.3876147033e+02   6.2705163927e+01    0.1810232    0.1354333 -70.22 0.0004621134    1.123    0.109
        57 -13.0735    165.3435     32.0854   7.9030176882e+01   4.0071272887e+01    0.4547581    0.3958357 -11.91 0.0009456401    1.131    0.116
