#   1 NUMBER                 Running object number                                     
#   2 MAG_AUTO               Kron-like elliptical aperture magnitude                    [mag]
#   3 X_IMAGE                Object position along x                                    [pixel]
#   4 Y_IMAGE                Object position along y                                    [pixel]
#   5 X_WORLD                Barycenter position along world x axis                     [deg]
#   6 Y_WORLD                Barycenter position along world y axis                     [deg]
#   7 A_WORLD                Profile RMS along major axis (world units)                 [deg]
#   8 B_WORLD                Profile RMS along minor axis (world units)                 [deg]
#   9 THETA_WORLD            Position angle (CCW/world-x)                               [deg]
#  10 FWHM_WORLD             FWHM assuming a gaussian core                              [deg]
#  11 ELONGATION             A_IMAGE/B_IMAGE                                           
#  12 ELLIPTICITY            1 - B_IMAGE/A_IMAGE                                       
         1 -10.1424     24.5278     16.6722   1.1122481348e+02   7.0446649293e+01    0.2869819    0.2584456  10.08 0.0007249371    1.359    0.264
         2 -10.0811      9.4878     19.7605   1.2041219502e+02   7.1186928468e+01    0.3773103    0.2000773  -3.31  0.001292815    2.218    0.549
         3  -9.7554     63.8464     14.5121   9.2548316538e+01   6.5420643819e+01    0.4141998    0.2466346  21.14  0.001104129    1.803    0.445
         4  -8.8258     50.7175     15.0017   9.8083997816e+01   6.7449521961e+01     0.293887      0.17132  18.18  0.001009149    1.900    0.474
         5  -9.4627     74.7131     13.2795   8.8045114447e+01   6.3622416241e+01    0.3465132    0.2515208  -0.31  0.001500034    1.344    0.256
         6  -8.8517     80.2939     12.6550   8.5904251676e+01   6.2622705591e+01    0.2631862    0.2205882 -38.37 0.0008914018    1.428    0.300
         7  -8.7672    134.4819     13.4119   7.2690717626e+01   5.0265756278e+01    0.2915418    0.1496968  38.67 0.0008807256    2.073    0.518
         8  -9.2519     31.2569     10.8515   1.0502777618e+02   7.0609371904e+01    0.4117531    0.2268517 -17.36  0.002104447    1.895    0.472
         9  -9.4756    233.6379      9.9426   5.9206720700e+01   2.5476891963e+01    0.3232009    0.2186855 -30.04  0.001216236    1.562    0.360
        10  -8.2449    156.8845     10.7413   6.7964570345e+01   4.4807838925e+01    0.2789911    0.1544214 -53.04  0.001235874    2.127    0.530
        11  -8.9097    106.4045     10.6202   7.7660056631e+01   5.7277828720e+01    0.2563666    0.1500401  54.26  0.001026211    1.533    0.348
        12 -10.6648     20.1431      8.8482   1.0980146724e+02   7.2092335407e+01    0.2771486    0.1795338   6.72 0.0003984642    1.530    0.346
        13  -8.5344    128.1907      7.9739   7.1883884363e+01   5.2345749077e+01    0.2268109    0.1374597  24.76 0.0009850822    1.934    0.483
        14  -9.1577     96.8437     11.8527   8.0645917601e+01   5.9283413122e+01    0.3452563    0.2171477  58.07 0.0008464955    1.587    0.370
        15  -8.3418    119.1730      6.8536   7.3256299705e+01   5.4640594855e+01    0.1939775    0.1412713  36.81 0.0005899168    1.295    0.228
        16  -9.0091     76.6084      7.0745   8.4472358782e+01   6.3941669412e+01    0.2810038    0.1435877  45.61  0.001420227    1.760    0.432
        17  -8.8597     68.7920      4.1423   8.5658332351e+01   6.5721475177e+01    0.3352043    0.1642291  -9.94   0.00144112    2.423    0.587
        18  -9.9370     49.0411      4.6945   9.3561012268e+01   6.9008598199e+01    0.2566874    0.1771701   3.03 0.0004281328    1.334    0.250
        19  -9.2909    110.8729      4.3098   7.4015579487e+01   5.6829791198e+01    0.3271786    0.1865609 -35.10 0.0005754496    1.956    0.489
        20  -9.2276     57.0714      4.2376   9.0032258471e+01   6.7773228114e+01    0.3392949    0.1728733  21.87  0.001647772    2.291    0.564
        21  -8.6187    125.2260      3.9862   7.0944004114e+01   5.3424364555e+01    0.2110677    0.1582444  35.52  0.000578157    1.289    0.224
        22  -9.0540    104.3298      2.8894   7.4910258671e+01   5.8460230674e+01    0.4040258    0.2119161  26.26  0.001851492    2.178    0.541
        23  -7.9398    153.5266      3.1382   6.5959329952e+01   4.6368882991e+01     0.180841    0.1378326 -19.55 0.0003815487    1.487    0.328
        24  -8.0836    182.1961      2.1492   6.2042680220e+01   3.9049219440e+01    0.1952714    0.1687831  60.01 0.0003677995    1.161    0.139
        25  -7.9813    143.0178      2.2494   6.7235714557e+01   4.9129997023e+01    0.1932441    0.1528929  61.66 0.0003708107    1.108    0.098
        26  -8.2363      2.2564      8.0947   1.1956889407e+02   7.3643841710e+01    0.1893922     0.147186 -36.59  0.001456774    1.162    0.140
        27  -7.7430      3.1641      1.3075   1.1581514454e+02   7.4664377794e+01      0.12281   0.08698826  16.34 0.0002729978    1.555    0.357
        28  -7.5707    101.5000    229.5037   1.3267722319e+02   1.5197310165e+01    0.1223651   0.09840478  56.68 0.0008103261    1.042    0.040
        29  -8.1319    249.0980    250.1529   1.0863397667e+02  -1.0802463554e+01     0.175523    0.1130803  14.88 0.0008985728    1.261    0.207
        30  -9.2824    233.5695    245.6850   1.1052350271e+02  -8.1656920458e+00    0.5032855    0.1708097 -28.91  0.002324365    3.637    0.725
        31  -8.8341    223.5164    250.3906   1.1293306338e+02  -7.2203647116e+00    0.3733743   0.08201518  37.57  0.001425916    3.704    0.730
        32  -9.4153    212.1736    250.1930   1.1485146657e+02  -5.5151592806e+00    0.2386953    0.1703276  48.32   0.00157895    1.595    0.373
        33 -10.0155    200.1993    249.0943   1.1678516117e+02  -3.5595430273e+00    0.3676137    0.1955952  25.35  0.001326744    1.871    0.466
        34  -8.8766    151.1835    249.4840   1.2564111955e+02   4.1416485197e+00    0.2468411    0.1371601  37.89  0.001177993    1.467    0.318
        35  -7.8950    123.6156    250.3410   1.3074475849e+02   8.3433827061e+00    0.2130398   0.08812897  40.94  0.001072316    1.918    0.479
        36  -8.7852    247.5574    226.3322   1.0507067627e+02  -8.0402653881e+00    0.3382199    0.2032968 -29.74  0.002101208    1.765    0.433
        37  -7.5201    174.7007    228.5865   1.1848954730e+02   3.3248191691e+00    0.1270938   0.08956686   7.73 0.0001919975    1.862    0.463
        38  -8.0648    229.8249    226.9822   1.0819837170e+02  -5.4579330484e+00    0.1978751    0.1190448  -0.42  0.001084694    1.998    0.500
        39  -8.2168    187.5126    226.4862   1.1576521221e+02   1.4676133214e+00    0.2240267   0.09959659  33.10 0.0007042369    2.140    0.533
        40  -7.8870     70.1842    226.0450   1.3830197193e+02   2.0357351068e+01    0.1512381    0.1268465  32.28 0.0009890265    1.568    0.362
        41  -8.1698    237.2879    225.4346   1.0665586124e+02  -6.4113282693e+00    0.2299891   0.09346521  34.83  0.001094947    2.120    0.528
        42  -7.8691    223.6267    225.0857   1.0897044276e+02  -4.2579609817e+00    0.1655348     0.102211 -15.39 0.0009380904    1.846    0.458
        43  -7.6580    206.7383    222.4201   1.1156592336e+02  -1.1798603139e+00    0.1783646   0.09775893  30.21 0.0005226106    1.653    0.395
        44  -8.6177    239.5794    219.3719   1.0523946485e+02  -6.0317489078e+00    0.2529553    0.1557252 -24.45  0.000994625    1.661    0.398
        45  -7.8779    225.4794    219.9811   1.0779341475e+02  -3.9057618713e+00    0.1665099    0.1379886   6.48 0.0004083973    1.097    0.088
        46  -7.4070    227.6907    217.3146   1.0695097053e+02  -3.9173710511e+00    0.1331166    0.1013358  14.87 0.0005527736    1.121    0.108
        47  -8.2455    182.1470    219.7999   1.1574499121e+02   3.3613646543e+00    0.2418864    0.1494909  26.63 0.0008489394    1.644    0.392
        48  -7.6724    173.4781    219.4370   1.1735410557e+02   4.9188734061e+00    0.1302203    0.1068515  32.34 0.0001892375    1.064    0.060
        49  -7.9464    203.6431    216.6127   1.1118204575e+02   1.4094134387e-01     0.194854    0.1317736  13.24 0.0008211779    1.623    0.384
        50  -7.6143    219.4645    215.4706   1.0809997113e+02  -2.3441292866e+00    0.1267197    0.1016816  18.39 0.0001270751    1.036    0.035
        51  -8.4030    193.6483    215.3960   1.1285301304e+02   2.0275846776e+00    0.2643553    0.1818789  15.78  0.001052887    1.600    0.375
        52  -9.1544    248.9639    213.2106   1.0258097908e+02  -6.7109764459e+00    0.2505635    0.2165315 -20.79  0.001094442    1.372    0.271
        53  -7.7665    130.3569    220.2993   1.2595583238e+02   1.2193959436e+01    0.1226891   0.09638682  15.58 0.0007036266    1.706    0.414
        54  -8.3543    232.2133    212.2758   1.0528536396e+02  -3.9921955580e+00    0.2567947    0.1612524  -0.03 0.0009625267    1.821    0.451
        55  -8.1417    122.6681    213.1807   1.2657174259e+02   1.4757087479e+01    0.2298053    0.1598469  20.10  0.001167006    2.047    0.511
        56  -7.8480    186.4545    210.0447   1.1334561668e+02   4.0944451678e+00    0.1739421       0.1287 -34.34 0.0005502052    1.541    0.351
        57  -7.7609     54.9944    210.5144   1.3989407784e+02   2.5341755661e+01     0.138282    0.1065706   5.88 0.0008093612    2.457    0.593
        58  -7.4084    132.7027    209.3148   1.2399704845e+02   1.3756590026e+01    0.1324333   0.09251759  68.64 0.0007014531    1.606    0.377
        59  -8.0538    162.9090    207.8632   1.1763512361e+02   8.6629822660e+00    0.2033761    0.1643455  24.21 0.0006403699    1.268    0.211
        60  -8.1385    246.8114    205.1487   1.0150366701e+02  -5.3877158704e+00    0.1750169    0.1214286   4.90 0.0009831912    1.353    0.261
        61  -8.1468    236.1823    204.6934   1.0324373067e+02  -3.6431581955e+00    0.1871682    0.1536738 -20.11 0.0004323503    1.262    0.207
        62  -7.8431    215.9742    205.5149   1.0700087229e+02  -3.9157569705e-01    0.1967461    0.1101974  36.86  0.001018344    1.570    0.363
        63  -9.4959    174.5855    204.1757   1.1469891059e+02   7.1660517078e+00     0.257907    0.2115386  39.66 0.0004118646    1.062    0.059
        64  -7.6761    117.1643    205.3242   1.2666344122e+02   1.7152609905e+01    0.2545545    0.1123042  34.39  0.001058559    2.501    0.600
        65  -8.1856    250.4031    199.7268   9.9908677098e+01  -5.2605871178e+00     0.285632    0.1090279 -30.41  0.001291366    2.628    0.620
        66  -7.9785    228.8768    199.8429   1.0364612705e+02  -1.7862715238e+00    0.2088315    0.1498444  10.08  0.001220062    1.359    0.264
        67  -7.9175    196.2809    200.3763   1.0978929539e+02   3.8359734108e+00    0.2607238     0.111436  38.84 0.0009696652    2.098    0.523
        68  -7.8057    184.9620    200.0143   1.1193228922e+02   5.9529123850e+00    0.2108174     0.151827  10.83 0.0007976674    1.664    0.399
        69  -8.3017    243.4723    198.2346   1.0080385355e+02  -3.9697949814e+00    0.2352777    0.1037949 -19.02 0.0009558094    3.202    0.688
        70  -7.6500     99.4906    198.5909   1.2950881857e+02   2.1374850863e+01    0.1310006    0.1105075  61.70  -5.7069e-05    1.025    0.025
        71  -8.2610    166.4179    197.0782   1.1515559863e+02   9.8751629991e+00    0.2607113    0.1723084  28.81 0.0008061769    1.579    0.367
        72  -8.1063    192.9190    194.1386   1.0932344140e+02   5.4394008082e+00    0.2524863    0.1695334  -4.82  0.001226787    2.056    0.514
        73  -7.7824    148.7909    194.4013   1.1837541250e+02   1.3629597856e+01     0.286266    0.1612676 -25.94  0.001099641    3.486    0.713
        74  -7.6767      1.7870    194.1788   1.4900882964e+02   3.4294503870e+01    0.1362778    0.1093199 -78.79  0.001036124    1.361    0.265
        75  -7.4697    124.7864    193.3804   1.2334722483e+02   1.8167401005e+01    0.1900179    0.1199096  34.23 0.0007317486    1.651    0.394
        76  -7.6276     89.9959    192.2610   1.3075041170e+02   2.4163870678e+01    0.1876392    0.1498014  56.74 0.0007187806    1.102    0.093
        77  -7.9476    161.6026    190.1363   1.1495957692e+02   1.2017364940e+01    0.1802593    0.1309542 -30.85 0.0006225568    1.665    0.399
        78  -7.7227    186.3286    189.2670   1.0973666923e+02   7.4762197466e+00    0.1377631   0.09979233  15.85  0.000512581    1.576    0.365
        79  -7.9154     65.0364    189.4648   1.3583055805e+02   2.8361250007e+01    0.1830821    0.1128916  41.96   0.00102136    1.565    0.361
        80  -7.5758    139.5211    185.4781   1.1888755714e+02   1.7057136965e+01    0.1392356    0.1266867  42.70 0.0003645992    1.079    0.074
        81  -7.8605    224.6709    189.6763   1.0250035103e+02   3.7918039860e-01    0.1380264   0.09186362   9.19 0.0007049675    1.697    0.411
        82  -7.2537    237.3322    194.3155   1.0113095459e+02  -2.4405084203e+00    0.1339673   0.08653195   9.21 0.0007046485    1.685    0.407
        83  -7.0636    183.5242    180.5049   1.0865810521e+02   9.5213807225e+00    0.1401512     0.127942  33.03 5.387593e-05    1.026    0.025
        84  -7.6985     96.5317    178.4785   1.2743418506e+02   2.6062064577e+01    0.1367345    0.1192655  71.41 -1.698687e-05    1.002    0.002
        85  -7.4332     68.5358    178.4747   1.3381417943e+02   3.0263326573e+01    0.1273107    0.1117003  82.40 9.518963e-05    1.086    0.079
        86  -7.1719    121.5072    177.4951   1.2157524572e+02   2.1988336738e+01    0.1414306    0.1264914  63.47 5.452719e-05    1.010    0.010
        87  -7.3419    205.3368    175.3227   1.0331016187e+02   6.1705680359e+00    0.1457812    0.1021727   9.69 0.0007050727    1.714    0.416
        88  -8.0575    148.4741    174.9928   1.1507773852e+02   1.7427137886e+01    0.3019322    0.1707403  27.65  0.000948408    2.336    0.572
        89  -7.6502     47.1677    175.5855   1.3829631865e+02   3.3636337548e+01    0.1553579    0.1206212  22.57 0.0009504923    1.765    0.434
        90  -7.8616    184.2039    171.5644   1.0676900591e+02   1.0976001618e+01    0.2045462    0.1272599  33.52 0.0008645584    1.620    0.383
        91  -7.2423    176.8265    167.3707   1.0746062723e+02   1.3233369712e+01    0.2151509     0.126601  34.54 0.0009421679    1.748    0.428
        92  -7.7266    150.6781    165.6968   1.1282682751e+02   1.8858015541e+01    0.1446333    0.1156164   6.42 0.0004073259    1.633    0.388
        93  -7.7839    168.6731    163.6864   1.0845279907e+02   1.5599752679e+01    0.1488628    0.1142513   8.11 0.0003339233    1.668    0.400
        94  -7.7169    123.0827    162.6364   1.1862943636e+02   2.4872012405e+01    0.2075207    0.1322911  32.02 0.0009373353    1.779    0.438
        95  -7.7321    159.6698    160.6641   1.0981032201e+02   1.8045058530e+01    0.1510989    0.1167988   4.56 0.0007052096    1.731    0.422
        96  -7.6289    138.2078    158.4071   1.1425703440e+02   2.2860871614e+01    0.2134482    0.1309224  53.92 0.0007211763    1.661    0.398
        97  -7.8462     21.4069    156.7840   1.4234698979e+02   4.0530764157e+01    0.1734307   0.08872258 -66.55  0.000953898    1.687    0.407
        98  -7.1359    205.0083    152.2317   9.8527939082e+01   1.0171474074e+01    0.1922203    0.1167214  44.98 0.0008731604    1.619    0.382
        99  -7.3395    133.2832    147.3729   1.1319007975e+02   2.6222302909e+01      0.14963    0.1197498 -12.48 0.0007015109    1.706    0.414
       100  -9.3268     66.8590    144.5034   1.2958332456e+02   3.8254126685e+01    0.4648911    0.2711785  64.54  0.002047843    1.986    0.497
       101  -8.0315    139.7212    137.9621   1.0958677457e+02   2.6951192261e+01     0.313813     0.197618  18.39  0.001166353    2.719    0.632
       102  -7.5389    231.3255    134.1893   8.9666876169e+01   7.8142658373e+00    0.1992293    0.1187283 -42.32 0.0003559992    1.672    0.402
       103  -8.1288      4.9460    134.1779   1.4427916019e+02   4.6942165608e+01    0.1764208    0.1149897 -39.53  0.001083869    2.004    0.501
       104  -8.3271     24.3078    129.4628   1.3877702554e+02   4.6524500330e+01    0.2520643    0.1584414 -26.11  0.001336734    2.504    0.601
       105  -7.7529     67.6489    127.6768   1.2654545114e+02   4.2129961287e+01     0.139029    0.1027299 -31.66 0.0007048256    1.752    0.429
       106  -7.9297    132.5139    124.5301   1.0825817521e+02   3.1408388287e+01    0.1515405    0.1496096  72.78 0.0001343274    1.030    0.029
       107  -8.2766     12.5172    121.4968   1.4103527516e+02   4.9298000528e+01     0.217848    0.0940607 -71.98  0.001094857    1.813    0.449
       108  -8.5243     15.3270    118.3530   1.3989597644e+02   4.9816963144e+01    0.2246726    0.1404964 -31.69  0.001271253    2.173    0.540
       109  -7.7031    119.4866    119.4496   1.1042106370e+02   3.5228451756e+01    0.1495844    0.1473667 -81.69 0.0001918855    1.032    0.031
       110  -7.3093     99.5185    119.5091   1.1589181182e+02   3.9017045573e+01    0.1463059    0.1399844 -64.19 -6.014042e-06    1.042    0.040
       111  -8.6103    249.9691    115.1449   8.2337302993e+01   7.0941403838e+00    0.2440462    0.1804047 -31.21 0.0005693051    1.218    0.179
       112  -7.5566    183.4463    113.5290   9.3672210142e+01   2.2111765248e+01    0.1519933    0.1507457 -48.25 0.0001012872    1.014    0.014
       113  -8.3831     22.2209    113.0137   1.3724177758e+02   5.0523752033e+01    0.1758904    0.1389996 -75.06 0.0005046298    1.026    0.026
       114  -9.3041      2.4540    109.6640   1.4252208242e+02   5.2652521544e+01    0.3322654    0.1654853 -47.46  0.001846957    2.048    0.512
       115  -8.1492    133.8196    106.4897   1.0334169166e+02   3.5053736081e+01    0.3160824    0.2050303 -28.25  0.001135726    1.918    0.479
       116  -7.4759    124.6333    106.7164   1.0581722732e+02   3.6990994718e+01     0.156167    0.1234319   6.08 0.0005820879    1.692    0.409
       117  -7.6850     66.4893    105.0000   1.2235726460e+02   4.7652923380e+01    0.2840266   0.07989356  33.61 0.0009349114    3.936    0.746
       118  -8.0060     59.4898    114.0201   1.2635163148e+02   4.6452225977e+01    0.1965766     0.093652 -43.00 0.0007148792    2.413    0.586
       119  -7.3956     93.5154    103.5215   1.1378235106e+02   4.3763389178e+01    0.1458685    0.1384552 -56.56 0.0001115548    1.012    0.011
       120  -8.9750      3.8040    101.0983   1.4113243255e+02   5.4516504829e+01    0.3965455   0.09789161 -48.07   0.00152095    3.984    0.749
       121  -9.4951     15.2466    104.9647   1.3819584952e+02   5.2909082819e+01    0.4930364    0.2259031 -35.22  0.002270722    3.066    0.674
       122  -9.4986      9.3005     96.2105   1.3880298363e+02   5.5301858073e+01     0.321004    0.1490085   7.95  0.001598398    3.209    0.688
       123  -9.3081     20.1663     92.3713   1.3472753942e+02   5.5446776997e+01    0.3899716    0.1227547 -48.53  0.001631794    2.829    0.646
       124  -8.9419     44.6673     91.9081   1.2651593824e+02   5.3356585202e+01    0.3005453    0.1704707 -39.33  0.001015092    1.880    0.468
       125  -7.6589     53.4698     92.5443   1.2373110765e+02   5.2215234577e+01    0.1341139    0.1173839 -55.24 9.131613e-05    1.014    0.014
       126  -7.9629    110.5638     90.6106   1.0527257462e+02   4.3393029222e+01    0.3017068    0.1343162  31.39 0.0009524125    3.448    0.710
       127  -8.0851     96.7506     90.1669   1.0923736042e+02   4.6163793180e+01    0.2856457    0.1967666  10.13  0.001231698    2.188    0.543
       128  -9.3478     35.8963     82.1912   1.2739459897e+02   5.6448976263e+01    0.6913233     0.256252 -40.39  0.002710929    3.138    0.681
       129  -8.5857     67.3810     85.8728   1.1744916929e+02   5.1913615488e+01    0.4523589    0.1989389  23.05   0.00162713    3.623    0.724
       130  -8.0632    126.5085     83.9979   9.8867663428e+01   4.1360464216e+01    0.3294651    0.1838433  31.01  0.001164216    2.403    0.584
       131  -8.3386     88.6950     78.7450   1.0841360670e+02   5.0069136638e+01    0.3404029    0.2032198  -8.44  0.001138717    3.903    0.744
       132  -9.7626      8.8350     76.8916   1.3592280906e+02   5.9668795342e+01    0.5611436     0.195793 -38.45  0.002416791    3.287    0.696
       133  -7.5310    184.5029     77.9859   8.3849914279e+01   2.8346334302e+01    0.2265104    0.1510705 -35.48 0.0006266464    1.500    0.333
       134  -8.7320     48.7912     76.9317   1.2154124374e+02   5.6279447700e+01    0.2951968    0.2337123 -19.59   0.00146036    1.395    0.283
       135  -7.4371    105.6656     76.6670   1.0251202819e+02   4.7281213389e+01    0.1545839    0.1168369  -1.11 0.0006758124    1.734    0.423
       136  -9.6930     24.2873     72.9728   1.2953855904e+02   5.9499347171e+01    0.8851919     0.331735 -33.06  0.003285552    4.158    0.759
       137  -8.0900     23.4682     69.4988   1.2906359487e+02   6.0323775104e+01    0.2183128    0.2003644  36.84 0.0006190304    1.331    0.249
       138  -7.9365     74.9416     74.8006   1.1176511763e+02   5.3196994105e+01    0.2186309    0.1545939  -4.40 0.0006578152    1.933    0.483
       139  -8.3859    187.8622     70.9902   8.1248279898e+01   2.8670687030e+01    0.2189281    0.2101057 -70.98 0.0003373919    1.017    0.017
       140  -7.4086    129.3249     69.3309   9.3523996307e+01   4.3538775486e+01    0.1587178    0.1196156  12.10 0.0007050574    1.704    0.413
       141  -8.3114     80.5499     68.1934   1.0779790820e+02   5.3653221024e+01    0.3086619    0.2004853 -30.25   0.00102015    1.636    0.389
       142  -8.4906     84.2442     63.7891   1.0509980157e+02   5.3892985410e+01    0.3538226    0.2300989   9.10  0.001478935    2.290    0.563
       143  -8.4787     43.3523     68.1225   1.2118511110e+02   5.8797349921e+01    0.2657059    0.1768504 -23.04  0.001290572    1.726    0.421
       144  -8.2694     61.7902     67.0302   1.1402204289e+02   5.6766339630e+01    0.2789264     0.172734 -47.89 0.0006906446    1.448    0.310
       145  -9.5320     65.2404     61.3762   1.1096235129e+02   5.7430836754e+01    0.4227704     0.292804 -21.56  0.002205787    1.609    0.378
       146  -7.9200    105.8179     67.4206   9.9475376636e+01   4.9065302893e+01    0.2141526    0.1363381  33.76  0.000953234    1.720    0.418
       147  -9.0222     51.3209     60.9416   1.1604252726e+02   5.9388244586e+01     0.386476    0.3226859 -60.58  0.001745516    1.286    0.223
       148  -9.5001     17.7001     62.4527   1.2965725067e+02   6.2263770090e+01    0.5117798    0.1900901 -46.29  0.002002964    2.178    0.541
       149 -10.8386     38.3384     57.7087   1.2014482576e+02   6.1510389934e+01    0.5055549    0.2862509 -20.77 0.0005299826    2.310    0.567
       150  -9.7246    243.1817     58.8151   6.9948511569e+01   1.7080851244e+01    0.2825558    0.2441456 -68.84  0.000374264    1.103    0.094
       151  -7.6090    111.7592     58.4052   9.4659004493e+01   4.9460678112e+01    0.2102923    0.1337525  37.99 0.0009463207    1.626    0.385
       152  -9.4940     17.8287     38.0267   1.2282358728e+02   6.7234013259e+01    0.6120781    0.1577325 -37.74  0.002166165    4.380    0.772
       153  -9.5206      2.7281     55.7915   1.3416284023e+02   6.4543993276e+01    0.4915269    0.2586116 -54.48  0.002974576    1.402    0.287
       154  -9.9189      9.7452     47.8450   1.2933312904e+02   6.5819439578e+01    0.5456811    0.2438602 -29.59  0.002347981    2.465    0.594
       155  -7.7249     99.3363     54.4863   9.6969898991e+01   5.2759960611e+01    0.2565536    0.1301026 -37.54  0.001079722    1.940    0.485
       156  -7.8061    128.9540     58.0335   8.9871055964e+01   4.5616421744e+01    0.2199725    0.1746983  13.85 0.0004214694    1.470    0.320
       157  -9.3571     75.3514     50.3554   1.0344087224e+02   5.7948315981e+01     0.347591    0.2600249   7.86  0.000130417    1.504    0.335
       158  -7.8927    118.2759     51.3912   9.0369074597e+01   4.9198314481e+01    0.1991999     0.140455  61.70  0.000597219    1.575    0.365
       159 -10.2594     45.2456     49.1042   1.1457654662e+02   6.2476228943e+01    0.2772446    0.2120205  -7.32 0.0006460876    1.371    0.271
       160  -8.3551    106.9557     48.0781   9.2343810834e+01   5.2248748011e+01    0.2093312    0.1974392   8.01 0.0002832332    1.005    0.005
       161  -9.8841     24.6550     46.9575   1.2258973278e+02   6.4950073652e+01    0.6317418    0.2813959   3.99  0.002679699    3.826    0.739
       162  -8.3763     31.6612     43.7355   1.1849552658e+02   6.4958531960e+01    0.1888995    0.1350183 -14.87 0.0004603344    1.436    0.303
       163  -9.1248      2.0995     45.8259   1.3215899712e+02   6.6634758625e+01    0.2562276    0.1749489 -74.81 0.0009246033    1.514    0.340
       164  -8.8519     93.8887     42.7393   9.4289581114e+01   5.5826911929e+01    0.5038309     0.288946  31.70  0.002272975    1.941    0.485
       165 -10.2953     83.1231     40.1520   9.6806420592e+01   5.8318371311e+01    0.3309026    0.2490741  -2.65            0    1.428    0.300
       166  -9.6996     43.8914     40.0836   1.1189748918e+02   6.4332965828e+01    0.4406839    0.1825949  24.49  0.001916665    3.015    0.668
       167  -8.8891      4.1840     40.3498   1.2981744571e+02   6.7633396223e+01    0.2575737    0.1136387 -67.34 0.0008949722    2.226    0.551
       168  -7.2503    123.2763     40.4112   8.5098718831e+01   4.9723965693e+01    0.1543575    0.1077581  15.08 0.0006972523    1.787    0.440
       169  -9.5747     54.7358     36.6444   1.0601883030e+02   6.3535638443e+01    0.3056507    0.2258263   7.60 0.0009247253    1.408    0.290
       170  -8.7613    106.6524     36.6517   8.8105510891e+01   5.4065500901e+01    0.3175907     0.207476  22.77  0.001354988    1.810    0.447
       171  -8.5429     92.1853     36.8224   9.2500302074e+01   5.7085506869e+01     0.316719    0.2148712  22.85   0.00102444    1.625    0.384
       172  -9.4275     95.9915     33.3034   8.9903643214e+01   5.6823942067e+01    0.2751912    0.2266717  -3.80  0.000320404    1.205    0.170
       173 -10.1976    139.1578     35.0226   7.9479263793e+01   4.6588780914e+01     0.244313    0.2319165  15.83            0    1.082    0.076
       174  -9.0921     37.9703     35.4499   1.1270776640e+02   6.5851812216e+01    0.2787416    0.1818717   7.19  0.001211157    1.729    0.422
       175  -8.5310     70.7924     35.6598   9.9361560421e+01   6.1219779351e+01    0.2695972    0.1106008  34.56  0.001091351    2.716    0.632
       176  -9.1805      7.1974     33.9134   1.2653383708e+02   6.8727340129e+01    0.3959813    0.2093844 -10.30  0.001758094    2.256    0.557
       177  -8.3639     77.1160     33.8755   9.6336734766e+01   6.0399268250e+01    0.1953107     0.180378 -38.98 0.0007169865    1.268    0.211
       178  -7.5684    144.0089     33.7869   7.8035010166e+01   4.5526153627e+01    0.1926058    0.1124859  60.48 0.0008456439    1.615    0.381
       179  -8.1270     81.9389     32.0886   9.3921807714e+01   5.9781470748e+01      0.20999    0.1479178   8.68 0.0003951333    1.587    0.370
       180  -8.5518    127.8020     30.3256   8.0307000937e+01   5.0004981476e+01    0.2448646     0.207303  16.98 0.0002061253    1.235    0.190
       181  -8.4751    112.3247     29.9970   8.3973648540e+01   5.3705448519e+01    0.3841799    0.1690677  37.69  0.001459248    2.582    0.613
       182  -8.1110    104.8606     31.1295   8.6440749998e+01   5.5229492924e+01    0.2016868     0.196597 -77.76 0.0007059738    1.213    0.175
       183  -9.0811      1.4433     29.7219   1.2804885447e+02   6.9838352841e+01    0.3399769   0.08222877 -59.36  0.001448596    3.132    0.681
       184  -7.6018    153.4042     26.8315   7.3870577866e+01   4.3979002108e+01    0.1881758    0.1392843  -1.28  0.000487559    1.652    0.395
       185 -10.3030     72.4247     25.6762   9.4502738232e+01   6.2442041820e+01    0.3715382    0.2379247  36.07 0.0005997038    1.517    0.341
       186  -9.0073     61.7139     27.0086   9.9138369114e+01   6.4044451585e+01     0.214501     0.159279  16.84 0.0005740783    1.316    0.240
       187  -8.9843     48.5161     25.7609   1.0403729209e+02   6.6182282313e+01    0.3600361    0.1781448  23.64   0.00137848    2.409    0.585
       188  -8.1766     88.0229     31.5269   9.1673849779e+01   5.8690963268e+01     0.206493    0.1270908  44.82  0.001029379    1.587    0.370
       189  -9.1599     26.7620     23.2551   1.1300498889e+02   6.9144520566e+01    0.4686439    0.1571883 -31.47   0.00175927    3.949    0.747
       190  -8.8782    243.0849    245.6103   1.0892226918e+02  -9.5094727601e+00    0.3545918    0.1505648 -31.21  0.001958541    2.605    0.616
       191  -8.4380    110.9603     24.0397   8.1981047033e+01   5.4766051028e+01    0.3063141    0.1398427  25.06 0.0006102959    4.187    0.761
       192  -7.1324    150.3154     23.3166   7.3243020803e+01   4.5185061007e+01    0.1507212    0.1013559  34.38 0.0004764883    1.649    0.393
       193  -8.9784     92.2185     21.1885   8.5998383032e+01   5.9213796210e+01    0.3282906    0.2291719  -0.35  0.001674505    1.557    0.358
       194  -9.7339     83.6835     22.0210   8.9024680971e+01   6.0833633079e+01    0.4949847    0.2121373  42.68  0.001623575    2.202    0.546
       195  -8.7783     57.4918     25.3794   1.0010401254e+02   6.4945409098e+01      0.27915    0.2113146  35.37 0.0009518942    1.402    0.287
       196  -7.7800    130.9706     21.9930   7.6538548937e+01   5.0227783385e+01    0.2303772    0.1508777  32.23 0.0005311531    1.647    0.393
       197  -7.9935    224.3973    246.7447   1.1224086708e+02  -6.9448568347e+00    0.1421409   0.09704965  -9.70 0.0003012202    1.572    0.364
       198  -8.0643    116.8818     20.1819   7.8998474802e+01   5.3838488279e+01    0.1902885    0.1461284  31.63 0.0002293396    1.267    0.211
       199  -7.8872     45.3260     20.1237   1.0287949290e+02   6.7479714114e+01    0.1980233    0.1282326 -18.18 0.0009292337    1.457    0.314
       200  -8.3188    127.8990     16.9811   7.5321301493e+01   5.1532411000e+01    0.2102995    0.1857387  44.85  0.000446335    1.032    0.031
       201 -10.0149    192.5511    244.8502   1.1754378553e+02  -1.8354811890e+00    0.3521308    0.2482577  -8.51  0.001772544    1.783    0.439
       202  -7.4856    189.2501     16.0370   6.5205336544e+01   3.5848231584e+01    0.1693568    0.1199997 -27.53 0.0005361258    1.537    0.350
       203  -8.5105    218.3190    245.3503   1.1307731334e+02  -5.8809892452e+00    0.1906818    0.1274815 -13.49  0.001184823    1.683    0.406
       204  -7.9953     74.0180    247.4873   1.3934978356e+02   1.6033643796e+01    0.1334738   0.09510374  21.00 0.0008077505    2.368    0.578
       205  -8.3036    250.3658    244.0559   1.0748200057e+02  -1.0356535345e+01     0.261591    0.1145856 -15.72  0.001277225    3.138    0.681
       206  -8.2080    146.6806     14.0542   7.0717684002e+01   4.7111445257e+01    0.1796426    0.1748628   7.34 0.0003548902    1.120    0.107
       207  -8.4239    249.2975    239.4852   1.0693374825e+02  -9.7320615914e+00    0.3019342    0.1389881 -23.81  0.001678489    2.356    0.576
       208  -9.2821    157.1305    244.7816   1.2397525556e+02   3.8644738475e+00    0.1986013    0.1479841  -0.99 0.0008832687    1.966    0.491
       209  -8.7115     88.8281     12.9966   8.3422950068e+01   6.0864101743e+01    0.3361852    0.1345397  39.39  0.001386541    2.461    0.594
       210  -9.1432    176.1367    243.5083   1.2032553403e+02   9.6870560306e-01     0.220914    0.1551193 -12.80  0.001330006    1.994    0.499
       211  -8.1090     95.7486    243.4332   1.3512354472e+02   1.3655022780e+01    0.1555309   0.09634667  37.39 0.0005459491    1.581    0.367
       212  -8.9826    170.2173    239.8173   1.2091134790e+02   2.4448739648e+00    0.2610076    0.1784902  19.37  0.001180486    1.670    0.401
       213  -7.9046    202.3803    239.8074   1.1505453358e+02  -2.7508216787e+00    0.1500593    0.1053485 -15.23 0.0008415316    1.679    0.405
       214  -7.2887     25.9289    241.0000   1.4714584249e+02   2.3050517530e+01    0.1581529   0.04856675  37.99 0.0007963651    2.901    0.655
       215  -8.9917    242.0651    236.9935   1.0773587207e+02  -8.4387627366e+00    0.3038031    0.1656068 -15.02  0.001479068    2.075    0.518
       216  -7.9233    121.5356    239.4426   1.2995518758e+02   1.0392943722e+01    0.1227373   0.09477964  52.69 0.0002895302    1.022    0.021
       217  -8.2755    224.4623    238.4817   1.1096784768e+02  -6.0093555439e+00    0.1190114   0.09063989  20.76 0.0001893813    1.020    0.020
       218  -8.0456     79.7766    238.4330   1.3758686331e+02   1.6798654584e+01    0.1508882   0.09776724  37.41 0.0007650501    1.595    0.373
       219  -8.1142    230.5912    237.0235   1.0968433525e+02  -6.7604801254e+00    0.1520189    0.1057041 -23.45 0.0003673354    1.554    0.356
       220  -7.6768    147.9660    237.7794   1.2479477899e+02   6.3993264104e+00    0.1690548   0.08220562  41.41  0.000576649    1.643    0.391
       221  -7.9758    195.6886    236.0282   1.1569843826e+02  -1.1921685672e+00    0.1683087    0.1371338  23.43 0.0006011594    1.072    0.067
       222  -9.5747    187.7697    234.8076   1.1696487987e+02   2.6235481171e-01    0.5609084    0.2439897  35.11  0.002709476    1.999    0.500
       223  -8.2444    161.9695    234.1021   1.2167380024e+02   4.6413938516e+00    0.1929831     0.149609  36.74 0.0005065995    1.081    0.075
       224  -7.4368    137.9493    235.0000   1.2634058407e+02   8.4757682474e+00    0.2077197    0.0577642  41.37 0.0007946661    2.889    0.654
       225  -7.8150    237.0071    229.7358   1.0741500091e+02  -6.8750696669e+00    0.1658048    0.1234978  21.52 0.0004637457    1.060    0.056
       226  -8.5578    248.2366    233.5083   1.0614440090e+02  -8.9393031647e+00    0.2302078    0.1507085  19.28  0.001034647    1.241    0.194
       227  -7.9160    195.2007    229.0065   1.1472526680e+02  -1.6790182292e-01    0.1933281    0.1286841   2.70  0.001065427    1.952    0.488
