#   1 NUMBER                 Running object number                                     
#   2 MAG_AUTO               Kron-like elliptical aperture magnitude                    [mag]
#   3 X_IMAGE                Object position along x                                    [pixel]
#   4 Y_IMAGE                Object position along y                                    [pixel]
#   5 X_WORLD                Barycenter position along world x axis                     [deg]
#   6 Y_WORLD                Barycenter position along world y axis                     [deg]
#   7 A_WORLD                Profile RMS along major axis (world units)                 [deg]
#   8 B_WORLD                Profile RMS along minor axis (world units)                 [deg]
#   9 THETA_WORLD            Position angle (CCW/world-x)                               [deg]
#  10 FWHM_WORLD             FWHM assuming a gaussian core                              [deg]
#  11 ELONGATION             A_IMAGE/B_IMAGE                                           
#  12 ELLIPTICITY            1 - B_IMAGE/A_IMAGE                                       
         1 -13.5858     68.3413    145.5147   1.3251227447e+02   3.7856339713e+01     3.128372     1.388442  88.54  0.008712513    6.315    0.842
         2 -14.5054    196.1037     16.0115   6.7953495623e+01   3.4200455256e+01     2.881259     1.667242  31.17   0.01224426    2.452    0.592
         3 -10.7473     22.1949     11.8206   1.1427299568e+02   7.1218167382e+01       0.1679     0.107802 -22.19  0.001088471    1.357    0.263
         4 -13.9250     32.3796    245.7567   1.4858806267e+02   2.2331304908e+01     1.713647    0.5667446  43.33  0.009907019    2.321    0.569
         5 -11.1274    138.9895    249.9873   1.3111467762e+02   6.9824208164e+00    0.2466629    0.1564181  51.63  0.001603359    1.231    0.188
         6 -10.9509    126.2851    249.9948   1.3330914790e+02   8.9589085493e+00    0.2638519    0.1269053  39.49 0.0009024284    1.790    0.441
         7 -11.9650    109.3730    249.2144   1.3613902834e+02   1.1639980483e+01    0.5453014     0.195584  52.37  0.002688906    2.292    0.564
         8 -11.6431     98.8414    249.8486   1.3798849534e+02   1.3088785195e+01     0.365416     0.278029  47.42  0.002398634    1.247    0.198
         9 -10.8349     88.8524    249.1625   1.3961689683e+02   1.4620763642e+01    0.2587435    0.2093071 -50.17  0.001919056    1.921    0.480
        10 -11.4240     81.3734    248.5183   1.4081963149e+02   1.5761697480e+01    0.3532362    0.1860168  62.95  0.001392352    1.599    0.375
        11 -12.1779     82.3010    243.7684   1.4029276292e+02   1.6399909278e+01    0.5227941    0.2643489  68.57  0.003043865    1.967    0.492
        12 -11.5532     65.7569    250.1517   1.4351294984e+02   1.7581381165e+01    0.5457177    0.1284446  41.19  0.002432063    3.367    0.703
        13 -14.9823      4.0679     17.9012   1.2620562106e+02   7.1534772881e+01     19.88982     1.232661 -57.81    0.0339251   21.089    0.953
        14 -15.7291      8.2708    239.8516   1.5204496674e+02   2.5853415355e+01     7.634782    0.8279665 -71.70   0.03085177    6.160    0.838
        15 -11.2326     37.3108    226.0585   1.4670552941e+02   2.5163704060e+01    0.2391793    0.1544789  82.48 0.0009303558    1.247    0.198
        16 -10.7586    163.2025    249.0938   1.2681836271e+02   3.2547426694e+00    0.2623937    0.1320293  46.17 0.0009721906    1.527    0.345
        17 -11.6176     65.9024    243.1832   1.4301151173e+02   1.8700312194e+01    0.2901685    0.1396009  43.01  0.001091277    1.768    0.434
        18  -9.9605    228.9928    228.6361   1.1257115822e+02  -4.8420640547e+00    0.3125456    0.1835788 -55.96  0.001435497    4.292    0.767
        19  -9.1756    152.7333    212.9546   1.2400623150e+02   1.0340072181e+01    0.1646674    0.1465201  55.40 0.0003328566    1.091    0.083
        20 -11.2400     94.5997    240.8955   1.3793696845e+02   1.5124019858e+01    0.2620121    0.1598337 -82.87  0.001669104    1.859    0.462
        21 -10.5101    193.3859    195.5223   1.1342755797e+02   5.7043203062e+00     0.720637    0.3690153 -63.21   0.00212903    6.997    0.857
        22 -11.6669     71.4756    196.3788   1.3804113694e+02   2.6496517184e+01    0.3361171    0.2527754 -48.75   0.00209974    1.856    0.461
        23 -10.1587     66.6620    196.2889   1.3899276243e+02   2.7169031192e+01     0.252289    0.1614587  69.42  0.001004252    1.365    0.267
        24 -11.7155     76.2091    189.0399   1.3630076648e+02   2.7313895219e+01    0.2627125    0.2217923 -64.20 0.0005328613    1.392    0.282
        25  -9.5246     93.1401    178.4187   1.3140405784e+02   2.6978874173e+01    0.4347394    0.1834816  63.68   0.00151578    3.840    0.740
        26 -11.1533     84.6581    176.8419   1.3304577081e+02   2.8612734908e+01    0.2363745    0.2035542 -83.28 0.0004522777    1.144    0.126
        27 -13.3187     72.3260    174.5678   1.3545724005e+02   3.0882657735e+01    0.4506831    0.2755246 -45.93  0.001680444    2.259    0.557
        28 -10.3163    119.6009    174.7232   1.2506472565e+02   2.3306165817e+01    0.2568212    0.1644872  34.90  0.001269128    1.711    0.415
        29  -9.5568    132.4707    173.4991   1.2204558441e+02   2.1207522051e+01    0.1397815     0.124754  62.21 4.040906e-05    1.003    0.003
        30 -12.6104     50.5724    129.9509   1.3473291616e+02   4.3662009199e+01    0.5756487    0.2619308  44.78  0.001702975    2.269    0.559
        31 -12.0624     91.5096    150.7780   1.2766888048e+02   3.3232582886e+01    0.2640088    0.2583216 -34.54  0.000497641    1.284    0.221
        32 -12.1293     46.6935    148.4635   1.3816955230e+02   3.9886059148e+01    0.4628045    0.2509777 -72.90  0.002487921    1.603    0.376
        33  -9.7437    134.1323    146.8706   1.1674119711e+02   2.6390709795e+01    0.5020321    0.1007298 -52.42  0.001210795    6.036    0.834
        34  -8.6400    192.3500    144.2213   1.0342681001e+02   1.4542098956e+01    0.1921383    0.1359199 -47.97 0.0004001144    1.539    0.350
        35 -10.0790    112.3848    136.6045   1.1992392428e+02   3.2814625637e+01    0.3112383    0.2625993   0.12  0.001125326    1.645    0.392
        36 -10.7024    100.1295    133.8931   1.2248363711e+02   3.5613853588e+01    0.2873926    0.2411378 -29.50 0.0004876252    1.509    0.337
        37 -10.2551    102.8194    151.1544   1.2500446912e+02   3.1275295194e+01    0.3421713    0.2626816 -61.93   0.00092065    1.292    0.226
        38 -14.1878     11.7344    207.2659   1.5004420644e+02   3.1309105088e+01     1.214171    0.8778707  57.52  0.003799659    1.268    0.211
        39 -13.0942     47.9735    230.2236   1.4515552923e+02   2.3171295693e+01    0.4404273    0.3080033  64.17 0.0008933322    1.050    0.048
        40 -12.5157     90.9965    167.9621   1.3042835338e+02   2.9534719857e+01     1.329243    0.5090116  50.56  0.003750823    2.570    0.611
        41  -9.4780    117.8407    129.2001   1.1699896608e+02   3.3436551067e+01    0.2334936      0.17497 -11.90  0.001048702    2.116    0.527
        42 -15.2954     56.5169    217.7045   1.4277305249e+02   2.4374242699e+01     6.137928     1.076909  44.25   0.01640268    3.681    0.728
        43  -9.4169    108.9450    123.7015   1.1808350617e+02   3.6347085856e+01    0.1948319    0.1781849  62.12 0.0003525327    1.087    0.080
        44 -10.8163    247.5746    249.2381   1.1269029418e+02  -9.7648455460e+00    0.2508259    0.1349384  50.36  0.001414419    2.550    0.608
        45 -11.0983    168.3656    113.4217   1.0109786980e+02   2.5834582342e+01    0.4171981    0.3328837 -81.35  0.001060785    1.563    0.360
        46  -9.5201    105.1717    147.2218   1.2373747518e+02   3.1741619142e+01     0.309076    0.1910917 -41.10   0.00121339    2.018    0.505
        47 -10.6096    239.1281    248.2425   1.1389661887e+02  -8.4588053620e+00    0.1686023     0.152471 -67.29  0.001256796    2.112    0.526
        48  -9.1548    127.9819     23.6867   8.1911436291e+01   5.1033815481e+01    0.1974366    0.1739604  53.10 0.0003732524    1.092    0.084
        49 -11.0844     35.2671    230.2712   1.4729520376e+02   2.4649103113e+01     0.264305     0.152927  66.44 0.0007071583    1.274    0.215
