#   1 NUMBER                 Running object number                                     
#   2 MAG_AUTO               Kron-like elliptical aperture magnitude                    [mag]
#   3 X_IMAGE                Object position along x                                    [pixel]
#   4 Y_IMAGE                Object position along y                                    [pixel]
#   5 X_WORLD                Barycenter position along world x axis                     [deg]
#   6 Y_WORLD                Barycenter position along world y axis                     [deg]
#   7 A_WORLD                Profile RMS along major axis (world units)                 [deg]
#   8 B_WORLD                Profile RMS along minor axis (world units)                 [deg]
#   9 THETA_WORLD            Position angle (CCW/world-x)                               [deg]
#  10 FWHM_WORLD             FWHM assuming a gaussian core                              [deg]
#  11 ELONGATION             A_IMAGE/B_IMAGE                                           
#  12 ELLIPTICITY            1 - B_IMAGE/A_IMAGE                                       
         1 -12.1660    194.5061     36.6705   5.1900993502e+01   3.1296690522e+01     1.088965    0.9605853 -17.72   0.00333522    1.084    0.078
         2 -12.4466    203.9547     25.7706   4.7197048003e+01   3.0074450178e+01       1.0208    0.7627838  11.21  0.001755158    1.478    0.323
         3  -9.7982     46.3431      5.1394   7.6458935105e+01   7.0834327556e+01    0.2791535    0.1044079 -33.86   0.00109956    2.604    0.616
         4 -10.6837    227.2120      2.3054   3.7805275524e+01   2.6375205761e+01    0.7244236    0.3100241  75.90  0.002830395    2.514    0.602
         5  -9.4017     53.7082    231.3152   1.1641591838e+02   2.4752421888e+01    0.2061792     0.143538  79.97  0.001093277    1.376    0.273
         6 -14.1726     72.3436    152.7270   1.0684960711e+02   3.5672331254e+01     5.443571     2.445596  77.54  0.006808094    4.179    0.761
         7  -8.3488     97.0581    191.4841   1.0588956190e+02   2.5439366195e+01    0.1563974    0.1315924  69.91 0.0006923238    1.138    0.121
         8 -14.4325     65.4161    247.6698   1.1539117900e+02   2.1261157294e+01     6.188752     1.974622  31.01   0.02430008    6.516    0.847
         9  -8.3729     99.2124    180.7675   1.0435249984e+02   2.6881896135e+01    0.1737381    0.1285954  58.98 0.0009454605    1.134    0.118
        10 -10.6285     73.5238    177.0117   1.0908857617e+02   3.1015580198e+01    0.3388269    0.2508682 -35.29  0.002163113    2.319    0.569
        11 -10.4117     77.4609    172.0410   1.0780882599e+02   3.1386535397e+01    0.2515939     0.241448 -51.34  0.000884196    1.449    0.310
        12  -9.8427     49.6686    234.0234   1.1719641894e+02   2.4806526751e+01    0.2392422    0.1242742  60.31 0.0003838095    1.427    0.299
        13  -9.3442    114.8305    172.8221   1.0030854328e+02   2.5885977815e+01    0.1688014    0.1241811  66.52  0.001075974    1.350    0.259
        14  -9.7922    102.9263    171.8973   1.0258871506e+02   2.7840828481e+01      0.38208    0.2302188  72.71  0.002115688    2.030    0.507
        15  -9.7033     96.2560    169.1606   1.0362470129e+02   2.9293828832e+01    0.3344632    0.1940324  66.84   0.00185189    1.901    0.474
        16  -8.1739    192.5175    165.5127   8.4526520440e+01   1.3892113372e+01    0.1245197    0.1016487  26.98 0.0008100339    1.036    0.035
        17 -10.7502     91.9388    155.5545   1.0286170679e+02   3.2394081556e+01    0.4611376    0.3572782 -22.64  0.002723479    2.167    0.538
        18  -8.6632     47.9972    229.5225   1.1725457418e+02   2.5620714119e+01    0.1988814    0.0780757  53.15 0.0008608832    1.748    0.428
        19  -8.1005    174.5016    149.4562   8.4879818227e+01   1.9327903831e+01    0.1300281    0.1119382  30.61 8.759365e-05    1.036    0.034
        20  -9.2215    134.0243    146.3176   9.2388363902e+01   2.7230634108e+01    0.4845234    0.1542906 -56.87  0.001536098    5.277    0.811
        21  -9.7015    104.8701    140.4816   9.7814517163e+01   3.3263430801e+01    0.4237105    0.2592504 -31.45  0.001948265    2.910    0.656
        22 -10.6224     92.4183    140.6554   1.0070232639e+02   3.5186352190e+01    0.2401311    0.2273415 -83.10  0.001634441    1.181    0.154
        23  -9.0545     86.6654    145.6455   1.0273088943e+02   3.5062992631e+01    0.2429249    0.1804792  69.31  0.001307757    1.256    0.204
        24 -17.3179      7.0390    168.7598   1.2196466130e+02   3.9562657418e+01     14.52848     1.542553 -82.02   0.04299963    9.161    0.891
        25  -8.7568    113.0009    130.7456   9.4296930123e+01   3.3785157676e+01     0.222896    0.1841399 -23.67 0.0007279582    1.630    0.386
        26  -8.7472    106.0792    130.6434   9.5898146437e+01   3.4982469236e+01    0.2554558    0.2074025  84.47   0.00151662    1.270    0.212
        27 -13.9527     55.1017    199.6438   1.1438499985e+02   2.9400676894e+01     2.613611     2.225796  69.74   0.02216893    1.236    0.191
        28  -9.3534    100.3755    126.9305   9.6611502353e+01   3.6670516455e+01    0.2528466    0.2165908 -19.84 0.0005723885    1.612    0.380
        29  -8.4883    111.6708    217.8014   1.0576110265e+02   1.9558414633e+01      0.17513    0.1081214  40.36 0.0005390821    1.308    0.235
        30  -8.1865    109.0821    119.5055   9.3124450021e+01   3.6691505895e+01    0.1930404    0.1266148  45.25 0.0003691209    1.467    0.318
        31  -8.3148    208.6318    197.8296   8.7062991929e+01   7.5721908931e+00    0.1292361    0.1021557 -35.81 0.0005664303    1.691    0.409
        32  -8.4806    205.7866    110.1787   7.0817141321e+01   1.8708538493e+01    0.1975544    0.1871673 -29.23 0.0005860988    1.194    0.162
        33  -8.3912     58.2986    227.0991   1.1544677287e+02   2.4846901041e+01    0.1333113   0.08761025  61.98  0.000434464    1.143    0.125
        34 -10.0461    119.1755    110.4893   8.8795082807e+01   3.6661255483e+01    0.3787592    0.2356712 -73.84  0.001650465    2.332    0.571
        35  -8.7712     50.4783    224.9957   1.1662801443e+02   2.6008011200e+01    0.2185537    0.1043817  65.98 0.0009872444    1.799    0.444
        36  -9.0633     32.1561     95.9383   1.1031625121e+02   5.2528526143e+01    0.1906164    0.1384097  77.41 0.0005078865    1.246    0.197
        37  -8.5085     61.1822    221.0240   1.1462410702e+02   2.5403392130e+01    0.2442751    0.1282153 -54.51  0.001615614    2.919    0.657
        38  -9.3295     41.4530     91.3323   1.0677875275e+02   5.2650867843e+01     0.233418    0.1029196 -65.33  0.001108706    1.915    0.478
        39  -7.4434    130.3020    212.6614   1.0205514366e+02   1.7657482841e+01    0.1074988   0.06914006  62.53   0.00070376    1.668    0.401
        40  -9.4107     73.2737    205.1188   1.1146594955e+02   2.6383607594e+01    0.3074033    0.2005248 -81.01  0.002262433    1.675    0.403
        41  -9.3784    154.9304     57.6483   6.5674176265e+01   3.8582613107e+01    0.4023273    0.2799188 -71.88  0.001386607    2.019    0.505
        42 -11.9399    184.7393     44.5499   5.5904156476e+01   3.2848861911e+01     1.049531    0.6649744   0.32  0.003014507    1.962    0.490
        43  -9.3727    139.7476    248.9150   1.0397534653e+02   1.2051979788e+01    0.1458416    0.1273298 -88.18  0.001360219    1.588    0.370
        44  -9.7410    133.8491    245.2980   1.0457356334e+02   1.3215543235e+01    0.2498606    0.1445149 -63.75  0.001836566    2.652    0.623
        45  -8.1774    157.7988     51.8035   6.3128290989e+01   3.8781491248e+01    0.2100618    0.1798023 -71.86 0.0004210856    1.337    0.252
        46  -9.9154     46.5264    218.4900   1.1696195716e+02   2.7395600298e+01    0.4191639    0.2680872  12.45  0.002451242    3.884    0.743
        47  -9.3161     50.7457    216.2583   1.1612961266e+02   2.7276820915e+01    0.2162473    0.1516283 -77.93  0.001777154    1.622    0.384
        48  -8.4217     96.1124    201.0679   1.0698333839e+02   2.4073679056e+01    0.1660409    0.1225856  55.25 0.0004785697    1.045    0.043
