#   1 NUMBER                 Running object number                                     
#   2 MAG_AUTO               Kron-like elliptical aperture magnitude                    [mag]
#   3 X_IMAGE                Object position along x                                    [pixel]
#   4 Y_IMAGE                Object position along y                                    [pixel]
#   5 X_WORLD                Barycenter position along world x axis                     [deg]
#   6 Y_WORLD                Barycenter position along world y axis                     [deg]
#   7 A_WORLD                Profile RMS along major axis (world units)                 [deg]
#   8 B_WORLD                Profile RMS along minor axis (world units)                 [deg]
#   9 THETA_WORLD            Position angle (CCW/world-x)                               [deg]
#  10 FWHM_WORLD             FWHM assuming a gaussian core                              [deg]
#  11 ELONGATION             A_IMAGE/B_IMAGE                                           
#  12 ELLIPTICITY            1 - B_IMAGE/A_IMAGE                                       
         1 -15.0848    165.9437     29.8611   7.8167920292e+01   4.0181518145e+01     3.206566     2.025616  -5.89   0.01438166    1.801    0.445
         2 -17.2019    188.4620     81.4357   9.0416952076e+01   2.7704889598e+01     9.048495     2.425086 -36.32   0.02863164    3.341    0.701
         3 -16.0043    244.1195     69.6710   7.9138435968e+01   1.7471946027e+01     3.354935      1.14346 -45.10   0.01177063    3.806    0.737
         4 -18.3905    221.9758     80.9689   8.4899811800e+01   2.0543734400e+01     6.755306     4.050215  45.49   0.03369585    1.763    0.433
         5 -15.9489    193.2354     35.5059   7.6061588070e+01   3.2728541987e+01     3.290662     1.745165 -23.27    0.0101773    1.789    0.441
         6 -16.9817    219.1169    124.5310   9.5988342633e+01   1.5234331666e+01     8.455411     2.525507  38.70   0.02947854    3.723    0.731
         7 -11.0724    248.1156     16.1731   6.5340094985e+01   2.2277946797e+01    0.3523281    0.2074296 -26.98  0.001251323    1.434    0.302
         8 -10.4200    122.3450     15.4355   8.0603061912e+01   5.2950759857e+01    0.4332469    0.2173254 -39.01  0.001788561    2.092    0.522
         9 -11.1609    232.3669      6.9846   6.4090237889e+01   2.6442362705e+01    0.2021242    0.1844946 -62.37 0.0003815158    1.101    0.092
        10 -12.3826    238.2072     10.6855   6.4644849802e+01   2.4853059300e+01    0.3263249     0.269788  30.77 0.0006957805    1.402    0.287
        11 -10.0733    233.1498     10.8267   6.5040274163e+01   2.5935587748e+01    0.2126183     0.197418  75.31 0.0003321789    1.189    0.159
        12 -16.0803    239.9501     55.6542   7.6079282877e+01   1.9919630253e+01     1.636555     1.204968  -7.75   0.00769815    1.320    0.243
        13 -16.2887    212.8160     48.1294   7.7249751377e+01   2.6650552357e+01       3.2073     1.606602  -1.92   0.01189738    3.074    0.675
        14 -10.4709     94.8747     11.6537   8.5598387002e+01   6.0052811512e+01    0.2475507    0.1808426  -5.50  0.000595578    1.374    0.272
        15 -10.2585    142.9964      8.4399   7.3914813886e+01   4.8351363039e+01    0.2733271    0.2168048 -10.33 0.0005739537    1.281    0.219
        16 -11.4686    201.3377      6.8508   6.6471901034e+01   3.3625376445e+01    0.2443144     0.232439 -33.20 0.0004138651    1.022    0.022
        17  -9.2017    103.5046      7.5411   8.1291213325e+01   5.8457027650e+01    0.1415671     0.132079  17.54 6.639754e-05    1.033    0.032
        18  -9.3261    130.6576      6.6605   7.5243486207e+01   5.1714083340e+01    0.1611137   0.09653776  32.61 -0.0002009384    1.773    0.436
        19 -11.6883    213.7449      4.6868   6.4822340508e+01   3.0857267680e+01     0.216322    0.2107997 -13.49 0.0003067788    1.082    0.076
        20  -9.3792    116.9941      7.7447   7.8335744685e+01   5.5098600395e+01    0.1921436    0.1783271  38.71  0.000293112    1.042    0.041
        21  -9.4142    178.1633      5.4914   6.8290125398e+01   3.9505240146e+01    0.1813403    0.1341957  72.32 0.0002468872    1.357    0.263
        22  -8.7532    171.3252      4.2743   6.8625663668e+01   4.1356679733e+01     0.144981   0.09707704  38.71  0.000205613    1.582    0.368
        23  -9.7023    151.8632      2.3286   7.0283948974e+01   4.6567029289e+01    0.2469037    0.1801613 -32.92 0.0006872011    1.382    0.276
        24  -9.7442     51.2626      3.0239   9.6725777652e+01   7.0187323930e+01    0.1849761    0.1482444 -15.96 0.0003426827    1.100    0.091
        25  -9.6846    180.0520      1.6840   6.6845801194e+01   3.9339199707e+01    0.1867806    0.1732801  73.14  0.000501606    1.079    0.073
        26  -9.8792    165.2934    223.5972   1.2356874054e+02   1.0424166684e+01    0.2218671    0.0842483  39.34  0.001133474    2.124    0.529
        27 -10.1824    228.7363    250.5830   1.1653986010e+02  -4.7794658643e-01    0.1343452   0.07286022  35.08 0.0009454052    1.587    0.370
        28  -9.8241    205.0399    250.0078   1.2016949495e+02   2.3993528276e+00    0.1579005    0.1090799  20.35  0.000455368    1.012    0.012
        29  -9.9670    182.3292    249.7388   1.2382657200e+02   5.2214465137e+00     0.169783    0.1288105  33.47  0.001026963    1.261    0.207
        30 -10.6669    165.5273    249.5155   1.2660520893e+02   7.3408391793e+00    0.2728093    0.1285421  43.92  0.001665307    1.972    0.493
        31  -9.6097    124.9622    250.2675   1.3362175505e+02   1.2262011520e+01    0.1481414    0.1015755  36.66 0.0006910793    1.071    0.066
        32 -10.9903     93.8137    222.2579   1.3675746180e+02   1.9948937857e+01    0.2472194    0.1405811  42.65 0.0008942147    1.383    0.277
        33  -9.5048      2.1782    222.4154   1.5367183282e+02   2.9065269148e+01    0.1308308   0.05881939  45.37 0.0001143443    1.572    0.364
        34 -10.0604    127.0353    226.3105   1.3089784898e+02   1.5171952112e+01    0.1652032    0.1161035  37.32  0.001164441    1.113    0.102
        35  -8.9859    141.0000    217.9666   1.2733925165e+02   1.4481218779e+01    0.1500498   0.06551886 -49.47 0.0004735455    2.864    0.651
        36 -11.3646     60.1343    215.3342   1.4267216274e+02   2.4909630594e+01    0.3396488    0.2215121  45.58  0.002426655    1.208    0.172
        37 -10.0125    153.9100    216.9055   1.2479325172e+02   1.2854722538e+01    0.1779999    0.1336643  14.40  0.001101367    1.293    0.227
        38 -10.6517    123.7490    216.2725   1.3042327773e+02   1.7048105942e+01    0.2114949    0.1680973  26.14 0.0007981899    1.159    0.137
        39  -9.4126    235.0335    214.9825   1.1049823828e+02   2.0187519082e+00    0.1374076   0.09241391  20.29 0.0004485222    1.125    0.111
        40  -9.4273    186.4659    215.4529   1.1869097164e+02   8.5105081976e+00    0.1148038   0.08735567  20.98 0.0001568479    1.003    0.003
        41  -9.0702    225.5410    214.4754   1.1193381868e+02   3.3063701174e+00    0.1123817   0.08095603  13.48 7.637637e-05    1.005    0.005
        42 -10.8621     89.8518    211.1559   1.3651847308e+02   2.2189772165e+01    0.1945638    0.1622927  34.95 0.0002894368    1.142    0.125
        43 -10.9492     86.9382    208.0580   1.3681020733e+02   2.3055401765e+01    0.1888939    0.1532129  51.13 0.0002917107    1.051    0.048
        44  -8.8949    224.3416    208.3021   1.1116752980e+02   4.1075254819e+00    0.1189371   0.06768538  11.43  0.000703849    1.676    0.403
        45 -10.0218    237.7052    207.1324   1.0884021136e+02   2.4485886113e+00    0.1860471    0.1261493  31.66 0.0009752113    1.414    0.293
        46  -9.9106    153.3068    206.9239   1.2359246857e+02   1.4315461748e+01    0.1619483    0.1494963  76.04 0.0009338689    1.475    0.322
        47  -9.8735    123.9798    205.9578   1.2918321987e+02   1.8580003731e+01    0.1685066    0.1361849  38.50  0.001179722    1.037    0.036
        48 -10.0252     99.8767    204.8039   1.3388487962e+02   2.1974620106e+01    0.1610459    0.1126931  53.66 0.0006074276    1.338    0.253
        49  -9.5688     39.2291    204.2114   1.4604682962e+02   2.8946108811e+01    0.1462881   0.09365089  58.35 0.0004494714    1.279    0.218
        50  -9.9574    244.6063    202.5229   1.0701489840e+02   2.0026800881e+00    0.1932649    0.1320706   0.87 0.0007070496    1.153    0.133
        51  -9.6770     71.7490    203.4135   1.3946132605e+02   2.5643943615e+01     0.207743   0.08471102  37.84 0.0007509323    1.968    0.492
        52 -10.4735    191.3226    201.7884   1.1579328775e+02   9.4932698386e+00    0.1526713    0.1471427  -5.51 0.0006763538    1.449    0.310
        53  -9.5624    250.6543    200.2492   1.0571246693e+02   1.4383085754e+00    0.1430888   0.08256775 -11.75 0.0003755841    1.531    0.347
        54 -11.1477     68.2953    198.7291   1.3977230608e+02   2.6860736561e+01     0.298454    0.2080149 -65.29  0.001257495    1.605    0.377
        55 -11.3497    214.7052    197.3940   1.1101163090e+02   6.6470862304e+00    0.3272049    0.2635381  48.81  0.002137451    1.832    0.454
        56  -9.3805    134.7044    198.6984   1.2612618290e+02   1.8202787485e+01    0.1142628   0.08553352   5.61 0.0002866966    1.576    0.365
        57 -11.1603    149.3664    196.1552   1.2285632708e+02   1.6455141514e+01    0.2293308     0.202922  62.28  0.001347171    1.411    0.291
        58 -11.0425     99.8957    196.2034   1.3295100482e+02   2.3417993249e+01    0.2681169    0.1674353 -82.03  0.001279359    2.228    0.551
        59 -11.9518    231.0749    187.4818   1.0661064979e+02   5.4295428282e+00    0.6412198    0.2005734 -29.45  0.002827085    3.222    0.690
        60 -10.3688    166.2407    195.8672   1.1953063556e+02   1.3985754440e+01    0.2040831    0.1710122  25.63 0.0007544713    1.062    0.058
        61 -11.3544    156.3074    194.7269   1.2128335121e+02   1.5635881821e+01    0.3464741     0.252948  28.53  0.002000578    1.156    0.135
        62 -11.4022    143.9350    189.7158   1.2301055757e+02   1.8251512908e+01    0.2192865    0.1859567 -55.82  0.001467686    1.466    0.318
        63 -11.0490    143.9634    195.5091   1.2383722389e+02   1.7349611424e+01    0.1971587    0.1783179 -53.30 0.0006051861    1.371    0.271
        64 -10.4007    117.6662    195.1793   1.2914000304e+02   2.1180828110e+01    0.2285528     0.153305 -21.06 0.0008552521    2.263    0.558
        65 -11.4578    117.4492    189.3829   1.2844497709e+02   2.2182321442e+01    0.5261711    0.2559469 -65.93  0.001459678    3.084    0.676
        66  -9.7448    249.4846    194.8201   1.0497715583e+02   2.1260581082e+00     0.207771    0.1229234  29.21  0.001361519    1.451    0.311
        67 -10.5957    106.5612    194.0415   1.3131039498e+02   2.2898596212e+01    0.2076333    0.1674413 -75.37  0.000752635    1.469    0.319
        68 -10.6488    106.5132    190.5299   1.3089954494e+02   2.3508723920e+01     0.221996    0.1601405  38.16  0.000980076    1.193    0.162
        69 -11.0055    217.6348    193.7095   1.0990361881e+02   6.6511998833e+00    0.2007033    0.1621965  13.94 0.0002515027    1.132    0.117
        70 -11.2904    196.9945    186.5277   1.1229034585e+02   1.0589766885e+01     0.359117    0.1594544  42.98  0.001681405    2.212    0.548
        71 -11.4649    202.1310    192.6140   1.1239632274e+02   9.0473314210e+00    0.4295028    0.3093459 -30.91   0.00282113    1.557    0.358
        72 -11.6705    207.8649    190.7584   1.1108054055e+02   8.4257902635e+00    0.3980367    0.2568187  -5.37  0.000867141    1.575    0.365
        73  -9.8443    129.9101    192.3773   1.2625071546e+02   1.9897234496e+01    0.1698954    0.1581422  70.71 0.0007762178    1.253    0.202
        74  -9.9148     48.2896    192.1637   1.4342264799e+02   3.0219928327e+01    0.1635727    0.1352581 -58.14  0.001208226    1.470    0.320
        75 -10.6813     90.3365    191.3524   1.3443149942e+02   2.5506485533e+01    0.2497407    0.1390776  21.38  0.001212671    2.243    0.554
        76 -10.8298    226.1071    189.1920   1.0772057822e+02   5.9487786603e+00    0.1814896    0.1503259 -45.60  0.000721667    2.012    0.503
        77  -9.2261    124.6686    190.3166   1.2705681940e+02   2.0992951595e+01    0.1219628   0.08582357  60.44 0.0007046908    1.686    0.407
        78 -11.9474    214.8038    185.9274   1.0905410773e+02   7.9801710590e+00     0.393406    0.2550258  11.99  0.002022613    1.408    0.290
        79 -10.3244     81.8670    187.8642   1.3587807012e+02   2.7204814008e+01    0.1636521    0.1513063  27.11 0.0004471769    1.204    0.169
        80  -9.0206     74.3182    188.6940   1.3759052136e+02   2.7972114731e+01    0.1167366    0.1039722  49.36 0.0002353115    1.081    0.075
        81 -10.6300     76.0046    185.9964   1.3695877009e+02   2.8268106070e+01     0.182034    0.1569487  51.76 0.0007832386    1.024    0.024
        82 -10.8103    110.6455    184.3289   1.2923611350e+02   2.4018342568e+01    0.2591845    0.2202698  47.90 0.0007547597    1.080    0.074
        83  -9.8609    178.8441    185.3480   1.1545413185e+02   1.3545533278e+01    0.1814735   0.09646397  29.37   0.00061017    1.716    0.417
        84  -9.9343     64.3049    185.6722   1.3947495858e+02   2.9701676022e+01    0.1216758   0.07272155  61.62  0.000242047    1.650    0.394
        85 -10.2219    192.8309    247.6046   1.2184619812e+02   4.1344792785e+00    0.1490459   0.07419918  39.67 0.0009484016    1.741    0.426
        86 -10.7845    132.2947    247.0297   1.3204786228e+02   1.1770878786e+01    0.1981718    0.1146141  36.40 0.0002905705    1.275    0.216
        87 -15.6013    230.6414     95.9860   8.7424392492e+01   1.6861200465e+01    0.7892924    0.6404266  -1.37  0.004250094    1.117    0.104
        88 -11.8641     81.3284    170.5605   1.3407011303e+02   3.0552626205e+01    0.4561083    0.2252092  24.15  0.002018531    2.475    0.596
        89  -9.7274    226.7586    167.5740   1.0369168116e+02   8.3801836756e+00    0.1556935    0.1094142  42.30 0.0005999847    1.627    0.385
        90 -11.1467    215.8028    244.3796   1.1774104674e+02   1.6180140315e+00    0.3647889     0.156645  41.70  0.001608911    2.375    0.579
        91 -10.6822    170.0155    167.5129   1.1408289488e+02   1.7594623779e+01    0.2032921    0.1145303  38.54  0.001037077    1.607    0.378
        92  -9.6325     66.0140    242.6527   1.4335087082e+02   2.0033937838e+01    0.1417796   0.09651121  43.47 0.0004877976    1.100    0.091
        93 -10.6684     56.2687    165.4842   1.3939022081e+02   3.4565622851e+01    0.3486045    0.1743943 -85.83    0.0017313    2.364    0.577
        94 -10.0934    242.2627    165.9720   1.0089208201e+02   6.2148321691e+00    0.2438485    0.1477961  33.53  0.001210407    1.548    0.354
        95 -10.7978    236.5874    164.6594   1.0153605961e+02   7.2194259962e+00    0.2699788     0.131736 -25.11  0.001330788    1.902    0.474
        96 -10.3301     96.0049    166.0345   1.3007258591e+02   2.9470854230e+01    0.1875056    0.1687553  49.97  0.000371114    1.011    0.011
        97  -9.9323    230.1443    164.8170   1.0260697151e+02   8.1888389821e+00    0.1730653    0.1176132   7.16 0.0004600959    1.309    0.236
        98  -9.1045     33.2845    177.3166   1.4561628639e+02   3.4518001232e+01   0.09973957   0.08185881 -46.61 0.0001970572    1.584    0.369
        99 -11.4998    127.0941    163.4002   1.2252183351e+02   2.5317939589e+01      0.31798    0.1940406  49.64  0.001634645    1.696    0.410
       100 -10.6573    136.7640    176.0069   1.2242693810e+02   2.1582585510e+01      0.16721    0.1590656   8.78 0.0003960243    1.104    0.094
       101  -9.8893     90.0228    163.2879   1.3110651760e+02   3.0837727856e+01    0.1725371    0.1479818  45.52 0.0002396588    1.071    0.067
       102 -11.4001    157.5756    161.7750   1.1559134728e+02   2.0595648229e+01    0.2502682    0.2020186  56.59 0.0009714663    1.501    0.334
       103 -11.2038    154.1674    161.1087   1.1618950229e+02   2.1280841276e+01    0.2212782     0.193322 -37.72 0.0007045955    1.262    0.208
       104  -9.2586      8.2150    162.5706   1.5037259495e+02   3.9548141544e+01    0.1256156    0.1047513  12.07 0.0003904249    1.572    0.364
       105  -9.8418    244.1737    161.2072   9.9677887049e+01   6.4701709261e+00    0.2009507    0.1400359  33.43 0.0009036446    1.437    0.304
       106 -10.7170    145.3490    159.6742   1.1782777706e+02   2.3006284938e+01    0.2387629    0.1619741 -40.15  0.000638067    1.587    0.370
       107 -10.3506    226.0513    241.7159   1.1577830157e+02   6.2035664332e-01    0.1662958    0.1202151   3.94 0.0007266784    1.186    0.157
       108 -10.5822     40.3546    175.7196   1.4393605520e+02   3.4159940358e+01    0.2892526   0.08791757  41.56  0.001332208    2.567    0.610
       109 -12.5342    203.4462    175.0444   1.0910793572e+02   1.1085309210e+01    0.5339193    0.3977569 -70.89  0.002613758    3.516    0.716
       110 -12.4486    121.6881    153.2404   1.2204476658e+02   2.8079859294e+01     0.476809    0.2456957  41.43 0.0002820477    1.808    0.447
       111 -12.3120    126.0214    149.4682   1.2035569697e+02   2.8092303454e+01    0.9342209    0.1905231  39.94  0.002773386    4.456    0.776
       112  -9.4703    140.5493    179.4993   1.2217011554e+02   2.0411915607e+01     0.125106    0.1088717  26.46 1.438723e-05    1.018    0.018
       113  -9.7016     16.1253    156.1408   1.4819197469e+02   4.0282456452e+01    0.1649581    0.1427223 -70.71 0.0009253472    1.275    0.216
       114 -11.4493    138.8635    155.0343   1.1842152871e+02   2.4915486332e+01     0.278045    0.1824538  30.71 0.0002520947    1.472    0.321
       115 -10.9656     77.0082    154.5150   1.3309116916e+02   3.4355100396e+01    0.2282163    0.1784423 -70.91 0.0006445172    1.301    0.231
       116 -11.5149    169.5778    172.9337   1.1513702789e+02   1.6834438533e+01    0.3221745    0.2292105 -67.78  0.001092402    2.608    0.617
       117  -9.6046    247.5616    173.4875   1.0148475452e+02   4.6099369594e+00    0.1189491   0.08910874   3.31 9.132896e-05    1.013    0.013
       118 -10.1679     43.5039    152.0257   1.4118327861e+02   3.8730784285e+01    0.1692192    0.1079283 -75.61 0.0003546515    1.484    0.326
       119 -10.4064     38.9301    152.0038   1.4232418603e+02   3.9184617838e+01    0.2039929    0.1155973  60.83  0.001131198    1.720    0.419
       120 -10.3052     14.6496    149.7375   1.4815637846e+02   4.1747600685e+01    0.1600768   0.08838661  85.76 0.0005680346    1.619    0.382
       121 -12.5102    233.5332    171.0684   1.0324284985e+02   6.9348812017e+00    0.2499052    0.1989753   6.11 0.0003325849    1.072    0.067
       122  -8.9542     34.2906    150.6815   1.4336597065e+02   3.9905120647e+01    0.1242465   0.07432273  64.52 0.0007008048    1.600    0.375
       123  -9.4593     11.4250    146.4808   1.4875010333e+02   4.2681021377e+01    0.1142646   0.09095389  76.97 6.988985e-05    1.024    0.023
       124 -11.3856    247.3794    139.8346   9.4881096615e+01   8.4511906953e+00     0.525027    0.2594152  -7.66  0.002419865    2.433    0.589
       125 -10.3499     77.4110    146.8233   1.3193514971e+02   3.5924452149e+01      0.16924    0.1138964 -52.22 0.0009272854    1.559    0.359
       126  -9.1305     58.5286    138.5135   1.3576089951e+02   4.0067669474e+01    0.1234739    0.1151681 -88.94 7.756778e-05    1.058    0.055
       127 -10.2126    141.0223    172.2826   1.2092334725e+02   2.1544994161e+01    0.2158432    0.1965946 -58.55 0.0008945053    1.312    0.238
       128 -10.3908     32.5071    135.8881   1.4247723615e+02   4.3316082059e+01    0.2093499    0.1694549 -50.24 0.0007311669    1.397    0.284
       129 -10.7076    110.2585    134.9940   1.2151019653e+02   3.3567674644e+01    0.2762246     0.202064 -17.00  0.001388356    1.834    0.455
       130  -9.9659     62.3074    173.1012   1.3873488262e+02   3.2356036120e+01    0.1905032    0.1459796  45.58 0.0005051834    1.170    0.146
       131 -11.4054    120.8666    127.5381   1.1731027104e+02   3.3294772971e+01    0.2991859    0.1804509 -32.70   0.00134839    1.984    0.496
       132 -10.3648     95.9320    127.9616   1.2392460288e+02   3.7339706177e+01    0.2284445    0.1629796  69.80  0.001140444    1.771    0.435
       133  -9.9498     73.4671    127.9916   1.3011310596e+02   4.0570495331e+01    0.2001607    0.1248205 -63.06 0.0004787403    1.564    0.361
       134 -10.7407     41.9695    126.2713   1.3880039236e+02   4.4610396849e+01     0.208492    0.1620323 -77.68 0.0002878299    1.166    0.142
       135 -12.8384    122.0208    119.2066   1.1519168197e+02   3.4783515618e+01    0.5772288    0.3755554  30.77    0.0024627    1.631    0.387
       136 -11.5692    103.8355    118.0284   1.1976270069e+02   3.8208980889e+01    0.5019409    0.2046475 -47.05  0.001368543    2.451    0.592
       137 -11.6317     97.6740    117.6020   1.2137450710e+02   3.9315498979e+01    0.4806337     0.259101  44.18  0.002158118    1.886    0.470
       138  -9.5928     57.5103    124.5182   1.3410208778e+02   4.3345048819e+01    0.1291606    0.1169117  86.22 -4.985874e-05    1.026    0.025
       139 -10.9234     51.8487    113.2077   1.3405442103e+02   4.6612268061e+01    0.3310381    0.2025114  66.41  0.001635851    1.956    0.489
       140 -10.5483     38.6932    110.8313   1.3776394758e+02   4.8527155394e+01    0.2190041    0.1974252 -45.52  0.000584951    1.222    0.182
       141 -11.4399    125.6493    110.3098   1.1216024922e+02   3.5917234532e+01    0.3016592    0.1997751  59.93  0.001328591    1.942    0.485
       142 -11.7827    201.9356    179.0773   1.1010425277e+02   1.0795341195e+01    0.2594506    0.2283487 -13.94   0.00150402    1.277    0.217
       143  -9.0030     63.6416    109.6842   1.2982369121e+02   4.6039403204e+01     0.138786   0.09952867 -28.94 0.0007043917    1.752    0.429
       144 -10.2768     29.4537    107.3747   1.4020064728e+02   5.0171502605e+01     0.237151    0.1864009  76.90 0.0007505935    1.225    0.184
       145 -10.3460     99.3906    106.5524   1.1843531497e+02   4.1448428016e+01    0.3759044    0.2725082  28.20  0.001893895    1.499    0.333
       146 -11.9081    114.9856     99.6697   1.1232651816e+02   4.0125281676e+01    0.5111152    0.2746119 -31.21  0.001579657    2.347    0.574
       147 -12.0043    122.4989     98.9569   1.1009814551e+02   3.8827720957e+01    0.3784644    0.2521279 -59.10  0.001706634    1.817    0.450
       148 -10.2193     83.1882    182.2145   1.3498450651e+02   2.8083999107e+01    0.1652563    0.1217363  59.86 0.0005087256    1.303    0.232
       149  -8.8995     56.3203     99.7125   1.3028444485e+02   4.9282705332e+01    0.1351623   0.09809617  69.54 0.0002199655    1.597    0.374
       150  -9.5053     64.1787     97.1563   1.2718899250e+02   4.8905379928e+01    0.1835836    0.1548018  76.30 0.0004516224    1.294    0.227
       151 -10.0870     85.6831     94.1046   1.1955632025e+02   4.6479360023e+01    0.2157864    0.1917472  57.62 0.0003764934    1.216    0.177
       152 -10.7293    107.4761     89.4532   1.1170756091e+02   4.3686331479e+01    0.2530379    0.2384186 -34.58  0.000121482    1.026    0.025
       153  -9.5314     17.0357    181.7556   1.4937202080e+02   3.5071226713e+01    0.1451584     0.111675  56.32 0.0003504383    1.090    0.083
       154  -9.3546     60.9292     89.0223   1.2650705815e+02   5.1239930500e+01    0.1600624      0.15037 -61.87 0.0003516305    1.026    0.025
       155  -9.3019     82.7438     87.8545   1.1890420984e+02   4.8359359688e+01    0.1869843    0.1635127  79.51 0.0007143856    1.321    0.243
       156 -10.3666    118.4035     86.2424   1.0768407661e+02   4.2217969205e+01    0.3085002    0.1448444 -44.56 0.0009648888    2.092    0.522
       157 -10.1867    114.5819     84.1182   1.0813435634e+02   4.3413726480e+01    0.3449257    0.2371131  58.14  0.001139851    1.763    0.433
       158  -9.8831    104.6833     86.0171   1.1156146223e+02   4.4937213320e+01      0.21111    0.1794296 -41.53 0.0005065447    1.134    0.118
       159 -10.1599     93.2904     84.9897   1.1475603011e+02   4.7227980468e+01    0.2038983    0.1804868 -46.12 0.0003260389    1.082    0.075
       160 -10.0194     58.9018     83.9120   1.2603702594e+02   5.2703084269e+01    0.2106457    0.1891014 -69.84 0.0008104476    1.079    0.074
       161  -9.5352    109.0961     81.7315   1.0900876598e+02   4.4985721105e+01    0.2018524    0.1880775  30.01  0.001105404    1.099    0.090
       162  -9.3749     53.6404     82.3113   1.2755104054e+02   5.3731899463e+01    0.1400706    0.1010982  70.78 0.0003337421    1.743    0.426
       163 -10.9472     99.6296     79.8168   1.1128559903e+02   4.7194438220e+01     0.310252    0.2124319  34.04  0.001219225    1.557    0.358
       164 -10.3128    113.9833     78.0943   1.0649044475e+02   4.4750724280e+01     0.340151    0.2025166 -65.84  0.001233851    2.959    0.662
       165 -11.5699    122.8980     76.5784   1.0353352897e+02   4.3196918972e+01    0.3594639    0.3229443 -87.07  0.001308795    1.361    0.265
       166 -11.6352    131.5554     73.1005   1.0014872000e+02   4.1975682807e+01    0.4437905    0.2842738  39.47  0.001580937    1.616    0.381
       167 -10.6767    104.9223     72.4852   1.0739792682e+02   4.7698731065e+01     0.290594    0.2069787 -56.77  0.001360903    1.594    0.373
       168  -9.8777      2.4973     73.5325   1.4540342167e+02   6.0016956757e+01    0.1226345   0.09945318 -79.60 0.0003351082    1.038    0.037
       169 -11.0859    120.0275     69.6168   1.0208789362e+02   4.5140293556e+01    0.3204761    0.2542534 -81.77 0.0009270109    1.794    0.443
       170  -9.6738     55.8755     70.1223   1.2365625148e+02   5.6316941542e+01    0.1995296    0.1826161 -85.15 0.0003875692    1.191    0.160
       171 -11.4154    129.2818    179.6024   1.2457207409e+02   2.2116601072e+01    0.2487823     0.188336  63.70 0.0008034323    1.614    0.381
       172  -9.8062     98.4422     67.5210   1.0779023871e+02   4.9976023300e+01    0.1480817    0.1385801 -25.78 7.294722e-05    1.007    0.007
       173 -10.5144    130.9626     66.4773   9.8143542497e+01   4.3307718558e+01    0.2287206    0.1496288  48.49 0.0008832998    1.567    0.362
       174 -10.7014     12.4573     64.1484   1.4003138899e+02   6.1766033133e+01    0.2319005    0.1582973  25.96 0.0008387943    1.730    0.422
       175 -11.0026    125.6589     62.0808   9.8032508586e+01   4.5286020694e+01    0.3480408    0.1380031 -35.91  0.001221139    2.447    0.591
       176  -9.7389    100.7219     63.2802   1.0563693101e+02   5.0379036293e+01    0.2027763    0.1758386  -9.06 0.0001870905    1.189    0.159
       177 -10.7223    102.9193     59.6701   1.0368866381e+02   5.0639010657e+01    0.2905979    0.2073683 -38.60 0.0002795835    1.340    0.254
       178 -11.6889    112.5289     59.4614   1.0073994411e+02   4.8656712594e+01    0.4684012    0.3290544  65.82  0.002113573    1.881    0.468
       179  -9.4410     82.3092     61.2778   1.1108408275e+02   5.4253019272e+01    0.1438451    0.1101256  -8.87 0.0001756932    1.557    0.358
       180 -10.4126     46.0387     58.1352   1.2421857778e+02   6.0292440381e+01    0.2192688    0.1743519 -53.32 0.0003419449    1.110    0.099
       181 -10.9495    133.0830     57.9089   9.4694732666e+01   4.4307549808e+01    0.3201715    0.1953903  23.89  0.001270208    2.219    0.549
       182  -9.2856      1.6450     58.2734   1.4374145953e+02   6.3703379775e+01     0.119033    0.0819316  63.28  0.000700215    1.643    0.391
       183 -12.6587    142.0804     54.4018   9.1343052054e+01   4.2752918894e+01     0.571891    0.4598614 -72.05  0.002432421    1.614    0.380
       184 -12.6666    129.3330     54.5198   9.4434417170e+01   4.5748791693e+01      0.77197    0.3950109  34.46  0.002530218    2.421    0.587
       185 -11.6108    135.0930     49.8688   9.1357914515e+01   4.5141879256e+01    0.3838203    0.3356684 -43.08  0.001196258    1.196    0.164
       186 -10.9100    131.4036     49.2003   9.1999443843e+01   4.6127870687e+01    0.3705412    0.1747135 -32.72 0.0009458552    2.043    0.510
       187  -9.4860    142.4972    242.5337   1.2981609296e+02   1.1055250812e+01    0.1068835   0.07940392  32.13 0.0003400364    1.004    0.004
       188 -10.9478    107.9553     51.0811   9.9009779083e+01   5.1168131813e+01    0.4770349    0.2601603  36.66  0.001955225    2.034    0.508
       189 -10.1173     20.0435     52.0423   1.3419153405e+02   6.4166986046e+01    0.1870665    0.1419075  77.68 0.0003690187    1.571    0.363
       190 -11.1563    121.8802     49.3259   9.4455991247e+01   4.8342631456e+01    0.3322496    0.2193022  28.91  0.001465454    1.743    0.426
       191 -10.8241    126.0636     46.9275   9.2480245650e+01   4.7754748936e+01    0.2386548    0.2182565   1.94 0.0006379281    1.059    0.055
       192 -10.5591    235.2258    177.4347   1.0414704945e+02   5.9556736170e+00    0.2434237    0.1820925  34.23  0.001337702    1.438    0.305
       193 -11.5676    136.4933     42.4970   8.8333909454e+01   4.5923926694e+01    0.3660657    0.3238035 -71.18  0.001919194    1.337    0.252
       194 -11.2018    140.7363     41.0367   8.6857137404e+01   4.5091572050e+01    0.4248108    0.2641718   1.42  0.001534741    2.164    0.538
       195 -11.0451    140.4655     47.4921   8.9266360898e+01   4.4211273664e+01    0.4704438     0.167912 -36.94  0.001575353    2.652    0.623
       196 -10.5787     33.5248     44.7550   1.2573201635e+02   6.4703009465e+01    0.2320952    0.2022109 -45.41 0.0002537452    1.031    0.030
       197 -10.0003     27.6313     43.1593   1.2810520435e+02   6.5623260458e+01    0.1911377     0.153883  -1.00 0.0005689726    1.402    0.287
       198 -11.4413    127.3515     39.9393   8.9500979742e+01   4.8524015719e+01    0.4748242    0.2357297  39.93 0.0005484396    2.197    0.545
       199  -9.7465      5.9939     40.6500   1.3844489133e+02   6.7683779183e+01    0.1625312    0.1413706 -55.41 0.0005574764    1.092    0.085
       200  -9.9906      1.8571     40.2224   1.4049596658e+02   6.7966196667e+01    0.1750825    0.1466318 -76.06 0.0005590757    1.142    0.124
       201 -11.0809    146.9112     37.2393   8.4182507962e+01   4.4077845886e+01    0.4274895    0.3059192 -29.13  0.002064267    1.357    0.263
       202 -10.1264     66.0405     36.7109   1.0786502170e+02   6.2010068403e+01    0.1899594     0.172495  -5.24 0.0003126307    1.069    0.065
       203 -10.5046    141.0339     35.8077   8.4850268949e+01   4.5742218311e+01    0.2330667    0.2039378 -58.05 0.0007936513    1.285    0.222
       204 -10.0772    123.4830     34.5836   8.8331839937e+01   5.0239883566e+01    0.3185152    0.1441194 -28.04  0.001212484    2.173    0.540
       205 -11.3266    132.8937     30.3929   8.4499471827e+01   4.8496334156e+01     0.383868    0.2471703 -12.24  0.001553002    1.686    0.407
       206  -9.7752    126.6325     31.8103   8.6469077412e+01   4.9858534992e+01    0.2219285    0.1282598 -36.72 0.0009522396    1.721    0.419
       207  -9.7174    111.7621     32.0035   9.0273070568e+01   5.3409819836e+01    0.1988999    0.1205882 -28.16 0.0006447906    1.604    0.377
       208 -10.8765    147.3018    176.9629   1.2035779351e+02   1.9774083078e+01    0.2406114    0.2042828 -85.06  0.001489918    1.673    0.402
       209 -10.6925    145.4665     31.4523   8.2329207117e+01   4.5195505028e+01    0.2564702    0.2285601 -56.25 0.0007772287    1.233    0.189
       210 -10.3803    141.4916     29.9484   8.2542005632e+01   4.6391433810e+01    0.2641734    0.2149386  22.43 0.0006534086    1.270    0.213
       211 -11.3732    137.7411     27.4254   8.2321728986e+01   4.7655478473e+01    0.4016957    0.2821451 -70.05  0.001086235    1.932    0.482
       212 -10.5012     70.2846     30.9530   1.0355675694e+02   6.2330540275e+01    0.1992452    0.1696109 -22.44 0.0004522484    1.059    0.056
       213  -9.9355     55.2954     31.6480   1.1029841011e+02   6.4718894921e+01    0.1307216    0.1090321 -74.10 0.0007033083    1.685    0.406
       214 -10.3892     99.1118     25.7773   9.1117288061e+01   5.7231986071e+01     0.258651     0.200263 -13.22 0.0002845587    1.272    0.214
       215  -9.1959    250.7091    172.2435   1.0077428033e+02   4.2958863208e+00    0.1462673   0.08260124 -20.31            0    1.559    0.359
       216  -9.5006    249.8659    169.1601   1.0032591815e+02   4.7489189651e+00     0.158791    0.1052101   8.32 0.0003123464    1.265    0.209
       217  -9.9514    118.0000     30.9512   8.8207314966e+01   5.2077366758e+01    0.2513364   0.08235335 -28.52 0.0008091453    2.989    0.665
       218 -10.3651     41.2470     20.2146   1.1174264040e+02   6.8939577623e+01    0.3244983    0.2419011 -69.15 0.0004821332    2.073    0.518
       219  -9.3355    131.4785    242.4367   1.3174426866e+02   1.2450929081e+01    0.1062194   0.07912094  33.42 0.0001086369    1.025    0.024
       220  -9.7070    236.0232     18.0002   6.6696678949e+01   2.4659264625e+01    0.1891283    0.1511055 -39.15 -0.005334738    1.112    0.101
       221  -9.8994     32.7895    242.4059   1.4907259894e+02   2.3348330923e+01    0.1272664   0.07875463  27.05  0.000953536    1.713    0.416
       222  -9.8035     19.3284     17.7016   1.2324186767e+02   7.1915268640e+01     0.112866   0.09793535  79.38 0.0003715733    1.637    0.389
       223  -9.1990    243.3358     16.2600   6.5701152830e+01   2.3263580986e+01    0.1196114   0.09015107  30.58 0.0002861398    1.578    0.366
       224 -10.5991    150.4186    171.2110   1.1875633543e+02   2.0219146750e+01    0.2816465    0.2033944 -86.15  0.001392896    2.696    0.629
       225 -11.0897     77.0021    177.7674   1.3587824403e+02   2.9699446686e+01    0.2875677    0.1222322  45.60  0.001404065    2.096    0.523
       226  -9.3477    179.8471    176.8393   1.1381267431e+02   1.4597121219e+01    0.1551231    0.1415595  38.37 0.0003864064    1.310    0.237
       227  -9.8989     59.5544     16.5330   1.0086931283e+02   6.6699041403e+01    0.1378951    0.1189218 -10.70 3.474968e-05    1.004    0.004
       228  -9.7499    140.8275     13.2069   7.6151459788e+01   4.8456935623e+01    0.2133996    0.1931208 -66.12 0.0006059214    1.215    0.177
       229 -10.1962    130.1655     13.0450   7.8009605636e+01   5.1219616112e+01     0.233193    0.2009771  54.48 0.0003454463    1.138    0.121
       230  -9.7600    127.9412    238.0193   1.3193658732e+02   1.3466687379e+01    0.3125724    0.1143221  27.13  0.001396867    3.308    0.698
       231  -9.4702    187.8343    236.7786   1.2132787389e+02   5.8965259622e+00    0.1283652    0.1052806  29.20 0.0007191449    1.280    0.219
       232  -9.4670     22.5103    236.9477   1.5061401120e+02   2.5094203635e+01    0.1219909   0.08129428  88.22 0.0005251599    1.508    0.337
       233 -10.4625     57.2976    235.9313   1.4449460234e+02   2.1939465495e+01    0.2422117    0.0972393  51.25  0.001462312    2.000    0.500
       234  -9.9740    167.5468    233.2444   1.2437312917e+02   8.9458788227e+00    0.2256074    0.1592801 -15.33  0.001611783    1.684    0.406
       235 -10.0979    237.1793    233.8918   1.1297178742e+02  -1.8784668653e-02    0.1779193    0.1123898  23.84 0.0006811693    1.182    0.154
       236  -9.5163     43.6250     11.7047   1.0587539593e+02   7.0115907645e+01    0.1388191   0.09241181  -2.83 0.0007025134    1.741    0.426
       237  -9.8493    220.1271    233.1734   1.1554038365e+02   2.1451518710e+00    0.1694344    0.1077494  12.35 0.0009313261    1.263    0.208
       238 -12.6811    153.9982    231.4309   1.2655348190e+02   1.0953643511e+01    0.2328297     0.180227  32.31 0.0004111816    1.067    0.063
       239 -10.2277    149.8944    227.1460   1.2678934360e+02   1.2045363378e+01    0.2140307    0.1610806  17.51  0.000918557    1.249    0.200
       240  -9.7571     32.2945    233.5617   1.4879392014e+02   2.4739757706e+01    0.1868294   0.06484632  37.50 0.0009073069    2.059    0.514
       241  -9.9934    144.9918    231.4043   1.2816802618e+02   1.2141124028e+01    0.1625928    0.1405015  59.80 0.0003293791    1.453    0.312
       242  -9.5302     69.0266    230.6805   1.4204720008e+02   2.1499142031e+01     0.144739    0.1048844  44.73 0.0004822819    1.067    0.063
       243  -9.2784    113.9629    231.0000   1.3379114893e+02   1.6177935778e+01    0.1799611   0.04851256  35.43 0.0005068639    2.878    0.653
       244  -9.7824    219.7169    227.1113   1.1474950164e+02   2.7895809220e+00    0.2167643    0.1050596  16.93  0.001229606    2.103    0.524
       245 -15.7514    212.5690     62.7251   8.1355986519e+01   2.4913124699e+01     1.756367    0.7463382  38.72  0.006607649    2.977    0.664
       246 -14.9812    202.3775     83.7093   8.8648411725e+01   2.4317807250e+01    0.7803374    0.5865856 -43.51  0.002446516    1.424    0.298
       247 -12.2591    238.7769    224.2185   1.1131664708e+02   6.6607322834e-01    0.2334549    0.1544391  18.41 0.0004300117    1.093    0.085
       248 -11.4357    180.8947    224.0356   1.2085682027e+02   8.2534707817e+00    0.2658876    0.1753508  28.85 0.0005928493    1.165    0.142
