#   1 NUMBER                 Running object number                                     
#   2 MAG_AUTO               Kron-like elliptical aperture magnitude                    [mag]
#   3 X_IMAGE                Object position along x                                    [pixel]
#   4 Y_IMAGE                Object position along y                                    [pixel]
#   5 X_WORLD                Barycenter position along world x axis                     [deg]
#   6 Y_WORLD                Barycenter position along world y axis                     [deg]
#   7 A_WORLD                Profile RMS along major axis (world units)                 [deg]
#   8 B_WORLD                Profile RMS along minor axis (world units)                 [deg]
#   9 THETA_WORLD            Position angle (CCW/world-x)                               [deg]
#  10 FWHM_WORLD             FWHM assuming a gaussian core                              [deg]
#  11 ELONGATION             A_IMAGE/B_IMAGE                                           
#  12 ELLIPTICITY            1 - B_IMAGE/A_IMAGE                                       
         1 -12.7306    208.5329     44.1131   7.1042937546e+01   2.7532756960e+01     4.217069    0.4827868 -36.03  0.009763882    5.141    0.805
         2 -13.0000    230.0681     59.7384   7.2315932095e+01   2.0017875534e+01     2.986103     1.611489 -81.49  0.007984698    3.005    0.667
         3 -12.5444    215.8598     28.8882   6.6076767961e+01   2.7677479187e+01     1.300206    0.6035237 -32.96  0.002318183    2.072    0.517
         4 -12.8854    225.2911     28.4939   6.4955929860e+01   2.5401792795e+01     1.183792    0.4660271 -29.10  0.004746587    2.570    0.611
         5 -14.2152    248.5468     27.7521   6.2544087255e+01   2.0028026782e+01    0.7311671    0.6147724   3.87  0.002911895    1.642    0.391
         6 -16.6826    243.5617     10.2106   5.8911839319e+01   2.3215127308e+01     4.211396      2.29604 -30.63   0.02179462    1.837    0.456
         7  -9.8682    193.0419     31.3302   6.9560246335e+01   3.3192280632e+01    0.8061321    0.4131764 -73.47  0.002966254    2.902    0.655
         8 -10.4505    151.7971     30.5130   7.5888911758e+01   4.4062723243e+01    0.6908954    0.4331858 -56.06  0.001999382    1.918    0.479
         9 -11.2619    113.7145     29.9364   8.4076631968e+01   5.3495095857e+01    0.8684425    0.6433403 -33.23  0.003839404    1.403    0.287
        10  -9.9428     96.7298     29.0723   8.8437093967e+01   5.7344981207e+01    0.7271162    0.4120944 -58.90  0.002771753    3.538    0.717
        11  -9.0899    190.7506     16.3976   6.5575113735e+01   3.5535428236e+01    0.4033332    0.2516748 -70.54  0.001660739    1.751    0.429
        12  -9.9256     20.3933     15.4028   1.1311799315e+02   7.1091989508e+01     0.501161    0.2847957  47.35  0.002613034    3.375    0.704
        13  -7.6581     28.8568     10.8565   1.0658639005e+02   7.0934735132e+01    0.1398678    0.1237725 -18.10 0.0003885029    1.289    0.224
        14  -8.5124    179.7845      9.3653   6.4856699430e+01   3.9114146233e+01    0.2207221    0.1901529 -44.68 0.0006089606    1.215    0.177
        15  -9.4598    167.6277      8.3858   6.6115232689e+01   4.2373599267e+01    0.4367835    0.2548543 -42.20  0.001864791    1.791    0.442
        16  -8.1270    152.0195     10.3376   6.9019206533e+01   4.6233564602e+01    0.2052744    0.1681576  67.65  0.001148255    1.107    0.097
        17  -8.5356    141.6538      8.2731   6.9997133442e+01   4.9078808349e+01    0.3043921    0.2101983 -66.41  0.001524862    1.762    0.432
        18  -9.2812    134.6343      8.2745   7.1227197491e+01   5.0846024507e+01    0.2902075    0.2127098 -66.19  0.001516643    1.656    0.396
        19  -9.2028    160.4023      4.6593   6.5910832169e+01   4.4594361640e+01    0.3174253     0.232889 -46.74 0.0009312351    1.457    0.313
        20  -9.5088    176.0992      3.2052   6.3462268446e+01   4.0656161634e+01    0.3372756     0.238165 -37.18  0.001418419    1.489    0.328
        21  -8.0666    156.0033      4.9798   6.6632558822e+01   4.5702597595e+01    0.2254038    0.1503295 -64.05 0.0006802693    1.718    0.418
        22  -9.0317    108.3512      3.6163   7.4710828705e+01   5.7592358188e+01    0.3021558    0.2229627 -84.80  0.001023384    1.828    0.453
        23  -8.1728     92.8620      3.8808   7.8618412918e+01   6.1021375556e+01    0.1902442    0.1531674 -57.22  0.001057677    1.675    0.403
        24  -8.2962    181.9517      2.4891   6.2581557250e+01   3.9207599048e+01    0.2682424    0.1623724 -45.23  0.001343023    1.681    0.405
        25  -8.4869    126.4042      2.3094   7.0503785111e+01   5.3403839894e+01    0.2936389    0.1762999 -70.63  0.001311761    2.462    0.594
        26  -8.5189    101.3348      3.0499   7.6104836235e+01   5.9236129549e+01    0.2280762    0.1816031 -80.60  0.001164595    1.697    0.411
        27  -8.1816    148.2327      2.6694   6.6997197090e+01   4.7899894260e+01    0.1801521    0.1738573 -76.18 0.0007668824    1.114    0.102
        28  -7.8605     79.1740      2.1948   8.1727202591e+01   6.4008242394e+01    0.1565505    0.1525818 -43.62  0.001067096    1.335    0.251
        29  -8.3088    134.9774      1.4484   6.8671980761e+01   5.1353556876e+01    0.2136545    0.1207565  66.65 0.0005869042    1.587    0.370
        30  -9.5295    232.8189    127.3907   8.8487689392e+01   8.6032151729e+00    0.3014028    0.2731854  89.17  0.000806725    1.353    0.261
        31  -8.8057     54.0881    250.5788   1.4332013134e+02   1.8113938916e+01    0.1580359   0.08228121  45.28 0.0003854723    1.556    0.357
        32  -7.8209    226.0161    129.9860   9.0247102346e+01   9.5906348788e+00    0.2340393    0.1720968   7.73  0.001136723    1.674    0.403
        33  -9.3658    234.3896    131.7894   8.9236774944e+01   7.5613098152e+00    0.2696936    0.2205229  22.22 0.0006457402    1.292    0.226
        34  -8.4779    197.1522    126.9192   9.4855294383e+01   1.6439642545e+01    0.4984566    0.3095358 -89.53  0.001583748    4.124    0.758
        35  -7.3260    127.6469    125.3023   1.1024125782e+02   3.2260413004e+01    0.1594469    0.1192487  81.97 0.0007039238    1.704    0.413
        36  -9.1319    166.2850    121.3248   9.9964483472e+01   2.4600554749e+01     0.508982    0.1840318 -46.29  0.001634443    2.879    0.653
        37  -9.0524    248.5984    122.3350   8.4804349747e+01   6.2168806724e+00    0.4272475    0.1723896  46.91  0.001729187    2.660    0.624
        38  -9.9106    242.8170    117.3397   8.4545776027e+01   8.1708764752e+00    0.5329606    0.2109013 -42.25  0.001625664    2.418    0.587
        39  -8.7253    151.5812    117.8123   1.0247307678e+02   2.8689960184e+01    0.2542192     0.209356 -68.86  0.001219625    1.355    0.262
        40  -8.1945    135.2072    121.1767   1.0732720306e+02   3.1583379751e+01    0.2207311    0.1804869 -75.65     0.001062    1.379    0.275
        41  -8.6306    206.2825    117.9820   9.0920753766e+01   1.5999462225e+01    0.2113777     0.194812 -31.57 0.0005949627    1.054    0.051
        42  -7.9355    194.6182    118.1869   9.3207427557e+01   1.8639826610e+01    0.2188042    0.1441157 -26.61 0.0006201749    1.679    0.404
        43  -8.3862    232.2827    117.2527   8.6202145225e+01   1.0386144956e+01    0.2997133    0.1711286  44.81 0.0009004904    1.865    0.464
        44  -8.9257    227.6345    116.6353   8.6823274533e+01   1.1486194537e+01    0.3235694    0.1766784 -57.14  0.001111386    2.671    0.626
        45  -9.6862    215.5899    116.1994   8.8791173678e+01   1.4213151371e+01    0.3794539    0.2722134   2.39  0.001722072    1.885    0.469
        46  -9.3870    204.3254    112.5417   8.9932101931e+01   1.7425501783e+01     0.322429    0.2372286 -78.91  0.001100175    1.912    0.477
        47  -8.9443    235.7632    100.5857   8.1658658914e+01   1.2360964171e+01    0.3473034    0.1616878 -33.63  0.001420001    2.001    0.500
        48 -10.5433    234.8180    105.5915   8.3012026079e+01   1.1754549558e+01    0.5550539    0.3054699  40.87  0.002287402    2.105    0.525
        49  -8.7359    200.0696    110.5225   9.0221589110e+01   1.8780753411e+01    0.3241375     0.225902 -37.77  0.001385637    1.399    0.285
        50  -8.6672    214.0111    109.9861   8.7538732730e+01   1.5651712950e+01    0.2331803    0.1818147 -72.50  0.001123623    1.611    0.379
        51 -10.7245    245.1780    108.1455   8.2042322696e+01   9.1450298439e+00    0.5308237    0.4450043  63.15  0.001965002    1.363    0.266
        52  -9.1796    224.3967    112.1771   8.6291152712e+01   1.2943875374e+01    0.3066269    0.2256825 -53.78  0.001514086    1.480    0.324
        53  -7.9830    177.5296    108.5019   9.4212886081e+01   2.4504884782e+01     0.154795    0.1518181 -71.89 4.407264e-05    1.026    0.025
        54  -9.3876    220.3632    111.8821   8.6903174841e+01   1.3890076788e+01    0.2961275    0.2057465  54.74  0.000663397    1.531    0.347
        55  -8.6035    217.8580    105.3107   8.5707363182e+01   1.5580853768e+01     0.258731    0.1939214 -45.86 0.0008028572    1.310    0.237
        56  -9.3381    146.5558    104.7940   1.0026311683e+02   3.2565532468e+01    0.3816744    0.2862537 -66.02  0.001721768    1.567    0.362
        57  -9.0062    197.4780    104.7055   8.9220203675e+01   2.0449226832e+01    0.3234552    0.2288872  25.97  0.001019696    1.791    0.442
        58  -7.8162     23.4903    103.4726   1.3580169101e+02   5.2644807512e+01     0.124737    0.1013002 -76.19 0.0001732939    1.050    0.048
        59  -8.0104    162.1578    102.1788   9.5880926857e+01   2.9427040524e+01    0.2401273    0.2206472   2.08  0.001215378    1.205    0.170
        60  -8.9822    167.1192    100.4557   9.4301221523e+01   2.8573415491e+01    0.3368716    0.1971982 -54.19  0.001318824    1.976    0.494
        61  -8.0735    239.6690    249.3264   1.1068555471e+02  -9.4290274874e+00   0.09700309   0.08342877  46.95 0.0007051055    1.708    0.415
        62 -10.3881     44.3837    248.1962   1.4478664513e+02   1.9704648615e+01    0.2800163    0.1888454  46.97  0.002060195    1.380    0.275
        63 -10.6581     35.5994    248.5284   1.4624558900e+02   2.0678547076e+01    0.4079537    0.1351379  50.89   0.00229167    2.096    0.523
        64  -7.7144    140.2414    232.0408   1.2602777582e+02   8.5774367125e+00    0.1379391    0.1063805 -55.95 0.0008766662    1.587    0.370
        65 -12.8742    244.2540     48.8140   6.7941560484e+01   1.8263585192e+01    0.6471571    0.5447841 -79.35 0.0002045656    1.155    0.134
        66  -8.0644    102.8147    231.5980   1.3306997397e+02   1.4629662652e+01    0.1757262   0.08691911  51.45 0.0004060783    1.652    0.395
        67  -7.6274     32.3033    229.3355   1.4572763343e+02   2.4456136075e+01   0.09176996   0.08002391 -66.08 0.0003704237    1.664    0.399
        68  -8.7824     40.1584     99.3817   1.2989079301e+02   5.2098273931e+01    0.2902177    0.1840562 -56.28  0.001446546    1.336    0.251
        69  -9.8007    228.1293     96.4974   8.1835896746e+01   1.4723826971e+01    0.4728401    0.4102235  16.99  0.001428008    1.316    0.240
        70 -10.0119    142.7910     96.4676   9.8881333608e+01   3.5155766669e+01    0.4405697    0.2627378 -22.80  0.001630471    2.452    0.592
        71  -7.3941     28.6667     97.6599   1.3323284977e+02   5.3565271752e+01    0.1330436   0.07903551 -42.26 -0.0002881809    1.750    0.429
        72 -10.3809    219.5082     90.1084   8.1595126794e+01   1.7763474485e+01    0.4711223    0.3146135 -35.36 0.0006605545    1.421    0.296
        73  -8.3654    220.3339     84.8434   8.0117270313e+01   1.8435178190e+01    0.2283116    0.1970323  -5.39 0.0004023943    1.324    0.245
        74  -9.4202    188.5617     96.3752   8.8735304410e+01   2.4118874237e+01    0.3162926    0.1953017  51.73  0.001351413    1.630    0.386
        75  -9.9209    210.0226     92.6877   8.3831248575e+01   1.9574320626e+01    0.3540593    0.3279096  -4.92  0.001249315    1.163    0.140
        76 -10.0114    226.5059     90.4608   8.0583744778e+01   1.6081149519e+01    0.4844486    0.3325221  17.65  0.002011932    2.155    0.536
        77  -7.6985    237.3197     90.3262   7.8934562784e+01   1.3660617286e+01    0.1428986      0.11037  11.81  0.000704664    1.680    0.405
        78  -9.1922    180.5173     89.5281   8.8453141535e+01   2.7352447857e+01    0.3608321    0.2345079 -75.62  0.001377868    2.402    0.584
        79  -8.0131    106.9924     87.4989   1.0594215100e+02   4.4804771790e+01    0.3303214    0.1876215 -62.97   0.00125916    2.444    0.591
        80  -8.8062    188.9981     87.2302   8.6160220224e+01   2.5658482989e+01    0.2173995    0.2018355  54.60 0.0005175443    1.093    0.085
        81  -7.8759    165.3107     87.3271   9.1011125533e+01   3.1534828572e+01    0.1603038     0.125016  13.55 0.0007040621    1.662    0.398
        82  -9.2847    148.9585     87.4655   9.4782377407e+01   3.5501426540e+01    0.2475055    0.1541354  52.14  0.001036434    1.609    0.379
        83  -9.5962    206.8343     83.1172   8.1854370976e+01   2.1965530679e+01    0.4776964     0.366948 -29.63  0.002356295    1.320    0.242
        84  -8.7654    227.0677     82.6631   7.8536476850e+01   1.7209277699e+01    0.2698675    0.1962467 -44.90 0.0003677303    1.289    0.224
        85 -11.7814    218.8807     73.7627   7.7475068395e+01   2.0562016543e+01    0.8255718     0.436238 -48.17  0.003464985    1.898    0.473
        86  -7.7640    211.9351     83.3145   8.1061404319e+01   2.0693305459e+01    0.2020043    0.1978396  79.81 0.0008372192    1.057    0.054
        87  -9.4446    185.0420     78.2587   8.4402386686e+01   2.8221080757e+01    0.3018309    0.2268436 -14.60  0.001009095    1.609    0.379
        88 -10.2277    157.6656     79.2554   9.0330106245e+01   3.4932114100e+01    0.5571738    0.2591439 -46.63  0.001735714    2.282    0.562
        89 -11.1857    162.1017     72.4886   8.7319365573e+01   3.5039809375e+01    0.7203383    0.5418028  20.35  0.002376388    1.705    0.413
        90  -9.5789    169.0338     75.4814   8.6759034042e+01   3.2760296244e+01     0.360405    0.2626404 -46.31  0.001662908    1.386    0.279
        91  -9.3357    159.2089     66.8372   8.6205868863e+01   3.6751095738e+01     0.439196    0.2200474 -37.53  0.001705507    1.987    0.497
        92  -8.6535    148.4837     77.3034   9.1846858951e+01   3.7554432122e+01    0.3129306    0.1544736  58.13  0.001003008    2.191    0.544
        93  -8.9877     82.0173     78.0554   1.1086893789e+02   5.1390138549e+01    0.3327432    0.2051622 -57.05  0.001166083    1.702    0.413
        94  -9.6927    202.6608     71.0268   7.9283097594e+01   2.4987530427e+01    0.5551135     0.234096 -42.03  0.002055627    2.263    0.558
        95  -7.8934     15.6431     76.2896   1.3370826258e+02   5.9402966453e+01    0.1154095   0.08430928  71.92  0.000702648    1.683    0.406
        96  -8.2175    196.0110     75.2339   8.1564987852e+01   2.5967305710e+01    0.2022974    0.1265878  59.12  0.000875544    1.615    0.381
        97  -7.9176     61.6114     78.8162   1.1796370702e+02   5.4289628416e+01    0.1895789    0.1206024 -62.62 0.0006045708    1.614    0.380
        98  -8.9601    212.3018     72.5624   7.8161369378e+01   2.2351802551e+01    0.4872837    0.2197023 -30.80  0.001849992    2.272    0.560
        99  -8.5535    195.5340     70.7152   8.0389778041e+01   2.6832140626e+01    0.3582768    0.1999263  52.98 0.0008749362    1.795    0.443
       100  -9.3403    187.8577     66.1066   8.0416703265e+01   2.9535341357e+01    0.4219021    0.3496865   0.91   0.00126028    1.479    0.324
       101  -8.8262    191.3295     71.6771   8.1390987457e+01   2.7739863178e+01    0.2354316    0.1726043 -68.59 0.0003054369    1.585    0.369
       102  -8.3560    190.6676     68.6891   8.0661223434e+01   2.8398397302e+01    0.2417804    0.2230474  19.27  0.001276958    1.218    0.179
       103  -8.2581    105.0210     72.0702   1.0177077435e+02   4.8375634531e+01    0.2175989    0.2148411 -21.05 0.0004571725    1.042    0.040
       104  -9.0133    180.9197     71.2452   8.3167494153e+01   3.0464258498e+01    0.3305487    0.2139599  55.21    0.0014586    1.527    0.345
       105  -8.7792    111.6062     69.8315   9.9105315981e+01   4.7448831091e+01    0.3030165     0.250377 -51.05  0.000906862    1.258    0.205
       106 -10.0699    170.1650     67.7915   8.4233158623e+01   3.3797391713e+01    0.5213552    0.3466625 -66.08  0.001962023    1.940    0.484
       107  -8.7374    232.2443     68.5830   7.4258620261e+01   1.8190917202e+01    0.2912267    0.2124715 -26.93 0.0007377893    1.409    0.290
       108  -8.6086    225.2244     67.8913   7.5041240415e+01   1.9951924005e+01    0.2043846    0.1740686 -50.59            0    1.091    0.084
       109  -8.0947    149.2231     67.4096   8.8594632488e+01   3.9158299218e+01     0.221997    0.1490147  67.59 0.0007131457    1.685    0.407
       110  -8.5112    175.3451     76.2278   8.5698312965e+01   3.1029848124e+01    0.2196141    0.1980478  51.39 0.0008086751    1.116    0.104
       111 -10.6853    174.1542     61.4040   8.1533776062e+01   3.3821637362e+01    0.5493889    0.5126978 -76.41  0.002261833    1.073    0.068
       112  -9.8146    199.6514     62.4453   7.7400404033e+01   2.7104280941e+01    0.5000052    0.3426546  27.00 -3.782038e-05    2.018    0.504
       113  -8.1932    201.0489     58.0628   7.5960922521e+01   2.7420135402e+01    0.2189046    0.1736843  27.58 0.0002995651    1.558    0.358
       114  -9.2029    165.7280     62.8366   8.3615689280e+01   3.5758938048e+01    0.3455683    0.2659544 -31.41 0.0007346278    1.343    0.255
       115 -10.0800    174.1275     53.3229   7.9088582246e+01   3.5089869297e+01     0.815578    0.4724893  78.29  0.003234344    2.185    0.542
       116  -9.3056    186.3247     59.6824   7.8825337391e+01   3.0948709335e+01     0.542262    0.3226122  28.41  0.001850934    2.609    0.617
       117  -9.6187    182.7381     55.6656   7.8266029606e+01   3.2495996942e+01    0.4992163    0.3400435 -53.94  0.001494793    1.558    0.358
       118  -7.6100     80.5188     62.4890   1.0641514590e+02   5.4833991550e+01    0.1396083    0.1280676 -25.63 4.330688e-05    1.004    0.004
       119  -9.5619    161.1759     60.1703   8.3714858387e+01   3.7361642274e+01    0.3760771     0.321095  24.21  0.001333232    1.317    0.240
       120  -7.9624    195.6072     59.2873   7.7163435300e+01   2.8622495322e+01    0.4013893      0.20711  31.76  0.001288052    3.508    0.715
       121  -8.7933    150.1205     57.4297   8.5191216918e+01   4.0617145355e+01    0.2971221    0.1655345 -53.47  0.001149851    2.216    0.549
       122  -7.7833     90.5794     57.8155   1.0144733395e+02   5.3927174353e+01    0.1979622     0.129641 -49.88 0.0006584702    1.636    0.389
       123  -9.4549    164.5627     52.7690   8.0712725736e+01   3.7657071910e+01    0.4241875    0.2974272  79.51  0.001739042    1.637    0.389
       124  -8.4846    191.3769     52.2120   7.5821880970e+01   3.0775090409e+01    0.2822804    0.1705135 -42.81  0.001218198    1.624    0.384
       125  -7.3964      2.6783     53.3217   1.3394476253e+02   6.5093440663e+01    0.1063099   0.08103278  78.54 0.0007045472    1.675    0.403
       126  -7.8037    143.4851     51.5005   8.4707899524e+01   4.3226712252e+01     0.149338    0.1451454  83.52 -3.653615e-05    1.054    0.052
       127  -8.3081     63.2236     49.3938   1.0801845033e+02   6.0082911068e+01    0.1752714    0.1238565  45.29 0.0009508065    1.681    0.405
       128  -8.6272    153.8171     46.4391   8.0810784317e+01   4.1376688935e+01    0.4072053    0.2320068  76.77  0.001583269    2.312    0.567
       129  -9.5302    104.9496     45.0260   9.2303233597e+01   5.3248190680e+01    0.6384491    0.3650071 -68.83  0.001814393    5.935    0.832
       130  -8.7059    193.1973     45.8583   7.3710764902e+01   3.1218978419e+01    0.3500252    0.2079331 -30.19 0.0008806217    1.740    0.425
       131  -8.4056    181.7815     46.3743   7.5663713033e+01   3.4115745875e+01    0.2105667    0.1294793  53.67 0.0005703762    1.590    0.371
       132  -8.5301     90.3010     44.7439   9.6709047599e+01   5.6277142086e+01    0.2438616    0.1640217 -37.71  0.000737197    1.458    0.314
       133  -9.1396     84.7481     42.9800   9.7857118167e+01   5.7621531662e+01     0.354742    0.2666485 -74.79  0.001729576    2.256    0.557
       134  -8.9642    195.6424     40.7268   7.1883537467e+01   3.1293959576e+01    0.2366227    0.2236663  35.75 0.0003220238    1.190    0.160
       135  -9.3771    172.6380     37.9481   7.4613244026e+01   3.7672069365e+01    0.4848531    0.3074837 -69.24  0.001589806    1.993    0.498
       136  -8.6642    189.1436     38.9608   7.2321089369e+01   3.3218300219e+01    0.3587599    0.2083939 -36.23 0.0009842715    1.703    0.413
       137 -10.9338    123.2906     36.2933   8.4085356272e+01   5.0401581988e+01    0.5697474    0.4045019 -34.93  0.001655574    1.455    0.313
       138  -8.3653     87.5956     35.2877   9.3839004050e+01   5.8298560921e+01    0.2486368    0.1995606  74.70  0.000813887    1.795    0.443
       139  -8.1649     73.0020     37.0201   9.9575023591e+01   6.0688331592e+01    0.1941036    0.1670344 -71.40 0.0006126884    1.684    0.406
       140 -11.1027     45.5408    222.2208   1.4291793351e+02   2.4242988026e+01    0.8654026    0.4152066  58.47  0.005052254    1.686    0.407
       141  -7.6689    185.8021     28.3421   6.9688160836e+01   3.5447217279e+01    0.2093716    0.1180348  58.16 0.0009334689    1.669    0.401
       142  -7.8210     79.4603    218.5262   1.3622344353e+02   2.0479174989e+01    0.1223595   0.09631533  65.65 0.0001646486    1.009    0.009
       143  -9.2744    115.7270     34.3713   8.5269455605e+01   5.2436415170e+01    0.2516581    0.2177353 -46.60 0.0006342729    1.285    0.222
       144 -10.7232     28.4040    208.0658   1.4511906154e+02   2.8947771245e+01    0.5534008    0.3995332  73.31  0.002537834    1.017    0.017
       145 -11.1687     58.1146    199.1694   1.3862031926e+02   2.7234505227e+01    0.5006756    0.2738768  64.16  0.002760173    1.674    0.402
       146  -8.3537     89.8210     32.1104   9.1817195146e+01   5.8330750040e+01    0.2000556    0.1879424 -42.80 0.0007190403    1.248    0.199
       147  -8.6689    135.8141     30.7276   7.9168703295e+01   4.8091393629e+01    0.2635143    0.2278596 -54.18 0.0006521649    1.277    0.217
       148  -7.3167    178.3035     29.0434   7.0981088964e+01   3.7324657977e+01    0.2237603    0.1179761   4.35 0.0003332935    4.246    0.764
       149  -8.3208    201.5842     28.1677   6.7562853440e+01   3.1379011355e+01    0.2297822    0.1793965 -85.16 0.0005693841    1.243    0.196
       150  -8.8397    206.6440     26.6735   6.6543898399e+01   3.0269070510e+01    0.2299118    0.2087631 -85.29 0.0004628162    1.027    0.026
       151  -8.4046    162.8983     27.2263   7.2839815501e+01   4.1581503181e+01    0.2215676    0.1920276 -85.88  0.001208951    1.172    0.147
       152  -8.9860    155.8962     25.4073   7.3434911087e+01   4.3620837583e+01    0.3908337    0.2700543 -82.89  0.001844321    1.743    0.426
       153  -8.4260     84.1194     24.3404   9.0354774096e+01   6.0529171994e+01    0.3008586    0.1634972 -45.74  0.001371737    2.339    0.572
       154  -8.4652    194.4890     23.4437   6.7122243442e+01   3.3772212363e+01     0.234691     0.209503  86.69  0.001353386    1.029    0.028
       155  -9.6176    174.9303     23.6264   6.9823839939e+01   3.8853809371e+01    0.2569039    0.2304555  77.30 0.0003471264    1.030    0.029
       156  -7.9790    186.2466     21.6915   6.7673639358e+01   3.6115920226e+01    0.1822217    0.1525396  41.97 0.0003386681    1.321    0.243
       157  -8.2863    180.9854     21.3194   6.8267808072e+01   3.7532128538e+01     0.201008    0.1691848  75.33 0.0005130563    1.096    0.088
       158  -8.1671    164.2669     19.0392   6.9981004840e+01   4.2160832064e+01    0.2584319    0.1772548 -47.79   0.00128538    1.545    0.353
       159  -7.6046    174.5229     19.5177   6.8619544950e+01   3.9425036786e+01    0.1423523    0.1300296  68.95 0.0008094839    1.049    0.047
       160  -8.7285    161.1411     33.8769   7.5299648134e+01   4.1212802503e+01    0.3127698    0.2647597  83.35  0.001110219    1.194    0.163
       161  -8.2600    155.6430     17.9161   7.0980578468e+01   4.4527143802e+01    0.2929812     0.181125 -89.19  0.001305411    1.962    0.490
       162 -12.0316     46.2863    181.7605   1.3944759277e+02   3.2385928036e+01      1.07529     0.618652  89.11  0.006007915    1.621    0.383
       163  -7.8624    108.6679    187.3821   1.2645991995e+02   2.2154985826e+01    0.2120439    0.1385739  69.32  0.001064144    1.670    0.401
       164  -8.2376     68.8584     15.7294   9.1691202992e+01   6.4473284347e+01    0.2301248    0.1558849 -49.66  0.001226116    2.108    0.526
       165  -8.5024    177.1940     15.0272   6.6884351577e+01   3.9210952610e+01    0.2675107    0.1884523  83.04  0.000730851    1.373    0.272
       166  -7.8828     66.3729    188.1499   1.3578265797e+02   2.8453430940e+01    0.1776455    0.1050805 -85.11 0.0009441847    1.681    0.405
       167  -9.1267    248.2705    168.5432   9.4863330498e+01  -7.1855675896e-01    0.3833648     0.189237 -35.23  0.001700251    1.936    0.484
       168  -8.3973     61.0218    167.0245   1.3454209328e+02   3.3817220976e+01    0.2151079    0.1294721  67.15 0.0009731136    1.677    0.404
       169  -8.1773    203.3745    163.2547   1.0184462599e+02   8.5754739874e+00      0.19037    0.1316272 -46.39 0.0006133218    1.596    0.374
       170  -7.5598     57.6904    156.7102   1.3403336824e+02   3.6603041619e+01    0.1202315   0.09755935 -42.45 0.0002673667    1.580    0.367
       171 -10.4088    178.5305    150.6832   1.0418565839e+02   1.6038090673e+01    0.5876742    0.4890068  86.45  0.001986995    1.518    0.341
       172  -7.7863    144.3355    155.7234   1.1285162914e+02   2.2192196186e+01    0.1505327    0.1133634  75.24 0.0005347651    1.608    0.378
       173  -7.8228    222.6878    154.6760   9.6383835323e+01   6.1629673043e+00    0.1451859    0.1039077   6.86  0.000704002    1.658    0.397
       174  -7.8182     80.4799    148.5288   1.2714705011e+02   3.5340605711e+01    0.1403158    0.1220092  85.43 0.0008093244    1.039    0.038
       175  -7.6658     66.3451    145.2792   1.3025028935e+02   3.8131547232e+01    0.1267368    0.1032817 -32.45 0.0002783944    1.633    0.388
       176 -11.0900    241.9810    137.4744   8.9265334218e+01   5.1380320032e+00    0.7582259    0.5775273 -52.15  0.003714589    1.536    0.349
       177  -9.2677    248.0500    132.6316   8.7211359515e+01   4.7184823435e+00    0.3468726    0.3166554 -64.53  0.001616157    1.334    0.250
       178  -8.5237    233.9102    143.3753   9.1927919144e+01   5.7815198840e+00    0.2609136    0.1349528  56.42  0.001097447    2.434    0.589
       179  -8.4669    196.6012    139.7832   9.8005964400e+01   1.4185529991e+01    0.2148508    0.1365212 -49.22  0.000861517    1.723    0.420
       180  -8.4090    198.4799    135.5043   9.6638495478e+01   1.4560899411e+01    0.2600116    0.2075726 -78.62 0.0008270008    1.686    0.407
       181  -8.0664    193.4760    133.9941   9.7278948678e+01   1.5946850452e+01    0.2288962    0.1458748 -41.37 0.0007251392    1.573    0.364
