#   1 NUMBER                 Running object number                                     
#   2 MAG_AUTO               Kron-like elliptical aperture magnitude                    [mag]
#   3 X_IMAGE                Object position along x                                    [pixel]
#   4 Y_IMAGE                Object position along y                                    [pixel]
#   5 X_WORLD                Barycenter position along world x axis                     [deg]
#   6 Y_WORLD                Barycenter position along world y axis                     [deg]
#   7 A_WORLD                Profile RMS along major axis (world units)                 [deg]
#   8 B_WORLD                Profile RMS along minor axis (world units)                 [deg]
#   9 THETA_WORLD            Position angle (CCW/world-x)                               [deg]
#  10 FWHM_WORLD             FWHM assuming a gaussian core                              [deg]
#  11 ELONGATION             A_IMAGE/B_IMAGE                                           
#  12 ELLIPTICITY            1 - B_IMAGE/A_IMAGE                                       
         1 -14.9779    170.0627     47.7675   6.5074530059e+01   3.6613570069e+01     1.323528     1.018935   8.18  0.004025438    1.556    0.357
         2 -15.0270    187.2250     17.6038   5.2654056236e+01   3.5999933067e+01    0.9868927    0.9428603 -15.61  0.003798232    1.120    0.108
         3 -14.7384    166.1014    222.0735   1.0606726610e+02   6.5523950581e+00    0.8115619    0.6059219  -4.79  0.003592614    2.010    0.503
         4 -10.4799    103.1708    250.5868   1.2003647675e+02   1.2298534921e+01    0.2874479   0.08818969  45.37  0.000937628    2.409    0.585
         5 -17.6985     72.8722    217.2564   1.2224026301e+02   2.1943248490e+01     7.314394     4.962205 -75.76   0.05028752    1.481    0.325
         6 -15.5728    175.2581    219.3933   1.0404489345e+02   5.3625136719e+00     1.529275    0.9131085  26.78  0.008178778    1.938    0.484
         7 -11.8130    140.1540    219.2901   1.1038326718e+02   1.1365670826e+01    0.3459437    0.1681091 -62.55  0.001702971    2.843    0.648
         8 -11.3980    152.5089    219.9020   1.0822144199e+02   9.1913640881e+00    0.1554237    0.1228623 -54.15 0.0005863582    1.545    0.353
         9 -10.6623    128.5833    227.5787   1.1345546373e+02   1.1950291005e+01    0.1882556    0.1266499  25.45 0.0008084271    2.095    0.523
        10 -11.3372    112.4524    205.4620   1.1380032706e+02   1.8234363874e+01     0.202769    0.1689088  66.40 0.0005740746    1.031    0.030
        11 -11.7216     11.7024    206.1260   1.3186021387e+02   3.0971783175e+01     0.177274    0.1259622  55.43  0.001423005    1.340    0.254
        12 -19.1010     54.9565     95.4107   1.0997293137e+02   5.0032984411e+01     17.15606    0.9362488 -59.71   0.02685882   16.503    0.939
        13 -12.1184    112.3628    196.1425   1.1265270966e+02   1.9943279580e+01    0.5323033    0.3479205  13.75  0.002323214    3.648    0.726
        14 -11.1388    133.1693    195.0931   1.0843477429e+02   1.6634541854e+01    0.1826737    0.1641346  46.73 0.0004484456    1.144    0.126
        15  99.0000     13.4662    191.0085   1.3072733324e+02   3.3626136795e+01    0.1728225    0.1303386 -59.88  0.001316306    1.764    0.433
        16 -10.5794     12.3763    188.2171   1.3075297930e+02   3.4262187150e+01    0.1468535    0.1032188 -87.35 0.0006157178    1.172    0.147
        17 -12.7350    204.5449    190.0364   9.3896924440e+01   4.3308176737e+00     0.258954    0.1730787  53.64 0.0007823473    1.623    0.384
        18 -11.5721    134.4604    240.2800   1.1385306414e+02   9.1073225776e+00    0.3015895    0.1568125 -43.94  0.001695902    2.812    0.644
        19 -11.5199    110.2123    222.7699   1.1617958642e+02   1.5606644612e+01    0.1805749    0.1531572 -80.36 0.0004444526    1.305    0.234
        20 -11.5276     29.1191    183.6438   1.2741499224e+02   3.3526796042e+01    0.1687681    0.1174777  67.32  0.000583472    1.171    0.146
        21 -12.6482    162.8347    181.0737   1.0031156053e+02   1.3700754907e+01    0.2125096     0.179983  70.96 0.0009711585    1.287    0.223
        22 -14.7374    124.8764    171.2712   1.0648942784e+02   2.2596467926e+01    0.9004849    0.4479416  48.51 0.0007418727    1.860    0.462
        23 -15.5721    143.0461    173.3063   1.0300613281e+02   1.8873159346e+01    0.8348715    0.8069849 -79.41  0.003788684    1.118    0.106
        24 -14.2859    138.8735    167.5489   1.0288366685e+02   2.0765488421e+01    0.6299058    0.4454108   4.90  0.001353088    2.605    0.616
        25 -11.4538      3.7498    179.0164   1.3174918529e+02   3.6805529563e+01    0.1615056   0.09649042  78.72 0.0007736039    1.246    0.198
        26 -13.5092    187.0311    175.5368   9.4520767416e+01   9.9404918223e+00    0.3799109    0.3652388  40.67 0.0009515888    1.104    0.094
        27 -13.0463    185.5175    170.0080   9.3753967096e+01   1.1163684555e+01     0.339002    0.2599507 -49.32  0.001542029    1.493    0.330
        28 -12.1400    193.4890    170.5748   9.2307571656e+01   9.4776864707e+00    0.2481357    0.2245066  29.29 0.0006981255    1.006    0.006
        29 -11.0042     34.0399    168.4503   1.2522681393e+02   3.6098915957e+01    0.1613881    0.1214506  87.40 0.0003745015    1.030    0.029
        30 -10.6856     24.3794    165.6417   1.2692140256e+02   3.7645620732e+01    0.1205463    0.1033639  45.05 0.0005504514    1.469    0.319
        31  -9.9249     10.9958    174.5327   1.3015204482e+02   3.7067111200e+01     0.119499   0.09211395  60.02 0.0002512892    1.295    0.228
        32 -11.3066     15.0464    164.1552   1.2865495733e+02   3.8810599756e+01     0.240378    0.1571114   6.29  0.001433225    3.148    0.682
        33 -15.7513    133.6474    145.4962   9.9897442254e+01   2.6223131030e+01     1.528718    0.6437192 -56.82  0.005215817    2.785    0.641
        34 -11.9881    167.9845    237.7904   1.0782408216e+02   4.0589828508e+00    0.1689463    0.1652623  50.08 0.0006209771    1.266    0.210
        35 -14.9127    143.3356    143.7673   9.7351025923e+01   2.4662219556e+01     1.216275    0.4745525 -59.30  0.003618696    4.349    0.770
        36 -11.9824    174.8832    149.1655   9.1651007047e+01   1.7053583124e+01    0.2237177      0.20106  78.98 0.0006607337    1.256    0.204
        37 -12.3203    160.1421    147.8486   9.4499056036e+01   2.0399471629e+01    0.2265438    0.1975295  82.37 0.0007629629    1.284    0.221
        38 -13.2654      6.1542    137.2933   1.2837959062e+02   4.5166812255e+01    0.3347997    0.1986811 -73.80  0.001383715    1.306    0.235
        39 -12.4520    144.0064    131.9956   9.4654987094e+01   2.6951974323e+01     0.233311    0.2241184  73.24 0.0006196336    1.017    0.017
        40 -12.6666    160.4498    128.0877   9.0023544817e+01   2.4235129160e+01    0.3448218    0.2599038 -59.74  0.001519248    1.493    0.330
        41 -13.3099      2.5873    125.3962   1.2815100142e+02   4.7967790460e+01    0.3696884    0.1641205 -74.64  0.002127484    1.665    0.399
        42 -13.2706      5.3801    120.4751   1.2703412798e+02   4.8844569626e+01    0.3726261    0.2313513  -2.71   0.00226175    2.857    0.650
        43 -13.0253    107.9515    122.7266   1.0132761214e+02   3.5963229115e+01    0.3300475    0.2853769 -26.80 0.0006083678    1.384    0.277
        44 -14.7277    135.4615    126.3027   9.5368788742e+01   2.9905625778e+01     1.679673    0.3980855 -51.76  0.004223414    5.313    0.812
        45 -13.7183    113.8450    118.5894   9.8921333012e+01   3.5804616602e+01    0.5656613    0.2552962 -53.37   0.00172065    2.189    0.543
        46 -10.8684    152.0956    236.8229   1.1043741385e+02   6.7836980630e+00    0.1908794    0.1272882  55.19 0.0007147985    1.313    0.239
        47 -10.9061    231.1394    113.8338   7.2582380035e+01   1.0812262477e+01    0.2125091    0.1997923 -48.22 0.0008239776    1.170    0.145
        48 -12.0366    167.4843    112.5826   8.4638486953e+01   2.5720832927e+01    0.3886999     0.298661 -89.91  0.001076485    1.769    0.435
        49 -12.3953      4.4416    112.3361   1.2644107052e+02   5.0678043883e+01    0.2966503    0.1908033 -13.03  0.001850319    2.599    0.615
        50 -10.1135    125.4217    237.0245   1.1504427606e+02   1.0999375899e+01    0.1335314    0.1066668 -81.83 0.0003677809    1.436    0.304
        51 -11.2569    205.7040    110.0494   7.6173162488e+01   1.7236654330e+01    0.2182578    0.1948002 -24.34 0.0006153708    1.098    0.089
        52 -12.6015     14.5953    109.9745   1.2359061836e+02   5.0504225733e+01    0.2955768     0.173571   3.43  0.001536999    2.898    0.655
        53 -12.7035    130.0606    109.8019   9.2731155544e+01   3.4531446938e+01    0.3215942    0.2123274 -41.55 0.0007555578    1.525    0.344
        54 -13.7637    157.4894     61.7022   7.2150698153e+01   3.7608248592e+01    0.5168271    0.4128195  53.69 0.0009366266    1.255    0.203
        55 -10.5104     13.5086     59.9372   1.1580682351e+02   6.1523397575e+01    0.1753315   0.09001894 -63.11 0.0003990424    1.495    0.331
        56 -10.7626    108.4285    249.2894   1.1907342092e+02   1.1730832717e+01     0.106677   0.07599218  49.71 0.0002939722    1.158    0.137
        57 -13.0857    175.0355     40.0490   6.1672191939e+01   3.6424480289e+01    0.4263707    0.4095735   6.90 0.0009184494    1.072    0.067
