#   1 NUMBER                 Running object number                                     
#   2 MAG_AUTO               Kron-like elliptical aperture magnitude                    [mag]
#   3 X_IMAGE                Object position along x                                    [pixel]
#   4 Y_IMAGE                Object position along y                                    [pixel]
#   5 X_WORLD                Barycenter position along world x axis                     [deg]
#   6 Y_WORLD                Barycenter position along world y axis                     [deg]
#   7 A_WORLD                Profile RMS along major axis (world units)                 [deg]
#   8 B_WORLD                Profile RMS along minor axis (world units)                 [deg]
#   9 THETA_WORLD            Position angle (CCW/world-x)                               [deg]
#  10 FWHM_WORLD             FWHM assuming a gaussian core                              [deg]
#  11 ELONGATION             A_IMAGE/B_IMAGE                                           
#  12 ELLIPTICITY            1 - B_IMAGE/A_IMAGE                                       
         1 -12.8972    198.4964     34.0741   5.9262576418e+01   3.1141034469e+01      1.27078    0.8285839  41.69  0.005734264    1.677    0.404
         2 -13.8066    212.6426     18.2918   5.2600986333e+01   2.9294567394e+01     1.550454     1.016047  29.45  0.007128837    1.873    0.466
         3 -10.6787      2.4117      3.2644   1.0662177157e+02   7.4508129828e+01    0.2332265    0.1375959 -52.47  0.001514611    1.325    0.245
         4 -12.1966    125.7324    248.6395   1.1782825684e+02   1.1143046767e+01    0.3431697    0.2605084  53.03  0.002800273    1.049    0.046
         5 -11.3846    164.1346    249.9176   1.1200890464e+02   5.5217356942e+00    0.3650124    0.0998536  42.72  0.001751875    2.687    0.628
         6 -12.3358    140.2731    248.2130   1.1553103343e+02   9.1500639955e+00    0.4214748    0.2967593  71.99  0.003155873    1.648    0.393
         7 -11.8305    133.5495    248.1936   1.1657425761e+02   1.0104857794e+01    0.3184118    0.2208884  45.09  0.001633468    1.121    0.108
         8 -12.0501    114.1721    248.8992   1.1963853339e+02   1.2698777019e+01    0.3901101    0.2285933  41.20  0.002724126    1.452    0.311
         9 -15.6436      9.9123    207.4674   1.3352755841e+02   3.1404035229e+01     8.271089     1.335469 -79.44   0.03350985    5.497    0.818
        10 -15.1581     38.4474    215.0429   1.2928486057e+02   2.7256335514e+01     3.830447     1.146398  43.73   0.02133216    2.510    0.602
        11 -10.7825     83.1951    229.9806   1.2301052257e+02   1.9509577711e+01    0.1843009    0.1178809  51.95 0.0006460112    1.200    0.167
        12 -10.7937    151.1967    228.7283   1.1172525196e+02   1.0013528290e+01    0.2120133    0.1084883  46.57  0.001276507    1.522    0.343
        13  -9.9826     86.3134    240.3087   1.2329104468e+02   1.7574839859e+01    0.0856939   0.07536305  33.97 0.0003171023    1.627    0.385
        14  -9.8090    249.3259    224.3328   9.5583657199e+01  -4.4210102088e+00     0.114839   0.06346095  17.44 0.0003810215    1.712    0.416
        15 -10.6504     56.2846    240.6016   1.2793731177e+02   2.1197697963e+01    0.1829899   0.06586239  45.58 0.0005779458    2.023    0.506
        16 -11.9105     48.5239    236.8596   1.2890815207e+02   2.2646324729e+01    0.3148619    0.1406825  69.72   0.00195093    1.989    0.497
        17 -10.9074     62.8583    250.0055   1.2748916746e+02   1.9062797660e+01    0.2152369   0.09704223  49.36  0.001094178    1.560    0.359
        18 -12.9029     31.3385    223.4694   1.3086445667e+02   2.6619895463e+01    0.4394467    0.3464878  31.21 0.0007838383    1.938    0.484
        19 -10.8447    225.1340    199.5065   9.5363296397e+01   1.7556134812e+00    0.2945988    0.2243388 -51.09 0.0007098641    2.055    0.513
        20  -8.3977    181.5034    192.4640   1.0158445226e+02   1.0015592457e+01    0.1232956    0.1037633  35.53 3.588582e-05    1.013    0.013
        21 -11.4162     59.2316    191.5957   1.2406069043e+02   2.9000737949e+01    0.2920921    0.2136482 -52.80  0.001229054    1.908    0.476
        22 -11.5775     65.2920    184.5432   1.2230714678e+02   2.9564189400e+01    0.2396166    0.2052111  89.44 0.0004374371    1.211    0.175
        23 -10.7678     75.5714    172.7970   1.1910184462e+02   3.0483740818e+01    0.2106699     0.181111  83.70 0.0004484539    1.115    0.103
        24 -13.0834     62.3637    170.0087   1.2146383476e+02   3.2750905247e+01    0.4195969    0.2450295 -50.80  0.001781514    2.241    0.554
        25 -11.6273     83.2871    164.5050   1.1654145307e+02   3.1061750955e+01    0.5167116    0.4166504  66.71  0.003420561    1.084    0.077
        26 -12.3212     67.6065    143.8295   1.1727234231e+02   3.7516377478e+01    0.6799752    0.4087492  70.20  0.002773524    1.752    0.429
        27 -11.8781     58.5272    134.6318   1.1814115879e+02   4.0674724998e+01    0.8500069    0.3189476 -82.48  0.002646881    5.240    0.809
        28 -11.7779     85.0812    148.0120   1.1391627022e+02   3.4199407786e+01    0.2544682    0.2207599 -63.99 0.0005166798    1.239    0.193
        29  -9.0748     99.9750    145.0843   1.1012280148e+02   3.2533267479e+01    0.1921471    0.1622779 -22.41 0.0008175583    1.704    0.413
        30  -9.3763    108.9099    135.2130   1.0636173250e+02   3.3131163513e+01    0.2479348    0.1728061 -31.02  0.001188148    2.067    0.516
        31 -10.3547     95.8877    132.2066   1.0886273744e+02   3.5930172405e+01    0.2270714    0.2131856 -40.80 0.0005867356    1.290    0.225
        32 -14.0482      5.9368    246.9973   1.3550287839e+02   2.5476143961e+01     10.81547     6.651895  51.73   0.09344842    1.345    0.257
        33  -9.5909     96.6739    149.0898   1.1149865156e+02   3.2220223967e+01     0.229631    0.1883025  43.80 0.0007903864    1.305    0.234
        34  -9.2289    106.1458    122.6033   1.0456215127e+02   3.6307333224e+01    0.1801858    0.1643472  55.41 0.0004111692    1.145    0.127
        35  -9.9002    167.7668    112.7857   8.8199659176e+01   2.5963565396e+01    0.3446875    0.2676755 -78.64  0.001240154    1.727    0.421
        36  -9.0354    203.3035    111.3646   8.0905022561e+01   1.8266841940e+01    0.1560879    0.1106525   9.41 0.0007036289    1.736    0.424
        37 -10.7841      1.5985     62.4507   1.2368233104e+02   6.2135452500e+01    0.3580969    0.1141198 -78.38  0.001483683    2.976    0.664
        38 -10.9598    249.3540    248.2037   9.9031025766e+01  -6.4040181529e+00    0.2605446    0.1635382  -3.26  0.001980613    1.638    0.389
        39 -10.5346    229.6385    249.1016   1.0201001985e+02  -3.7880935492e+00    0.1798587    0.1090498  41.49 0.0006992235    1.383    0.277
        40 -14.4192     15.0834    241.4336   1.3404235648e+02   2.5439958091e+01     2.237901    0.7367204  52.99   0.01511066    1.937    0.484
