#   1 NUMBER                 Running object number                                     
#   2 MAG_AUTO               Kron-like elliptical aperture magnitude                    [mag]
#   3 X_IMAGE                Object position along x                                    [pixel]
#   4 Y_IMAGE                Object position along y                                    [pixel]
#   5 X_WORLD                Barycenter position along world x axis                     [deg]
#   6 Y_WORLD                Barycenter position along world y axis                     [deg]
#   7 A_WORLD                Profile RMS along major axis (world units)                 [deg]
#   8 B_WORLD                Profile RMS along minor axis (world units)                 [deg]
#   9 THETA_WORLD            Position angle (CCW/world-x)                               [deg]
#  10 FWHM_WORLD             FWHM assuming a gaussian core                              [deg]
#  11 ELONGATION             A_IMAGE/B_IMAGE                                           
#  12 ELLIPTICITY            1 - B_IMAGE/A_IMAGE                                       
         1 -11.8963     34.4321     17.8682   1.0754780074e+02   6.8471845329e+01    0.3129567    0.2296619 -41.56  0.001345474    1.427    0.299
         2 -11.6742     52.3410     15.1499   9.8556284157e+01   6.6489806965e+01     0.482991    0.2811045 -54.52  0.001979305    3.567    0.720
         3 -11.4255     48.3769      8.9388   9.7137979546e+01   6.7892364427e+01    0.2948692    0.2253022  11.42  0.001028824    1.160    0.138
         4 -11.3806     25.8556     15.2587   1.1037333938e+02   6.9817562195e+01    0.3955519    0.2376562 -37.97  0.002471311    1.398    0.285
         5 -11.8676     42.0308     14.2811   1.0246851086e+02   6.8059212739e+01    0.4004104    0.2163907 -33.86  0.001644745    1.633    0.388
         6 -11.2500     12.9759     13.9544   1.1621200831e+02   7.1212934787e+01    0.2602645    0.1211507 -39.43 0.0004088226    1.655    0.396
         7 -11.9341     16.5525      7.6570   1.1144228889e+02   7.1896110189e+01    0.3126841      0.18975   4.36  0.001736933    1.733    0.423
         8 -11.5526    177.5851     12.7038   6.7293073907e+01   3.9021804039e+01    0.5111589    0.2723604  86.49  0.002176226    2.181    0.542
         9 -12.0706    176.4142      7.2763   6.5806707037e+01   3.9854003770e+01    0.2769813    0.2399664  59.97 0.0002917818    1.108    0.098
        10 -11.2761     77.9534     11.8129   8.7730632074e+01   6.2555340231e+01    0.3024404    0.2227945  -5.17 0.0007661184    1.285    0.222
        11 -10.8198     74.5785     10.2772   8.8107368144e+01   6.3361209621e+01    0.3073104     0.139148 -26.07  0.001001814    2.142    0.533
        12 -10.6011     33.3524     12.1714   1.0535792812e+02   6.9451197896e+01    0.2210577    0.1438091  27.28 0.0009552611    1.606    0.377
        13 -10.1394    169.9979      8.7440   6.7084204347e+01   4.1360513436e+01    0.1878271    0.1636025  77.14 0.0002107719    1.061    0.057
        14 -11.8034    107.8075      7.4536   7.7637668934e+01   5.6770803906e+01    0.2742663    0.2321441  65.02 0.0005574766    1.268    0.211
        15 -10.6473     87.6173      6.7266   8.2499847820e+01   6.1189109938e+01       0.1746    0.1125115 -29.62 0.0009486954    1.625    0.385
        16 -11.2997     24.7007      6.8847   1.0689899377e+02   7.1193275795e+01    0.1884142     0.149827 -20.91 0.0005205219    1.136    0.120
        17 -11.5244    209.1458      6.1620   6.1919212555e+01   3.1684856299e+01    0.1937546    0.1395284 -66.42 0.0002700659    1.333    0.250
        18  -9.6964     61.3648      6.3093   9.0757637418e+01   6.6151534006e+01    0.1331616   0.08039189  15.45 0.0007038658    1.751    0.429
        19 -11.2949    217.6141      3.4155   6.0443521892e+01   2.9883196066e+01    0.2445309    0.2063511  51.43 0.0005511057    1.342    0.255
        20 -10.5209    134.3696      4.1079   7.0969059128e+01   5.0781894302e+01    0.2454241    0.1592153  54.51 0.0006834671    1.355    0.262
        21 -11.0644     68.9887      3.9782   8.6935555065e+01   6.5064404993e+01     0.201765    0.1242676  19.16 0.0004310555    1.628    0.386
        22 -11.3619     74.4454      2.5340   8.4461336888e+01   6.4195210635e+01    0.4310935     0.241465  70.02  0.001914271    3.240    0.691
        23 -10.8991     30.8028      3.5876   1.0220572865e+02   7.0945428517e+01    0.2261026    0.1643738 -38.68  0.001096595    1.586    0.369
        24  -9.8231      1.8548      4.3887   1.1789028899e+02   7.3584040594e+01     0.139468   0.08348611  -6.23 0.0006868128    1.678    0.404
        25 -10.1726    194.5777      3.4870   6.2646501286e+01   3.5585687140e+01    0.1333088    0.1198285 -86.58 5.927202e-05    1.012    0.012
        26 -10.2493    118.3640      2.9991   7.3552630523e+01   5.4731482656e+01    0.1771284    0.1618176   0.21 0.0003949561    1.146    0.127
        27 -10.9978     91.6281      2.6874   7.9588006004e+01   6.0738021033e+01    0.2142801    0.1639664  39.79 0.0002956741    1.152    0.132
        28 -10.5441     37.7186      2.7193   9.8526093559e+01   7.0170648439e+01    0.2576942    0.1300264  36.53  0.001406695    2.024    0.506
        29 -10.3768    233.4555      2.5372   5.8935691686e+01   2.6202697892e+01    0.1276483      0.10953 -72.34 0.0001137521    1.014    0.014
        30 -10.7311    179.8699      1.8295   6.3772571911e+01   3.9470779374e+01    0.2102518    0.1752682  45.41  0.000420504    1.263    0.208
        31 -11.3201    160.0518      1.8269   6.6234810838e+01   4.4528809404e+01    0.3983153    0.1691171  64.99  0.001694257    2.020    0.505
        32 -10.2749    138.1202      1.4428   6.9372037810e+01   5.0079965809e+01    0.2032596    0.1191633  63.48 0.0005801054    1.516    0.340
        33 -10.5287     52.6638      1.4515   9.1561343354e+01   6.8118717160e+01     0.270496    0.1039642  43.59  0.001235095    2.505    0.601
        34 -10.3786      9.7219      1.2092   1.1189209034e+02   7.3464593416e+01    0.2168476   0.07100577  33.74  0.001054873    3.673    0.728
        35 -10.7752    128.8899    228.1810   1.2851242064e+02   1.1368093692e+01    0.1838938    0.1632088  74.96 0.0007189644    1.173    0.148
        36  -9.8803    190.9265    250.7997   1.2025863947e+02  -1.8041937535e+00    0.1514445   0.07178125  39.11 0.0003307641    1.637    0.389
        37 -10.7959    160.7941    249.4385   1.2532967281e+02   3.0801416765e+00    0.2128545    0.1991991 -50.64  0.001643829    1.379    0.275
        38 -11.1108    150.0841    248.8099   1.2713838719e+02   4.8480406994e+00    0.2572132    0.2001315   4.87  0.001701778    1.808    0.447
        39 -11.7988    136.9741    243.1200   1.2880264320e+02   7.7328249930e+00    0.2370475      0.21927 -29.10  0.001024029    1.437    0.304
        40 -11.5653    141.8678    242.8749   1.2789674682e+02   6.9990086506e+00    0.2363084    0.2038657  -3.99 0.0005851518    1.583    0.368
        41 -11.6808    139.3923    249.7578   1.2912994570e+02   6.3783719174e+00    0.5313032    0.1623688  47.93  0.002308249    2.750    0.636
        42 -11.3910    141.5460    247.4926   1.2849262999e+02   6.3716148098e+00    0.2034527     0.161851  46.71 4.155955e-05    1.024    0.024
        43 -12.4580    128.0152    250.3137   1.3118602660e+02   8.0439876317e+00    0.3523985    0.2178221  68.66  0.001832266    1.923    0.480
        44 -11.8142    122.2091    249.1010   1.3207546553e+02   9.1061390402e+00    0.2986825    0.2271693 -57.59  0.001693157    1.659    0.397
        45 -12.3125    118.9264    248.5016   1.3258901310e+02   9.6920262861e+00    0.3144034    0.2363066  31.31  0.001224949    1.495    0.331
        46 -13.3607    130.4960    237.3482   1.2930477332e+02   9.6383280599e+00    0.6564299    0.4705339  12.25  0.003061135    2.259    0.557
        47 -13.2006    107.7526    247.9635   1.3448942573e+02   1.1436325378e+01    0.5391763    0.4585785  48.73  0.002394505    1.207    0.172
        48 -11.7722    105.1226    237.1840   1.3389089623e+02   1.3560802114e+01    0.3676414    0.2228195 -44.51  0.002129504    2.468    0.595
        49 -11.4292    101.8784    234.1775   1.3417362855e+02   1.4545284324e+01    0.2658366    0.1749367  61.04 0.0003528513    1.317    0.241
        50 -11.6660    103.1333    229.1629   1.3342521234e+02   1.5212763666e+01    0.4427054    0.2832585  71.26  0.001997208    1.630    0.387
        51 -13.0655     89.4441    244.4195   1.3735118189e+02   1.4635967906e+01    0.3216225    0.1849464  48.94 0.0004734101    1.351    0.260
        52 -13.2178    113.5122    239.4798   1.3261630956e+02   1.1925383935e+01    0.6323944    0.2835202  45.24  0.002353961    1.759    0.431
        53 -13.0197    118.8026    233.7184   1.3103051727e+02   1.2051032211e+01     1.068429    0.4770334 -75.86  0.003989112    5.335    0.813
        54 -13.4551     96.2895    237.6513   1.3552380478e+02   1.4780886983e+01    0.6733432    0.4296278  72.92  0.003043977    1.592    0.372
        55 -12.8339     88.5591    236.9205   1.3683531282e+02   1.6011261891e+01    0.5256041    0.3773118 -36.31  0.003230719    2.513    0.602
        56 -12.2782     83.2735    237.1744   1.3779646147e+02   1.6708817577e+01    0.3820357    0.1765824  57.42  0.001394493    1.911    0.477
        57 -12.2504    111.6436    227.8171   1.3169701085e+02   1.4147459641e+01    0.4362343    0.2328648 -61.81  0.001286136    2.176    0.540
        58 -13.0447    105.1027    223.5125   1.3244693828e+02   1.5898530142e+01    0.4012808    0.2212723  39.36  0.001502233    1.677    0.404
        59 -11.1175     91.5370    249.9078   1.3746705314e+02   1.3456029460e+01     0.180625    0.1637256  47.45 0.0009117539    1.377    0.274
        60 -12.3556     95.6375    247.7360   1.3657191285e+02   1.3224015095e+01    0.2844512    0.1941565 -89.38  0.001159189    1.600    0.375
        61 -10.4835     83.5516    250.7166   1.3889151020e+02   1.4430389616e+01    0.1607979   0.07752352  43.87 0.0009486033    1.662    0.398
        62 -11.4723     52.6977    250.5858   1.4399196814e+02   1.8436073402e+01    0.1867114   0.07385119  52.64  0.001087533    1.869    0.465
        63 -14.5180     70.7615    187.3097   1.3522683373e+02   2.7922612430e+01     1.645846     1.015403 -51.84  0.006692907    1.932    0.482
        64 -14.1964     48.2255    198.3645   1.4091056116e+02   2.8539264956e+01     1.081126    0.8135336  41.33  0.004995617    1.465    0.317
        65 -12.7421     64.5399    215.7177   1.3931212201e+02   2.3103543411e+01      1.44047     0.974412  41.96  0.006332741    1.475    0.322
        66 -14.4807     22.8112    199.2279   1.4582857556e+02   3.1169079271e+01     1.345491    0.9420953  62.13  0.009750595    1.187    0.158
        67 -14.0772      2.4784    189.7093   1.4901487496e+02   3.4958420435e+01    0.6010392    0.3607103 -85.00  0.004207743    1.310    0.236
        68 -11.7308     46.9862    244.0689   1.4451192934e+02   2.0211221687e+01    0.5018956    0.2418948 -62.66 0.0009543269    2.428    0.588
        69 -13.2296     47.3815    229.7685   1.4350310013e+02   2.2658633519e+01     0.266305     0.177885  58.91 0.0006928809    1.158    0.136
        70 -15.5422     33.5740    220.8598   1.4530702308e+02   2.5875889719e+01     2.008698     1.102725 -71.78   0.01318114    1.769    0.435
        71 -13.8969     75.5397    240.3928   1.3942423169e+02   1.7217943063e+01     1.014958    0.3143641  57.18  0.004234232    3.536    0.717
        72 -14.7346     73.8641    228.4086   1.3871110799e+02   1.9529336503e+01    0.8568663    0.5933599  45.23  0.005050797    1.341    0.254
        73 -13.6560     42.8473    238.6385   1.4485518822e+02   2.1629755548e+01    0.6712876    0.5722684   5.15  0.004240336    2.286    0.563
        74 -14.7377      5.2457    201.9353   1.4917580890e+02   3.2317559918e+01     1.286883     0.460611 -85.13  0.006895539    2.397    0.583
        75 -15.9920     12.0056    218.1137   1.4884909320e+02   2.8626719112e+01     1.355969    0.8469889 -64.59  0.009700928    1.872    0.466
        76 -15.6852     12.7798    237.6086   1.4966235849e+02   2.5066483082e+01    0.9645909    0.5314481  48.01  0.007079627    1.523    0.343
        77 -15.5979     26.8795    245.3192   1.4781593164e+02   2.2282230409e+01     1.391676          nan  44.92  0.005625243    4.591    0.782
        78 -16.0587     18.0755    249.0615   1.4935936622e+02   2.2588613624e+01     1.544498    0.1657655  42.94   0.00700773    3.967    0.748
        79 -14.6399      3.2317    247.7247   1.5153837320e+02   2.4291418110e+01    0.4109257      0.20625 -67.13  0.002911069    2.310    0.567
        80 -12.9289    124.4030    224.8030   1.2894627849e+02   1.2651394520e+01    0.4147145    0.3279856 -65.20 0.0004675276    1.466    0.318
        81 -11.9142    107.5931    216.2686   1.3114443039e+02   1.6807490734e+01    0.3607804    0.3064434  38.02  0.001831575    1.297    0.229
        82 -11.8796    112.0730    214.0497   1.3000649040e+02   1.6504518268e+01     0.425914    0.2770508 -85.41  0.001918218    1.907    0.476
        83  -9.8395    211.6364    228.1663   1.1333007562e+02  -2.2592218306e+00    0.1491261    0.1043339 -14.05 0.0003511405    1.600    0.375
        84 -11.7626     89.6884    202.4037   1.3306292013e+02   2.2156315076e+01    0.3931364    0.3653274   9.21  0.001591892    1.522    0.343
        85 -11.4201     94.1413    195.6243   1.3133589686e+02   2.2824691616e+01    0.2909039    0.2300532  18.16 0.0007664034    1.814    0.449
        86 -10.1327     89.8248    193.8854   1.3201605114e+02   2.3829235965e+01    0.1707528    0.1432289  84.64 0.0002505955    1.097    0.088
        87 -12.3988     94.8837    225.6946   1.3459602673e+02   1.7044987544e+01    0.4495451    0.3051091 -63.32   0.00159243    1.664    0.399
        88 -11.4242     84.2687    216.2075   1.3562789906e+02   2.0309799671e+01    0.5460857    0.3029516 -58.97   0.00311401    2.013    0.503
        89 -11.8469    100.1839    198.5253   1.3045483057e+02   2.1314541808e+01    0.4345562    0.2266833  52.63  0.001133683    1.753    0.430
        90 -11.3342    106.7612    194.9642   1.2862745678e+02   2.0969596830e+01    0.3812008    0.2970838   0.99  0.002068274    2.163    0.538
        91 -11.8193     89.9778    216.9586   1.3461464641e+02   1.9344631915e+01     0.343471    0.1781294  37.66  0.000334467    1.912    0.477
        92 -10.9091     79.9588    212.7557   1.3610375691e+02   2.1570545043e+01    0.1825829    0.1584952  84.38  0.001287539    1.162    0.139
        93 -11.4813     89.8069    221.9480   1.3516314213e+02   1.8457339184e+01    0.3319279    0.1973102 -60.59  0.001323469    1.888    0.470
        94 -10.5273     86.1746    222.4222   1.3589157092e+02   1.8894893133e+01    0.2007421    0.1393716  79.73  0.001279827    1.393    0.282
        95 -12.0930     81.2348    207.7723   1.3534026500e+02   2.2343383865e+01    0.4080863    0.3547468  46.74  0.001897357    1.286    0.222
        96 -10.7668     78.6922    203.9809   1.3544006725e+02   2.3442155594e+01    0.2520265    0.2128462  54.42 0.0009335204    1.183    0.155
        97 -11.3843    188.6600    207.6053   1.1416656278e+02   4.4566803511e+00    0.4068363       0.3355  52.42  0.002525744    1.307    0.235
        98 -10.9946    201.9300    226.6047   1.1480306408e+02  -4.8672650215e-01    0.3971786    0.2455333 -53.96  0.002149837    2.567    0.610
        99 -11.0555    196.5384    219.7616   1.1469360692e+02   1.3351414481e+00    0.3749228    0.2218604  50.49  0.001270178    1.783    0.439
       100 -11.9661    193.5675    214.6535   1.1441405732e+02   2.5629846404e+00    0.7790803    0.4340114  63.14            0    3.786    0.736
       101 -11.6319    162.4568    221.8456   1.2134321599e+02   6.8160401054e+00    0.3658003     0.257015  81.03  0.001328544    2.298    0.565
       102 -10.8899    162.4615    217.5408   1.2071284518e+02   7.4884237442e+00    0.2355303    0.1847344  30.26 0.0008800852    1.213    0.176
       103 -10.9981    158.4286    224.5737   1.2248959164e+02   7.0745469982e+00    0.2058607    0.1705791  47.82  0.001354005    1.074    0.069
       104 -10.4122     53.0405    221.6602   1.4191294111e+02   2.3450582086e+01    0.3649991    0.1496586 -65.70  0.001979979    2.450    0.592
       105 -11.9622    129.1181    209.3936   1.2604314328e+02   1.4558145692e+01    0.5145204    0.2951307 -52.77  0.002375477    1.995    0.499
       106 -11.0492    124.6942    216.0529   1.2779620940e+02   1.4111062824e+01    0.2959654    0.1396186  48.38  0.000844695    1.820    0.450
       107 -10.6366    131.3574    221.2020   1.2717254637e+02   1.2132028068e+01    0.1948066    0.1532531  72.16 0.0005952118    1.333    0.250
       108 -11.8769    132.8724    217.7415   1.2643026098e+02   1.2470619124e+01     0.440814    0.2761626  63.24  0.001575842    1.762    0.432
       109  -9.9559    250.4507    220.4505   1.0545086928e+02  -7.3291258185e+00    0.1171742    0.0913068  12.65 4.787263e-05    1.022    0.021
       110 -10.1199    221.4410    220.2215   1.1032382744e+02  -2.8275216838e+00    0.1445059    0.1145211 -40.03 0.0009353521    1.617    0.381
       111  -9.5458    169.2440    220.3784   1.1984966022e+02   5.8855507601e+00    0.1189321   0.09171855   3.08 0.0006938482    1.637    0.389
       112 -10.4029    206.1563    218.8792   1.1280989072e+02  -1.5316862762e-01    0.1730237    0.1462914  38.67 0.0003075412    1.202    0.168
       113 -11.2971    140.7621    218.2972   1.2498197206e+02   1.1059409209e+01    0.3384921    0.2102797  48.00  0.001034463    1.367    0.269
       114 -12.2681    176.8246    216.3748   1.1781342696e+02   5.1925271752e+00     0.305244    0.2289593  19.73 0.0005825037    1.407    0.289
       115 -10.6407    229.0049    216.7057   1.0841878722e+02  -3.5949073935e+00    0.1974528    0.1611884  -3.84 0.0009220988    1.170    0.145
       116 -10.9474    181.2462    222.6403   1.1795126867e+02   3.5080150231e+00    0.5181155    0.2126464  37.49  0.002368386    2.141    0.533
       117 -10.7192    145.9582    215.0027   1.2351950183e+02   1.0731589125e+01    0.2041397    0.1756013 -58.30 0.0004806634    1.361    0.265
       118 -10.3543    160.9912    212.5881   1.2025330780e+02   8.5357569657e+00    0.2062124    0.1660909  71.53 0.0005144024    1.484    0.326
       119 -10.1982    152.9975    212.7483   1.2182638229e+02   9.8978008764e+00    0.1709507    0.1451904  44.38 0.0002505094    1.004    0.004
       120 -10.8468    230.5508    211.3481   1.0722744761e+02  -3.1670280637e+00    0.2189338      0.16641  31.36 0.0007106041    1.177    0.151
       121 -11.3054    237.8296    210.2880   1.0579332228e+02  -4.1955679417e+00      0.26711    0.1954512 -19.46  0.000227893    1.356    0.262
       122 -11.8203    217.0729    212.7177   1.0982697936e+02  -1.1412308716e+00    0.2546607    0.1899026  26.49  0.000775964    1.130    0.115
       123 -11.1669    201.8333    208.8878   1.1192887302e+02   1.9693338530e+00    0.2352822    0.1570343  20.71 0.0007124568    1.539    0.350
       124 -11.6634    199.4877    204.7691   1.1165599762e+02   2.9763749332e+00    0.2319355    0.2106405  31.73 0.0003771857    1.133    0.118
       125 -10.0962    180.5655    208.7847   1.1589576807e+02   5.7027747743e+00    0.1660952    0.1245905 -59.69 0.0009452288    1.793    0.442
       126 -11.4757    210.4957    207.6697   1.1013771791e+02   6.5410170269e-01    0.5197532    0.1531384  47.56  0.001838099    3.753    0.734
       127 -10.9682    195.1310    206.8803   1.1282981009e+02   3.4283479729e+00    0.1812355    0.1679779  41.22  0.000555126    1.196    0.164
       128 -11.7962    112.1387    205.2080   1.2888061723e+02   1.8127097581e+01    0.3473712     0.219792  67.71 0.0009410291    1.731    0.422
       129 -10.4628    116.9630    204.5641   1.2782347379e+02   1.7461936187e+01    0.3192533    0.1458588  49.98  0.001481701    1.977    0.494
       130 -11.9782    183.3119    204.3270   1.1463289828e+02   5.9092861759e+00    0.2671733    0.2267081 -39.36 0.0002026094    1.352    0.260
       131 -10.5820    145.1186    205.8048   1.2234628852e+02   1.2451137002e+01    0.1909564    0.1621171  29.44 0.0003850283    1.226    0.184
       132  -9.8754    145.5757    202.4763   1.2175246403e+02   1.2956410114e+01    0.1953461     0.185986  55.42 0.0001082398    1.096    0.087
       133 -10.3236    235.3138    203.1540   1.0494892061e+02  -2.8858242543e+00    0.2068277    0.1390528  26.11 0.0004095391    1.310    0.237
       134 -11.2918    208.8719    202.9419   1.0960543602e+02   1.6029085435e+00    0.1952934    0.1703661  26.05  0.000823864    1.078    0.073
       135 -11.0444    121.4133    199.1702   1.2617749672e+02   1.7737250884e+01    0.2279283    0.1951522  71.68 0.0005952974    1.114    0.102
       136 -12.3255    241.3488    200.0378   1.0335005953e+02  -3.4619898907e+00    0.3484022    0.2976666 -48.24  0.001518435    1.697    0.411
       137 -11.6295    247.1807    199.9839   1.0235939847e+02  -4.3869699323e+00    0.2613829    0.1638974  39.33 0.0003567035    1.548    0.354
       138 -10.1274    220.5074    201.4990   1.0724455412e+02  -1.9671970278e-01    0.1272674     0.108359  18.35 -0.0001358263    1.035    0.034
       139 -10.7616    166.1037    199.7476   1.1721978532e+02   9.7529941505e+00    0.3542889    0.1682631 -53.49  0.001548535    2.710    0.631
       140 -12.0295    139.1788    197.5778   1.2229943812e+02   1.4967844027e+01    0.4128191    0.3251871  87.76  0.001782991    1.516    0.340
       141 -11.5704    139.8420    194.1937   1.2163740165e+02   1.5474526138e+01    0.2234494    0.1956201  40.53 0.0002817129    1.103    0.093
       142 -12.7249    216.2489    194.4892   1.0673110415e+02   1.5305472108e+00    0.5394759    0.3462953  -4.78  0.001295239    1.957    0.489
       143 -12.0171    206.2995    197.9977   1.0919609351e+02   2.7744521855e+00    0.4264695     0.204544  47.16  0.001971542    2.067    0.516
       144 -11.1417    169.9577    196.8174   1.1596544393e+02   9.5455595125e+00    0.3263277    0.1898403 -40.76 0.0008457705    1.952    0.488
       145  -9.5948    117.0000    198.9028   1.2704674194e+02   1.8526243157e+01     0.188951   0.07349993 -56.65 0.0007855376    2.827    0.646
       146 -10.3036      9.8543    198.6960   1.4817345537e+02   3.2527471829e+01    0.1424741     0.101701  66.50 0.0003913513    1.136    0.120
       147 -11.6073    192.9874    195.2486   1.1120509537e+02   5.5870384683e+00    0.3133544    0.2440265  -8.77  0.001772125    1.442    0.306
       148 -12.5606    188.2650    196.2888   1.1229571332e+02   6.2832918273e+00    0.2696342    0.2423186  25.24 0.0003919183    1.031    0.030
       149 -12.0081    188.7806    191.1855   1.1128166362e+02   7.0071913706e+00    0.2468951    0.2186835  24.69 0.0003440899    1.022    0.021
       150 -11.3063    249.5075    185.4629   9.9230315332e+01  -2.8896854523e+00    0.2909538    0.2258912 -19.90  0.001454324    1.215    0.177
       151 -12.0419    248.0203    181.9135   9.8786381157e+01  -2.1708078173e+00    0.3080634    0.2009285 -40.79 0.0003669962    1.777    0.437
       152 -12.2899    250.5740    194.7555   1.0082418291e+02  -4.2647881467e+00    0.2638014    0.1529173 -26.45 0.0005186955    1.664    0.399
       153 -12.9252    246.3657    191.1097   1.0083636431e+02  -3.1183635732e+00    0.3837909    0.3052212  33.47  0.000912804    1.274    0.215
       154  -9.8822    198.9541    195.0211   1.1003118927e+02   4.5391247889e+00    0.1553088     0.137172  20.77  0.000386467    1.021    0.021
       155 -11.7552    113.3148    194.1693   1.2715074654e+02   2.0053643449e+01    0.3734595    0.2353084  38.34  0.001075455    1.562    0.360
       156 -10.7236    233.8732    193.9577   1.0350352487e+02  -1.4284442838e+00    0.1931914    0.1659145   4.28 0.0006733561    1.063    0.059
       157 -12.4559    163.9755    190.8998   1.1615114922e+02   1.1667797058e+01    0.4641639     0.367678 -50.61  0.001435151    1.427    0.299
       158 -12.0276    154.5904    192.2663   1.1829334883e+02   1.3157433547e+01    0.2660272    0.2365289  39.34 0.0003239577    1.047    0.045
       159 -12.3110    149.2289    190.9201   1.1917086405e+02   1.4383652607e+01    0.2672424    0.2425326 -89.14 0.0005010236    1.215    0.177
       160 -10.9964    124.3855    191.7752   1.2448419961e+02   1.8647362362e+01     0.250096    0.1872691 -40.62  0.001352417    1.647    0.393
       161 -11.2381    120.6830    188.8701   1.2482889709e+02   1.9852053785e+01    0.3628988    0.2109503 -80.16  0.001587263    2.642    0.621
       162 -10.7544    209.4990    191.4710   1.0740783132e+02   3.1751479356e+00    0.1324869    0.1148422  19.36  8.64379e-05    1.003    0.003
       163 -11.4813     90.3848    188.7099   1.3124725456e+02   2.4798205933e+01     0.478331    0.3112379  20.94  0.002126167    2.434    0.589
       164 -10.7327    178.1599    189.5324   1.1306578619e+02   9.2577834049e+00    0.2266138    0.1906158 -38.20   0.00059905    1.311    0.237
       165 -12.7002    106.6647    187.5333   1.2761944193e+02   2.2470103261e+01    0.6794296    0.3572399  55.97 0.0006748033    1.929    0.482
       166 -10.9315    107.8145    181.8703   1.2654920045e+02   2.3436878718e+01     0.349984    0.1616016 -51.93  0.001555849    2.324    0.570
       167 -11.4967    103.5076    181.5869   1.2744669222e+02   2.4203494575e+01    0.2826962    0.2027334  50.45 0.0006707542    1.277    0.217
       168 -12.2108    104.0499    178.0719   1.2680903032e+02   2.4846834277e+01    0.3368244    0.2604929  72.11 0.0005141906    1.274    0.215
       169 -11.4343     82.2169    189.3351   1.3305233711e+02   2.5884238737e+01    0.3132426    0.2393945 -38.80   0.00120591    1.878    0.467
       170 -10.2343     46.3153    189.8627   1.4053330196e+02   3.0499540411e+01    0.1586457    0.1241464  89.82 0.0004370973    1.100    0.091
       171 -11.7556     24.2906    173.1885   1.4359807245e+02   3.6376027268e+01    0.3455081    0.2107226 -85.10  0.002173847    1.346    0.257
       172 -11.4695     30.6261    175.7671   1.4249622292e+02   3.5191792293e+01    0.3475289    0.1702993  73.61  0.001813608    2.091    0.522
       173 -11.2218     35.5076    178.1672   1.4169089890e+02   3.4167628548e+01    0.2290676    0.2076298 -74.52  0.001209722    1.333    0.250
       174 -13.0505     32.5893    183.7136   1.4277071668e+02   3.3311717698e+01    0.6454001    0.3044759  87.19 0.0009527229    2.129    0.530
       175 -11.8450     26.7407    179.5793   1.4361761884e+02   3.4781935078e+01    0.3225983    0.1985491  82.41  0.001151203    1.373    0.272
       176 -10.9976    190.1365    186.6731   1.1018905538e+02   7.4894784821e+00     0.206559    0.1837049  56.29  0.001236484    1.260    0.206
       177 -10.9744    195.6888    187.6820   1.0930412641e+02   6.2895191215e+00    0.2061984    0.1375495 -33.17  0.001082991    1.617    0.382
       178 -11.2482     59.3861    184.0057   1.3725808903e+02   3.0120944573e+01    0.5289615    0.2168424 -63.65  0.002548446    2.279    0.561
       179 -11.2577     61.6088    178.8990   1.3622372333e+02   3.0920090954e+01     0.349082    0.1733315  87.68  0.001570322    2.575    0.612
       180 -10.8833    234.0607    185.9795   1.0195275836e+02  -3.6277394638e-01    0.1949921    0.1644803   9.28 0.0003445917    1.006    0.006
       181 -11.5632     23.7595    184.8282   1.4462612311e+02   3.3987035736e+01    0.2387627    0.1537132 -68.58    0.0011487    1.496    0.331
       182 -11.1161    175.7700    183.6177   1.1246691414e+02   1.0722680674e+01    0.3252825    0.1976681 -36.47  0.001150132    1.842    0.457
       183 -10.5785    138.6948    184.9226   1.2038061255e+02   1.7433210182e+01     0.363956    0.1773245  28.51  0.001359758    3.117    0.679
       184 -12.4285     92.8293    180.1083   1.2957243124e+02   2.6211785379e+01    0.4870034    0.2962164 -41.73  0.001954686    2.280    0.561
       185 -11.9486    123.4114    183.0896   1.2335317228e+02   2.0526183776e+01    0.4216004    0.1856662  50.79  0.001755119    2.245    0.555
       186 -10.3501    225.8479    183.5026   1.0291751173e+02   1.4267986489e+00    0.1962111    0.1178575  37.96  0.001015036    1.552    0.356
       187 -11.7477    230.1867    180.2104   1.0150434206e+02   1.1343296354e+00    0.4429268     0.243169 -40.56  0.001907301    1.993    0.498
       188 -11.5345    218.5384    179.8873   1.0352674383e+02   3.2807687778e+00    0.3160612    0.2979349 -37.24  0.001261411    1.284    0.221
       189 -11.9067      4.6539    175.3625   1.4774414581e+02   3.7688709653e+01    0.6379588    0.2183902  69.31  0.002843671    3.308    0.698
       190 -10.9603     12.5074    178.4990   1.4639863635e+02   3.6361109066e+01    0.1953475    0.1594671 -81.92 0.0001863049    1.238    0.192
       191 -10.1063      9.3231    177.3066   1.4694849319e+02   3.6889379019e+01     0.135637    0.1038627  41.29 0.0004781347    1.526    0.344
       192 -11.3360     17.4830    181.5008   1.4562393805e+02   3.5282193199e+01    0.2197608    0.1815905  73.19 0.0009138371    1.167    0.143
       193 -11.9692     18.1381    176.2900   1.4510910155e+02   3.6307233217e+01    0.4606124       0.2151  67.79  0.001365396    2.051    0.512
       194 -10.8745    190.1571    180.4432   1.0900843315e+02   8.5176279270e+00    0.2562318    0.1811497 -58.90 0.0007795159    1.918    0.479
       195 -11.6292     48.1840    180.0428   1.3921051954e+02   3.2338339565e+01    0.3289084    0.2054543 -71.07  0.001975961    1.457    0.314
       196 -11.0671     54.6620    175.2959   1.3732616926e+02   3.2573258086e+01    0.3540538    0.1943149  73.15  0.001241985    1.970    0.492
       197 -11.2849     48.8004    174.6299   1.3852475480e+02   3.3425321465e+01    0.2138172    0.1650459  88.90 0.0005193461    1.081    0.075
       198 -12.2723     50.1045    170.2299   1.3776763216e+02   3.4225760118e+01    0.3846768    0.2348839  44.19  0.000949938    1.619    0.382
       199 -10.9837     42.0005    179.5078   1.4045830659e+02   3.3167007332e+01    0.2382894    0.2092764 -14.01  0.001235622    1.817    0.450
       200 -11.5317    118.5054    177.9995   1.2361093425e+02   2.2414098401e+01    0.4082308    0.2620482  26.52  0.001444604    2.037    0.509
       201 -10.0733    113.7131    178.6499   1.2476742777e+02   2.3107235507e+01    0.1732629    0.1363582  34.84  0.000443169    1.368    0.269
       202 -10.4396    112.0015    175.7838   1.2469538302e+02   2.3993580008e+01    0.2152286    0.1667144  73.65 0.0003659893    1.325    0.245
       203 -11.3854    177.4864    176.7594   1.1083025275e+02   1.1595756360e+01    0.3689421    0.1375441 -39.76  0.001371797    2.981    0.665
       204 -11.0453     88.1411    177.7002   1.3027193931e+02   2.7441647782e+01    0.2268748     0.197412 -15.52 0.0007343428    1.688    0.408
       205 -12.2413     68.8011    175.6822   1.3427795342e+02   3.0657966671e+01    0.4443985     0.291483  20.21  0.001671415    2.361    0.576
       206 -12.2241    235.5663    173.5367   9.9233482188e+01   1.1454516725e+00    0.4523138    0.3848928  76.98  0.002631293    1.841    0.457
       207 -10.9506    170.4823    176.5297   1.1221851369e+02   1.2998032379e+01    0.1396397     0.128658  38.11 6.399144e-05    1.013    0.012
       208 -10.5095    129.5407    175.6522   1.2079807300e+02   2.0928029225e+01    0.2368379    0.1512384  60.46 0.0006327155    1.704    0.413
       209 -10.9099    204.4626    174.6329   1.0510510920e+02   6.7386736605e+00    0.2430214     0.226108 -60.66 0.0007795671    1.339    0.253
       210 -10.4826    194.9892    173.1892   1.0664318445e+02   8.8048197353e+00    0.2474013    0.1985395 -31.12   0.00137622    1.298    0.230
       211  -9.2434    188.3058    174.3092   1.0818160613e+02   9.9159266702e+00    0.1410589    0.1047614   9.01  0.000701957    1.612    0.380
       212 -12.1789    156.5498    172.8799   1.1444851393e+02   1.6384293066e+01    0.4009614      0.28739  63.07  0.002005828    1.598    0.374
       213 -10.4149    152.5102    174.5016   1.1561206157e+02   1.6853435897e+01    0.2113572    0.1947838  45.34 0.0001007486    1.013    0.013
       214 -10.8617     76.7865    173.8749   1.3227912754e+02   2.9936853687e+01    0.2162707    0.1630912 -89.99 0.0003730765    1.244    0.196
       215 -11.5802     60.2696    172.9939   1.3583717355e+02   3.2366566452e+01    0.3478494    0.1957193  84.52   0.00175113    1.983    0.496
       216 -10.9319     61.1711    167.4939   1.3497565414e+02   3.3454673934e+01    0.2481502    0.1981594 -79.83 0.0005863503    1.122    0.109
       217 -11.2861     35.4518    173.7750   1.4130093130e+02   3.5111103977e+01    0.2492762    0.1424751  68.79 0.0006066542    1.647    0.393
       218 -11.9291    136.4292    176.2750   1.1939966800e+02   1.9540532336e+01    0.2613861    0.2416329 -41.64  0.000239698    1.211    0.174
       219 -11.8499     87.1970    171.6577   1.2963760398e+02   2.8882588025e+01    0.3130869    0.2725005  46.01 0.0008183598    1.226    0.184
       220 -10.1404    208.4180    170.8849   1.0360106306e+02   6.5876618486e+00    0.2596243    0.1393253  27.87  0.001102722    2.224    0.550
       221 -12.2585    170.1932    168.9148   1.1080563691e+02   1.4450190025e+01    0.3506837    0.2672395  -8.23  0.001381607    1.693    0.409
       222 -12.3134    132.3855    169.3563   1.1906979975e+02   2.1685830137e+01    0.4416673    0.2917411  43.13  0.001350869    1.435    0.303
       223 -12.1843    125.9817    169.8615   1.2058961041e+02   2.2759576574e+01    0.4860898      0.24794  40.13 0.0002336677    1.914    0.478
       224 -11.2966     66.1586    169.6916   1.3412350682e+02   3.2317147363e+01    0.2567314    0.1763826 -73.69 0.0009286865    1.338    0.253
       225 -12.4807      6.3923    166.9056   1.4682659219e+02   3.9313816648e+01    0.3887269    0.3423472  73.28  0.001496691    1.266    0.210
       226 -11.0882     71.3389    169.2911   1.3290247861e+02   3.1701319132e+01    0.2582253      0.18703  74.91  0.001076501    1.319    0.242
       227 -11.1319     31.3734    169.7418   1.4179801207e+02   3.6406585058e+01    0.1909717    0.1746641 -86.43  0.000574038    1.269    0.212
       228  -9.7823    108.7633    169.3693   1.2439402437e+02   2.5897610187e+01     0.179149    0.1264494  34.40 0.0004142167    1.546    0.353
       229 -11.2658    193.5109    168.0261   1.0589194543e+02   9.9738983251e+00    0.2668281    0.1937136  42.86 0.0005639733    1.313    0.238
       230  -9.9324    216.8719    167.1545   1.0126224031e+02   5.5654526156e+00    0.1863929    0.1473851   3.29  0.000385713    1.293    0.226
       231 -11.1469     77.0136    166.1871   1.3118773061e+02   3.1584936787e+01    0.2085344    0.1671092 -75.11 0.0003108035    1.164    0.141
       232 -11.5341     45.9989    163.3482   1.3792133167e+02   3.6218459893e+01    0.4790708    0.2175683  82.77  0.001644134    3.140    0.682
       233 -12.3932     40.3965    165.9939   1.3946183502e+02   3.6264155119e+01    0.2273177     0.211374  77.68 0.0004206633    1.246    0.198
       234 -11.0271     36.4944    165.4816   1.4027266931e+02   3.6798149785e+01    0.1899663    0.1611015 -79.67 0.0001009629    1.172    0.147
       235 -11.5358     37.5068    154.4463   1.3887412688e+02   3.9135436238e+01    0.3144179    0.1739111 -84.24  0.001693686    1.674    0.402
       236 -10.9366     34.5462    151.4737   1.3923515834e+02   4.0108971743e+01    0.2178093    0.1615201 -89.29 0.0005878686    1.126    0.112
       237 -12.1746    185.4989    161.8415   1.0621763794e+02   1.2666697040e+01    0.3916697    0.2509084  57.57  0.001801827    1.825    0.452
       238 -10.8651    139.9160    164.9619   1.1658352332e+02   2.1160343715e+01    0.2536954    0.2131463 -80.76  0.001377465    1.330    0.248
       239 -10.2852    119.7933    164.9364   1.2112713271e+02   2.4910238136e+01    0.1920158    0.1719161  76.62 0.0004403403    1.074    0.069
       240 -10.5806    239.3320    164.2808   9.6690444960e+01   1.8221142797e+00    0.1367366   0.09366389  10.68 0.0002110718    1.608    0.378
       241 -10.1816    203.9373    164.4763   1.0313317317e+02   8.5146506520e+00    0.2033014    0.1993018 -50.85 0.0004634377    1.198    0.165
       242 -10.3874    203.0244    161.2193   1.0262509074e+02   9.2440609968e+00    0.2599047    0.1663225  45.78  0.001065572    1.538    0.350
       243 -11.7694    100.7630    163.2314   1.2523245704e+02   2.8564986763e+01     0.274075    0.2534162 -11.54  0.001418368    1.401    0.286
       244 -11.5308     19.3713    161.3549   1.4364267686e+02   3.9384691894e+01    0.3554857    0.2658983   1.88  0.002291539    2.239    0.553
       245 -11.9188    224.0348    161.4757   9.8774593564e+01   5.0929584337e+00    0.2770597    0.2337378  43.22 0.0004023971    1.258    0.205
       246 -10.3134    133.1726    162.3742   1.1761276980e+02   2.2977754049e+01    0.2077869    0.1242668  53.03 0.0004755524    1.690    0.408
       247  -9.9049     11.8083    172.6626   1.4612748423e+02   3.7641687505e+01     0.138896   0.08523382  51.77 0.0002510506    1.529    0.346
       248 -10.4442     49.5650    162.0641   1.3696340511e+02   3.6089031492e+01    0.2727506     0.109496  62.73  0.001038633    3.555    0.719
       249 -10.8784    196.7726    159.5345   1.0348309115e+02   1.0789572660e+01    0.2427124    0.1940411 -33.07 0.0006393268    1.276    0.216
       250 -10.9782    108.6303    159.9165   1.2283372763e+02   2.7958435092e+01    0.3854784    0.1779045  43.07  0.001626239    2.090    0.522
       251  -9.6137     75.6517    159.3464   1.3052996120e+02   3.3301366979e+01     0.144684   0.09079044  73.20 -0.0001000083    1.810    0.448
       252  -9.7756     66.5056    158.4628   1.3256565506e+02   3.4764861157e+01    0.1314013    0.1113724  85.33  0.000170055    1.025    0.024
       253 -12.0445     21.7105    141.6226   1.4121753324e+02   4.3541514706e+01    0.5725121    0.2746694  88.52  0.002848387    2.155    0.536
       254 -10.9140     25.7436    138.6546   1.3991022021e+02   4.3851397921e+01    0.1615202    0.1384951  78.18 0.0004056094    1.141    0.123
       255 -11.1102     23.9542    135.0997   1.3994706490e+02   4.4817689134e+01     0.201906    0.1759497 -78.49 0.0004733085    1.136    0.120
       256 -10.3457     11.6430    151.7431   1.4452168602e+02   4.2146941456e+01    0.1671492    0.1374921 -89.02 0.0003126169    1.104    0.095
       257 -10.7549     20.8269    150.3468   1.4230865519e+02   4.1671000258e+01    0.2038617    0.1888187  -5.82  0.001214398    1.556    0.357
       258 -11.7445     11.2828    155.9643   1.4495548814e+02   4.1256290885e+01    0.2932205    0.1999702  62.41  0.001745627    1.360    0.265
       259 -11.9343     17.8497    154.2687   1.4335224842e+02   4.1068287355e+01    0.3839576    0.2960541   2.14  0.002372321    2.066    0.516
       260 -10.9675    195.6772    164.4006   1.0471965616e+02   1.0167544334e+01    0.2643247    0.1314053  48.99 0.0006827159    2.041    0.510
       261 -11.4205    156.2381    155.8929   1.1116760443e+02   1.9761694376e+01     0.239949    0.1974892  57.03 0.0005241656    1.231    0.188
       262 -10.6783    123.3205    156.5484   1.1878240609e+02   2.6054849192e+01    0.3017184    0.2538694   0.53  0.001485764    1.593    0.372
       263 -10.6420    183.1516    156.1181   1.0548796218e+02   1.4185778724e+01    0.2275984    0.1915809   9.23 0.0006791478    1.291    0.225
       264 -10.7073    171.9099    156.4777   1.0790597423e+02   1.6438143440e+01    0.2250161    0.1384018  45.54   0.00102146    1.561    0.359
       265 -11.1299    146.1409    154.8406   1.1320206692e+02   2.2008849792e+01    0.3567558    0.2866778 -82.67  0.001762215    1.504    0.335
       266 -10.4359    139.0270    156.1052   1.1507013548e+02   2.3154045518e+01    0.2691515    0.1891991  39.91 0.0008630369    1.409    0.290
       267 -11.6469     37.4369    161.2160   1.3962347809e+02   3.7636420813e+01    0.5682177    0.2912136  82.31  0.002743678    2.127    0.530
       268 -10.1544    199.5909    155.2904   1.0202263075e+02   1.0954078479e+01      0.19619    0.1330642 -23.00 0.0009315597    1.635    0.388
       269 -10.2226    176.3306    154.9650   1.0665453380e+02   1.5810595701e+01    0.1970841    0.1840716 -20.80 0.0003783604    1.100    0.091
       270 -11.3091    114.7389    154.6746   1.2045136124e+02   2.8026077134e+01    0.3989688    0.2527553  61.71   0.00184668    1.792    0.442
       271 -12.3606    107.1984    154.1113   1.2214499284e+02   2.9479767856e+01    0.5201827    0.2794038 -40.98  0.002198335    2.353    0.575
       272 -10.6024     95.5310    157.5202   1.2552252393e+02   3.0679864365e+01     0.231048    0.1160954  50.63 0.0007726856    2.015    0.504
       273  -9.9119     85.7261    154.6617   1.2740486071e+02   3.2864116718e+01     0.129765    0.1035562 -35.73 0.0006195391    1.608    0.378
       274 -10.5071     27.5257    154.0235   1.4113417619e+02   4.0234534504e+01     0.260402   0.09716801  61.75  0.001044352    3.543    0.718
       275 -12.0281    248.6463    150.6598   9.2263023935e+01   2.1364136401e+00    0.3620607    0.2991261 -11.59   0.00218203    1.078    0.072
       276 -11.3108    225.9746    152.0235   9.6401691081e+01   6.2120971123e+00    0.2093657    0.1894795   1.33 0.0003637054    1.007    0.006
       277 -10.3441    166.1558    152.1457   1.0821485931e+02   1.8461972410e+01    0.1936737    0.1725737  84.04 0.0003272132    1.288    0.224
       278 -10.5317    152.6306    152.2896   1.1121780036e+02   2.1218751523e+01      0.15147    0.1145061  77.79 0.0007023542    1.713    0.416
       279 -11.0238    137.9796    151.9035   1.1446596292e+02   2.4236948788e+01    0.2155272    0.2049949  56.90 0.0003656378    1.019    0.019
       280  -9.6123      4.6777    152.7459   1.4614696544e+02   4.2478180113e+01    0.1011159   0.07512517 -55.85  0.000204266    1.542    0.351
       281 -11.3616    178.0386    149.6951   1.0515579537e+02   1.6446189871e+01    0.2581276    0.2150903 -30.38 0.0003813138    1.245    0.197
       282 -10.5086    104.0806    149.0480   1.2197524709e+02   3.1142553927e+01    0.2166369      0.19859  87.19 0.0006451004    1.019    0.019
       283 -11.7304    228.3903    148.0882   9.5114578337e+01   6.3652736921e+00    0.2670824    0.1889229  64.44  0.001313366    1.958    0.489
       284 -10.3685     91.8251    147.8416   1.2476831121e+02   3.3449706620e+01    0.2005981     0.184098 -50.23 0.0004474279    1.209    0.173
       285  -9.8336     43.3942    147.4095   1.3664306794e+02   4.0090108973e+01    0.1243948    0.1018586 -86.95  0.000793882    1.012    0.012
       286 -11.0276     36.2799    146.0704   1.3820200964e+02   4.1150580239e+01    0.2912409    0.1788437  76.50 0.0008984389    1.655    0.396
       287 -11.4170    162.2299    145.1188   1.0754161610e+02   2.0668037499e+01    0.3933478    0.1971822  59.49  0.001404901    2.765    0.638
       288 -12.1095    225.2302    143.1221   9.4566896401e+01   7.7902015809e+00     0.257726    0.2311636  18.83 0.0002714797    1.084    0.077
       289 -11.4591    219.5096    143.0246   9.5565545256e+01   8.9636365335e+00    0.2922268    0.2195692  53.32  0.001517485    1.473    0.321
       290 -12.5529    178.8373    142.3626   1.0335063068e+02   1.7665000775e+01    0.5355908    0.3640312  35.79  0.002016861    1.518    0.341
       291 -10.8512    181.1670    137.3203   1.0170407514e+02   1.8118205909e+01    0.4131086    0.2896218  89.82  0.001693273    2.469    0.595
       292 -11.8376    238.5970    145.5372   9.2805318292e+01   4.7854276930e+00    0.3225355    0.1747869  55.19  0.001444846    2.286    0.563
       293 -11.3016    231.1040    142.0689   9.3308141383e+01   6.7879924843e+00    0.2975448    0.1734946 -29.14  0.001397916    1.664    0.399
       294  -9.5462     84.7427    143.7012   1.2580980050e+02   3.5504040465e+01    0.1281351    0.1039905 -36.41 0.0001601314    1.504    0.335
       295  -9.8636     13.3127    143.6492   1.4341326225e+02   4.3795352955e+01    0.1246985   0.07046568  72.41 0.0001317008    1.724    0.420
       296 -11.5666    241.5205    141.5414   9.1438568079e+01   4.8398903696e+00     0.251785     0.222072 -58.37 0.0007228595    1.423    0.297
       297 -12.7742    130.9586    140.3726   1.1370891392e+02   2.8079848964e+01    0.5758855    0.3958616  60.16  0.002687406    1.609    0.379
       298 -10.6493     61.1369    141.6856   1.3144735960e+02   3.9293354252e+01    0.2775812    0.2008876 -24.66  0.001456203    2.138    0.532
       299 -11.9695     48.1761    139.7627   1.3444637277e+02   4.1305013463e+01     0.415645    0.2186858  58.02  0.001569533    2.143    0.533
       300 -10.8007    207.1310    138.0671   9.6720792280e+01   1.2381071077e+01    0.2071383    0.2022773  -9.88 0.0003968941    1.074    0.069
       301 -11.1909    169.0463    138.0081   1.0444269784e+02   2.0618987877e+01    0.2318445    0.2216963  32.08 0.0005650593    1.028    0.027
       302 -10.8657    101.1471    137.5676   1.2051036796e+02   3.4234120437e+01    0.4071481    0.2382092  24.03 0.0006735901    2.560    0.609
       303 -12.2169     37.5765    137.5697   1.3682834953e+02   4.2955879575e+01    0.4110668    0.2503349  24.92  0.001791768    2.119    0.528
       304 -12.3713     59.3247    133.9870   1.3070920269e+02   4.1305497091e+01    0.5008056    0.2824964 -35.39  0.002218337    2.741    0.635
       305 -11.5304      7.8718    134.6367   1.4385476894e+02   4.6217111862e+01    0.2891272    0.1549558 -57.63  0.000527026    1.734    0.423
       306 -10.4928    195.5457    134.9375   9.8229354790e+01   1.5427130458e+01    0.4315048    0.1672447 -46.89  0.001462565    2.959    0.662
       307 -11.1533    155.2572    135.1271   1.0684213377e+02   2.4168676686e+01    0.4962633    0.3041515  72.60  0.001251687    2.807    0.644
       308 -11.0875     77.6436    134.9233   1.2607410828e+02   3.8591766326e+01    0.2615253    0.1954937  64.65  0.000307002    1.414    0.293
       309 -10.2747    213.8419    134.1166   9.4557253005e+01   1.1638823504e+01    0.2126589    0.1941928 -53.39  0.000353594    1.225    0.184
       310 -10.8220    143.4320    132.4949   1.0897555848e+02   2.7222874347e+01    0.2577313    0.2517031  87.10 0.0008744833    1.020    0.019
       311 -10.5154     48.8183    131.5945   1.3309320553e+02   4.3119737448e+01    0.2608472    0.1543889 -87.52  0.001305506    1.844    0.458
       312 -10.8618     50.8451    128.3008   1.3204580280e+02   4.3651877944e+01    0.2322616    0.2082636 -50.21 0.0008775807    1.238    0.192
       313 -11.1621     61.0650    129.0544   1.2943291046e+02   4.2232079769e+01    0.2369974    0.1719493 -68.01 0.0006484903    1.221    0.181
       314  -9.7008    199.4854    131.5312   9.6655116978e+01   1.5182265950e+01    0.1507125    0.1377735   5.63 0.0002960207    1.096    0.088
       315 -11.5378    128.4810    130.2033   1.1206228789e+02   3.0781227643e+01    0.2590885     0.242454  57.91 0.0002678292    1.063    0.059
       316 -10.6821     21.5579    130.2140   1.3998349039e+02   4.6134592884e+01    0.2113274     0.169134 -62.99 0.0007398128    1.214    0.176
       317 -10.9983    248.3709    129.3004   8.7603702851e+01   5.3941556767e+00    0.3326007    0.2100128  60.26  0.001070369    2.047    0.512
       318  -9.9501    224.2943    130.6857   9.1891622883e+01   1.0018140067e+01    0.1385478    0.1121063 -65.24 0.0003033838    1.599    0.374
       319  -9.7417    162.2466    130.0391   1.0406907464e+02   2.3686249129e+01    0.1906064    0.1292902 -41.15 0.0003630267    1.493    0.330
       320 -10.7386     86.5514    129.8731   1.2277834440e+02   3.8404729949e+01    0.1972401    0.1955736  -0.91 0.0003624098    1.168    0.144
       321 -11.2102     34.8207    129.1106   1.3641249225e+02   4.5176547946e+01    0.3649262    0.1766562 -37.54  0.001561094    3.343    0.701
       322  -9.8156    184.5418    129.5899   9.9176513321e+01   1.8836315368e+01    0.1479692     0.144113  19.73 0.0001316898    1.015    0.014
       323 -11.3629    190.6436    125.9093   9.7047328516e+01   1.8161747566e+01    0.3750613    0.2621637 -40.56  0.001070345    1.423    0.297
       324  -9.5334     17.6946    128.2891   1.4074669337e+02   4.6890204800e+01    0.1193557   0.07638029  73.27 0.0001941266    1.571    0.363
       325 -10.1593     93.1231    125.8073   1.2020339193e+02   3.8278096190e+01    0.1871249     0.164093 -34.23 0.0002722546    1.283    0.221
       326 -12.1210     68.9689    123.9800   1.2638454276e+02   4.2367411358e+01    0.2680757    0.2384335  51.19 0.0003457142    1.211    0.174
       327  -9.9594     55.0000    124.9444   1.3037513947e+02   4.3942326571e+01    0.2152471   0.06634691 -63.01 0.0005039949    2.840    0.648
       328 -11.0979    205.4369    124.3502   9.3799020774e+01   1.5151179030e+01    0.2910472    0.1882554  53.37  0.001329915    1.637    0.389
       329 -11.0819    124.9693    123.9781   1.1149706743e+02   3.2844933796e+01    0.2222712    0.2150718 -24.25 0.0004423676    1.103    0.094
       330 -10.2689    108.8468    123.3811   1.1550869363e+02   3.6076128093e+01    0.2002711    0.1403367  28.92 0.0005265488    1.701    0.412
       331 -10.5720    238.5975    122.2116   8.7525849300e+01   8.4365360172e+00    0.1995895     0.125962 -22.01 0.0006168162    1.628    0.386
       332  -9.5315    120.2570    122.3418   1.1230988293e+02   3.4137783086e+01    0.1467186    0.1169547 -19.46 0.0003110826    1.584    0.369
       333 -11.1927     83.9746    120.5164   1.2157313123e+02   4.0971038206e+01    0.3982985    0.2568446  87.89  0.001749268    2.251    0.556
       334 -10.5217     58.1871    119.4267   1.2852904040e+02   4.4838683533e+01    0.2207352    0.1417381 -68.35 0.0006457847    1.414    0.293
       335 -11.0944    106.5772    118.5395   1.1499748915e+02   3.7583590132e+01     0.453884    0.2797698  24.00    0.0013329    2.312    0.567
       336 -11.4591     92.5139    118.0459   1.1869299640e+02   4.0160117540e+01    0.2936039    0.2374056 -55.23  0.000787959    1.164    0.141
       337 -10.8971     47.9615    118.4030   1.3121253570e+02   4.6282849390e+01    0.3071018    0.2296305 -23.26  0.001738475    1.827    0.453
       338 -12.2888     19.7479    118.0651   1.3896074099e+02   4.9051498180e+01    0.2942258    0.2656631  -5.09  0.002114981    1.478    0.324
       339 -10.5876      3.8752    118.2696   1.4321575690e+02   5.0146626903e+01    0.2898718    0.1216932  52.60  0.001458611    2.757    0.637
       340 -10.5269    248.3326    118.6694   8.5188167646e+01   7.0283461747e+00    0.1387317    0.1038176 -61.18 0.0007052065    1.723    0.420
       341 -11.2968    147.2063    116.2032   1.0412582237e+02   2.9828228248e+01    0.2666274    0.2432214 -55.48 0.0004761198    1.108    0.098
       342 -10.2693    100.8343    116.7910   1.1613722611e+02   3.9013870150e+01    0.2003044    0.1645404 -79.68 0.0006318056    1.318    0.242
       343 -11.3975    182.7828    115.5409   9.6064584296e+01   2.1882655727e+01    0.3190481    0.2436181 -14.71  0.001088343    1.537    0.349
       344 -12.1852     87.8373    114.9042   1.1928719884e+02   4.1649624685e+01    0.2853619    0.2252472 -60.60 0.0002992701    1.188    0.158
       345 -10.4605     60.3592    115.2258   1.2713177517e+02   4.5544562352e+01    0.2023323    0.1155534 -71.52 0.0009545886    1.780    0.438
       346  -9.9918     44.7825    114.8215   1.3149992470e+02   4.7463913415e+01    0.1783254    0.1359445  82.19 0.0006376816    1.376    0.273
       347 -11.2149    126.0148    114.0553   1.0881755245e+02   3.4798541466e+01    0.2198343    0.2152167 -64.56   0.00120856    1.006    0.006
       348 -11.8121     26.8607    108.1964   1.3556746303e+02   5.0723683536e+01    0.2617699    0.2100166 -36.60 0.0005770661    1.436    0.303
       349 -11.6597     23.3827    113.7240   1.3737338547e+02   4.9748728523e+01    0.2550364    0.1594633  69.74 0.0005448959    1.816    0.449
       350 -12.9844     21.6451    110.3847   1.3738842790e+02   5.0654321865e+01     0.517399    0.2957746 -43.35  0.002876306    1.909    0.476
       351  -9.9621    140.9417    111.9634   1.0454759669e+02   3.2084518665e+01    0.1805391     0.175706  50.15 0.0004010788    1.036    0.035
       352  -9.8883     95.6106    112.2375   1.1650910189e+02   4.0959562400e+01    0.2032747    0.1273589 -43.83 0.0003908627    1.596    0.374
       353 -10.4555     75.0096    112.0516   1.2229195472e+02   4.4282787178e+01    0.2040045    0.1829729 -74.61  0.000360549    1.060    0.056
       354 -10.6503    232.4854    110.7733   8.5802538510e+01   1.1540742493e+01    0.2640615    0.2030254 -64.42  0.001339863    1.625    0.385
       355 -10.0377    178.9806    109.6847   9.5344028937e+01   2.3869390882e+01     0.211498    0.1941949  55.59 0.0003748717    1.114    0.103
       356  -9.8445    104.6928    110.3073   1.1353769683e+02   3.9777764507e+01    0.1476856    0.1148382  87.01 0.0002475135    1.611    0.379
       357  -9.8278     79.6896    110.2845   1.2056124810e+02   4.3991834500e+01    0.1382332    0.1058864  80.51 0.0002303606    1.572    0.364
       358 -11.2487      4.0520    109.7541   1.4222427696e+02   5.2042418162e+01    0.2033382    0.1581069  -3.30  0.001416316    1.803    0.445
       359 -10.9303    152.9127    107.6862   1.0056574979e+02   3.0295651546e+01    0.4100169    0.2123509 -49.34  0.001572384    2.052    0.513
       360 -10.4767    115.7542    109.0235   1.1022566612e+02   3.7957307464e+01     0.252593    0.2145499  44.20 0.0003148447    1.215    0.177
       361 -10.4615    112.0369    108.0572   1.1097698378e+02   3.8893801757e+01    0.2717959    0.1909785 -64.46   0.00119715    1.596    0.373
       362 -11.0284     36.9850    108.0354   1.3259113562e+02   4.9834927799e+01    0.1916275    0.1622277 -68.52 0.0004368528    1.023    0.023
       363 -10.6205    209.9866    106.9617   8.8665103373e+01   1.7159726359e+01    0.2172345    0.2061747 -36.19            0    1.036    0.035
       364 -10.4580     42.7886    107.1352   1.3072439060e+02   4.9456830516e+01    0.2317577    0.1565674 -22.64  0.001226849    2.092    0.522
       365 -11.0794    172.5924    105.5378   9.5598057948e+01   2.6154501149e+01     0.399041    0.2655877  38.32  0.001178523    1.615    0.381
       366 -13.2523    166.0783    103.0391   9.6337989290e+01   2.8166080976e+01    0.5035504    0.3750956 -10.45  0.001514849    1.725    0.420
       367 -10.5813     16.6579    105.0266   1.3805252997e+02   5.2258445964e+01    0.1758648    0.1262072 -67.14 0.0005601257    1.105    0.095
       368 -11.0491    138.2912    103.9682   1.0308593697e+02   3.4331310201e+01    0.2560883      0.21878 -47.99 0.0003384414    1.161    0.139
       369 -10.8120    135.8033    100.8298   1.0285230880e+02   3.5527368646e+01    0.4052892    0.2898871  18.03  0.001754866    1.916    0.478
       370 -11.6209     82.5066    103.6556   1.1820923787e+02   4.5070807412e+01    0.3000844    0.2434456 -64.27 0.0002043406    1.191    0.160
       371 -11.7710     85.0741     99.8786   1.1653056611e+02   4.5514644796e+01    0.4072034     0.357174  39.66  0.001138407    1.235    0.190
       372 -11.8394     75.7932    102.4073   1.1989397308e+02   4.6382033400e+01    0.3561133    0.2871612  54.55    0.0014466    1.377    0.274
       373 -11.4050     67.7300    101.6329   1.2212866795e+02   4.7712980568e+01     0.445348    0.2774684  89.12  0.001912094    2.597    0.615
       374 -11.0790    233.7173    102.6477   8.3643579876e+01   1.2578420472e+01    0.2611879    0.2297217 -45.16 0.0006694038    1.123    0.110
       375 -10.7366     57.7281    102.9020   1.2542460240e+02   4.8729703437e+01    0.1907168    0.1771437 -10.18 0.0002907825    1.261    0.207
       376 -10.3871    208.4627    102.0023   8.7675278058e+01   1.8361513375e+01    0.2127467    0.1172779 -55.27 0.0004628129    2.371    0.578
       377 -12.5328     45.0690    100.7507   1.2883212566e+02   5.0687568614e+01    0.4650707    0.2893617 -30.48  0.002368354    2.089    0.521
       378 -10.3500      2.1185    102.3487   1.4188397962e+02   5.3814561198e+01    0.1473723   0.09529819  42.91 0.0009467398    1.827    0.453
       379 -10.3653    190.0004    101.4637   9.0964839945e+01   2.2791482777e+01    0.2167792    0.1514607  53.65 4.707978e-05    1.466    0.318
       380 -11.1332    149.7753    101.2105   9.9554024684e+01   3.2314531604e+01    0.5734764    0.2543027  51.82  0.002055728    2.350    0.575
       381 -10.7922    122.0466     99.4569   1.0602375213e+02   3.8751348743e+01    0.2292023    0.1926326 -44.46 7.370106e-06    1.159    0.137
       382 -11.3898      9.7723     98.7112   1.3917662267e+02   5.4161642932e+01    0.3248114    0.1679387 -89.50  0.001686994    2.093    0.522
       383 -10.4387     32.8658     98.6690   1.3217863606e+02   5.2376477868e+01    0.2848458    0.1481979 -66.93 0.0009676474    1.631    0.387
       384 -10.8453     33.6171     93.9397   1.3106314977e+02   5.3385900003e+01    0.3287679    0.1839649 -24.50  0.001554948    2.738    0.635
       385 -10.4904     16.3248     99.0908   1.3727613567e+02   5.3628704173e+01    0.1727955    0.1470293 -50.81  0.000341786    1.212    0.175
       386 -10.0745     99.0171     98.2383   1.1205071524e+02   4.3491406947e+01    0.1896354    0.1876621 -27.29 0.0002872056    1.056    0.053
       387 -10.6944    109.2164     99.6598   1.0955602126e+02   4.1275317890e+01    0.3569219    0.2222395  24.78 0.0009822696    2.210    0.547
       388 -10.4567    118.6415     96.2726   1.0605537799e+02   4.0126951851e+01    0.2653122    0.1839812 -36.22   0.00092502    1.480    0.324
       389 -10.1654     90.1827     95.9160   1.1400770961e+02   4.5551954248e+01    0.2040998    0.1852506  87.17 0.0005493312    1.214    0.176
       390 -10.5365     91.7367    104.9184   1.1584220094e+02   4.3277015537e+01    0.2641172      0.18243  71.45 0.0006812269    2.008    0.502
       391 -10.5807     58.7403     94.0903   1.2316522251e+02   5.0617487886e+01    0.3194321    0.1263267 -40.35  0.001171534    3.127    0.680
       392 -10.4155     22.7326     95.3919   1.3472861453e+02   5.3984512057e+01    0.1884897    0.1261053  76.07 0.0005634514    1.779    0.438
       393  -9.9003    154.7147     94.3033   9.6479807891e+01   3.2531118555e+01    0.1540057    0.1226665 -75.89 0.0001600386    1.559    0.359
       394 -10.4470     83.9852     93.9544   1.1534253290e+02   4.7013895535e+01     0.226293    0.1738225  88.76  0.001131878    1.715    0.417
       395 -11.5207     52.5126     93.4580   1.2498414113e+02   5.1519259490e+01    0.2715107    0.1942357 -35.69  0.001510951    1.489    0.328
       396  -9.7545    160.5646     93.4488   9.4913433114e+01   3.1312274778e+01    0.1545445    0.1491202   3.73 8.175874e-05    1.065    0.061
       397  -9.9898    225.4948     92.5543   8.2431928703e+01   1.6020271828e+01    0.1445002      0.13554 -39.42 3.032185e-05    1.020    0.020
       398 -10.5816    143.2573     92.4024   9.8646823131e+01   3.5562752637e+01    0.2993054     0.146729  45.65 0.0009049381    2.068    0.517
       399 -11.3186    136.3906     91.0579   9.9953818240e+01   3.7386379967e+01    0.4621611    0.3613407 -64.84  0.002193352    1.491    0.329
       400 -10.9011    114.1178     91.1682   1.0585013754e+02   4.2121517717e+01    0.2863267    0.2164976 -52.50 0.0008320312    1.330    0.248
       401 -10.1047    111.3023     88.6905   1.0591975420e+02   4.3204783480e+01    0.2366173    0.1466846 -49.43 0.0002531859    1.597    0.374
       402 -10.9831      8.2086     90.6723   1.3847918629e+02   5.6060957054e+01    0.3315512    0.1805578  68.57  0.001739261    2.473    0.596
       403 -11.4955    202.6056     89.7106   8.5503567106e+01   2.1838437198e+01     0.399489     0.367178  -1.95   0.00118287    1.156    0.135
       404 -10.7301     24.7703     91.1653   1.3334725949e+02   5.4778451290e+01    0.2084196    0.1138591  70.14 0.0009588839    2.882    0.653
       405 -11.2911     77.7810     88.4008   1.1577518403e+02   4.9221353369e+01    0.4044677    0.2013165 -37.34  0.001295341    2.277    0.561
       406 -10.7014     80.8814     84.3792   1.1370781661e+02   4.9610268177e+01    0.2265978    0.1778287 -29.82 0.0004720986    1.322    0.243
       407 -12.3542    191.7595     87.7195   8.6933347374e+01   2.4799631517e+01    0.2979347    0.2779551 -52.50 0.0003119942    1.072    0.067
       408 -11.1578     43.8623     88.6763   1.2669525788e+02   5.3566207680e+01    0.2836958    0.1833954 -75.92  0.001025281    1.685    0.407
       409 -11.0154    123.5780     87.2946   1.0216353406e+02   4.0953243509e+01    0.2957957    0.1419618 -46.98    0.0010776    2.096    0.523
       410 -10.8542     63.7776     86.8534   1.1980566040e+02   5.1586116423e+01    0.3889022    0.2738281 -23.01  0.002014364    1.755    0.430
       411 -11.7158     69.6876     85.1496   1.1746374557e+02   5.1141280236e+01    0.2706905    0.2195754  29.68 0.0002275114    1.380    0.275
       412 -10.6797    180.9553     86.9346   8.8789908412e+01   2.7575596937e+01    0.2273283    0.2179377 -74.74 0.0002968813    1.075    0.070
       413 -10.2233    130.9883     87.0227   1.0014679513e+02   3.9395410048e+01    0.2202542    0.2054978  88.12  0.001161541    1.170    0.146
       414 -10.5355    127.6306     85.7405   1.0063661186e+02   4.0389466838e+01    0.2517671     0.195923 -83.25 0.0005260817    1.735    0.424
       415 -10.5810     10.9908     86.2409   1.3690088344e+02   5.6874944873e+01    0.2187304    0.1389248 -66.35 0.0007257771    1.222    0.182
       416 -11.2977     16.2570     85.3090   1.3503758144e+02   5.6732135675e+01     0.367605    0.1539751 -60.24  0.001081966    1.778    0.438
       417 -10.3829    154.5531     85.5110   9.3990485115e+01   3.4247776014e+01    0.1534015    0.1506218  -7.60  0.000808052    1.024    0.023
       418 -10.5325     27.5359     85.4530   1.3136636007e+02   5.5836026312e+01    0.1863875    0.1191947  -0.98 0.0006360944    2.209    0.547
       419  -9.9814      3.6109     84.8249   1.3904114461e+02   5.7625782301e+01    0.1548945   0.09026162 -81.01 0.0009077982    1.558    0.358
       420 -11.5132    119.4519     83.6372   1.0218424309e+02   4.2567979470e+01    0.3350937    0.2712152  39.01   0.00155206    1.277    0.217
       421 -10.0040    105.5394     84.5114   1.0633256829e+02   4.5208632644e+01    0.1469954    0.1396172 -35.18 2.496447e-05    1.003    0.003
       422 -10.0748     98.5296     84.4985   1.0837174537e+02   4.6539126712e+01    0.1470317    0.1353563 -25.28 0.0004045453    1.078    0.072
       423 -11.2745    132.6182     82.3980   9.8349792806e+01   3.9942280212e+01    0.2619036    0.2458759  -3.11 0.0002945498    1.101    0.092
       424 -11.0886    128.4682     80.2805   9.8773351805e+01   4.1280051282e+01    0.3893313    0.2571492  25.86   0.00153698    1.955    0.489
       425 -11.3295     85.4427     82.7629   1.1182957293e+02   4.9210897109e+01    0.2546418    0.2054066  37.82   0.00138314    1.337    0.252
       426 -10.2771    193.9631     82.3041   8.5043933795e+01   2.5186649886e+01    0.2025543    0.1974831  63.11 0.0003905497    1.046    0.044
       427 -11.0087     94.5620     80.6601   1.0842349485e+02   4.8067263392e+01    0.3053771    0.2345749 -10.57  0.001521471    1.606    0.377
       428 -10.2821     45.9177     81.2822   1.2430601958e+02   5.4997032309e+01    0.1666656    0.1622768   7.67 0.0009420387    1.191    0.161
       429  -9.5360    173.6954     80.2954   8.8355885045e+01   3.0532161347e+01    0.1553466    0.1203036 -72.60 0.0001974137    1.581    0.368
       430 -10.9340    149.3081     79.1559   9.3308854454e+01   3.6682509182e+01    0.3074748     0.186581  61.19  0.001264646    1.858    0.462
       431 -11.0187    116.9774     79.7729   1.0168711049e+02   4.3860561623e+01    0.3341089    0.1622438  49.53  0.001051882    2.178    0.541
       432 -11.3710     52.5184     82.3551   1.2235776328e+02   5.4007637040e+01    0.3998864    0.1903224  42.83  0.001827434    2.502    0.600
       433 -10.3298    107.7531     77.9950   1.0372890653e+02   4.6102903164e+01    0.2032429    0.1822554 -38.21  0.001099973    1.070    0.065
       434 -12.2387     51.3177     76.5210   1.2126808905e+02   5.5428050538e+01    0.4360954    0.3621474  70.32  0.001288746    1.533    0.348
       435  -9.4192     14.2791     78.6454   1.3448220120e+02   5.8343754608e+01    0.1164972   0.08218412  83.99 0.0004636444    1.654    0.395
       436 -11.5457      4.9456     77.3945   1.3741022923e+02   5.9185544618e+01    0.2768735    0.1927285 -12.50 0.0007341581    1.836    0.455
       437 -11.8652      2.0428     72.0971   1.3749115885e+02   6.0492128866e+01    0.4502926    0.1047494 -56.82    0.0019849    2.612    0.617
       438 -10.6673    168.0125     77.1314   8.8597599047e+01   3.2491236505e+01    0.2397701    0.2046031  22.95 0.0004473987    1.303    0.232
       439 -11.5368     62.6639     75.7538   1.1720063517e+02   5.4157543944e+01    0.2999596    0.2111707 -79.86  0.001493106    2.024    0.506
       440 -11.7858     57.7620     73.5038   1.1823549144e+02   5.5284425672e+01    0.4002228    0.2685379 -81.83 0.0009259775    2.341    0.573
       441 -11.1982    113.5058     74.2852   1.0093947359e+02   4.5663141074e+01    0.3168065    0.2374613  25.23  0.000178172    1.525    0.344
       442  -9.8949     82.4468     75.4769   1.1062425199e+02   5.1242151590e+01    0.1406539    0.1283502 -36.99 2.089373e-05    1.009    0.009
       443 -10.4950     93.2951     73.9145   1.0674992134e+02   4.9680317824e+01    0.3569647    0.1868356  27.09   0.00138167    2.707    0.631
       444 -10.7418     68.9101     73.8516   1.1455792881e+02   5.3685031571e+01     0.194979    0.1798515 -41.71 0.0003793218    1.050    0.047
       445 -11.4195     35.3450     72.0512   1.2570852625e+02   5.8097223512e+01    0.2926521    0.2115791  22.17 0.0006019933    1.646    0.392
       446 -10.5700    166.8181     70.8498   8.6976485058e+01   3.3870363350e+01    0.3112215    0.2153847 -17.30  0.001365073    1.726    0.421
       447 -10.8471     17.4927     72.2891   1.3211106135e+02   5.9516442768e+01    0.2004358    0.1570078  -2.38  0.001046475    1.565    0.361
       448 -11.0942    152.9761     69.9246   8.9651037365e+01   3.7449466002e+01    0.2281089    0.2188673 -70.68 0.0004198695    1.087    0.080
       449 -11.3383     88.1797     69.3400   1.0689318275e+02   5.1511874530e+01    0.2443918    0.2278895  83.45  0.001415698    1.285    0.222
       450 -11.7260     52.8870     68.7210   1.1857624883e+02   5.6908360375e+01    0.4323171    0.2153759 -60.77  0.001945714    2.174    0.540
       451 -11.5416     79.7643     68.7579   1.0941029942e+02   5.3058141388e+01    0.5000849    0.1893611  36.90  0.001884961    2.948    0.661
       452 -10.4145    132.8835     67.9343   9.3765471815e+01   4.2586474494e+01    0.2291928    0.1984196  14.44 0.0004164101    1.251    0.201
       453 -10.8425    201.5084     66.8514   7.9483265985e+01   2.5828721276e+01    0.2267772    0.1443534 -32.03  0.001019318    1.553    0.356
       454 -10.8501     36.0131     66.4855   1.2404310873e+02   5.9226853260e+01    0.1872637    0.1401359 -51.77 1.146301e-05    1.110    0.099
       455 -10.7320     14.7715     65.3852   1.3160962745e+02   6.1191867302e+01    0.2442688    0.1521456 -19.26  0.001448427    1.949    0.487
       456 -10.4500    142.1615     64.9703   9.0560508357e+01   4.0923489668e+01    0.2202351    0.1683319  75.57 0.0005003131    1.586    0.370
       457 -11.4219     88.6134     63.8158   1.0494773699e+02   5.2515476923e+01    0.2936371     0.231201 -47.76 0.0008752164    1.276    0.216
       458 -11.7394     28.8025     64.5190   1.2619493729e+02   6.0304660118e+01    0.2610658    0.2037583 -81.17 0.0002181972    1.512    0.338
       459 -10.1120    110.2561     64.3850   9.8631771901e+01   4.8211338141e+01    0.1961039    0.1406405  57.37 0.0003617619    1.592    0.372
       460 -10.6241     78.2588     60.6710   1.0726358539e+02   5.4900050040e+01    0.2485328    0.1871866 -34.47 0.0008608495    1.222    0.182
       461 -10.6619     38.9489     58.8054   1.2080102625e+02   6.0537661875e+01    0.3395042     0.136637 -50.34  0.001565432    2.003    0.501
       462 -11.1867      6.0524     60.4163   1.3378716537e+02   6.2778345452e+01    0.2463786    0.1281945 -56.41 0.0009598824    1.414    0.293
       463 -11.2136      2.0572     60.9891   1.3540830332e+02   6.2867726081e+01    0.2431094    0.1430103 -37.53  0.001210263    1.611    0.379
       464 -10.7490     15.9651     59.2974   1.2975170164e+02   6.2401081033e+01    0.2070112    0.1409091 -56.38 0.0006177723    1.160    0.138
       465 -11.2925     19.3763     55.1272   1.2736845717e+02   6.3025823452e+01    0.3729272    0.2181913  81.14  0.001603485    4.045    0.753
       466 -12.4399     10.9658     50.0059   1.2940518612e+02   6.4651072294e+01    0.6390795    0.2811395 -71.01   0.00299081    2.718    0.632
       467 -12.1479     16.6842     47.4764   1.2636400950e+02   6.4778673764e+01    0.3982164    0.3802425  12.39  0.002898204    1.318    0.241
       468 -10.5624     20.7120     44.9153   1.2392728321e+02   6.4985556092e+01    0.1874224    0.1606777 -59.17 0.0003822146    1.256    0.204
       469 -11.8124      3.3413     52.4998   1.3309017761e+02   6.4575662293e+01    0.4212831    0.2399273  -6.81  0.002548447    2.235    0.552
       470 -10.4558      1.8697     48.1818   1.3267516126e+02   6.5535706310e+01     0.231791    0.1203516 -58.18 0.0007514679    1.426    0.299
       471 -10.3500    173.7850     58.8165   8.1981254772e+01   3.4070459250e+01    0.2206301    0.1998423  20.94 0.0004970299    1.197    0.165
       472 -10.8355     95.6117     59.2012   1.0119055750e+02   5.2087429439e+01    0.2043915    0.1735332 -24.85 0.0002877659    1.120    0.107
       473 -11.9224     93.6193     54.7657   1.0024885600e+02   5.3268097357e+01    0.3559521    0.2897854  40.17   0.00124032    1.277    0.217
       474 -11.1994     53.0108     57.1148   1.1499222343e+02   5.9269675036e+01    0.2982022    0.1958199 -54.44 0.0008138809    1.501    0.334
       475 -10.1409    108.9058     56.7495   9.6403689724e+01   4.9860253978e+01    0.3060878    0.1621841  28.87   0.00116047    2.631    0.620
       476 -10.3678    104.0746     56.2790   9.7631900110e+01   5.0941022725e+01     0.193064    0.1792835  28.79 0.0002938249    1.090    0.083
       477 -10.8867     44.8942     55.3622   1.1748360266e+02   6.0591111891e+01    0.2180033    0.1901441  46.77 0.0009123643    1.452    0.311
       478 -10.8793     28.3271     54.4735   1.2365313570e+02   6.2436387360e+01    0.2400675    0.1678762 -29.49 0.0007302135    1.373    0.272
       479 -10.7218     76.5049     53.4759   1.0536252279e+02   5.6544876292e+01    0.2427053    0.2113491 -24.08 0.0009889111    1.031    0.030
       480 -11.7098     62.2832     50.8367   1.0944511119e+02   5.9231806135e+01    0.4481792    0.2565645 -30.88  0.001203132    1.753    0.430
       481 -12.2755     62.0259     44.5637   1.0725440013e+02   6.0416302487e+01    0.3511868    0.2295912 -35.80 0.0004102209    1.362    0.266
       482 -10.4879     38.2806     48.3943   1.1781467432e+02   6.2688980597e+01    0.1894149    0.1464336 -24.66  0.000471576    1.198    0.165
       483 -10.6679     32.5808     51.9523   1.2122048019e+02   6.2557461284e+01    0.1969018    0.1663885  46.31 0.0007911259    1.545    0.353
       484 -11.3225    149.3771     50.8180   8.4328822990e+01   4.1455232994e+01    0.2839493    0.2217463  40.54 0.0003803956    1.292    0.226
       485 -10.3571    120.7633     51.2530   9.1240319979e+01   4.8200940260e+01    0.1998462    0.1631605  17.92 0.0003948746    1.310    0.237
       486 -11.3695    180.6460     44.4796   7.6446512653e+01   3.4419599848e+01    0.2442495    0.2312383  76.86 0.0001910716    1.026    0.025
       487 -10.1496    137.9881     45.0121   8.4872422919e+01   4.5122151445e+01    0.1746145    0.1688878  22.03 0.0003731983    1.011    0.010
       488 -11.8592     41.2724     50.8968   1.1744995583e+02   6.1878764929e+01    0.2356229    0.1854899 -44.82 0.0002897435    1.116    0.104
       489 -10.8779     25.9849     44.5128   1.2158869316e+02   6.4628017950e+01    0.2321645    0.1294862 -39.92 0.0006857484    1.482    0.325
       490 -10.4043     87.5101     43.5041   9.8019929441e+01   5.6345365676e+01    0.1384433    0.1242353  -5.98 0.0008105775    1.010    0.010
       491  -9.7755     80.4558     43.5614   1.0035654346e+02   5.7615322817e+01    0.1362613    0.1203378  -8.53 0.0001443168    1.022    0.022
       492 -11.3933     37.8136     40.6825   1.1534912956e+02   6.4204775099e+01    0.2739176     0.202015 -16.03  0.001196245    1.331    0.249
       493 -10.8420     13.1256     38.1977   1.2512914514e+02   6.6854338473e+01    0.3824931    0.1199347 -54.77  0.001772255    2.397    0.583
       494 -10.6006    175.1001     39.3052   7.5790565833e+01   3.6549141730e+01    0.2018891     0.182679  76.36  0.000375436    1.080    0.074
       495 -10.6693    157.0147     38.0499   7.8590786209e+01   4.1354801319e+01     0.297871    0.2014744 -27.21 0.0009878468    1.544    0.352
       496 -12.0965     24.4241     38.4158   1.2024378716e+02   6.5933860742e+01    0.3774755    0.2023201  27.33  0.002158887    2.159    0.537
       497 -10.3907    193.1510     37.5254   7.2475581639e+01   3.2142227412e+01    0.2100585    0.1876617 -39.22 0.0004809827    1.134    0.118
       498 -10.6980    147.9494     38.0959   8.0376446919e+01   4.3637899416e+01    0.2101159    0.2041454  44.44 0.0003036196    1.013    0.013
       499 -10.0731    136.9520     38.0035   8.2664853521e+01   4.6369737937e+01    0.1734177    0.1655453  32.88  0.000451013    1.002    0.002
       500 -11.5603      3.8838     36.2572   1.2866446491e+02   6.7802431417e+01    0.2967857    0.1925655 -67.76  0.001329075    1.584    0.369
       501 -10.6972    129.3761     36.8610   8.3970126128e+01   4.8352243943e+01    0.2321006     0.197356  66.51  0.000515676    1.253    0.202
       502 -10.3885    111.0719     37.4849   8.8771151868e+01   5.2465179007e+01    0.2082681     0.135216  50.14 0.0004471791    1.517    0.341
       503 -12.0776     40.8332     35.7263   1.1224762818e+02   6.4766495913e+01    0.2295292    0.2009705 -48.34 0.0003783507    1.329    0.248
       504 -10.4085     61.3671     35.1975   1.0384903016e+02   6.2122563636e+01    0.1790152    0.1105793 -44.52 0.0003813943    1.653    0.395
       505 -11.1251     55.8128     34.2194   1.0558442914e+02   6.3096169439e+01    0.2897017    0.1995176 -27.02  0.001100878    1.294    0.227
       506 -12.5014     77.3433     32.7124   9.7089164603e+01   5.9896346589e+01    0.4764387    0.2635087  37.44  0.000203731    1.834    0.455
       507 -12.1875     70.4680     28.6837   9.7791072315e+01   6.1689452461e+01    0.3411414    0.2356075 -31.45 0.0003712918    1.357    0.263
       508 -11.8845     76.2981     27.2511   9.5150060745e+01   6.0884997056e+01    0.2560165    0.2117741  -1.10 0.0005935998    1.092    0.084
       509 -10.4050    142.2827     33.6259   7.9999812997e+01   4.5641780787e+01    0.1498918    0.1082578 -60.74 0.0007013975    1.708    0.414
       510 -10.9244    135.0311     32.4949   8.1133500840e+01   4.7571032939e+01    0.2544167    0.2083779 -22.15 0.0004567295    1.263    0.208
       511  -9.7699    117.5506     33.4757   8.5573216146e+01   5.1572390844e+01    0.1416865    0.1309055  19.62 0.0001406974    1.012    0.012
       512 -11.1489    106.6758     31.8679   8.7792679275e+01   5.4212523344e+01    0.2615005     0.214333  18.26 0.0008459442    1.201    0.167
       513 -11.2047     41.2161     30.6188   1.1006522974e+02   6.5607949201e+01    0.2393894    0.1476632 -39.68  0.001389278    1.399    0.285
       514 -10.4675     24.2818     31.0761   1.1768622232e+02   6.7301122479e+01    0.1615912    0.1243515 -36.18 0.0001957327    1.055    0.052
       515  -9.7852     18.3113     31.3481   1.2050435958e+02   6.7759443680e+01    0.1260615   0.06808643 -30.14 0.0007045683    1.714    0.416
       516  -9.9726    150.9473     30.0153   7.7057460866e+01   4.3925696190e+01    0.1719425    0.1617263  54.72 0.0003257703    1.011    0.010
       517 -10.3220     63.6294     30.2783   1.0096221149e+02   6.2561879429e+01    0.2013296    0.1540261  46.57 0.0005789779    1.592    0.372
       518 -10.0934    123.3806     28.7850   8.2397176996e+01   5.0833739023e+01    0.1873453    0.1687135  55.94 0.0004557722    1.128    0.113
       519 -11.3045    187.3665     27.0156   7.0235874838e+01   3.4930913809e+01    0.2656891    0.1987693  70.61 0.0006240943    1.276    0.216
       520 -10.7676    100.6535     25.4417   8.6879753372e+01   5.6353072827e+01    0.2694975    0.1680997 -21.14  0.001339752    1.635    0.388
       521 -10.6162     37.5226     26.4687   1.0994094578e+02   6.6737848558e+01    0.1208314   0.09895635 -22.89 0.0003777207    1.049    0.047
       522 -10.3417      5.1532     23.3588   1.2390339542e+02   7.0147057662e+01    0.1914224   0.09986234  20.89  0.001174867    2.238    0.553
       523 -10.9992     65.7588     24.1128   9.7508790474e+01   6.3140049772e+01     0.232296    0.1730111  24.97 0.0005719363    1.303    0.233
       524 -10.2605     60.9216     24.1011   9.9309788097e+01   6.3917693257e+01    0.1825154     0.161723 -27.80 0.0004130927    1.247    0.198
       525 -10.9568     50.4461     22.9635   1.0293517275e+02   6.5641008941e+01    0.3775539    0.1708628 -28.44  0.001769086    2.213    0.548
       526 -10.5599     45.5131     24.4789   1.0565259450e+02   6.6075121113e+01    0.1246244    0.1004187 -15.31 0.0002763186    1.017    0.017
       527 -11.1324     18.3218     22.8861   1.1729525421e+02   6.9266725937e+01    0.2535681     0.195763 -18.06  0.001203943    1.142    0.124
       528 -10.9376     14.2827     22.5696   1.1912552029e+02   6.9649703322e+01     0.351104    0.1055943 -46.66 0.0003470564    2.439    0.590
       529 -10.6898    221.0055     23.0259   6.5105660194e+01   2.6947395685e+01    0.2313021     0.137927 -57.07  0.000763173    1.675    0.403
       530 -11.2488    109.8745     22.7292   8.3340116864e+01   5.4676623647e+01    0.2404457    0.1989849  18.08 0.0003746939    1.169    0.145
       531 -11.1879     69.8785     20.4060   9.4372101248e+01   6.2958980763e+01    0.3822624    0.0740065 -33.70  0.001172863    4.810    0.792
       532 -11.0809     58.0164     18.4035   9.7843005228e+01   6.5180669454e+01    0.2784744    0.1612918 -34.79  0.001233829    1.642    0.391
       533 -11.5241     38.2795     21.0127   1.0724181144e+02   6.7527798919e+01    0.2171004    0.1836904  12.09 0.0006281245    1.247    0.198
       534 -10.0703    200.4658    249.0516   1.1837948004e+02  -3.0630202744e+00    0.1375118    0.1115611 -25.42 0.0003741093    1.486    0.327
       535 -11.0582    151.0437     20.1686   7.3704429591e+01   4.5045260931e+01    0.2109378    0.2032824  -3.25 0.0003439837    1.100    0.091
       536  -9.4448    122.2718     21.2964   7.9820300824e+01   5.1993281784e+01    0.1408019   0.09817374  26.08 0.0002075583    1.523    0.343
       537 -10.0195     74.0556     20.4814   9.2956330980e+01   6.2213765530e+01    0.1781947    0.1196527  40.11 0.0003288812    1.469    0.319
       538 -10.2862     28.4893     19.9853   1.1124412814e+02   6.8792664210e+01    0.1686951    0.1333629  -4.84 0.0006448519    1.170    0.145
       539 -10.0092    145.8770     16.8373   7.3469397583e+01   4.6706443887e+01    0.1837131    0.1593834 -75.18 0.0002696757    1.276    0.217
       540 -11.4615    131.3639     16.6958   7.6157417745e+01   5.0317015855e+01    0.3200664    0.2035676  44.84   0.00066877    1.466    0.318
       541 -12.7638    185.9247    239.8449   1.1962186823e+02   3.6500447890e-01    0.4797994    0.3671914  15.95  0.001767116    1.339    0.253
       542 -12.3188    191.0862    234.8251   1.1798356801e+02   1.9350065798e-01    0.3957758    0.2506518 -37.17  0.002077057    1.904    0.475
       543 -11.0995    179.0512    248.4946   1.2201039533e+02   3.3384859163e-01    0.1855861    0.1591356  18.18 0.0005494463    1.200    0.167
       544 -11.6015    181.0985    244.3808   1.2110124603e+02   5.4237717117e-01    0.2418294    0.2092613 -16.11 0.0005712723    1.382    0.277
       545 -10.7172    112.1240     14.8711   7.9645974345e+01   5.5052586209e+01    0.1875876    0.1820367 -48.24 0.0003532963    1.200    0.167
       546 -10.3484    169.2887    249.0944   1.2379611951e+02   1.7904489745e+00     0.153585    0.1293466  40.42 0.0004230297    1.095    0.087
       547 -10.6715    132.6826    247.5187   1.3006295356e+02   7.7434479627e+00    0.1560909    0.1078491 -58.65 0.0001620607    1.816    0.449
       548 -10.3424    196.8132    247.3452   1.1876933073e+02  -2.2958428359e+00    0.1694103   0.08470802  34.64 0.0009402665    1.627    0.385
       549 -12.7083    203.1419    241.2661   1.1680571892e+02  -2.5417561983e+00     0.255722    0.2302367  -6.88 0.0006566563    1.281    0.219
       550  -9.6368     92.3443     14.6758   8.4683641917e+01   5.9381605779e+01    0.1266335    0.1040178 -64.56 -4.199232e-05    1.737    0.424
       551 -10.1799     86.1779     13.8589   8.6117816323e+01   6.0725171173e+01    0.1816386    0.1332556  21.48 0.0003622766    1.289    0.224
       552  -9.9219     63.6023     13.7518   9.3555475134e+01   6.4889880855e+01    0.1695885    0.1068376 -35.01 0.0009331296    1.632    0.387
       553 -10.4225    173.2944     13.9470   6.8245916000e+01   3.9999111261e+01    0.1817978    0.1799271 -23.10 0.0002637887    1.107    0.097
       554 -12.8210    146.8669    240.3546   1.2669347518e+02   6.5787253198e+00    0.3748525    0.3230736  78.38  0.002680335    1.339    0.253
       555 -10.7329    161.3251    241.5770   1.2424496504e+02   4.0839722257e+00    0.2406057    0.1734574  65.91  0.001504528    1.698    0.411
       556 -11.1465    243.0075     12.5228   6.0522651921e+01   2.2947437586e+01    0.1850106    0.1174947  77.47 0.0003640665    1.538    0.350
       557 -10.3126    217.9638    240.7009   1.1417274077e+02  -4.7621370365e+00    0.1642785    0.1185312  29.98 0.0005251152    1.091    0.083
       558 -10.7505    172.0220    240.4980   1.2218721306e+02   2.5127076391e+00    0.2302631    0.1436759  49.68 0.0007015449    1.469    0.319
       559 -10.5436    168.4360    238.7406   1.2259432160e+02   3.3353394964e+00    0.1889819    0.1639443  81.38  0.000966767    1.497    0.332
       560  -9.6344    237.6949    238.3009   1.1048738958e+02  -7.4363082960e+00   0.09742701   0.08582231  44.28 0.0003153032    1.593    0.372
       561 -10.9049    197.5563    234.2916   1.1675532273e+02  -7.8076662967e-01     0.248964    0.1915513   9.27 0.0008836437    1.338    0.252
       562 -10.1729     56.9817    236.4653   1.4232333217e+02   2.0300259892e+01     0.105582   0.09469295   9.55 0.0003146923    1.930    0.482
       563 -11.5171    218.9711    233.1475   1.1283896659e+02  -4.0282531995e+00    0.2996338    0.2041328   5.72 0.0006086907    1.542    0.351
       564 -11.9203    176.7527    233.0742   1.2030847150e+02   2.7708218555e+00    0.3530385    0.1896618  31.73 0.0009485167    1.765    0.433
       565 -11.1422    183.0844    232.8001   1.1912352913e+02   1.7693236789e+00    0.2732111    0.1622503  32.86 0.0006450324    1.469    0.319
       566 -11.2830    149.2214    233.8159   1.2544330039e+02   7.1807325727e+00    0.1964786    0.1369225  49.31 0.0003841858    1.209    0.173
       567 -11.6136    156.1173    233.1077   1.2408317844e+02   6.1600338930e+00    0.1946936     0.166844  57.36 0.0003088097    1.180    0.153
       568 -11.2302    160.8285    231.9684   1.2306421323e+02   5.5546646713e+00    0.2791479    0.1462311  39.62 0.0009487239    1.578    0.366
       569 -10.3556    249.2881    232.9620   1.0772907258e+02  -8.5351771085e+00    0.1565015    0.1202202   4.21 0.0003616678    1.113    0.101
       570 -12.4137    142.6159    231.7576   1.2639954214e+02   8.5736969268e+00    0.3347126    0.2086593  39.52  0.001971164    1.365    0.268
       571 -12.5571    108.0032    226.2938   1.3220877296e+02   1.4969310290e+01    0.2115431    0.1818163  68.24 0.0006172318    1.096    0.088
       572 -10.1332    243.9733    231.0109   1.0828131745e+02  -7.5562984707e+00    0.1454179    0.1353248  37.00 0.0003233064    1.576    0.365
       573 -10.5924     58.7667    230.5455   1.4157515140e+02   2.1120535379e+01    0.1523031   0.07742699  54.19 0.0007305092    1.555    0.357
       574 -12.0116     95.7360    211.4464   1.3289785948e+02   1.9516116895e+01    0.3082889     0.267078  21.21 0.0005097549    1.570    0.363
       575 -11.2272    100.1062    217.1000   1.3268598010e+02   1.7808701651e+01      0.34247    0.2527532  12.28    0.0019134    2.354    0.575
       576 -12.5425    117.1346    218.9447   1.2962133162e+02   1.4824308654e+01    0.4881246    0.2838336 -88.39  0.002159319    2.711    0.631
       577 -12.1873    103.9409    208.5635   1.3094115444e+02   1.8798545605e+01    0.5101169    0.3163895 -73.85  0.002838734    1.824    0.452
       578 -12.0109     98.0497    205.0650   1.3169534201e+02   2.0375604435e+01    0.4710766    0.2427395  53.63  0.001994573    1.764    0.433
