#   1 NUMBER                 Running object number                                     
#   2 MAG_AUTO               Kron-like elliptical aperture magnitude                    [mag]
#   3 X_IMAGE                Object position along x                                    [pixel]
#   4 Y_IMAGE                Object position along y                                    [pixel]
#   5 X_WORLD                Barycenter position along world x axis                     [deg]
#   6 Y_WORLD                Barycenter position along world y axis                     [deg]
#   7 A_WORLD                Profile RMS along major axis (world units)                 [deg]
#   8 B_WORLD                Profile RMS along minor axis (world units)                 [deg]
#   9 THETA_WORLD            Position angle (CCW/world-x)                               [deg]
#  10 FWHM_WORLD             FWHM assuming a gaussian core                              [deg]
#  11 ELONGATION             A_IMAGE/B_IMAGE                                           
#  12 ELLIPTICITY            1 - B_IMAGE/A_IMAGE                                       
         1 -11.9557    213.0592     28.4928   2.8955776899e+02   6.1522539643e+00   0.07838792   0.04002201 -81.85  0.006002479    3.220    0.689
         2 -15.8631    162.3946     56.2315   2.9032525652e+02   6.1457502095e+00    0.3724451    0.1852014  88.95  0.005063552    5.252    0.810
         3 -18.1068    233.4005     15.3510   2.8923746802e+02   6.1774895003e+00    0.5119891    0.4150661 -54.04    0.0301749    1.245    0.197
         4 -11.3910    196.7848     24.7839   2.8972704636e+02   6.2947228175e+00   0.03220118   0.01666622  41.98  0.002929333    1.938    0.484
         5 -11.1127    100.2941     11.9471   2.9078841417e+02   7.0332943512e+00  0.009583168  0.008803249 -54.60 0.0008072412    1.106    0.096
         6 -10.8831    150.4695      9.5093   2.9018040902e+02   6.7538660405e+00   0.01148241   0.01032538 -80.09 0.0007439454    1.183    0.155
         7 -12.0357    146.3871     10.1411   2.9023250730e+02   6.7716695507e+00   0.01455328   0.01151273  41.21  0.001175521    1.253    0.202
         8 -12.5057    145.2858      5.9958   2.9022015846e+02   6.8258658696e+00   0.02010683   0.01854438  23.56  0.001631854    1.063    0.059
         9 -11.8613    118.1785      8.8415   2.9055795437e+02   6.9593956173e+00   0.01035944  0.009122302  60.64  0.000509161    1.206    0.171
        10 -11.4093    106.6939      8.0045   2.9068863262e+02   7.0392772232e+00  0.009575087  0.008790196 -59.31 0.0005232422    1.112    0.100
        11 -11.0775     63.4723      5.5252   2.9118480834e+02   7.3318243318e+00   0.01402368  0.006546851 -61.24  0.001208707    2.166    0.538
        12 -10.9165    183.0602      2.8792   2.8975493750e+02   6.6296849082e+00   0.01177489  0.009706637 -73.06 0.0005607364    1.295    0.228
        13 -10.1694     38.5180      2.4881   2.9146165921e+02   7.5187994964e+00  0.006613628  0.006468473  13.41 0.0008102947    1.005    0.005
        14 -11.0102     58.4735      9.3900   2.9126757087e+02   7.3180792559e+00   0.01423341  0.008244215 -33.38  0.001183205    2.139    0.532
        15 -10.1393    106.0354      1.4910   2.9065659690e+02   7.1178672941e+00   0.01020169  0.006438947  28.49 0.0005320497    1.540    0.351
        16 -11.6191    191.9894     90.5029   2.9018541492e+02   5.5715683419e+00   0.01282813  0.009625015  87.78 0.0008714806    1.620    0.383
        17 -12.3048    153.2665     90.2351   2.9064066697e+02   5.8120689449e+00   0.02420785   0.01776847  -4.74  0.002537412    1.626    0.385
        18 -13.7357    163.9729     79.3595   2.9044790551e+02   5.8710924931e+00   0.04964373   0.03449771 -21.34  0.005020984    1.773    0.436
        19 -11.3401    137.6335     86.9557   2.9080521347e+02   5.9454088657e+00   0.01502882    0.0131018  63.25 0.0008592145    1.232    0.189
        20 -11.1024    200.9873     87.7207   2.9006231077e+02   5.5482228085e+00   0.02253479    0.0104936  52.45  0.001749283    2.872    0.652
        21 -12.4834    149.9594     79.1397   2.9061198217e+02   5.9594973311e+00   0.01538115   0.01207795 -61.35  0.000639251    1.300    0.231
        22 -10.6232    208.2331     77.4224   2.8991394817e+02   5.6217075924e+00   0.02299801  0.007202908 -53.00  0.001684766    2.977    0.664
        23 -10.0835    134.0000    147.9918   2.9122011638e+02   5.2677356522e+00   0.01111003  0.003823844 -62.09 0.0008058765    2.966    0.663
        24 -11.4458     69.4954    145.5048   2.9196646147e+02   5.6902892418e+00   0.01761971   0.01539684  70.39  0.001242643    1.249    0.200
        25 -11.4452     66.4916    144.5017   2.9199584016e+02   5.7201202249e+00   0.02240336   0.01554078 -81.94  0.001657849    1.737    0.424
        26 -13.4609    226.9805     31.2793   2.8941067851e+02   6.0347636824e+00   0.02734637   0.01538465  36.50  0.001090836    1.704    0.413
        27 -13.1031    194.7756     50.7482   2.8990959256e+02   6.0098356853e+00   0.04415419   0.03476584  -9.59  0.003505547    1.451    0.311
        28 -10.8038    202.7802     50.2030   2.8981183538e+02   5.9669144413e+00   0.01125521  0.009557237 -42.40 0.0003262164    1.206    0.170
        29 -12.1235    246.4265    151.9834   2.8991931313e+02   4.5329555828e+00   0.02604314    0.0162199  51.66  0.002532352    1.803    0.445
        30 -10.4851    223.8997     53.7987   2.8958480125e+02   5.7959673030e+00   0.01232655  0.008660002  59.54  0.000560289    1.663    0.399
        31 -12.2054    160.8527    128.6133   2.9078524085e+02   5.3256141650e+00   0.01823818   0.01593584 -84.01  0.001625234    1.241    0.194
        32 -10.7504    181.2760     51.5322   2.9007366865e+02   6.0837363046e+00   0.01729066    0.0116009 -86.56  0.001290248    1.920    0.479
        33 -14.6143     30.3289    204.8853   2.9278910717e+02   5.2473176544e+00   0.04761452   0.04695433 -28.34   0.00377188    1.026    0.025
        34 -10.9132    128.0365     45.7227   2.9066684265e+02   6.4766800716e+00  0.009254999   0.00876925  22.90 0.0003817724    1.034    0.033
        35 -10.8334    135.0868    120.8298   2.9104183880e+02   5.5726162263e+00   0.01440544  0.008597557 -66.51  0.001331192    1.790    0.441
        36 -11.8773     86.0101     39.6581   2.9112658394e+02   6.8032395802e+00   0.02087012  0.006866276  21.99  0.001364075    3.780    0.735
        37  -9.8276    174.9307     36.7472   2.9005815466e+02   6.2919827109e+00  0.008733039  0.008023126  42.95 0.0002914458    1.085    0.079
        38 -11.7683    167.8002    113.6100   2.9061178742e+02   5.4550656306e+00   0.01736923    0.0114234  49.91  0.001744937    1.643    0.391
        39 -11.4490    192.0461     21.1642   2.8976080933e+02   6.3652614200e+00   0.01157009   0.01041086 -13.06 0.0002778836    1.165    0.142
        40 -10.4853    198.5437     29.4976   2.8973514011e+02   6.2299673770e+00   0.01156356   0.01094626  55.37  0.001417778    1.081    0.075
        41 -10.7627    191.7415    192.6259   2.9081105744e+02   4.4023608613e+00   0.02118861   0.01067281  84.85   0.00124913    5.586    0.821
        42 -11.5407    134.5864    106.0100   2.9095740851e+02   5.7456171850e+00   0.02962423  0.008592962 -61.01  0.002050977    3.397    0.706
        43 -12.3704     78.8581    158.4868   2.9193480010e+02   5.4842026868e+00   0.05071491   0.04108164 -31.39  0.005756733    1.323    0.244
        44 -13.3966     56.7966    181.5484   2.9233526687e+02   5.3540446693e+00   0.02814292   0.02438143 -12.25  0.001396006    1.237    0.191
        45 -13.8052     62.5965    175.6309   2.9223089289e+02   5.3866173137e+00   0.04805242   0.03459158  33.77  0.002865536    1.344    0.256
        46 -13.6061     66.9890    169.4863   2.9214173865e+02   5.4303615955e+00   0.04126165   0.03005527  36.39  0.001781994    1.335    0.251
        47 -13.2186    207.0336     40.6961   2.8970351266e+02   6.0496185281e+00   0.03173916   0.02578678  67.60  0.002783922    1.392    0.281
        48 -12.5404    246.4211    244.8061   2.9048497478e+02   3.4692410409e+00    0.0218446   0.01432374  79.59  0.002054193    2.147    0.534
        49 -13.6513    178.4937     66.4363   2.9019759907e+02   5.9301014107e+00   0.07385664   0.03854382 -25.16  0.005609785    3.248    0.692
        50 -13.9524      8.8767    215.8351   2.9310851220e+02   5.2520563061e+00   0.07260359   0.05794222  76.62  0.008086223    1.462    0.316
        51 -10.2520    131.9752     94.9312   2.9092067803e+02   5.8886208747e+00    0.0101975   0.00960524  56.53 0.0006815722    1.090    0.083
        52 -10.9842    144.7199     97.6496   2.9078679260e+02   5.7794283783e+00    0.0144228   0.01203804 -27.37 0.0007860794    1.285    0.222
        53 -11.4336    194.3305     93.6600   2.9017708750e+02   5.5210283652e+00   0.01271207  0.008721502  41.42  0.001125498    1.447    0.309
