#   1 NUMBER                 Running object number                                     
#   2 MAG_AUTO               Kron-like elliptical aperture magnitude                    [mag]
#   3 X_IMAGE                Object position along x                                    [pixel]
#   4 Y_IMAGE                Object position along y                                    [pixel]
#   5 X_WORLD                Barycenter position along world x axis                     [deg]
#   6 Y_WORLD                Barycenter position along world y axis                     [deg]
#   7 A_WORLD                Profile RMS along major axis (world units)                 [deg]
#   8 B_WORLD                Profile RMS along minor axis (world units)                 [deg]
#   9 THETA_WORLD            Position angle (CCW/world-x)                               [deg]
#  10 FWHM_WORLD             FWHM assuming a gaussian core                              [deg]
#  11 ELONGATION             A_IMAGE/B_IMAGE                                           
#  12 ELLIPTICITY            1 - B_IMAGE/A_IMAGE                                       
         1 -17.6434     90.8689    158.2221   1.0369785149e+02   3.0550946731e+01     7.233616     5.070528 -88.30   0.03553064    1.652    0.395
         2 -16.0598     93.8683    221.8068   1.1174665760e+02   1.6342968763e+01     2.886432     1.619316 -41.69   0.01415797    2.765    0.638
         3 -17.7178     63.6995    209.0251   1.1653402082e+02   2.3083802678e+01     6.017669     3.137167  60.75   0.03145148    1.859    0.462
         4 -17.1586     85.8626    185.8307   1.0908082460e+02   2.4980702305e+01     4.896777     2.719013 -37.14   0.02069166    3.001    0.667
         5 -15.1192     51.5086      4.1529   6.9611698777e+01   6.7991385682e+01     1.266448    0.4258351  46.63  0.005468026    3.111    0.679
         6 -15.9118    169.6150      7.1620   4.2777627429e+01   4.1639995889e+01     3.458552     1.084425  68.96    0.0127476    2.853    0.649
         7 -16.3533    119.5280      4.4610   4.9927541707e+01   5.4179843015e+01     5.153147    0.8384084  63.63   0.01383953    5.579    0.821
         8 -12.9651     33.8571     14.0892   8.2546239351e+01   6.9200712515e+01     0.257176    0.1814968 -40.83 0.0008161615    1.605    0.377
         9 -12.7793     45.2102     12.0147   7.6285979672e+01   6.7992665813e+01    0.2134086    0.1615653  20.46  0.001274296    1.230    0.187
        10 -12.3979      3.5261      8.4945   9.6008377505e+01   7.2919371556e+01    0.2094859    0.1521242 -25.06   0.00154225    1.021    0.021
        11 -13.6621     65.1945     10.4066   6.7449848210e+01   6.5000347956e+01    0.4020164    0.3020367   1.94  0.001477687    1.178    0.151
        12 -15.5051     87.2901      5.0331   5.7832221222e+01   6.1301722988e+01     1.701329    0.6846761  52.93   0.00765223    2.188    0.543
        13 -12.8104     50.3844     14.0861   7.5070215279e+01   6.6965195688e+01    0.2262184    0.1736007  32.66 0.0008547795    1.380    0.275
        14  99.0000    159.8851    230.6309   9.9660485429e+01   4.3614485532e+00     5.351316     2.638523  15.48   0.01390468    8.520    0.883
        15 -11.7967    143.7650    247.0127   1.0495810811e+02   4.3369546234e+00    0.1826163    0.1381084  41.40 0.0004804526    1.067    0.063
        16 -13.4772    148.4323    232.4628   1.0216971663e+02   5.9187348561e+00     0.738622    0.5805014 -54.96   0.00469242    1.536    0.349
        17 -12.9080    149.6766    247.3065   1.0387785694e+02   3.3779289408e+00    0.8283053    0.2408933  45.23  0.002740754    3.024    0.669
        18 -14.1700    167.0328    214.8734   9.5837790754e+01   5.7691779843e+00     2.106516     2.042735 -36.41   0.00826404    1.200    0.166
        19 -16.8595    190.7278    246.6743   9.6105945145e+01  -2.8613554873e+00     3.605562     2.345126  26.91  0.009596412    1.294    0.227
        20 -12.0281    132.2850    246.6926   1.0709012047e+02   6.1516853548e+00    0.2439463    0.1562894 -78.44  0.001067269    2.365    0.577
        21  99.0000    125.6138    242.2609   1.0784119288e+02   7.8914838373e+00    0.4739037    0.2447188  47.27  0.002555219    1.626    0.385
        22 -11.8906    140.1580    250.7265   1.0608556532e+02   4.3196475415e+00    0.2592573   0.08698632  40.93  0.001152647    2.348    0.574
        23 -11.4935    136.7326    249.3820   1.0656829831e+02   5.0494195061e+00    0.2562577    0.1763289 -32.81  0.001036968    2.051    0.512
        24 -12.6398    135.3009    239.9794   1.0570657751e+02   6.7694704594e+00    0.3602091    0.1311324  43.45  0.001609945    2.248    0.555
        25 -11.9472    130.0823    236.5079   1.0629018259e+02   8.1606095913e+00    0.5513152    0.3301608 -66.26  0.003027736    2.186    0.543
        26 -11.4268    137.5689    243.4964   1.0570364289e+02   5.8481947070e+00    0.1983737    0.1673196  52.66 0.0001094843    1.117    0.105
        27 -12.0200    140.5403    242.5205   1.0501491057e+02   5.5420923721e+00    0.2100309    0.1749117  66.84 0.0007336202    1.322    0.243
        28 -10.7290    119.9818    249.5568   1.0972334988e+02   7.5503697447e+00    0.2899313    0.1381181  62.84  0.001268916    3.212    0.689
        29  -9.9161    135.7549    214.8131   1.0225882366e+02   1.1070171460e+01    0.1129512   0.09002582  23.71 0.0006410095    1.347    0.257
        30 -11.2341    156.8109    212.2290   9.7507036696e+01   7.9731135849e+00    0.2645861    0.1819529 -45.43 0.0009793367    1.642    0.391
        31 -11.6831    131.2392    211.4201   1.0271355128e+02   1.2454318040e+01     0.241553    0.1980424  16.59  0.001415167    1.424    0.298
        32 -10.5309    152.9959    211.3314   9.8154776147e+01   8.7864158259e+00    0.1773508    0.1424938  38.80 0.0002605996    1.099    0.090
        33 -10.3703    148.4249    207.6181   9.8525865450e+01   1.0246476680e+01    0.1710915    0.1646427   8.52 0.0001181743    1.116    0.104
        34 -11.5947    144.6109    205.7486   9.9036563141e+01   1.1251897381e+01    0.3620939    0.1638174  46.39  0.001556626    2.077    0.519
        35 -11.1180    128.3904    206.8758   1.0265656701e+02   1.3798230734e+01    0.1959788    0.1593406 -44.36 0.0009084343    1.412    0.292
        36 -10.8697    132.8814    204.1671   1.0129290005e+02   1.3564901647e+01    0.1788677    0.1587215  70.13 0.0003473984    1.164    0.141
        37 -10.6671    120.1436    204.5174   1.0408105438e+02   1.5631077469e+01     0.174334    0.1157759  48.64 0.0004175871    1.367    0.268
        38 -11.6807      2.4520    202.2168   1.2797546531e+02   3.1091694036e+01    0.2351321    0.1550354 -64.03  0.001627328    1.676    0.403
        39 -13.1175    155.5838    240.9982   1.0193413760e+02   3.4197139570e+00     1.389465    0.2459205  41.80  0.004394201    4.526    0.779
        40 -11.8560    148.1857    198.9751   9.7181294014e+01   1.1907786707e+01    0.3154232    0.1775229  43.96 0.0005433388    1.628    0.386
        41 -11.3793    149.6577    195.1787   9.6227096368e+01   1.2374038375e+01    0.2320332    0.2042307  62.02 0.0003318107    1.206    0.171
        42 -13.3925    147.3411    188.1232   9.5514277596e+01   1.4173699544e+01    0.5131385    0.3275078 -40.25  0.002114632    1.743    0.426
        43 -11.9553      2.7688    193.3256   1.2743309350e+02   3.2898102407e+01    0.2905237    0.1666836 -59.11  0.001824575    1.959    0.490
        44 -10.7539    124.3048    187.0445   1.0049137275e+02   1.8499067173e+01      0.17509    0.1645893 -82.86 0.0001558719    1.097    0.089
        45 -12.1117    129.2910    184.8484   9.8995687795e+01   1.8086353370e+01    0.4850372    0.2267026  42.66  0.002036923    1.993    0.498
        46 -11.9390    136.9967    184.4594   9.7183753837e+01   1.6790833757e+01    0.2702318    0.2002353 -50.12 0.0007217603    1.434    0.303
        47 -17.4025     68.3912    181.8638   1.1256039904e+02   2.8337370919e+01     2.170521     1.573415  85.90   0.01247248    1.329    0.247
        48  -9.8389      2.5196    183.4319   1.2690453176e+02   3.5011216957e+01    0.1129438   0.08543725  85.21 4.064408e-05    1.037    0.036
        49 -11.8833     29.3963    182.0502   1.2124040543e+02   3.2874973021e+01    0.2082084    0.1431136  54.14 0.0006894547    1.361    0.265
        50 -12.1634    135.0832    230.8093   1.0458557601e+02   8.3384554694e+00    0.4747887    0.2423363  58.00  0.002174202    2.473    0.596
        51 -12.6021    124.6303    178.5668   9.8995310685e+01   2.0246183238e+01     0.242213    0.2344467  41.93 0.0004697833    1.070    0.066
        52 -13.2985      3.1473    175.5496   1.2628293485e+02   3.6665629839e+01    0.4770747    0.2585498  88.85  0.002880098    1.486    0.327
        53 -10.8983      4.8560    169.6696   1.2552807865e+02   3.7824913487e+01    0.1519593    0.1223451 -87.46 0.0001950266    1.110    0.099
        54 -11.7640    128.9804    176.6958   9.7657120037e+01   1.9871915230e+01    0.2236877    0.2039632 -25.69  0.000216302    1.238    0.192
        55 -11.9057    128.4499    173.4395   9.7198125365e+01   2.0670885407e+01    0.4142877    0.2785245 -85.91  0.001182276    2.217    0.549
        56 -11.9926    116.2965    176.8965   1.0065754775e+02   2.2067319917e+01    0.3334718    0.2234987  39.85  0.000249513    1.449    0.310
        57 -12.4839    115.7020    171.8591   9.9936606523e+01   2.3285019066e+01     0.272573    0.2414786 -59.08 0.0004442679    1.155    0.134
        58 -10.8820    155.8455    176.0605   9.1400677947e+01   1.5011501145e+01    0.2155821    0.1871328  69.60 0.0005891999    1.319    0.242
        59 -10.4150    140.0223    173.9869   9.4604087928e+01   1.8424349444e+01    0.1624896    0.1595949  55.78            0    1.029    0.028
        60 -13.7275    110.9056    219.3345   1.0799766476e+02   1.4235886770e+01    0.8938941    0.5606279 -62.81  0.004966383    1.783    0.439
        61 -11.3941    111.5763    242.9884   1.1059601525e+02   9.8886932403e+00    0.1575307     0.105065  35.85 0.0008173528    1.401    0.286
        62 -15.3022     25.4993    177.1964   1.2166662586e+02   3.4341762091e+01     1.572199     1.072935  -7.37  0.008694402    2.784    0.641
        63 -11.9565     15.7055    158.0926   1.2220098716e+02   3.9564458496e+01    0.3728185    0.1610338 -72.46  0.001005364    1.849    0.459
        64 -11.8206      7.0802    162.9362   1.2455367233e+02   3.9156208631e+01    0.2338311    0.1482759 -57.14 0.0007589403    1.647    0.393
        65 -11.0268     11.0441    161.4841   1.2355418219e+02   3.9171144257e+01    0.1852113    0.1499652  80.67 0.0006423321    1.093    0.085
        66 -13.9904    110.1326    203.1946   1.0605400922e+02   1.7525512741e+01    0.6905885    0.5671141  50.35  0.004164976    1.093    0.085
        67 -10.7331    142.8922    160.6711   9.1331460714e+01   2.0728956414e+01    0.2104962    0.1870306  51.43 0.0005958455    1.122    0.109
        68 -10.6047    150.9212    158.6818   8.9033132593e+01   1.9579291081e+01    0.2100492    0.1918062  43.26 0.0006233142    1.078    0.072
        69 -11.1703      1.6633    158.0157   1.2538918109e+02   4.0669747961e+01    0.1670584    0.1181818 -72.57 0.0004701714    1.224    0.183
        70 -14.7781    247.8689    115.0875   5.9880799437e+01   7.9020558437e+00    0.9014112    0.5359695 -39.99  0.004454369    1.486    0.327
        71 -14.5690    248.3061    150.0820   6.7611033653e+01   2.1623596358e+00    0.9214891    0.7247538 -76.38  0.004850985    2.194    0.544
        72 -10.9741    144.6368    153.7834   8.9481256240e+01   2.1882736880e+01    0.2499825    0.2008157  29.93 0.0007335116    1.299    0.230
        73 -11.4664    148.1256    148.3196   8.7462195142e+01   2.2372311028e+01    0.4291584    0.2439618  37.17  0.001518843    1.821    0.451
        74 -12.6011      7.5638    155.5474   1.2386185530e+02   4.0794957749e+01    0.2096985    0.1628248 -74.67 0.0003521633    1.157    0.135
        75 -11.6165     12.6213    147.9379   1.2200566351e+02   4.2161215995e+01    0.2308605    0.1544655  49.15 9.100338e-05    1.570    0.363
        76 -10.9837    120.3586    233.0801   1.0777661938e+02   1.0262167469e+01    0.1575676    0.1452253  20.53 0.0006340825    1.276    0.216
        77 -12.5424      3.5712    139.4752   1.2343851216e+02   4.4777298109e+01    0.3095928    0.2358515 -17.16  0.002053938    1.897    0.473
        78 -14.6868    246.9136    142.1380   6.6107819336e+01   3.6811749476e+00     1.042412    0.4283317 -44.38  0.004153378    2.563    0.610
        79 -11.5462    116.3871    237.3320   1.0904819065e+02   1.0132817193e+01    0.2675748    0.1457261  42.32  0.001464657    1.516    0.340
        80 -12.2695    145.5733    116.1028   8.0331616102e+01   2.9953605994e+01    0.2845059    0.2525091  39.33 0.0002596922    1.148    0.129
        81 -11.2523    157.5225    154.9683   8.6709634572e+01   1.9043315611e+01    0.2441059    0.2024509  56.31 5.232236e-05    1.291    0.225
        82 -11.8329     20.9638    116.0182   1.1612464759e+02   4.9079216798e+01    0.2018212    0.1632761 -70.06 0.0009189232    1.014    0.014
        83 -11.6139    118.1036    227.3134   1.0752510049e+02   1.1637139553e+01    0.3968128    0.2639867 -25.84  0.002012975    2.642    0.621
        84 -15.0223    247.9556    128.1535   6.2831034223e+01   5.7583616651e+00     1.079568    0.6268523 -42.02  0.005269793    1.603    0.376
        85 -11.7211    151.2728    108.0324   7.6783541961e+01   3.0407003938e+01    0.2706031    0.2163058  34.53 0.0005179688    1.316    0.240
        86 -16.2086     37.2385    160.0939   1.1731412729e+02   3.7089372655e+01     3.360553     1.603643  22.13   0.01559203    2.920    0.657
        87 -11.4414      1.6901    105.2744   1.2037279218e+02   5.2862662800e+01     0.226672    0.1267357 -66.42 0.0008726349    1.342    0.255
        88 -10.0759    138.6834    223.2029   1.0284224631e+02   9.0768570948e+00     0.237776    0.1397699 -38.55 0.0009736964    2.204    0.546
        89 -12.1121    119.8333    102.6544   8.3487906326e+01   3.8378296727e+01    0.2696422    0.2056733 -35.53 0.0008146016    1.315    0.239
        90 -11.5320    140.9531    228.7965   1.0315192307e+02   7.7392232019e+00    0.2563938    0.1797455 -47.90 0.0009564471    1.682    0.405
        91 -11.6985    129.2041    101.1924   8.0525272864e+01   3.6734756299e+01    0.2154747     0.189217 -80.06 0.0005667552    1.327    0.247
        92 -10.6626    142.8225     95.8629   7.5477974990e+01   3.4850903595e+01    0.2180338     0.190824 -77.60 0.0006820156    1.331    0.248
        93 -10.5315    117.2022     94.8653   8.2030413934e+01   4.0620955021e+01    0.2312897    0.2110329  89.08  0.000653435    1.265    0.210
        94 -10.2144     19.5061     95.4552   1.1339205183e+02   5.4066786770e+01    0.1264291    0.1030002 -66.96 0.0002749387    1.049    0.047
        95 -10.3084     14.5037     88.6004   1.1386952351e+02   5.6001747635e+01    0.1243552   0.09818189 -57.80 0.0008017109    1.037    0.036
        96 -11.2604     89.5457     85.6218   8.7649331264e+01   4.7892185964e+01    0.2855491    0.2245336 -38.33  0.001196612    1.190    0.159
        97 -12.0014    244.1333     84.8101   5.3372530497e+01   1.3516668499e+01    0.1863677    0.1627018   0.88  0.000937656    1.344    0.256
        98 -10.5256    120.6243    229.6338   1.0730695702e+02   1.0828231488e+01    0.1244348   0.09595128   0.37 -7.608507e-05    1.968    0.492
        99 -10.3635     76.7373     71.3825   8.7539724277e+01   5.3066751478e+01    0.1792811    0.1335378  20.40 0.0004604811    1.472    0.320
       100 -10.6080     99.2494     61.4491   7.6790275492e+01   5.0989458505e+01     0.250375    0.1831305 -59.72    0.0011877    1.789    0.441
       101 -12.2957    250.1153     57.8515   4.6359051020e+01   1.6305423335e+01    0.3693957    0.1057359 -40.16  0.001378259    2.764    0.638
       102 -10.8510     55.2941     45.9066   8.6701389304e+01   6.1231375750e+01    0.2165415    0.1713882  32.19 0.0007849461    1.415    0.293
       103 -12.3212    125.8985     40.0427   6.1695806129e+01   4.8670158474e+01    0.5564658    0.2792515  44.02  0.002120698    1.936    0.483
       104 -11.4276    130.6940    221.9782   1.0429720126e+02   1.0596298166e+01    0.2363145    0.1863841  64.95  0.001039859    1.323    0.244
       105 -10.0836    239.0184     24.9778   3.9930950793e+01   2.3056473691e+01    0.1522883    0.1290519 -66.03            0    1.006    0.006
       106  99.0000    133.2894    217.6212   1.0316731559e+02   1.0963223858e+01    0.3791797    0.1469098  49.18   0.00152652    2.601    0.616
       107 -13.0262    125.6249    217.8239   1.0477557101e+02   1.2178162915e+01    0.3639762    0.3374561  60.96  0.001983583    1.082    0.076
       108 -13.1650    123.4459    210.2537   1.0418929964e+02   1.3965700863e+01    0.4293704    0.2993608 -40.88  0.002346256    1.762    0.433
       109 -11.6874    130.0540    191.6156   9.9942908721e+01   1.6551630602e+01    0.3760255    0.2662898 -53.54 0.0008333769    1.515    0.340
       110 -12.3718    116.6035    195.1367   1.0348257005e+02   1.8120047224e+01    0.7088944    0.2826233 -45.52  0.002734671    3.081    0.675
       111 -14.0936    126.8812    198.3175   1.0170031754e+02   1.5740131791e+01    0.5665535    0.4478135  26.79  0.003180817    1.362    0.266
       112 -13.7575    122.0047    195.9847   1.0241542654e+02   1.7039742557e+01    0.4949359    0.2713927  47.90  0.002329635    1.713    0.416
       113 -13.2701    166.3561    241.4233   9.9932783507e+01   1.6563615911e+00    0.3518236    0.3379377  42.70  0.000308015    1.225    0.184
