#   1 NUMBER                 Running object number                                     
#   2 MAG_AUTO               Kron-like elliptical aperture magnitude                    [mag]
#   3 X_IMAGE                Object position along x                                    [pixel]
#   4 Y_IMAGE                Object position along y                                    [pixel]
#   5 X_WORLD                Barycenter position along world x axis                     [deg]
#   6 Y_WORLD                Barycenter position along world y axis                     [deg]
#   7 A_WORLD                Profile RMS along major axis (world units)                 [deg]
#   8 B_WORLD                Profile RMS along minor axis (world units)                 [deg]
#   9 THETA_WORLD            Position angle (CCW/world-x)                               [deg]
#  10 FWHM_WORLD             FWHM assuming a gaussian core                              [deg]
#  11 ELONGATION             A_IMAGE/B_IMAGE                                           
#  12 ELLIPTICITY            1 - B_IMAGE/A_IMAGE                                       
         1 -13.1006    249.8492     83.0489   3.5611721362e+01   1.5044445485e+01    0.8682241    0.1229387 -42.81   0.00267256    4.967    0.799
         2 -11.6790     24.4028     77.9908   9.1539234838e+01   5.8435253207e+01    0.7506462    0.2175774 -56.58  0.002840796    2.919    0.657
         3 -11.2781     82.2068     70.8153   6.6775737352e+01   5.2176731220e+01    0.7407634     0.263037 -45.83   0.00264235    3.055    0.673
         4 -10.6276     92.1463     48.9964   5.6268254123e+01   5.3887537318e+01     0.407825    0.1795454 -43.25  0.001683265    2.688    0.628
         5 -11.5333      4.9349     40.0636   8.9852153080e+01   6.7447204644e+01    0.4738181    0.1711937 -61.24  0.001920217    3.855    0.741
         6 -10.1105     40.8525     13.9692   6.1396121448e+01   6.7503853317e+01     0.182025    0.1262206  11.73    0.0002527    1.222    0.182
         7 -11.1802    162.2630    225.2598   7.9971778651e+01   3.4468080946e+00     0.413718    0.2428738  18.39  0.001919909    1.827    0.453
         8  -9.6582    171.4046    225.5246   7.7982402404e+01   2.0050965953e+00    0.1368832    0.1195411   1.30 5.504264e-05    1.019    0.018
         9 -10.3071     99.4537    225.1440   9.4667283930e+01   1.3096826369e+01    0.2478646    0.1860128  34.71 0.0007467822    1.228    0.186
        10 -10.1373     60.9963    223.5069   1.0359440053e+02   1.8740070813e+01    0.2071921   0.08150351  50.15 0.0008105605    2.627    0.619
        11 -10.7890    126.0431    220.5299   8.7627012476e+01   1.0056176806e+01    0.2370546    0.2026581 -89.01 0.0006373274    1.460    0.315
        12  -9.9225     75.3156    219.6717   9.9766128539e+01   1.7741402971e+01    0.1452743   0.09530487  63.38 0.0006762472    1.676    0.403
        13  -9.4735    143.9861    216.5116   8.2715203224e+01   8.0657594229e+00    0.1995926    0.1198885   6.93 0.0008079149    2.373    0.579
        14 -10.4086    185.8449    213.5623   7.2740957602e+01   2.0643326972e+00    0.2571425    0.1817268 -56.65  0.001144382    1.865    0.464
        15 -11.1604    185.9292    203.3434   7.0843755355e+01   4.0052418139e+00    0.3280798    0.1959869 -42.06  0.001395283    1.630    0.387
        16 -11.2810    164.6318    200.8151   7.5116288617e+01   7.9683452131e+00    0.5613348    0.2441427 -46.24  0.002212443    2.300    0.565
        17 -12.2671    243.8341    180.4666   5.5341330784e+01  -4.5955857568e-01    0.3897831    0.1911248 -43.92  0.001647649    1.824    0.452
        18 -13.5281    248.9454    179.9212   5.4395327756e+01  -1.0645932559e+00     1.287501    0.3202413 -41.38  0.004662624    3.320    0.699
        19 -14.9329    247.3983    154.2166   4.9746679110e+01   3.5730242711e+00     2.587775    0.7495149 -46.73  0.009336228    3.317    0.699
        20 -10.1931     89.1704    199.0588   9.3543624073e+01   2.0631108125e+01    0.2452525    0.1640297  79.18  0.001085449    2.017    0.504
        21 -10.9678    172.7665    195.5826   7.2275770688e+01   7.6951266317e+00    0.2007506    0.1328885  43.55 0.0009458766    1.656    0.396
        22  -9.5976    209.5736    194.2034   6.4219212734e+01   2.0686987976e+00    0.2010537    0.1142504 -31.38 0.0007580504    1.661    0.398
        23  -9.6486    215.3181    193.6459   6.2991238085e+01   1.3071907721e+00     0.125302    0.1092921 -74.11 0.0007046408    1.746    0.427
        24 -13.2342    249.1030    195.9607   5.7340129724e+01  -3.7607413566e+00    0.9133518    0.3533446 -44.24  0.004092265    2.410    0.585
        25 -10.0494     44.0250    193.5161   1.0447907185e+02   2.7907446954e+01    0.2029986   0.08785802  50.67 0.0008097695    2.494    0.599
        26  -9.5182    179.4724    190.4975   6.9796172372e+01   7.6140361367e+00    0.1457371     0.131666 -10.20 0.0003331498    1.011    0.011
        27 -10.1291    139.3081    189.6431   7.9085678257e+01   1.4702803037e+01    0.1515138    0.1207419  76.01 0.0007041979    1.728    0.421
        28 -10.2085     87.6435    189.3332   9.2460257418e+01   2.3231968983e+01    0.1593793    0.1086285  65.29  9.04684e-05    1.795    0.443
        29 -12.0372    230.2420    186.4017   5.8825460482e+01   4.2270954444e-01    0.2625946    0.2047247 -43.33   0.00155966    1.320    0.242
        30 -11.0251     96.9800    187.5074   8.9673376837e+01   2.2255847504e+01    0.5276349    0.1713291  40.25  0.001737166    2.943    0.660
        31 -11.1690     92.8745    183.0690   9.0037909477e+01   2.3990157658e+01    0.3750489    0.2229905 -54.58  0.001504572    1.659    0.397
        32 -10.1481     55.5837    187.2044   1.0071196625e+02   2.8127799408e+01    0.3201574    0.1128372  53.27 0.0009571065    4.325    0.769
        33 -10.7797    110.7024    185.4048   8.5662106909e+01   2.0561117116e+01    0.3015464    0.2865268 -20.65 0.0007913174    1.069    0.064
        34 -10.2855    203.6985    183.4518   6.3295373242e+01   5.0183260295e+00    0.2574685     0.116239 -42.07  0.001073176    2.034    0.508
        35 -10.0176     74.8126    184.2067   9.5125051362e+01   2.6364987324e+01    0.2646605    0.1420867  65.34 0.0009592896    2.887    0.654
        36 -10.4399    173.9855    182.2633   6.9390375042e+01   1.0257451795e+01    0.3356355    0.2012826 -52.42   0.00147383    1.832    0.454
        37  -9.6976    211.5077    182.4716   6.1560661123e+01   3.9616399723e+00    0.1404588    0.1192549 -18.51 0.0008097956    1.028    0.027
        38  -9.5856    197.3928    182.1964   6.4327826427e+01   6.2906066692e+00    0.1995779    0.1281227 -50.38  0.000945596    1.680    0.405
        39 -11.2238    225.0080    191.9888   6.0844389619e+01   1.8553473388e-01    0.1688779    0.1327317 -26.84 0.0006594913    1.079    0.073
        40 -11.0158     78.2590    176.0876   9.2906264601e+01   2.7930613437e+01    0.3753526    0.2155425  66.94  0.001419195    2.653    0.623
        41 -10.0807     60.6392    177.3325   9.7996733667e+01   2.9999844357e+01    0.1570225    0.1025711  64.77 0.0007039714    1.806    0.446
        42  -9.8622     13.4921    176.9907   1.1059685557e+02   3.4967004652e+01    0.2886135    0.1041931  56.20  0.001050651    3.574    0.720
        43 -10.0695    183.4455    174.5205   6.5722464112e+01   1.0215671548e+01    0.3137232    0.1364538 -44.28  0.001144927    2.183    0.542
        44 -13.7661    249.1982    120.4159   4.2916965423e+01   9.1058218618e+00    0.9581541     0.331959 -43.89  0.004063894    2.354    0.575
        45 -10.6171    101.0141    175.9887   8.6582826949e+01   2.4460638593e+01    0.2107256    0.2089502 -18.24  0.001158087    1.004    0.004
        46 -10.5240    176.6756    169.6450   6.6200552865e+01   1.2442894702e+01    0.3762159    0.1677615 -42.75  0.001442599    2.138    0.532
        47 -10.6923    122.3101    169.8303   7.9625699647e+01   2.2341550048e+01    0.3410181    0.2407841  63.39   0.00146682    1.880    0.468
        48 -10.0519    206.4591    169.0083   5.9844446706e+01   7.3592781436e+00     0.222427    0.1269813 -42.55 0.0008332888    1.598    0.374
        49 -10.3744    139.6481    165.3717   7.4168072218e+01   2.0244617841e+01    0.3419438    0.2295447  77.84   0.00126148    2.823    0.646
        50 -10.5349     99.4365    166.1548   8.5192713705e+01   2.7177623820e+01    0.3994944    0.1883179  49.98  0.001397257    2.643    0.622
        51 -10.1243    192.0000    164.4165   6.1805363934e+01   1.0773704049e+01    0.3261301   0.07776824 -44.36 0.0009311654    3.906    0.744
        52 -10.5350     80.2852    164.1186   9.0295117224e+01   3.0693637656e+01    0.4646157    0.2613888  75.51  0.001508751    3.657    0.727
        53 -11.2663    213.3653    163.3958   5.7376953453e+01   7.2843118406e+00    0.2816785    0.1606363 -43.38  0.001332158    1.586    0.370
        54 -10.0195     37.7699    164.0366   1.0258338815e+02   3.6040868037e+01    0.1944916    0.1066733 -69.19 0.0008835922    1.664    0.399
        55 -14.1167    248.0902    135.3154   4.5974845519e+01   6.7409427728e+00     1.154691    0.5075945 -42.22  0.005444912    1.861    0.463
        56  -9.6347     47.3257    163.6752   9.9794085794e+01   3.5109200468e+01    0.1495509    0.1024483  66.89 0.0005556685    1.692    0.409
        57 -10.7548    205.5449    161.1689   5.8408391774e+01   9.0434200790e+00    0.3495373    0.1266483 -41.17  0.001282345    2.510    0.602
        58 -10.6232     93.3208    160.3456   8.5821003743e+01   2.9640821524e+01    0.3183845     0.215339  67.52  0.001324739    2.050    0.512
        59  -9.9149    152.4627    160.5364   6.9922657086e+01   1.8946718684e+01    0.1523208    0.1488328 -23.37 0.0001351919    1.057    0.054
        60 -10.4199    106.2113    158.2716   8.1717765998e+01   2.8008242106e+01    0.3277159    0.1749729  53.84  0.001179519    2.503    0.601
        61 -10.1583    197.0618    156.6704   5.9136818156e+01   1.1431402925e+01    0.2654509    0.1834639 -48.47  0.001201902    1.425    0.298
        62 -10.4221    120.0059    155.5261   7.7287996945e+01   2.6227703240e+01    0.3205625    0.2031438  86.20  0.001039786    3.519    0.716
        63 -10.6557     81.8675    154.4853   8.8053106830e+01   3.2928333229e+01    0.3744682    0.2483714  64.70  0.001577689    2.035    0.509
        64 -10.7699     49.9162    154.8615   9.7709158309e+01   3.7097692357e+01     0.346673    0.1917172  58.11  0.001421609    2.372    0.578
        65  -9.9271    204.5159    154.0022   5.7107353118e+01   1.0628136002e+01    0.2226583    0.1290227 -41.92 0.0008136854    1.561    0.359
        66 -10.4555    134.3049    153.4791   7.2993274501e+01   2.4043091205e+01     0.325297    0.2202604  67.78  0.001286716    2.260    0.558
        67 -10.6490     68.0013    153.6480   9.2058494429e+01   3.5140343594e+01    0.2833022    0.2096581  81.59  0.001329144    1.674    0.402
        68 -11.6608    234.5382    146.6488   5.0286785236e+01   6.9077600621e+00    0.3937773     0.174249 -48.51  0.001702627    2.170    0.539
        69 -10.2509    199.6478    147.0524   5.6568554890e+01   1.2879932161e+01    0.3373361     0.125884 -42.91  0.001230087    2.445    0.591
        70 -10.6750     39.5488    147.4200   9.9697764426e+01   4.0150941906e+01    0.4078743    0.2145512  64.73  0.001567919    2.912    0.657
        71 -11.1445    107.6456    145.1252   7.8511321448e+01   3.1016918164e+01    0.6453078    0.3963858  73.05  0.002142285    3.376    0.704
        72 -11.3223     56.1385    145.3827   9.4228166274e+01   3.8816239387e+01    0.5286987    0.3101557  69.58  0.002059127    2.691    0.628
        73 -10.9575    149.7880    145.3365   6.7199155958e+01   2.2909092024e+01    0.4290464    0.3026838  78.11  0.001719604    2.357    0.576
        74 -10.1356     13.4784    145.9810   1.0735806180e+02   4.2773086854e+01     0.190172   0.09933497  78.91  0.000790567    2.450    0.592
        75 -11.1594    125.6065    143.2907   7.3036425151e+01   2.8122525417e+01     0.428975    0.3157734 -86.82  0.001796127    2.045    0.511
        76 -10.7437     88.0926    143.6933   8.4010579928e+01   3.4706442618e+01    0.3424774    0.2439523  85.09  0.001448708    2.045    0.511
        77 -10.9151    189.4236    148.6914   5.8971266787e+01   1.4454176688e+01    0.4621991    0.2263379 -49.15    0.0017689    2.055    0.513
        78 -11.0216     22.9744    137.3336   1.0334586930e+02   4.4253644372e+01    0.5058939    0.2448303  79.87  0.001810504    3.586    0.721
        79 -10.0307    197.3963    135.2717   5.4435512770e+01   1.5634278378e+01    0.2811343    0.1296501 -38.94 0.0008218383    2.061    0.515
        80 -10.3306    113.2210    133.4836   7.4231253217e+01   3.2821686150e+01    0.3695614    0.2433121  88.31  0.001287387    3.071    0.674
        81 -11.4378     83.5667    131.3035   8.2722276510e+01   3.8542465278e+01    0.5344602    0.3456404 -76.94  0.002070041    2.211    0.548
        82 -10.1243    143.4848    131.9839   6.5647578902e+01   2.7185107021e+01    0.2211985    0.1390553 -69.52 0.0008100517    2.513    0.602
        83 -11.1117    132.5374    131.5589   6.8396318748e+01   2.9501650089e+01     0.429671    0.3033895  89.97  0.001684706    2.411    0.585
        84 -10.0917    153.1644    129.3298   6.2611774379e+01   2.5778908821e+01    0.3402276    0.1795497 -63.97  0.001085272    3.368    0.703
        85 -11.3136     99.3658    127.9075   7.7016751031e+01   3.6705958929e+01    0.6062607    0.4002446 -84.87  0.002255425    2.732    0.634
        86 -10.3251     73.0321    129.0443   8.5602185266e+01   4.0719773041e+01    0.3352919    0.2143455 -85.60  0.001305681    2.534    0.605
        87 -10.6752     12.3488    128.2973   1.0545226866e+02   4.7313375790e+01    0.4051879    0.1970745  81.18  0.001573448    3.191    0.687
        88  -9.9434    211.6897    201.3591   6.5160017305e+01   4.4292453427e-01    0.1234672    0.1097741 -75.84 0.0007042038    1.739    0.425
        89 -10.9088    118.0353    125.2303   7.0848817598e+01   3.3841841500e+01    0.4882069    0.3150648  69.93  0.001796629    2.691    0.628
        90 -11.1253     59.1392    123.3769   8.8982861946e+01   4.4054562382e+01    0.6441358    0.3678973 -89.28  0.002168621    3.721    0.731
        91 -11.5346     43.4584    121.3749   9.3915750975e+01   4.6401933086e+01    0.8956687    0.4525574 -84.57  0.002981279    3.862    0.741
        92 -11.2800     28.1692    121.6624   9.9197537550e+01   4.7792746162e+01    0.6825429      0.33966  78.01  0.002166889    4.785    0.791
        93 -10.8232    142.2432    119.2453   6.2830222577e+01   3.0248816692e+01    0.4571301    0.2727892 -65.87   0.00167625    2.603    0.616
        94 -10.4082     71.1643    119.9626   8.4176965143e+01   4.3245538476e+01    0.2421014    0.1766935  88.93  0.001028351    2.005    0.501
        95 -10.7421    131.1059    118.8464   6.5628926733e+01   3.2657934415e+01    0.3460515    0.2452438  88.62  0.001368429    2.392    0.582
        96 -10.7161      2.6898    115.8434   1.0691053855e+02   5.0962365267e+01    0.5367333    0.2236683  88.67  0.001909929    3.904    0.744
        97 -11.1462    109.2861    113.8810   7.0517237974e+01   3.8149018540e+01    0.5826057    0.2943644 -61.96  0.001943143    3.055    0.673
        98 -11.1455     78.8817    111.9130   7.9649226146e+01   4.4005469723e+01    0.5964678    0.3752379 -79.12  0.002235643    2.880    0.653
        99 -11.2698     92.4022    110.9750   7.4976756870e+01   4.1947900579e+01    0.7335092    0.3199287 -58.28  0.002445602    2.983    0.665
       100 -10.2787    154.6904    240.3425   8.4081989400e+01   1.7377770993e+00    0.1289869     0.103413  60.07 0.0007044737    1.696    0.410
       101 -10.9009     14.0531    109.8059   1.0208944284e+02   5.1782267588e+01    0.3950833    0.2366273 -86.69  0.001917263    2.028    0.507
       102 -10.2688    122.2304    112.2555   6.6358206144e+01   3.5933755774e+01     0.247488    0.1253221 -55.75 0.0008838457    2.412    0.585
       103 -12.0096     45.3421    101.5632   8.8999527099e+01   5.1031564775e+01    0.7994604    0.4852158  78.71  0.002896428    3.854    0.741
       104 -10.5137    150.4959    103.5156   5.6799875798e+01   3.1749374242e+01      0.28392    0.1372574 -52.60  0.001036195    2.415    0.586
       105 -10.6377    128.8727    102.1523   6.1856567762e+01   3.6702062080e+01    0.2418164    0.2158846  86.59  0.001236561    1.315    0.239
       106 -11.3140    109.3998     98.9545   6.6469742538e+01   4.1395965034e+01    0.5983565    0.3994144  75.16  0.002275305    2.801    0.643
       107 -10.4037     81.8304     99.3691   7.5369893934e+01   4.6404809745e+01    0.3487217    0.2136345 -65.85  0.001407599    2.358    0.576
       108 -10.2319    140.2453    104.9583   5.9662127757e+01   3.3686446110e+01    0.3126481    0.1975272  72.59  0.001167956    2.654    0.623
       109 -10.7387     94.9906     96.3519   7.0189870188e+01   4.4732086824e+01    0.3441454    0.2120958 -54.33  0.001485025    1.835    0.455
       110 -11.5476     63.5065     95.2887   8.0714296870e+01   5.0168806333e+01    0.5408887    0.3454169 -75.47  0.002217426    2.665    0.625
       111 -10.0185    138.8465     92.0083   5.6546076734e+01   3.6560849976e+01    0.2540992    0.1762866 -70.42   0.00108838    2.055    0.513
       112 -10.0070     58.0830     92.1628   8.1877016121e+01   5.1622052611e+01    0.1778576    0.1682894  50.81 0.0003136455    1.283    0.220
       113 -11.6709     22.2049    100.6966   9.7469052462e+01   5.3409047323e+01    0.8953995    0.4844779  86.96  0.003418919    3.597    0.722
       114 -11.2050    124.5213     90.5329   5.9823334561e+01   3.9966244349e+01    0.3274121     0.250551 -71.36   0.00130608    1.740    0.425
       115 -11.0832     34.6784     87.7581   8.9778367648e+01   5.5339237559e+01    0.7239618    0.2222689 -57.92   0.00260215    3.041    0.671
       116 -11.2891      5.1587     88.8339   1.0171988258e+02   5.7272602491e+01    0.6526934     0.128845 -55.10  0.002448175    2.932    0.659
       117 -11.1089     86.2895     86.3606   7.0164317620e+01   4.8413289937e+01    0.3373136    0.2605122  88.35  0.001551863    2.149    0.535
       118 -11.3203     48.5574     83.8893   8.3273237774e+01   5.4669715207e+01    0.4628658    0.3167283 -88.18  0.001990521    2.923    0.658
       119 -11.4880    104.4039     82.0125   6.3086494090e+01   4.5813900321e+01    0.5542145    0.2660159 -49.32  0.002149891    2.394    0.582
       120 -10.1664     74.4270     79.5763   7.2246847723e+01   5.1835838017e+01    0.4194789    0.1400756 -54.78  0.001143823    5.272    0.810
       121 -10.8660    160.1756    238.9752   8.2656316002e+01   1.1816123263e+00    0.1991476    0.1625415  82.61  0.001082525    2.001    0.500
       122 -10.7470    128.1121     75.2712   5.4522062023e+01   4.2002920850e+01     0.280937    0.1911702 -66.53  0.001230125    2.109    0.526
       123 -12.9811    249.3507    106.4715   4.0185526954e+01   1.1403287633e+01    0.4744405    0.2339414 -40.26  0.002406118    1.721    0.419
       124 -11.2359     62.4847     70.6247   7.3896205014e+01   5.5493331336e+01    0.7913459    0.1146641 -43.28  0.001924513    6.547    0.847
       125 -11.1074    237.3013    229.1411   6.5328269658e+01  -7.6045700820e+00    0.2164764    0.1437817   8.42 0.0008834311    1.407    0.289
       126 -11.2597     51.1503     68.0341   7.7554746190e+01   5.7612143454e+01    0.6088256    0.2204303 -55.06   0.00208395    3.848    0.740
       127 -10.1187    119.3840     80.1770   5.8243116353e+01   4.3030884601e+01    0.2124095    0.1370506 -51.24 0.0009498884    1.769    0.435
       128 -10.0674    121.3515     65.6846   5.3413649479e+01   4.5114685356e+01    0.1446032    0.1136827 -87.72 0.0007046709    1.733    0.423
       129  -9.9735    110.4753     63.9696   5.5798663942e+01   4.7756509884e+01    0.1946778    0.1218843 -61.13  0.000809604    2.502    0.600
       130 -10.6230     37.0291     63.2654   8.1990420262e+01   6.0272178366e+01    0.3127395    0.1681364 -60.11  0.001415254    2.502    0.600
       131 -10.1381    100.3920     59.5963   5.7305732679e+01   5.0581172664e+01    0.2700908    0.1175238 -50.06 0.0009609734    3.365    0.703
       132 -10.8442     73.1254     58.0019   6.5740560132e+01   5.6051873377e+01    0.4817101    0.1896903 -43.50  0.001907796    2.742    0.635
       133 -10.1198     24.8468     57.6328   8.5679191235e+01   6.2603544720e+01    0.3084266   0.09762962 -41.05  0.001242396    2.709    0.631
       134 -11.7912      7.6081     54.4903   9.2833900300e+01   6.4536867622e+01    0.6754348    0.1293579 -54.24  0.002522914    3.509    0.715
       135 -10.0078    119.3175     55.6598   5.0875111843e+01   4.7129105830e+01    0.1395641    0.1100898 -81.07 0.0007048947    1.709    0.415
       136 -10.7566     62.8275     52.4350   6.7654044007e+01   5.8708314758e+01     0.591374   0.09359258 -40.92  0.001551395    6.444    0.845
       137 -11.3222     44.7415     50.8615   7.4510372102e+01   6.1628974139e+01    0.6449647    0.1968998 -38.54   0.00241348    3.262    0.693
       138 -10.7804     53.7945     51.9151   7.1069535954e+01   6.0187108011e+01    0.5354486    0.1712447 -47.70  0.001898466    3.838    0.739
       139 -10.0192     85.3465    227.6782   9.8343326945e+01   1.4561069206e+01    0.1464187   0.09395295  60.78 0.0007049616    1.736    0.424
       140 -11.1592     66.5897    109.9950   8.3372926685e+01   4.6318703485e+01    0.4131487    0.2377765 -70.87  0.001612367    2.532    0.605
       141 -10.5687     94.9425     70.7670   6.2557864188e+01   4.9783009195e+01    0.4039836    0.1962053 -52.35  0.001532894    2.843    0.648
       142 -10.4430     17.0000     41.0004   8.4004654507e+01   6.6379030042e+01    0.3185723   0.08894391 -40.14  0.001296036    2.999    0.667
       143 -10.1381    191.8205    226.2003   7.3710710724e+01  -1.1282548808e+00    0.1917262    0.1391692  -4.24  0.001062795    1.331    0.248
       144  -9.6805    113.9748     41.4913   4.7750415494e+01   5.0286229819e+01    0.1844989   0.09768066  34.87 0.0003360714    2.150    0.535
       145 -10.2556     36.6740     39.5257   7.3957837736e+01   6.4554830534e+01    0.2199224    0.1062885 -41.07  0.001097588    2.035    0.509
       146 -10.6153     30.7326     50.1037   8.0522796631e+01   6.3433375018e+01    0.3402342     0.179716 -59.68  0.001533373    2.929    0.659
       147 -10.9688     27.7742     29.1532   7.4128029634e+01   6.7234301082e+01    0.3785074    0.1220229 -31.26  0.001454147    3.703    0.730
       148 -10.3183     57.7709     41.5448   6.5654599077e+01   6.1238584809e+01    0.2562538    0.1561808 -48.72  0.001287458    2.238    0.553
       149  -9.5821     40.5974     21.4468   6.4808230895e+01   6.6637096102e+01    0.1234181   0.09397347   7.28 -2.373341e-05    1.052    0.049
