#   1 NUMBER                 Running object number                                     
#   2 MAG_AUTO               Kron-like elliptical aperture magnitude                    [mag]
#   3 X_IMAGE                Object position along x                                    [pixel]
#   4 Y_IMAGE                Object position along y                                    [pixel]
#   5 X_WORLD                Barycenter position along world x axis                     [deg]
#   6 Y_WORLD                Barycenter position along world y axis                     [deg]
#   7 A_WORLD                Profile RMS along major axis (world units)                 [deg]
#   8 B_WORLD                Profile RMS along minor axis (world units)                 [deg]
#   9 THETA_WORLD            Position angle (CCW/world-x)                               [deg]
#  10 FWHM_WORLD             FWHM assuming a gaussian core                              [deg]
#  11 ELONGATION             A_IMAGE/B_IMAGE                                           
#  12 ELLIPTICITY            1 - B_IMAGE/A_IMAGE                                       
         1 -14.7143     68.2295    144.4550   9.0089235035e+01   3.7534483562e+01     4.967438     2.350529  86.05   0.01766836    3.936    0.746
         2 -13.9855    239.5602     22.5460   2.3779208114e+01   2.2038520952e+01     2.732458     1.421901  27.00  0.005843119    3.305    0.697
         3 -13.6527    218.1176     40.8083   3.0863433541e+01   2.5003979419e+01     1.275385     1.059631 -34.85  0.004529922    1.083    0.076
         4 -12.2098      2.8979     21.7001   8.8039483099e+01   7.2754943256e+01    0.5648125    0.2070846 -62.20  0.002682737    2.132    0.531
         5 -12.2063      6.9958      3.9125   7.7011161085e+01   7.6051813007e+01    0.6217533    0.2953169 -57.71  0.003186528    2.160    0.537
         6 -12.1019      2.7704      9.9062   8.3185807977e+01   7.5206958653e+01     0.420695    0.3635767 -74.80  0.003027939    1.424    0.298
         7  -9.0912     57.6925      2.3229   4.7647510192e+01   6.9168886403e+01    0.1250832   0.09911554 -50.30 0.0003494536    1.645    0.392
         8 -10.2952     54.5939    221.3582   1.0042508818e+02   2.4113928514e+01    0.1805835    0.1492654  66.78 0.0007512054    1.163    0.140
         9 -10.2087     86.7970    249.5485   9.6791808873e+01   1.5859869155e+01    0.1613422    0.1274318  85.34 0.0008091406    1.397    0.284
        10 -12.5068     44.7192    216.8251   1.0192534679e+02   2.6008295042e+01    0.7741767    0.3969867  64.59  0.002693669    1.644    0.392
        11 -14.7979      8.3367    210.3983   1.0814400070e+02   3.0809127629e+01     2.127302    0.7214832 -78.06   0.01033214    2.694    0.629
        12 -15.9529     26.2446    243.7794   1.0639188456e+02   2.3564778621e+01     7.389132     2.316616  27.96   0.02715148    7.570    0.868
        13 -13.2375     22.2865    199.6748   1.0512760925e+02   3.1436293489e+01    0.4668675    0.3395324 -84.01   0.00119471    1.348    0.258
        14 -16.0182     30.7717    186.4108   1.0271076309e+02   3.3110257689e+01     7.522669     2.573013  80.74   0.02536505    4.088    0.755
        15 -10.2427    192.1920    193.3854   7.1469153998e+01   8.2493729818e+00    0.3630641    0.2258649 -62.35  0.001669118    3.695    0.729
        16 -12.2742     53.1789    174.5635   9.7073877858e+01   3.2993054683e+01    0.5212929    0.3739509 -14.13  0.001647283    2.901    0.655
        17  -8.9492    116.4104    187.1911   8.5077242880e+01   2.1672170965e+01    0.1592524    0.1158939 -78.82 0.0007309481    1.644    0.392
        18  -9.0512     99.3465    181.0709   8.7830027354e+01   2.5426041826e+01    0.1656867    0.1452445  72.62 0.0004561445    1.069    0.064
        19 -11.9583    239.4110    177.3268   6.0716114391e+01   2.6135892007e+00    0.3127567     0.223528  41.62  0.001991911    1.520    0.342
        20  -9.4284    186.4927    174.9534   6.9303079808e+01   1.1788726391e+01    0.2423219    0.1763048  53.68  0.001380094    1.573    0.364
        21 -12.1023    242.9874    169.8153   5.8735967196e+01   2.9139183944e+00     0.723883    0.2986409  22.92  0.002745205    3.924    0.745
        22 -11.3618    231.1145    169.1295   6.0475683401e+01   4.9184179178e+00    0.3907347    0.2138313 -45.30  0.001915592    2.671    0.626
        23 -13.6754     56.6780    155.6820   9.4334892777e+01   3.6554100040e+01    0.6928911    0.3692564 -60.43  0.001847427    1.865    0.464
        24 -12.8301     77.9331    154.2240   8.9076119732e+01   3.4034454371e+01     0.837458    0.6257992 -63.73  0.001098934    1.347    0.258
        25 -11.2025     95.5274    241.7860   9.4732965808e+01   1.5857044880e+01    0.2280365    0.1423204 -76.76  0.001168055    2.002    0.501
        26 -11.7298     70.2474    160.2921   9.1684394154e+01   3.3802962225e+01    0.3153396    0.2554083  68.96 0.0004331151    1.076    0.071
        27  -9.2449    110.9596    167.9559   8.3492862274e+01   2.6129188387e+01    0.1998103    0.1430774  73.09 0.0004746369    1.581    0.368
        28  -8.7558    174.7018    149.3391   6.6586581833e+01   1.7992371177e+01    0.1320081     0.110921 -85.30 0.0004860859    1.661    0.398
        29  -9.1111    134.0000    146.4451   7.4622479000e+01   2.6324534475e+01    0.4585887   0.07926158 -48.33  0.001169127    6.063    0.835
        30 -10.2902     94.1387    141.1078   8.3087131559e+01   3.4423009085e+01    0.3031155    0.2856463 -61.76  0.000870364    1.158    0.136
        31  -9.6716     97.4818    137.9906   8.1704152928e+01   3.4558725157e+01    0.2846255    0.2264664 -13.14  0.001486306    1.867    0.464
        32 -11.2912     43.5177    140.6453   9.5858223199e+01   4.1456343234e+01    0.4025432    0.1996167  58.36  0.001489755    2.044    0.511
        33 -12.3582     81.7239    139.0945   8.5868451649e+01   3.6803278255e+01    0.2861234    0.2444909 -65.84 0.0004785659    1.167    0.143
        34  -9.0196    117.2475    137.8464   7.6829151903e+01   3.1156381750e+01    0.2409032    0.1497909  81.74 0.0009495887    2.822    0.646
        35  -8.6300    142.4137    137.5172   7.0910322132e+01   2.6460375988e+01     0.138961    0.1348008  71.14 0.0001764953    1.050    0.048
        36 -10.8571    106.4257    130.6866   7.8066949191e+01   3.4626346793e+01    0.3479502    0.3088758  23.94  0.001071696    1.307    0.235
        37 -11.5872     65.8719    126.7856   8.8031534892e+01   4.1893098529e+01    0.7008533     0.404424  70.49  0.003224988    2.156    0.536
        38 -12.0501     59.2606    169.2282   9.5207560579e+01   3.3349568704e+01    0.2729943    0.2639194  40.11 0.0008483868    1.355    0.262
        39 -11.1109    244.0144    122.5019   4.8609762058e+01   8.5951329130e+00    0.3357461    0.1941926  66.26   0.00150301    2.988    0.665
        40 -10.1997     28.3235    219.0383   1.0497727140e+02   2.7376257959e+01    0.1987317    0.1265655  43.91 0.0005875435    1.382    0.276
        41  -8.9483    114.4902    124.5142   7.4744778528e+01   3.4502333780e+01    0.1402626    0.1389008 -49.54 0.0002030104    1.088    0.081
        42  -9.6767    104.8798    119.0054   7.6009569553e+01   3.7475641525e+01    0.2018959    0.1934501 -78.07 0.0003210872    1.032    0.031
        43  -9.9811     93.4041    126.0993   8.0510162769e+01   3.7878144011e+01    0.2368693    0.2010605  44.73 0.0004321129    1.220    0.180
        44  -8.7504    168.3712    113.6774   5.9677655207e+01   2.5560066985e+01    0.1528327    0.1191948 -81.02 0.0007033295    1.807    0.446
        45 -10.0703    205.1910    110.6548   5.1920406828e+01   1.8038223347e+01    0.3317838    0.2337288  32.82   0.00121021    1.493    0.330
        46  -9.6700     95.4781    110.4296   7.6621500442e+01   4.1080785898e+01    0.3463342    0.2184071  65.59  0.001519034    2.051    0.512
        47  -9.2401     66.8041    103.5789   8.3464523492e+01   4.7247884667e+01    0.1883701    0.1245072  51.51 0.0007654958    1.624    0.384
        48 -10.3823    241.2568    102.0031   4.4171235560e+01   1.1826738371e+01    0.1865889    0.1039835 -26.88 0.0008904199    1.565    0.361
        49  -9.6250     40.6768     87.9153   8.8685120308e+01   5.4300623569e+01    0.1942296    0.1505905 -73.14 0.0005389802    1.112    0.100
        50  -9.8674    163.4128     84.7414   5.2760698192e+01   3.1930179511e+01     0.217688    0.1467932 -23.34  0.000604952    1.596    0.374
        51  -9.0387    184.3791     77.3583   4.6527488635e+01   2.8112903225e+01    0.2298407    0.1726963  15.89 0.0006972691    1.600    0.375
        52  -8.8066    148.0269     75.0313   5.3103341831e+01   3.7381492589e+01    0.1811738    0.1781959  37.15 0.0009616946    1.051    0.048
        53 -11.9354     12.8901     60.6319   9.3633070841e+01   6.3302543758e+01    0.4396096    0.3519945  61.18  0.001834045    1.452    0.311
        54  -9.9443     22.0450    230.7426   1.0656619909e+02   2.6049581835e+01    0.1590888    0.1075019  69.67 0.0005169048    1.116    0.104
        55 -13.7073    210.3469     44.9703   3.2984980745e+01   2.6378854497e+01     1.916676     1.063198  37.21  0.005995312    2.287    0.563
        56  -9.5753    111.0249    204.2716   8.8278044471e+01   1.9544865223e+01    0.1676182    0.1267278  46.09 0.0004225377    1.105    0.095
        57 -12.6937    225.6056     34.0842   2.8166713268e+01   2.4008543910e+01    0.7398168     0.470612  42.78   0.00141238    1.853    0.460
        58 -11.1726     11.6392     53.1220   9.2540561304e+01   6.5154080155e+01     0.218363    0.1818539 -22.79  0.001118139    1.403    0.287
        59  -9.5759     23.8902     50.0647   8.6217119157e+01   6.4929197140e+01    0.1909214    0.1553823 -60.01 0.0003612828    1.041    0.040
        60 -10.9130    124.6265     32.5825   4.3068469979e+01   5.0205144911e+01    0.4026776    0.2736506 -63.76 0.0008806505    1.940    0.484
        61  -9.3355    126.2666     26.1152   4.0019744863e+01   5.0665778511e+01     0.207631    0.1846766 -35.53 0.0004441202    1.126    0.112
        62 -10.4376     23.6887    225.3192   1.0606504959e+02   2.6781284731e+01    0.2122616    0.1802164  56.50    0.0018487    1.347    0.258
        63 -10.0509    189.4846     15.3377   2.6279753660e+01   3.5124945936e+01     0.249839    0.2327401  63.32 0.0006849473    1.117    0.105
        64 -10.0500     22.4566    222.5011   1.0615666734e+02   2.7376732468e+01    0.1706953    0.1228518 -67.76  0.001006349    1.764    0.433
        65  -9.8241     31.7222    223.2022   1.0458208264e+02   2.6318982821e+01    0.2038681     0.165842 -71.13  0.001502855    1.598    0.374
