#   1 NUMBER                 Running object number                                     
#   2 MAG_AUTO               Kron-like elliptical aperture magnitude                    [mag]
#   3 X_IMAGE                Object position along x                                    [pixel]
#   4 Y_IMAGE                Object position along y                                    [pixel]
#   5 X_WORLD                Barycenter position along world x axis                     [deg]
#   6 Y_WORLD                Barycenter position along world y axis                     [deg]
#   7 A_WORLD                Profile RMS along major axis (world units)                 [deg]
#   8 B_WORLD                Profile RMS along minor axis (world units)                 [deg]
#   9 THETA_WORLD            Position angle (CCW/world-x)                               [deg]
#  10 FWHM_WORLD             FWHM assuming a gaussian core                              [deg]
#  11 ELONGATION             A_IMAGE/B_IMAGE                                           
#  12 ELLIPTICITY            1 - B_IMAGE/A_IMAGE                                       
         1 -13.9338    172.5240     42.6157   7.3027910517e+01   3.6639158669e+01    0.8828861    0.6755467  13.20  0.001527448    1.803    0.445
         2 -14.0534    183.5922     31.7559   6.8370732348e+01   3.5282404186e+01    0.9126437    0.8541567 -71.83  0.003135643    1.133    0.117
         3 -14.2318    189.9214     21.5536   6.4904360987e+01   3.4930284392e+01    0.7149165    0.6560545 -23.18  0.001247653    1.358    0.264
         4 -13.6630     64.0926    209.8840   1.3671991605e+02   2.3197200537e+01    0.5885856    0.5055724  48.01  0.001467345    1.297    0.229
         5 -16.1371    122.9200    237.6933   1.2798657416e+02   8.1295072519e+00      5.94383     2.097274  42.36   0.02418719    2.393    0.582
         6 -11.5661     60.4942    207.5190   1.3720899507e+02   2.4213248346e+01    0.2480361     0.213551  65.96 0.0005771711    1.144    0.126
         7 -10.4678     82.2117    212.6090   1.3323568103e+02   1.9940108363e+01    0.3938685    0.2910617  51.23  0.001103015    1.238    0.192
         8 -19.2922     23.0900    134.7726   1.3701531724e+02   4.5258520320e+01      19.6373     2.261627 -68.30   0.04218801    9.574    0.896
         9 -10.5823     52.9213    208.9108   1.3891855685e+02   2.4920668685e+01    0.1819452    0.1498168  77.16  0.000466784    1.047    0.045
        10 -10.1181    166.0694    208.5408   1.1438326685e+02   5.8250038924e+00    0.2283348    0.1297788  42.86  0.001029082    1.595    0.373
        11 -10.2169     92.9812    207.0039   1.3019957389e+02   1.9456686326e+01    0.2080017    0.1789095  79.38 0.0005518001    1.042    0.041
        12 -12.1702    108.4461    204.7344   1.2646789027e+02   1.7349951400e+01    0.4234034    0.3072806   0.29  0.001910515    2.606    0.616
        13 -12.8179    196.9985    197.1816   1.0569100088e+02   1.9989136680e+00    0.9494387    0.6374757  66.09   0.00421002    2.290    0.563
        14 -13.4225     74.3499    196.0454   1.3285595377e+02   2.4808087323e+01    0.7598807    0.6364858  51.03  0.003162347    1.213    0.176
        15 -10.9169    188.5618    186.7811   1.0540141052e+02   5.6314705504e+00    0.3786801    0.2734674 -57.24  0.001822507    1.655    0.396
        16  -9.8632    157.7727    193.0354   1.1337916141e+02   1.0559928475e+01    0.1823643     0.124576 -50.03 0.0003176894    1.572    0.364
        17 -10.6470     81.4909    186.7764   1.2996589393e+02   2.5857839936e+01    0.2558045    0.1834846  47.44 0.0008641403    1.358    0.264
        18 -11.5102    208.0254    185.9999   1.0119085059e+02   1.9333859607e+00    0.3288441    0.2478193  14.19  0.001348187    1.474    0.321
        19 -11.7882    212.4116    182.5683   9.9602384052e+01   1.7166184953e+00    0.3707702    0.2575211   4.75  0.001068178    1.881    0.468
        20 -10.0988     90.5005    183.9799   1.2744008743e+02   2.5077654523e+01    0.3028059    0.1481869  67.14  0.001038369    3.413    0.707
        21 -12.1348     83.8108    180.4505   1.2848391334e+02   2.6974502889e+01    0.4542953    0.2557312 -45.65  0.002030186    2.124    0.529
        22 -12.1579     86.9630    175.0637   1.2688372649e+02   2.7746122851e+01    0.3165397    0.2871742 -40.14  0.001010618    1.317    0.241
        23 -10.3541     65.1702    232.7623   1.3885992101e+02   1.8226146233e+01     0.295017    0.1836564 -46.34  0.001573606    2.464    0.594
        24 -10.9130    198.5036    177.6773   1.0142860305e+02   5.3978949103e+00    0.3215628    0.2672039 -61.64  0.001107354    1.430    0.301
        25 -11.2840     94.5191    179.0125   1.2569558559e+02   2.5576675130e+01    0.2648393    0.1803492  59.14  0.000616962    1.488    0.328
        26 -11.8665    126.0145    173.1746   1.1702331808e+02   2.1230542319e+01    0.4251891    0.2259025  56.05  0.001651164    2.163    0.538
        27 -12.0860    118.1473    173.6133   1.1901948136e+02   2.2634466747e+01    0.3585283    0.2268324  46.06  0.001102091    1.529    0.346
        28 -16.0290     70.9803    150.2007   1.2676465027e+02   3.6145508028e+01     4.357527     2.463786  72.23   0.01742723    2.753    0.637
        29 -10.6971    137.6569    171.3115   1.1384642193e+02   1.9348815428e+01    0.1605555    0.1181984  76.77 0.0007045982    1.702    0.412
        30 -11.1725    184.8799    168.2690   1.0233369574e+02   1.0103531074e+01    0.3186764    0.2743066 -87.85  0.000896029    1.425    0.298
        31 -10.1275      6.5147    160.8972   1.4406053326e+02   4.0610625155e+01     0.157694    0.1339019  80.74 0.0003357969    1.165    0.142
        32 -10.1553      1.5914    161.0067   1.4515956790e+02   4.0961136730e+01    0.1596795    0.1078263 -79.35  0.001047906    1.129    0.114
        33 -12.2853     98.5659    158.0486   1.2100101944e+02   2.9877482301e+01    0.6201048     0.379104 -35.18  0.002595642    2.220    0.549
        34 -12.2606     65.5500    156.5021   1.2923492235e+02   3.5384866509e+01    0.3455967    0.2497422  58.02 0.0007920203    1.449    0.310
        35 -12.9091      7.7455    226.8663   1.4882664373e+02   2.6343155693e+01    0.3373566     0.262513  -5.58  0.002211473    2.841    0.648
        36 -11.5381    133.7469    144.6138   1.0912749003e+02   2.6300911661e+01     1.037351    0.2641158 -55.09  0.002241778    6.453    0.845
        37 -11.7351    109.2001    141.6093   1.1485757336e+02   3.1893187157e+01    0.4988224    0.2919739 -31.82  0.001915894    2.427    0.588
        38 -12.3823     97.7947    142.4003   1.1808824315e+02   3.3771361226e+01    0.2775375    0.2645226  15.27 0.0004185142    1.176    0.149
        39 -10.3247     81.9786    137.3047   1.2136070714e+02   3.7613207163e+01    0.1932735    0.1863532  71.38 0.0003922071    1.082    0.076
        40 -13.5654     45.6969    131.3139   1.3034357031e+02   4.3871163060e+01    0.6462286    0.4085597  53.18  0.003379112    1.854    0.461
        41 -11.8066    104.7670    129.1791   1.1326800647e+02   3.5657768356e+01     0.515334    0.3765012 -83.06  0.001243449    1.784    0.439
        42 -11.5343    160.6230    126.6847   9.8208241990e+01   2.4391028446e+01    0.3202669    0.2595099 -57.66  0.001320321    1.294    0.227
        43 -10.5187    120.2997    125.3552   1.0810829633e+02   3.3528258259e+01    0.1593958     0.123682 -12.76 0.0007036875    1.703    0.413
        44 -11.7169    115.8391    131.6249   1.1081440876e+02   3.2969945729e+01    0.3323258    0.2760935  -0.87 0.0008239385    1.521    0.342
        45 -11.0728    135.0000    120.4573   1.0299149003e+02   3.1534844744e+01    0.3507791   0.08966482 -45.85 0.0009324162    3.916    0.745
        46 -10.3492    111.1138    120.1532   1.0934245382e+02   3.6546015624e+01    0.2210948    0.2046245  -8.25  0.000296617    1.174    0.149
        47 -10.5236     70.4913    116.4594   1.2023324809e+02   4.4256570043e+01    0.1407585    0.1277779 -48.27 0.0001181754    1.024    0.024
        48 -11.8574     47.5343    216.4456   1.4073321303e+02   2.3989942399e+01    0.5481257    0.2567192  40.28  0.002752673    2.082    0.520
        49 -10.0972    205.6099    110.1914   8.4548755634e+01   1.7176430366e+01     0.211101    0.1442036 -30.12 0.0005795635    1.614    0.380
        50 -10.9635    168.6079    113.5869   9.3039748182e+01   2.5289430613e+01    0.3374382    0.2611409 -83.27   0.00100408    1.639    0.390
        51 -12.2592     69.1786    213.5993   1.3607797045e+02   2.1667784531e+01    0.4879139    0.4270056  17.28  0.002535532    1.657    0.396
        52 -11.7092     87.9561    241.3511   1.3534707787e+02   1.3150588835e+01    0.2145851    0.1694878  84.21 0.0002491159    1.185    0.156
