#   1 NUMBER                 Running object number                                     
#   2 MAG_AUTO               Kron-like elliptical aperture magnitude                    [mag]
#   3 X_IMAGE                Object position along x                                    [pixel]
#   4 Y_IMAGE                Object position along y                                    [pixel]
#   5 X_WORLD                Barycenter position along world x axis                     [deg]
#   6 Y_WORLD                Barycenter position along world y axis                     [deg]
#   7 A_WORLD                Profile RMS along major axis (world units)                 [deg]
#   8 B_WORLD                Profile RMS along minor axis (world units)                 [deg]
#   9 THETA_WORLD            Position angle (CCW/world-x)                               [deg]
#  10 FWHM_WORLD             FWHM assuming a gaussian core                              [deg]
#  11 ELONGATION             A_IMAGE/B_IMAGE                                           
#  12 ELLIPTICITY            1 - B_IMAGE/A_IMAGE                                       
         1 -14.9584     69.3645    145.9485   1.0746304565e+02   3.6846040217e+01      5.17673     2.581094  71.43  0.009592008    3.772    0.735
         2 -13.1768    193.9677     41.2244   4.9613873013e+01   3.1471554111e+01    0.8940029    0.6541258 -49.01  0.001870533    1.335    0.251
         3 -14.2970    203.1575     34.8790   4.6639611358e+01   3.0017669999e+01     2.080218     1.381946  27.15  0.008727253    2.228    0.551
         4 -14.1867    217.4763     19.5658   4.1066889402e+01   2.8402924810e+01     1.211754     1.046882  13.20   0.00349339    1.543    0.352
         5 -12.4336    211.6137     26.0614   4.3322039483e+01   2.9045940510e+01    0.4625571    0.3949321  31.75  0.001524559    1.474    0.322
         6 -11.7153     56.1323      5.8737   6.8566575075e+01   6.7226956145e+01    0.3425057    0.2499998  65.10   0.00149121    2.319    0.569
         7 -11.2089      2.6146      3.7560   9.4115461317e+01   7.3996071409e+01    0.3568793    0.1067032 -43.78  0.001769982    2.508    0.601
         8 -10.9868    240.3723      1.6642   3.4976109500e+01   2.5099394388e+01    0.4784923    0.1538221  76.66  0.001990563    3.012    0.668
         9 -12.0763     65.9894    178.8517   1.1297654886e+02   2.9552034753e+01    0.4286095    0.2877066 -39.14  0.002209715    2.142    0.533
        10 -14.4999     87.5549    228.3186   1.1394152462e+02   1.6184149983e+01     2.020839     1.089134  51.64  0.001671872    1.557    0.358
        11 -14.4466     46.8812    222.4767   1.2119524611e+02   2.2729488624e+01     1.300644     1.039193  63.06  0.001219969    1.125    0.111
        12 -15.8521     71.5848    247.8822   1.1866310678e+02   1.4862113494e+01     8.653394     2.732734  31.00   0.01968271    7.129    0.860
        13 -15.9790      3.6603    177.9086   1.2650944378e+02   3.6475180970e+01     7.248594     1.059362 -72.29   0.01236305    4.378    0.772
        14 -16.5668     11.5703    240.7356   1.2845683537e+02   2.3186046522e+01     2.641207     2.219412  77.09    0.0197933    1.334    0.250
        15 -15.4939      9.1242    208.0033   1.2724251249e+02   2.9680388761e+01     2.752572     1.272552 -56.21   0.01508982    2.807    0.644
        16 -12.4885     80.5300    163.5941   1.0741470561e+02   3.1020187511e+01    0.9717925    0.3308813  40.27 0.0006267237    2.814    0.645
        17 -12.4306     86.5677    157.1347   1.0487452320e+02   3.1623511163e+01    0.6625217    0.4452107 -31.41   0.00141396    2.180    0.541
        18  -9.6342    196.3172    246.3268   9.5462781450e+01  -3.7591260634e+00    0.1220119   0.07973239  11.58 0.0007045377    1.676    0.403
        19 -10.1789    134.3810    148.1945   9.1140533353e+01   2.5139736962e+01    0.3945279     0.155433 -53.42  0.001336301    2.741    0.635
        20 -11.0428    133.5475    141.7022   8.9923954002e+01   2.6769066085e+01    0.6739297    0.2429758 -52.64  0.002168821    2.987    0.665
        21 -12.5323     54.5380    146.6884   1.1146930666e+02   3.8599383862e+01    0.6325883     0.309287 -60.39  0.002959528    1.795    0.443
        22 -10.3367    174.7918    148.9525   8.1923075573e+01   1.6598616848e+01    0.2794612     0.218052 -61.79 0.0008168576    1.517    0.341
        23 -13.5729      9.8311    188.2156   1.2592932592e+02   3.3724652480e+01    0.5706816    0.4898295 -55.67  0.001151237    1.570    0.363
        24 -10.7945    101.3075    141.3203   9.8137747469e+01   3.2956875243e+01    0.5609276    0.3496479 -26.88  0.002224001    2.612    0.617
        25 -12.2694     88.4344    141.4955   1.0159789610e+02   3.5071325670e+01    0.2948678    0.2521749 -50.22  0.001614292    1.195    0.163
        26 -10.5768     82.7996    142.4408   1.0328185965e+02   3.5729379043e+01    0.3396641    0.2157491  65.75   0.00111967    1.924    0.480
        27 -10.7101     33.7051    139.0537   1.1588045182e+02   4.2734226457e+01    0.2740618    0.1526349  51.14  0.001162372    1.923    0.480
        28 -11.8059     25.7366    137.6651   1.1779802494e+02   4.3813488651e+01    0.3378267    0.1917918  41.22  0.001330374    1.906    0.475
        29  -9.2892     39.8025    134.3494   1.1360820612e+02   4.3252710656e+01    0.1546482    0.1278196  11.92 0.0004210715    1.592    0.372
        30 -10.1208    110.7001    131.3124   9.3495115214e+01   3.3633138752e+01    0.3179941    0.2422148  10.36  0.001051866    1.804    0.446
        31 -10.1003    105.9275    130.7131   9.4647529906e+01   3.4656460575e+01    0.3521756    0.2965768 -77.34  0.001319611    1.243    0.196
        32 -11.9122     70.7851    173.5364   1.1118275083e+02   3.0111028587e+01    0.3112868    0.2497606 -45.77  0.001716332    1.511    0.338
        33 -11.2404    135.5616    124.8018   8.5441367143e+01   3.0164350541e+01    0.9735899    0.1503489 -49.22  0.001849478    8.020    0.875
        34  -9.5114    125.7067    127.3321   8.8595977615e+01   3.1631953299e+01    0.1573169    0.1224146 -89.43 0.0003388389    1.635    0.388
        35 -10.5928    117.1319    125.6214   9.0453343212e+01   3.3735119849e+01    0.3694652    0.2201954 -54.95   0.00155594    1.687    0.407
        36  -9.1904     93.1767    125.4425   9.7001701876e+01   3.8159259463e+01    0.2052075    0.1359435  53.06 0.0009355634    1.665    0.399
        37  -9.9110    107.3701    119.9043   9.1746843205e+01   3.6942325547e+01    0.2220358    0.2029539  63.08 0.0003732905    1.143    0.125
        38 -10.5491    137.2776    170.9665   9.5037626926e+01   1.9571730322e+01    0.2021532    0.1983646 -81.77 0.0007686439    1.053    0.050
        39  -9.8004    168.3769    113.3563   7.4637387320e+01   2.5300193917e+01    0.3168602    0.2283075 -80.55  0.001203535    2.065    0.516
        40 -11.0179     97.9444    127.5413   9.6133081395e+01   3.6836635634e+01     0.296509    0.2585326 -12.07 0.0007695801    1.391    0.281
        41  -9.8356    205.5144    110.2213   6.6275098276e+01   1.7340844047e+01    0.2620212    0.2126612  49.04  0.000578969    1.299    0.230
        42  -9.9554    230.3165    166.6508   7.4801303882e+01   2.3754427262e+00    0.1299517    0.1097366 -66.83 0.0004822139    1.730    0.422
        43 -13.5125     67.4173    159.8464   1.1010163701e+02   3.3779212581e+01    0.4981111    0.3542579 -53.27  0.001443332    1.461    0.315
        44  -9.4371    125.9064    155.1279   9.4662104359e+01   2.5230292708e+01    0.2104162    0.1893466  82.99    0.0011227    1.146    0.128
        45 -10.2632     41.7136     91.9814   1.0546973955e+02   5.3242635522e+01    0.1991272    0.1914746   4.96 0.0004742366    1.211    0.174
        46 -10.3089     52.9784     90.7108   1.0136207286e+02   5.2287141200e+01    0.1893553    0.1728975 -46.74 0.0005324929    1.058    0.055
        47  -9.0589     74.9853     84.9940   9.2442007410e+01   5.0577495049e+01    0.1689977    0.1571131 -34.34 0.0003337238    1.033    0.032
        48  -9.5397     69.9160     81.6616   9.3193974408e+01   5.2083887502e+01    0.1853807    0.1751245  29.44 0.0006259048    1.174    0.149
        49 -13.5124     40.0738    206.8356   1.2128912682e+02   2.6687914433e+01    0.5096819    0.4634749  64.50  0.001345408    1.306    0.234
        50 -10.4945     13.5411     59.9182   1.0841279273e+02   6.2785195434e+01     0.212911    0.1771968 -70.37 0.0004232893    1.272    0.214
        51 -11.6380    170.0497    232.1943   9.8298105681e+01   2.4136014931e+00    0.3841976    0.2165984 -47.42  0.002064985    2.151    0.535
        52 -12.8804    184.4786    213.8250   9.2602100375e+01   2.8653023974e+00    0.7218978    0.3739263  26.42  0.003264889    2.194    0.544
        53 -11.8622    193.3282    194.4895   8.7424702083e+01   4.4784546330e+00    0.8778563    0.4493533 -57.57   0.00330647    3.671    0.728
        54  -9.3958     12.5439     52.5286   1.0693088090e+02   6.4409434164e+01    0.1225727   0.09244731 -44.98 0.0001148225    1.025    0.025
        55 -11.0258    141.9561     47.2808   6.0768395506e+01   4.3784609435e+01    0.3840987    0.2687899 -77.05  0.001016653    2.040    0.510
        56 -10.3903    144.9528     41.7729   5.8272567744e+01   4.3836398515e+01    0.2873017    0.2316665 -70.91 0.0005866975    1.462    0.316
        57 -15.3595     48.6138    196.9368   1.1871376758e+02   2.7768251574e+01     2.483801     1.394374  66.34   0.01137723    1.680    0.405
        58  -9.1394     71.2449    185.4537   1.1259213905e+02   2.7345177535e+01    0.1725104    0.1090059  53.13 0.0005480463    1.469    0.319
        59 -10.0773    189.5116     15.0593   4.2895912998e+01   3.5770263370e+01    0.1940463    0.1337496 -28.85 0.0006248049    1.557    0.358
        60  -9.8952    147.3124    184.6748   9.5287022992e+01   1.4836706313e+01    0.1435831    0.1096841  75.78 0.0002908617    1.661    0.398
        61  -9.8649     99.5047    180.9143   1.0551997043e+02   2.4086502185e+01    0.2386626    0.1925794  26.26 0.0006489957    1.475    0.322
