#   1 NUMBER                 Running object number                                     
#   2 MAG_AUTO               Kron-like elliptical aperture magnitude                    [mag]
#   3 X_IMAGE                Object position along x                                    [pixel]
#   4 Y_IMAGE                Object position along y                                    [pixel]
#   5 X_WORLD                Barycenter position along world x axis                     [deg]
#   6 Y_WORLD                Barycenter position along world y axis                     [deg]
#   7 A_WORLD                Profile RMS along major axis (world units)                 [deg]
#   8 B_WORLD                Profile RMS along minor axis (world units)                 [deg]
#   9 THETA_WORLD            Position angle (CCW/world-x)                               [deg]
#  10 FWHM_WORLD             FWHM assuming a gaussian core                              [deg]
#  11 ELONGATION             A_IMAGE/B_IMAGE                                           
#  12 ELLIPTICITY            1 - B_IMAGE/A_IMAGE                                       
         1 -14.1566     68.3308    144.3426   9.9648440315e+01   3.7445469251e+01     4.689551     2.456544  79.83   0.01378088    4.716    0.788
         2 -12.4333      1.9351     83.8083   1.1117383612e+02   5.8727992642e+01        1.208   0.08018674 -67.62  0.002925225    7.485    0.866
         3 -13.8201    236.5101     17.0026   3.1387899768e+01   2.5233730211e+01    0.8355086    0.7071999 -51.86  0.002624247    1.226    0.185
         4 -14.4418    219.2390     32.8345   3.6278309475e+01   2.7015616023e+01     2.456157     1.430243  36.47   0.01125867    3.091    0.677
         5 -10.8355      2.2174     14.5400   9.1341679921e+01   7.2739693931e+01    0.1870712    0.1468478 -12.58  0.001302254    1.147    0.128
         6 -10.7226      2.6317      3.9787   8.5978244143e+01   7.4318135398e+01    0.3400331    0.1267178 -33.24  0.001784966    2.237    0.553
         7 -10.2001     32.3321    222.5442   1.1811073635e+02   2.2944082636e+01    0.2860866    0.2223493   2.25  0.001671869    2.018    0.505
         8 -12.5496     44.6806    217.4804   1.1509466169e+02   2.2641082256e+01    0.6690993    0.5273415  53.53  0.002952848    1.141    0.124
         9 -14.7085    104.1279    227.0339   1.0295057893e+02   1.2475522590e+01     6.245327    0.4440291  39.05  0.009670536    6.656    0.850
        10 -15.5824     34.0322    190.8138   1.1510730526e+02   2.9942896636e+01     4.917506     2.031277  73.46   0.01789796    3.629    0.724
        11 -14.6645      9.3310    207.6529   1.2187437569e+02   2.8496469218e+01     1.660725     1.138159 -84.62  0.007031471    1.241    0.194
        12 -10.5890     28.9286    218.9333   1.1855497838e+02   2.4090823496e+01    0.2711499    0.2090532  14.18  0.001596905    1.820    0.451
        13 -10.4968    183.8561    215.8783   8.3593633909e+01   1.7518358301e+00    0.3056962    0.2154921  76.50  0.001263408    3.548    0.718
        14 -15.2110      4.9974    177.6052   1.2082312764e+02   3.5751514163e+01     8.421082    0.7463199 -76.34   0.01833071    9.893    0.899
        15 -11.2321     23.9596    214.3107   1.1926350866e+02   2.5619032045e+01    0.4305708    0.2129789  22.43  0.001942661    2.678    0.627
        16 -10.3225    192.0076    193.0112   7.7615538781e+01   4.5375347970e+00    0.6431125    0.3241981 -59.64  0.002090042    4.507    0.778
        17 -10.0314    208.5183    197.9838   7.5204689509e+01   9.0135152465e-01    0.2067214     0.125257 -37.09  0.001031472    1.588    0.370
        18  -9.9001     56.2897    193.3318   1.1003207387e+02   2.6761886218e+01    0.2609069    0.1894103  81.08 0.0009551318    1.350    0.259
        19  -9.0646     99.4810    181.0415   9.7390791280e+01   2.3470639067e+01    0.2130138    0.1440592 -60.10 0.0005009319    1.501    0.334
        20 -12.0120     55.3749    178.0474   1.0842294314e+02   3.0588900868e+01    0.4364618    0.3008156 -35.55  0.001526961    1.893    0.472
        21 -12.0243     61.4368    172.4213   1.0608566709e+02   3.1217699246e+01    0.3688655    0.2805468 -40.55  0.001006232    1.521    0.343
        22  -8.8698     97.9683    174.0507   9.6600965188e+01   2.5412115207e+01    0.1760266    0.1685895 -85.91 0.0004092199    1.027    0.026
        23 -11.6912     72.0443    162.9859   1.0178274972e+02   3.2155706310e+01    0.3420269     0.325838 -77.98 0.0003656292    1.039    0.038
        24 -12.9625     79.4469    156.7631   9.8648916454e+01   3.2655940125e+01     1.035594    0.8437708 -89.90  0.001046167    1.309    0.236
        25  -9.5580     28.6413    237.2371   1.1985043687e+02   2.0282334325e+01    0.1480048   0.09502715 -72.28 0.0006366799    1.572    0.364
        26  -9.9482     40.9776    165.2675   1.1060654001e+02   3.5458274742e+01    0.2144069    0.1653452  73.90 0.0005217174    1.271    0.213
        27 -12.4391     34.1686    158.2465   1.1158459603e+02   3.7937290378e+01    0.7175876    0.3573484  67.86   0.00274462    2.637    0.621
        28 -13.4500     58.6497    158.6885   1.0485011168e+02   3.5050790049e+01    0.7908481    0.3454963 -53.51  0.002262122    2.139    0.532
        29  -8.7365    174.6945    149.2997   7.2106972662e+01   1.6548426603e+01    0.1487576    0.1249046 -86.32 0.0002892738    1.592    0.372
        30  -9.7154    134.0000    146.0956   8.1300185562e+01   2.5585639685e+01    0.6262688   0.08959872 -48.70  0.001252424    6.934    0.856
        31 -12.1491     22.2289    147.2666   1.1357396525e+02   4.1808725890e+01    0.4013141    0.2799286  66.70  0.002058893    1.504    0.335
        32 -10.1878     47.4912    145.9761   1.0611326512e+02   3.9652312775e+01     0.224262    0.1261451 -65.51  0.001017915    1.585    0.369
        33 -10.8392     96.0839    141.6046   9.0865827212e+01   3.3816869164e+01    0.6631682    0.4169964 -16.18  0.002442443    2.741    0.635
        34 -13.1854     25.5501    204.9175   1.1823309531e+02   2.7551638770e+01    0.5094141    0.3992315 -50.29  0.001000266    1.586    0.369
        35 -12.2976     82.9692    141.0174   9.4626511682e+01   3.6127488751e+01    0.3315335    0.2766145 -49.12 0.0004385131    1.157    0.136
        36  -9.1630    197.5615    138.8217   6.4825133003e+01   1.4038746590e+01    0.2204172    0.1330549 -51.13 0.0009418748    1.781    0.439
        37  -9.2320    131.1899    137.1916   7.9958999279e+01   2.8248803155e+01    0.2110297    0.1868519  85.78  0.001022131    1.319    0.242
        38  -9.1833     43.6693    137.3248   1.0589780911e+02   4.2297571143e+01    0.1461587    0.1008389  69.96 0.0007050513    1.704    0.413
        39 -12.2070     67.4883    129.0897   9.6952573395e+01   4.1473124201e+01    0.7026634    0.4724707  87.49  0.002639245    2.059    0.514
        40 -10.8094    106.8729    131.1735   8.5341997993e+01   3.4468531264e+01    0.4335264    0.3434854  33.75  0.001168027    1.303    0.233
        41 -11.2138     15.3741    129.5244   1.1339756180e+02   4.6810834206e+01    0.2498396    0.1900652 -78.69  0.001299125    1.143    0.125
        42 -11.1664     94.3799    127.6636   8.8246261389e+01   3.7596545440e+01    0.2937621    0.2612735 -37.31  0.000354023    1.110    0.099
        43  -9.9180    114.9753    125.0224   8.1484365989e+01   3.4397139101e+01    0.2666773    0.1973406 -10.45  0.001135194    1.799    0.444
        44 -12.9899     12.3887    246.7840   1.2342306720e+02   2.0084608037e+01    0.8193575    0.3007296  62.35  0.003178195    2.401    0.584
        45  -9.6342    105.1974    119.8117   8.3046263906e+01   3.7540585977e+01     0.216389    0.2077877 -60.11 0.0003468497    1.070    0.066
        46 -10.8555     18.0551    120.2132   1.1129534438e+02   4.8953596475e+01    0.2337534    0.1705348  51.52 0.0008487675    1.583    0.368
        47  -9.0609    167.9918    112.9814   6.4716315358e+01   2.5618727622e+01    0.2596608    0.1954844 -78.85   0.00113303    1.823    0.451
        48 -10.1337    205.0995    110.6600   5.6725000192e+01   1.7882955284e+01     0.327074    0.2499151  33.85  0.001200502    1.525    0.344
        49 -10.3729     34.3300    234.5671   1.1855768295e+02   2.0199771788e+01    0.3351215    0.1414345  31.12  0.001650532    2.448    0.592
        50  -9.8411     49.9935     89.0341   9.3718081568e+01   5.3591761164e+01    0.2001864    0.1919387 -64.14 0.0003483185    1.184    0.156
        51  -9.8026     41.5192     92.0550   9.7691173375e+01   5.3836812170e+01    0.2229873    0.1935264 -23.39 0.0003870585    1.125    0.111
        52 -10.5366     44.5129     90.4872   9.6171327288e+01   5.3883907668e+01    0.3040603    0.2047894  53.57  0.001481901    2.030    0.507
        53  -9.8284    162.1569     83.3774   5.7980514193e+01   3.2736354897e+01    0.2568417    0.1802843 -44.57 0.0007556293    1.419    0.295
        54  -9.8264     57.1942     76.6758   8.7440312967e+01   5.5447176530e+01    0.2118543    0.1785702  43.23 0.0007428493    1.414    0.293
        55 -10.7134     13.4281     60.1885   1.0120620826e+02   6.3405497678e+01    0.2260859    0.1831972 -38.34 0.0004119207    1.035    0.033
        56  -9.5394    170.8723    233.6614   8.9313842869e+01   7.4095847390e-01    0.2134445    0.1676525 -21.09 0.0005716149    1.337    0.252
        57 -11.7575    207.7320     41.1456   3.9446918108e+01   2.8516971483e+01    0.5360923    0.3722508  55.63  0.001543464    1.554    0.357
        58 -11.2790     59.1849    229.9697   1.1309050266e+02   1.8179502994e+01    0.3052507    0.2497879 -80.71 0.0009337771    1.242    0.195
        59 -15.2248     54.9376    245.8973   1.1529984022e+02   1.5489463697e+01     6.483568      1.66709  28.21   0.01214693    7.191    0.861
        60  -9.4169     27.8781     52.2373   9.2135372638e+01   6.3898200010e+01    0.1716265    0.1573514 -11.01 0.0004161025    1.213    0.176
        61 -10.9851     52.8193     91.0026   9.3170079145e+01   5.2787651415e+01    0.5374762    0.2558756 -61.33  0.002172217    2.269    0.559
        62 -10.6536    128.9930     36.5548   5.0812433615e+01   4.8065929295e+01    0.3702759    0.2481076 -67.27  0.001090425    2.104    0.525
        63 -13.4513     11.2631    232.6009   1.2291064223e+02   2.3012433457e+01    0.9774415    0.5414712  79.69  0.003101733    1.544    0.352
        64 -10.6279    189.7574     15.0603   3.5134259238e+01   3.5781964969e+01    0.2258444    0.1685237  79.46 0.0009494476    1.178    0.151
        65 -13.3757      3.2015    244.9568   1.2497781985e+02   2.1330704741e+01     1.651066    0.3649821 -79.73  0.006793309    4.189    0.761
