#   1 NUMBER                 Running object number                                     
#   2 MAG_AUTO               Kron-like elliptical aperture magnitude                    [mag]
#   3 X_IMAGE                Object position along x                                    [pixel]
#   4 Y_IMAGE                Object position along y                                    [pixel]
#   5 X_WORLD                Barycenter position along world x axis                     [deg]
#   6 Y_WORLD                Barycenter position along world y axis                     [deg]
#   7 A_WORLD                Profile RMS along major axis (world units)                 [deg]
#   8 B_WORLD                Profile RMS along minor axis (world units)                 [deg]
#   9 THETA_WORLD            Position angle (CCW/world-x)                               [deg]
#  10 FWHM_WORLD             FWHM assuming a gaussian core                              [deg]
#  11 ELONGATION             A_IMAGE/B_IMAGE                                           
#  12 ELLIPTICITY            1 - B_IMAGE/A_IMAGE                                       
         1  -8.9358     92.0837     26.1252   2.6468137844e+01   5.6890661513e+01    0.2622866    0.2008595 -57.84 0.0008480856    1.843    0.457
         2  -8.0301     83.5730     10.7858   2.3119043876e+01   6.0215620793e+01    0.1521845    0.1148031 -36.32 0.0007553778    1.641    0.391
         3  -8.6220     55.8400      9.7717   3.1676943984e+01   6.5592824895e+01    0.2006991    0.1572736 -32.26 0.0006773375    1.597    0.374
         4  -8.1148     90.7943      8.7906   2.0442505439e+01   5.8882458452e+01    0.1607017    0.1386216  74.39 0.0005791057    1.345    0.256
         5  -7.8319     28.2961      9.6699   4.3497033697e+01   6.9800951511e+01   0.09526413   0.09061352  15.06 0.0003305344    1.636    0.389
         6  -7.8099    101.3223      7.7166   1.7535064249e+01   5.6694256909e+01    0.1174555   0.09301179 -86.64 0.0003427721    1.593    0.372
         7  -8.2271     70.2466      6.1743   2.5211675718e+01   6.3283803287e+01    0.1459901    0.1392095  52.77 0.0006556769    1.333    0.250
         8  -8.6483     33.7133      5.3685   3.8872578512e+01   6.9552102051e+01    0.2090536    0.1700434 -49.53  0.001390008    2.189    0.543
         9  -8.6330     79.2974      3.7489   2.1564110043e+01   6.1693375464e+01     0.195085    0.1383585 -32.52  0.001181172    1.731    0.422
        10  -8.0407     62.7242      1.5001   2.5648621112e+01   6.5109015032e+01    0.1508895    0.1034245  57.01 0.0007752569    1.554    0.356
        11  -8.7620    218.6205    247.0542   5.0096303622e+01  -8.0596384859e+00    0.3354279    0.1328795 -40.45  0.001593061    2.677    0.626
        12  -8.1619    199.3270    250.3132   5.4345491947e+01  -5.9050392860e+00    0.1295841   0.08279912   1.96 0.0003776226    1.667    0.400
        13  -7.5937     86.3106    250.6407   7.8105705766e+01   1.0904376262e+01    0.1350304   0.08214559  62.52 0.0007042079    1.741    0.425
        14  -8.8892    156.2591    247.7745   6.2790775404e+01   8.6254176297e-01    0.2214231    0.1890485  67.42 0.0007929456    1.555    0.357
        15  -9.4982     11.8630    247.6862   9.2779705550e+01   2.0623567363e+01    0.2135668    0.1525373  56.45 0.0003994956    1.132    0.116
        16  -9.2649    224.3402    245.3322   4.8741606079e+01  -8.5663210570e+00    0.2491178    0.1661266 -22.37  0.001060542    1.394    0.283
        17  -9.6131    223.6629    242.3420   4.8377546839e+01  -8.0541696113e+00    0.2332703      0.21751 -27.39  0.001331619    1.512    0.339
        18  -9.3361    210.8226    246.2129   5.1450235954e+01  -6.8912275622e+00    0.2269127    0.1928755 -57.74 0.0007942806    1.904    0.475
        19  -8.2918    142.4903    247.5354   6.5691177768e+01   3.0296777429e+00    0.1323184    0.1108669  28.94 0.0003241157    1.017    0.016
        20  -9.5518    120.2701    245.2809   7.0192309208e+01   6.8768490007e+00    0.3821634    0.2489737  78.34  0.001852599    2.444    0.591
        21  -9.4497    146.8579    245.5941   6.4482433057e+01   2.6923014046e+00    0.2860559    0.1960848  62.24  0.001299188    2.034    0.508
        22  -7.8531     67.4201    244.7914   8.1512749802e+01   1.4660092343e+01    0.1575199     0.112924 -58.09 0.0009417013    1.626    0.385
        23 -10.3548    248.6507    241.4754   4.3719680072e+01  -1.1057538805e+01    0.4350316    0.1953807 -36.59  0.001489103    2.121    0.529
        24  -9.9587    246.9222    228.0392   4.1754304804e+01  -9.0024451686e+00     0.537236    0.1793133 -34.63  0.002315146    2.763    0.638
        25  -8.7613    139.3743    244.1894   6.5898052434e+01   4.1086557882e+00     0.168948    0.1280844 -71.40 0.0009469457    1.797    0.444
        26  -8.5937    201.7595    242.7575   5.2661653646e+01  -5.1144118501e+00    0.2204536    0.1655575 -43.72 0.0007924736    1.643    0.391
        27  -8.7509    169.0537    243.1916   5.9409298331e+01  -3.3230706672e-01    0.2295406     0.161894  45.81   0.00069787    1.522    0.343
        28  -8.5241     77.6818    242.7328   7.9132347618e+01   1.3668881907e+01    0.2445303    0.1377453  78.69  0.001157186    2.403    0.584
        29  -9.3218    194.3776    239.8962   5.3671066993e+01  -3.6057744056e+00    0.3602016    0.2244127 -52.38  0.001506746    2.249    0.555
        30  -9.2091    160.0072    239.9755   6.0838154216e+01   1.6185400363e+00    0.3009518     0.236393  85.78   0.00137291    2.093    0.522
        31  -7.9899    153.4658    241.9560   6.2537085880e+01   2.2981270021e+00    0.1643818    0.1192463 -88.34 0.0008090486    2.499    0.600
        32  -7.8526     88.1384    242.0841   7.6807376407e+01   1.2312511347e+01    0.1762552    0.1340804  71.07 0.0006260427    1.357    0.263
        33  -9.1070    183.0226    239.9595   5.5995838159e+01  -1.9261172009e+00    0.3304259    0.2441999  58.65  0.001594733    2.051    0.512
        34  -7.9931    240.4887    240.4630   4.4989763791e+01  -9.9356010051e+00    0.1559597    0.1041023 -38.82 0.0009681453    1.700    0.412
        35  -9.4146    242.8727    236.2725   4.3864998183e+01  -9.6524552326e+00    0.3358007     0.166557  -7.96  0.001517831    2.949    0.661
        36  -8.5383    146.2444    239.4401   6.3729539845e+01   3.8829636059e+00    0.2040938    0.1647981  82.09 0.0005566371    1.766    0.434
        37  -9.0515    135.6951    238.8798   6.5956424152e+01   5.6568512445e+00    0.2021367     0.147096  72.28  0.001051381    1.948    0.487
        38  -9.5866    231.0479    236.5191   4.6038581112e+01  -8.1879324847e+00    0.3538321    0.2486256 -44.77  0.001566933    1.846    0.458
        39  -8.0951    208.9872    238.1713   5.0491784786e+01  -5.4404506885e+00    0.1576584    0.1411636 -49.14 0.0007086127    1.601    0.375
        40  -8.4203    129.1938    238.4187   6.7324219788e+01   6.7716419624e+00    0.1950308    0.1069844  44.55 0.0006318752    1.659    0.397
        41  -8.7151     14.0001    237.5260   9.1806527833e+01   2.2438839814e+01    0.1682437   0.09870274  38.62  0.001033495    1.597    0.374
        42  -8.6932    217.0009    235.5181   4.8502049079e+01  -6.1578972922e+00    0.1791282    0.1646268  11.43  0.000756159    1.325    0.246
        43  -9.3813    213.6778    231.6538   4.8487913572e+01  -5.1066698183e+00    0.3067236    0.2642371  76.53  0.001349074    2.163    0.538
        44  -9.0741    203.0565    234.0830   5.0977715280e+01  -3.9593869283e+00    0.3454797    0.1824829 -48.97  0.001238639    2.464    0.594
        45  -9.7242    175.5907    233.1341   5.6450218782e+01   3.5601017767e-01    0.4829006    0.2744805 -57.74  0.002228004    2.671    0.626
        46  -8.2953    113.0214    236.0000   7.0591587820e+01   9.7760747849e+00    0.4184642   0.09000766  35.36  0.001272591    4.048    0.753
        47  -8.6620    108.3248    233.8235   7.1361162487e+01   1.0936480568e+01    0.3088166    0.2096476  66.62  0.001138396    1.762    0.432
        48  -8.4784    170.3407    235.2410   5.7899477568e+01   8.1682919959e-01    0.1683169    0.1258878 -55.10 0.0006408399    1.725    0.420
        49  -8.1040    123.0319    234.0270   6.8089022608e+01   8.5888319860e+00    0.2199829    0.1495576  61.99 0.0008919682    1.771    0.435
        50  -8.5346     99.7540    233.9999   7.3305951426e+01   1.2214144959e+01     0.270067    0.1559492  79.15  0.001140364    2.892    0.654
        51  -8.4734     78.4958    233.9902   7.8039639059e+01   1.5334651038e+01    0.1846485    0.1259475 -75.81  0.001024365    1.605    0.377
        52  -8.7186    194.2873    232.5754   5.2485862837e+01  -2.4214876947e+00    0.2023094     0.155182 -48.45 0.0006580873    1.646    0.392
        53  -8.4808    144.9776    233.1352   6.3074341169e+01   5.2404233320e+00    0.2769401    0.1594307  55.04  0.001245157    2.249    0.555
        54  -8.8090    140.1815    230.1034   6.3684923325e+01   6.5874274580e+00    0.2638308    0.1556666  54.20 0.0009004629    2.043    0.510
        55  -8.5379     92.9284    232.4146   7.4644650144e+01   1.3563466827e+01    0.3766349     0.189251  61.05  0.001577243    2.622    0.619
        56  -8.8919     68.1462    232.1860   8.0131859696e+01   1.7144879537e+01    0.4744461    0.1789699  53.45  0.001884116    2.851    0.649
        57  -8.2368    157.8285    231.9595   6.0074081859e+01   3.3853013729e+00    0.1965664    0.1581794  84.26 0.0007438888    1.901    0.474
        58  -8.5207    132.4221    232.2553   6.5736842156e+01   7.4305067562e+00    0.1688182    0.1336237 -75.34 0.0006161509    1.625    0.385
        59  -9.2344    236.0754    229.7509   4.3973367224e+01  -7.8667533711e+00    0.4278312    0.1608677 -33.94  0.001789172    2.537    0.606
        60  -9.3812    151.4659    228.9682   6.1002747895e+01   4.9643049320e+00    0.3461671    0.2456833  88.39  0.001498519    2.599    0.615
        61  -9.3896    148.6674    224.2422   6.0882074059e+01   6.3148605432e+00    0.3535397    0.2580549  80.56  0.001407714    2.257    0.557
        62  -8.8981      1.6823    230.5304   9.3797375142e+01   2.5057519197e+01    0.2067322    0.1023582  73.83  0.001169355    1.792    0.442
        63  -8.1347    229.5979    228.7415   4.4982632400e+01  -6.8627143399e+00    0.1580597    0.1093819 -40.77  0.000908417    1.636    0.389
        64  -8.7217    162.0927    227.4788   5.8432383224e+01   3.5091815974e+00    0.2685087    0.2014394  66.27   0.00138729    1.963    0.491
        65  -7.8978    223.1405    227.1216   4.5906362257e+01  -5.7385718745e+00    0.1546761    0.1415058 -15.57 0.0005408173    1.314    0.239
        66  -8.7969    127.8614    226.8368   6.5979207450e+01   9.2264284227e+00    0.2671501    0.2118865  75.37  0.001053504    1.581    0.367
        67  -7.8033    120.3103    227.6609   6.7817000473e+01   1.0281725480e+01      0.14068   0.09947893  64.12 0.0006960663    1.689    0.408
        68  -8.8648    205.9613    225.5495   4.8951599647e+01  -3.0267663103e+00    0.2699825    0.1752053 -42.10 0.0008709236    1.685    0.407
        69  -8.1789    199.9095    226.1457   5.0261888283e+01  -2.2183959739e+00    0.1809675    0.1691041  12.87 0.0005615956    1.243    0.196
        70  -7.9808     48.6492    226.2294   8.3831965525e+01   2.0938613464e+01    0.1653017    0.1074576 -65.02 0.0005005164    1.599    0.375
        71  -8.8023    180.7042    224.1899   5.3889233278e+01   1.0967232052e+00    0.2790995    0.1924399  51.22 0.0008841734    1.817    0.450
        72  -8.8530     94.5987    224.2089   7.3255943528e+01   1.5024275689e+01    0.4684754     0.196211  55.91  0.001684738    3.272    0.694
        73  -8.7553    216.4158    223.1423   4.6493757392e+01  -4.1716483289e+00      0.24239     0.202711 -61.10 0.0008603177    1.885    0.470
        74  -7.8882    113.8292    223.8199   6.8764043400e+01   1.2102353786e+01     0.186396    0.1501056  63.13 0.0004037266    1.314    0.239
        75  -8.8126    104.8731    223.4942   7.0789449648e+01   1.3589038522e+01    0.3473111    0.2155667  76.84  0.001543224    2.428    0.588
        76  -8.5846    172.9822    222.7203   5.5287362024e+01   2.6008098799e+00    0.2424717     0.182354 -65.35 0.0006799766    1.940    0.484
        77  -9.4715    186.4598    230.5554   5.3754053565e+01  -8.9652491680e-01    0.3469612    0.2641272 -75.52  0.001661575    2.457    0.593
        78  -9.4981    239.1377    220.9634   4.1899936612e+01  -6.9787162487e+00    0.3283033    0.1972048 -31.93  0.001367716    1.509    0.337
        79  -9.2181    225.6455    221.6517   4.4484081283e+01  -5.2489652047e+00    0.2312955     0.221006  34.99  0.001348266    1.493    0.330
        80  -9.4668    192.3122    221.1833   5.0951518173e+01  -2.1911941119e-01    0.2885821    0.2531482 -84.21  0.001194627    1.798    0.444
        81  -9.2808    160.0720    220.9367   5.7806874990e+01   5.0508847648e+00    0.4737675    0.2346735  53.63   0.00179991    3.073    0.675
        82  -8.1916    140.3999    222.2513   6.2433767648e+01   8.0709415319e+00    0.1745017    0.1369579 -67.46 0.0007034159    1.595    0.373
        83  -8.2744    202.6571    219.9877   4.8641028751e+01  -1.6181731282e+00    0.1811412    0.1505348 -20.45 0.0004613881    1.160    0.138
        84  -9.0697    120.4735    219.0246   6.6532056180e+01   1.2018100624e+01    0.4571721    0.2667927  67.71  0.001830509    2.864    0.651
        85  -8.2529     82.7067    220.1688   7.5507002294e+01   1.7664320503e+01    0.2228166    0.1554302  73.84  0.001168397    1.590    0.371
        86  -8.4081    210.1228    219.1181   4.7008126755e+01  -2.6025582124e+00    0.1965044    0.1541803  -4.23 0.0004868169    1.149    0.130
        87  -9.2496    133.1549    216.0482   6.3124786734e+01   1.0524864769e+01    0.6006341    0.3568614  76.09  0.002071193    4.144    0.759
        88  -9.5073    248.2389    216.6493   3.9545402643e+01  -7.5278462769e+00    0.4513128    0.2837926 -50.07  0.002485454    2.279    0.561
        89  -8.1278    179.3090    217.6069   5.3056899848e+01   2.4904762601e+00    0.1313622     0.109766  76.06 0.0007008283    1.830    0.454
        90  -8.6054    169.2578    215.8623   5.4927524063e+01   4.4709806132e+00    0.2800007    0.2205879 -77.51 0.0008778485    1.963    0.491
        91  -8.5209    142.8191    216.2725   6.0929810823e+01   8.8498661580e+00    0.2470589    0.1904143 -88.55 0.0008153272    1.884    0.469
        92  -8.2113     61.7899    216.9926   7.9982796142e+01   2.1280961649e+01     0.224475    0.1282406  71.30 0.0008521506    2.040    0.510
        93  -9.0134    232.3565    214.1370   4.1913816227e+01  -5.0223952807e+00    0.3193651    0.1928999 -38.19  0.001297909    1.612    0.380
        94  -8.0984    154.4180    215.1341   5.8102422775e+01   7.1095236821e+00     0.186152    0.1376419 -65.81 0.0009386982    1.802    0.445
        95  -8.9034     93.3245    214.0256   7.2229041625e+01   1.7416540370e+01    0.3844365    0.1922255  59.20   0.00152668    2.615    0.618
        96  -9.3884    214.0398    211.9908   4.4970520265e+01  -2.0199107590e+00    0.3848406    0.3288855  69.40  0.001604664    1.919    0.479
        97  -8.4279    185.6406    214.1526   5.1108088239e+01   2.0772563781e+00    0.1954378    0.1738598 -61.46  0.001148601    1.488    0.328
        98  -9.2820     73.2942    211.7571   7.6702856807e+01   2.0878169942e+01    0.7312115    0.2747867  58.08  0.002257749    4.518    0.779
        99  -8.2680    224.9701    212.1588   4.2920992937e+01  -3.6624885109e+00    0.1714493    0.1329552 -46.28 0.0005719117    1.584    0.369
       100  -9.1544    204.3225    210.7048   4.6650717427e+01  -3.0912499885e-01     0.307222    0.2136138 -54.31 0.0008323777    1.939    0.484
       101  -8.6332    161.6169    212.0768   5.5964238527e+01   6.4786428687e+00    0.2272978    0.1841566  45.52 0.0008658554    1.285    0.222
       102  -7.9399    106.4953    212.5396   6.8881914777e+01   1.5668765766e+01    0.1436696    0.1248147  54.53 0.0008076688    1.092    0.085
       103  -8.5696     51.6727    217.5484   8.2347154678e+01   2.2460266453e+01    0.2287438    0.1368617  79.14 0.0008835992    1.819    0.450
       104  -9.4957    175.3534    209.7284   5.2522639542e+01   4.5941105241e+00    0.4174593    0.3066907  75.21  0.001655201    2.467    0.595
       105  -8.7887    147.8582    210.2401   5.8771989620e+01   9.1999630223e+00    0.2790329    0.2089517 -75.01 0.0009507311    1.883    0.469
       106  -8.8124    116.1864    210.2113   6.6219171259e+01   1.4588985795e+01     0.333092    0.2171374  70.44 0.0009329454    2.175    0.540
       107  -8.4059    192.1906    210.2176   4.9034046930e+01   1.7128359394e+00    0.1701148    0.1649774  68.55 0.0004884669    1.367    0.269
       108  -8.4663     85.5297    209.1088   7.3442531445e+01   1.9693749579e+01    0.3198393    0.1744551 -87.55  0.001268227    2.867    0.651
       109  -9.3949    236.5876    208.1507   4.0072404832e+01  -4.6800813245e+00     0.254961    0.2175616 -63.74   0.00117026    1.890    0.471
       110  -8.5288      6.6728    209.3451   9.1560526346e+01   2.9115611578e+01    0.1313401   0.06865444  64.37 0.0006978208    1.747    0.428
       111  -9.1369    246.4936    207.0254   3.8131491244e+01  -5.8605537143e+00    0.2549174    0.1759457 -29.42 0.0007934507    1.262    0.207
       112  -9.3962    250.1093    201.8100   3.6572537445e+01  -5.5490912684e+00    0.3770471    0.1756885 -31.90  0.001204337    1.920    0.479
       113  -8.2200    139.0457    207.9608   6.0435794270e+01   1.1185875984e+01    0.2232552    0.1705584  68.79 0.0008007635    1.694    0.410
       114  -8.0480    126.3856    208.2092   6.3469973156e+01   1.3304601561e+01    0.1883464    0.1388485 -71.69  0.000658688    1.680    0.405
       115  -9.1691     99.4627    205.9168   6.9619632160e+01   1.8256142929e+01    0.4194405    0.2539342  74.47  0.001329667    2.502    0.600
       116  -9.0239    183.6867    203.6526   4.9626197077e+01   4.3193110654e+00     0.337138     0.249908  67.36  0.001266053    2.179    0.541
       117  -8.1781    108.9902    205.0338   6.7165389614e+01   1.6909902256e+01    0.2304053    0.1635975  67.64 0.0006972537    1.689    0.408
       118  -8.2484     56.2048    205.0429   7.9995302424e+01   2.4712932971e+01    0.2265704    0.1320131  76.56  0.001061336    2.017    0.504
       119  -9.4710    194.8516    203.3620   4.7228631759e+01   2.5041652409e+00     0.372997    0.3169102 -30.77  0.001244209    1.190    0.160
       120  -9.2893    192.4548    197.0145   4.6536926980e+01   4.0638892687e+00    0.4018277     0.284387 -58.23  0.001388445    1.892    0.471
       121  -8.7017    194.0000    191.0427   4.5074291143e+01   4.9092154536e+00    0.3033015    0.1890142 -49.36 0.0007911001    1.792    0.442
       122  -8.8972    191.2185    187.0193   4.4871987156e+01   6.1516062984e+00    0.3290648    0.2418113 -71.15  0.001079196    2.191    0.544
       123  -9.6913    163.9100    202.9539   5.3837300744e+01   7.8649271250e+00    0.4891421    0.2905847  54.34  0.001132036    2.209    0.547
       124  -8.3641    131.2209    204.0379   6.1632938584e+01   1.3364208753e+01    0.2782367    0.1751301  59.88  0.001211242    2.058    0.514
       125  -8.6275    211.1530    201.9386   4.3687752517e+01   1.2157172462e-01    0.2849481    0.2072598 -62.93  0.001139451    2.200    0.545
       126  -9.0201    243.1632    200.6335   3.7545225206e+01  -4.4196658814e+00    0.2914233    0.1642633 -37.13  0.001009947    1.603    0.376
       127  -8.3139    222.1241    201.2493   4.1456613554e+01  -1.4596914907e+00    0.2228904    0.1678471 -61.33 0.0007219118    2.069    0.517
       128  -8.7286    140.2076    200.6858   5.8919849085e+01   1.2505568364e+01     0.294439    0.2250655  80.33  0.001012484    1.850    0.459
       129  -8.0826     80.0080    200.9915   7.3709921851e+01   2.2367169396e+01    0.2414912     0.152245  66.38  0.001124013    1.846    0.458
       130  -9.3473    149.5578    198.5065   5.6330097678e+01   1.1303820438e+01      0.43267    0.3053839 -85.80  0.001437411    2.424    0.588
       131  -8.8379    124.1238    199.2254   6.2542525303e+01   1.5634987084e+01    0.3484882    0.2486494 -87.89  0.001335274    2.008    0.502
       132  -9.1453    237.0983    198.2640   3.8170530802e+01  -3.1862174259e+00    0.2762542    0.1602746 -41.44 0.0009173621    1.684    0.406
       133  -8.6739    176.9652    198.5403   5.0129561917e+01   6.4439193159e+00    0.2443484    0.1986642 -59.43 0.0005267723    1.530    0.346
       134  -9.4547    112.7630    198.1931   6.5164724506e+01   1.7807733313e+01    0.4331227    0.2628281  62.68  0.001824067    2.196    0.545
       135  -9.0083     88.6920    198.3304   7.1181519494e+01   2.1673788135e+01    0.3879887    0.2488778  87.39  0.001512171    2.084    0.520
       136  -8.5636    202.3082    197.6139   4.4631458980e+01   2.3068675251e+00    0.2322766     0.205379 -89.33 0.0009013216    1.701    0.412
       137  -9.0017     61.1124    196.7172   7.7838885525e+01   2.6012073310e+01    0.4258137    0.2202803  73.50  0.001689316    2.814    0.645
       138  -8.5743     12.3584    196.8916   8.9449765360e+01   3.1393334189e+01    0.2515177    0.0999207 -86.69  0.001092636    2.584    0.613
       139  -9.6674    245.8929    193.4629   3.5755885932e+01  -3.6719954391e+00    0.3533253    0.2365037 -57.61  0.001736644    2.382    0.580
       140  -8.1224    132.6424    195.7478   5.9873728226e+01   1.4902922658e+01    0.1930798    0.1413801 -64.08 0.0007573438    1.598    0.374
       141  -8.8954    224.5933    193.6836   3.9576944025e+01  -5.6788340780e-01     0.325753    0.1411793 -45.43  0.001136855    2.429    0.588
       142  -7.6077    209.2862    195.6106   4.2863497222e+01   1.5220742571e+00    0.1270823     0.109462 -75.35 0.0007006641    1.755    0.430
       143  -8.9166    185.0344    194.5440   4.7632849726e+01   5.8027018708e+00    0.2401615    0.1979424 -57.47 0.0006399584    1.490    0.329
       144  -8.1884    231.1460    194.1490   3.8466684950e+01  -1.6416267700e+00    0.1653265    0.1486386 -39.80 0.0004414706    1.323    0.244
       145  -8.7534    160.6538    193.8671   5.2907191986e+01   1.0269533679e+01    0.2594956    0.2174092  84.42 0.0008875287    1.635    0.388
       146  -8.6850     76.9599    193.8135   7.3494070890e+01   2.4491584941e+01    0.2318202    0.1953849 -85.53 0.0005497303    1.189    0.159
       147  -9.1084     43.8398    193.0131   8.1670597344e+01   2.9040676439e+01    0.4592815    0.2240208  68.18  0.001907315    2.650    0.623
       148  -8.2552    198.7964    191.4591   4.4168575834e+01   4.0111882915e+00    0.2349047    0.1665808 -51.25 0.0006246372    1.643    0.391
       149  -8.2149    179.5150    191.7007   4.8278828068e+01   7.3204710312e+00    0.1799682    0.1392625 -54.58 0.0009223176    1.517    0.341
       150  -8.5155    172.4809    191.6081   4.9808160952e+01   8.5950775557e+00    0.2658965    0.2028094 -82.85  0.001059167    2.129    0.530
       151  -8.9706    216.0283    195.4405   4.1523125386e+01   4.7107600794e-01    0.2910168    0.2093113 -59.88  0.001099915    2.062    0.515
       152  -8.0763    205.1819    191.1893   4.2829959902e+01   2.9852819803e+00    0.1768309    0.1611123 -50.97 0.0007128503    1.330    0.248
       153  -9.0796    139.3945    190.2077   5.7243873289e+01   1.4897746514e+01    0.3774919    0.2719815  76.91  0.001458702    2.087    0.521
       154 -10.2039     92.4820    188.8672   6.8803271384e+01   2.3292461668e+01     1.005707    0.2627397  45.03  0.002939595    4.002    0.750
       155  -8.7404      6.3826    190.5720   9.0332712504e+01   3.3359679707e+01    0.2451191   0.08958894  86.40 0.0009485516    3.313    0.698
       156  -8.7259    148.6731    189.2392   5.4837793271e+01   1.3414533621e+01     0.257079    0.1863924 -65.82  0.001209662    1.744    0.427
       157  -8.7591    129.2844    188.5671   5.9422569695e+01   1.7084999982e+01    0.3064987    0.2300602  72.81 0.0007762362    1.746    0.427
       158  -8.6562     34.3623    187.8990   8.3459724063e+01   3.1316875191e+01    0.3481139    0.1645324  73.54  0.001322394    2.836    0.647
       159  -8.3401    237.1972    188.1473   3.6259412005e+01  -1.5555980759e+00    0.2008143    0.1489253 -19.80 0.0007746388    1.212    0.175
       160  -8.8611    216.5186    187.6101   3.9931390638e+01   1.7560548606e+00    0.2475261    0.2110149 -48.69 0.0009074126    1.373    0.272
       161  -9.2128    155.9469    187.3565   5.2766345175e+01   1.2476717632e+01    0.3444354     0.236512 -61.05 0.0009115642    1.802    0.445
       162  -9.4611    120.4576    185.8033   6.1136230068e+01   1.9284285296e+01    0.4684274    0.2677815 -69.43  0.001849875    2.440    0.590
       163  -8.9154     54.9227    186.6765   7.8161262257e+01   2.9204053512e+01    0.4630956    0.2257231  74.10  0.001597887    3.372    0.703
       164  -9.3374    249.3715    185.3929   3.3670314986e+01  -2.8806893508e+00    0.3126703    0.1832678 -43.15 0.0008877882    1.655    0.396
       165  -8.1381    230.4873    187.0578   3.7241698006e+01  -3.5833577349e-01    0.1984452    0.1167479 -39.36 0.0007587377    1.575    0.365
       166  -8.9804    164.8383    186.4742   5.0541687094e+01   1.1022454406e+01    0.3038937    0.2176301 -58.98 0.0008800126    1.690    0.408
       167  -9.1164    109.6261    185.9355   6.3916700439e+01   2.1143498088e+01    0.4043912      0.25145  67.16  0.001104604    2.305    0.566
       168  -8.6033    202.8603    184.4651   4.1985673026e+01   4.6049653507e+00    0.2396888    0.1911848 -55.82 0.0007442201    1.533    0.347
       169  -8.4893    183.0942    184.6932   4.6140772289e+01   8.0479957790e+00    0.2409324    0.1935889 -52.82 0.0006639062    1.413    0.292
       170  -8.8335     66.8542    184.6328   7.4818974893e+01   2.8119530455e+01    0.3669829    0.1835841  56.91   0.00102355    2.389    0.581
       171  -8.6016    224.2217    183.1701   3.7631384981e+01   1.2886920104e+00    0.2609583    0.1646712 -40.98 0.0007466816    1.510    0.338
       172  -9.0116    210.1646    183.7268   4.0398226745e+01   3.4978208851e+00     0.297136    0.1808117 -33.60 0.0005518859    1.574    0.365
       173  -9.0810    174.3069    183.3747   4.7802685637e+01   9.9107579455e+00    0.3030924    0.2501198 -70.19 0.0008999365    1.584    0.369
       174  -8.2901    197.1665    183.1892   4.2887187620e+01   5.8310638120e+00    0.1845523    0.1694595 -66.26 0.0004725853    1.369    0.269
       175  -8.8214     44.4093    182.4313   8.0336137389e+01   3.1504344820e+01    0.3055897    0.1603962  64.15 0.0007967325    2.279    0.561
       176  -7.9630      1.7886    183.5734   9.0875048295e+01   3.5340415893e+01    0.1650705   0.09634149  45.14 0.0009490452    1.678    0.404
       177  -9.4789     26.0547    179.4755   8.4666808279e+01   3.4180774801e+01     0.615757    0.2519726  77.34  0.002082038    4.222    0.763
       178  -8.2463    235.5077    181.5009   3.5287971909e+01  -1.9562411909e-01    0.1299777    0.1125853 -20.33 0.0008101598    1.049    0.047
       179  -9.0735    147.5492    180.5417   5.3445276359e+01   1.5495595896e+01    0.3410732     0.262203  72.97  0.001291774    1.765    0.433
       180  -7.7025     90.3888    181.2881   6.8144544834e+01   2.5428607685e+01    0.1487286    0.1144855 -12.67 0.0004983086    1.759    0.431
       181  -7.9277    240.7523    179.9691   3.4090371063e+01  -7.3766326051e-01    0.1731201   0.09648979 -36.80 0.0008829702    1.580    0.367
       182  -9.3719    191.3914    178.0328   4.3052775320e+01   7.8436096153e+00    0.2833989    0.2638061 -87.95 0.0004329128    1.366    0.268
       183  -8.6044    137.4682    178.8707   5.5585351457e+01   1.7751365290e+01    0.2904602    0.2325755  70.13  0.001211373    1.536    0.349
       184  -8.9268     36.2913    176.9894   8.1795563014e+01   3.3729503433e+01    0.5180568    0.2207006  78.06  0.001629757    4.674    0.786
       185  -8.6878    250.4931    172.8291   3.1116143448e+01  -1.0169552340e+00    0.2667518    0.1670543 -41.52 0.0006702283    1.451    0.311
       186  -9.3185    248.9935    177.0389   3.2158780544e+01  -1.4811069734e+00    0.2796299    0.2543583 -84.30  0.001189001    1.634    0.388
       187  -8.8743    247.3233    173.6837   3.1792670876e+01  -6.8661836371e-01    0.2007927    0.1613265 -38.62 0.0005162432    1.202    0.168
       188  -8.8429    205.0575    177.4994   4.0166875839e+01   5.5132494119e+00     0.250293    0.1890411 -53.49  0.000683284    1.543    0.352
       189  -8.0787    169.2486    178.2503   4.7915971273e+01   1.1895046942e+01    0.1950281    0.1760173  83.14 0.0005359928    1.380    0.275
       190  -8.6896    129.4057    177.2635   5.7295494921e+01   1.9611750801e+01    0.3179136    0.2326759  80.18  0.001025135    1.956    0.489
       191  -8.2889     97.0452    177.4771   6.5749327014e+01   2.5262741677e+01    0.3011096    0.1667975 -27.24  0.001024871    3.413    0.707
       192  -8.5348    231.0923    176.7859   3.5151525323e+01   1.2935265845e+00    0.2231639    0.1613877 -44.02 0.0005464533    1.391    0.281
       193  -8.7077    217.5602    176.9764   3.7653863917e+01   3.4690747701e+00    0.2305712    0.2003372 -51.62 0.0007160092    1.340    0.254
       194  -8.5364     88.8282    176.7167   6.7810828270e+01   2.6777840982e+01    0.2713056    0.1830356  79.66  0.000795215    1.969    0.492
       195  -9.0813     58.3431    175.0143   7.5735721342e+01   3.1601035414e+01    0.4724295    0.2406469  78.19  0.001675799    3.409    0.707
       196  -9.1291     55.8041    170.4205   7.5779434345e+01   3.3056988075e+01    0.8862311    0.4079489  72.72  0.002535479    5.336    0.813
       197  -8.7050     13.2825    176.9175   8.7595880088e+01   3.5960809679e+01    0.2899797    0.1303686  66.40 0.0009117128    2.633    0.620
       198  -9.1496    183.0526    175.8569   4.4382307015e+01   9.7990082626e+00    0.3444086    0.2290479 -52.67 0.0006797949    1.695    0.410
       199  -9.2525    158.9047    174.7483   4.9592628344e+01   1.4590909073e+01    0.4526876    0.3149481  88.24  0.001269356    2.699    0.629
       200  -9.1400    104.4204    174.6990   6.3304437877e+01   2.4683557298e+01    0.5689793    0.2885499  58.96  0.001951928    2.998    0.666
       201 -10.4915     75.9145    170.8070   7.0342012604e+01   3.0200401788e+01     1.077464    0.4650436 -77.82  0.003123522    4.652    0.785
       202  -8.5968    224.3922    173.6766   3.5740427885e+01   2.9183459706e+00    0.3034486    0.1531371 -34.18 0.0009657285    1.883    0.469
       203  -9.5130    175.7612    172.2605   4.5240270506e+01   1.1892696739e+01    0.3547367    0.3036143 -63.92  0.001016968    1.389    0.280
       204  -8.3696    142.8859    172.3620   5.2964565251e+01   1.8178445560e+01    0.2785661     0.207644 -80.93   0.00074612    1.900    0.474
       205  -8.4814    134.9323    171.4915   5.4773507609e+01   1.9888749586e+01    0.2774141    0.2182425 -75.45  0.000859238    1.578    0.366
       206  -9.4730    121.3997    170.5042   5.8048974292e+01   2.2647584164e+01    0.3999229    0.2868212 -84.38   0.00102318    1.954    0.488
       207  -9.1078     45.2062    171.1147   7.8737302350e+01   3.4170491765e+01     0.319433    0.1770801  70.69  0.001348983    2.313    0.568
       208  -9.0309    230.7118    169.5811   3.3804424565e+01   2.5980888580e+00    0.2498027    0.1651388 -35.66 0.0008046712    1.353    0.261
       209  -8.6227    205.7330    169.9163   3.8502463046e+01   6.8076984649e+00    0.2517211    0.1841991 -54.74  0.000653379    1.596    0.374
       210  -8.5014    198.3286    169.9674   3.9986711061e+01   8.1344613958e+00    0.2343781    0.2036917  76.71 0.0008143429    1.539    0.350
       211  -8.7247    149.6729    169.3104   5.0685230497e+01   1.7545699914e+01    0.3045758    0.2424511  80.21  0.001111623    1.696    0.410
       212  -8.3070    244.4209    169.1992   3.1405778016e+01   4.9417039401e-01    0.1796522    0.1084042 -46.64 0.0005844451    1.665    0.399
       213  -8.4524    237.1789    169.2083   3.2616258410e+01   1.6226400502e+00    0.1979549    0.1600254 -19.15 0.0006382714    1.129    0.114
       214  -9.3313    167.0092    168.3542   4.6401471008e+01   1.4382344047e+01    0.3697784    0.2695095  71.58  0.001286734    2.036    0.509
       215  -8.5633    218.8492    168.1494   3.5650224107e+01   4.8354647467e+00    0.1971222    0.1820321 -54.84 0.0005827161    1.266    0.210
       216  -8.1387    211.3720    168.1195   3.7046457892e+01   6.1413038968e+00    0.2021082    0.1220322 -50.72 0.0008583512    1.835    0.455
       217  -7.9674     88.7970    168.5787   6.6436995322e+01   2.8761806542e+01    0.2132647    0.1290381  47.35 0.0009317081    1.680    0.405
       218  -9.0008    191.8979    166.6510   4.0618043966e+01   9.9659538005e+00    0.2621079    0.2055053 -47.51 0.0005973146    1.319    0.242
       219  -8.7847    185.0361    166.4503   4.2018789330e+01   1.1301946429e+01    0.2688892    0.2007965 -58.86 0.0006483629    1.600    0.375
       220  -8.5424    111.3762    166.9266   6.0004208575e+01   2.5314216817e+01    0.2843306    0.2252621  83.28 0.0009619928    1.552    0.356
       221  -9.0348     20.8667    166.3945   8.4651539645e+01   3.7819998996e+01    0.3177341    0.1420273  48.49  0.001322959    2.347    0.574
       222  -9.3332    137.2980    164.6003   5.2778648824e+01   2.0998454738e+01    0.6765078    0.2991836  55.66  0.002022051    3.767    0.735
       223  -9.9443     95.0509    162.7870   6.3668367086e+01   2.9150060408e+01    0.8691687    0.4672903  71.35  0.002547808    4.547    0.780
       224  -8.4518    233.9973    164.7679   3.2283632189e+01   2.8962758522e+00    0.2359025    0.1526485 -48.80 0.0006870877    1.616    0.381
       225  -9.3193     34.3129    163.5513   8.0729617594e+01   3.7221715479e+01    0.6615463    0.1845828  47.04  0.002153575    4.246    0.765
       226  -8.7397    212.8867    163.3710   3.5789223862e+01   6.7489789093e+00    0.2514588    0.1821291 -52.63 0.0005281136    1.533    0.348
       227  -8.7007    159.4522    164.0259   4.7246782799e+01   1.6780991265e+01    0.2754797    0.2128297  60.20   0.00079632    1.527    0.345
       228  -8.2799    246.3018    162.9173   2.9882955791e+01   1.2516585623e+00    0.1836157     0.139102 -33.73  0.000484721    1.131    0.116
       229  -8.6556    204.9424    162.4841   3.7127763404e+01   8.3492524424e+00    0.2577075    0.1892232 -53.06 0.0007321978    1.509    0.337
       230  -9.3800      3.7427    162.2511   8.8687325688e+01   4.0195052757e+01    0.3841922    0.1676387  49.41  0.001432793    2.415    0.586
       231  -9.1338    177.4578    160.4061   4.2380271041e+01   1.3991841608e+01    0.2932179    0.2564133 -85.42 0.0008043509    1.440    0.305
       232  -8.8417    151.6851    160.6823   4.8391479886e+01   1.9046227825e+01    0.2969464    0.2358311 -74.10 0.0008749734    1.597    0.374
       233  -8.9585    227.4567    159.0164   3.2260927560e+01   4.9947626946e+00    0.3105334    0.2099646 -60.45  0.001112511    1.993    0.498
       234  -8.3734     60.7723    160.0155   7.2847756031e+01   3.4994661374e+01    0.2442895    0.1526541  74.93  0.001061374    2.119    0.528
       235  -9.9048    249.7265    157.3441   2.8259160690e+01   1.6477114853e+00    0.3771633    0.2768502 -60.44   0.00127866    1.752    0.429
       236  -8.7216    245.4407    158.4509   2.9149736557e+01   2.1346983992e+00    0.1941266    0.1102926 -29.83 0.0005422615    1.687    0.407
       237  -8.9114    237.1780    158.8788   3.0578779379e+01   3.3921871095e+00    0.1970621    0.1672914 -50.65 0.0005281377    1.276    0.217
       238  -8.1592    128.0229    158.7690   5.3950312318e+01   2.4130270922e+01    0.2463919    0.1723204  66.35 0.0005954317    1.894    0.472
       239  -9.5017    105.7625    157.7318   5.9728054819e+01   2.8521968416e+01    0.4768272    0.3126745  71.49  0.001175973    2.276    0.561
       240  -8.7660    196.4801    157.6352   3.7786625640e+01   1.0860085793e+01    0.2630667    0.2256758 -59.32 0.0006785734    1.321    0.243
       241  -8.5782    187.9957    157.5079   3.9501360070e+01   1.2517980964e+01    0.2274599    0.1895002 -39.26 0.0005155294    1.169    0.144
       242  -9.3876    167.4547    156.9673   4.3878650381e+01   1.6693542456e+01    0.3704663    0.2840354 -74.60  0.001078682    1.777    0.437
       243  -8.5597    218.0307    156.5120   3.3426233111e+01   7.0909560920e+00     0.275685    0.1741126 -52.35 0.0009804438    1.754    0.430
       244  -9.1031    157.5059    156.0042   4.5986397784e+01   1.8901350930e+01      0.31156    0.2522835 -79.46 0.0009497785    1.601    0.375
       245  -9.3921     81.6516    155.0418   6.6015774126e+01   3.3223907820e+01    0.4711664    0.4054944  71.59  0.001779885    1.241    0.194
       246  -9.1627    119.5506    155.0098   5.5409022923e+01   2.6630337211e+01    0.3995533    0.2792042  87.82  0.001317137    2.224    0.550
       247  -8.9357     49.7628    155.1704   7.5248774899e+01   3.7585710954e+01     0.383296    0.2253247  66.25  0.001388858    2.202    0.546
       248  -9.0475    239.3661    153.2132   2.9091776171e+01   4.0061907465e+00    0.2976394    0.1764955 -24.39  0.001159423    1.875    0.467
       249  -8.0793    242.9860    154.7195   2.8807921866e+01   3.1574267155e+00    0.2167864    0.1490852 -37.70 0.0005610528    1.260    0.207
       250  -9.1961    242.6256    149.7551   2.7881655592e+01   4.0601870660e+00    0.2849883    0.2574582  58.59  0.001832411    1.357    0.263
       251  -8.2353    204.5444    155.1093   3.5660379157e+01   9.8212376299e+00    0.2197389    0.1325395 -42.42  0.001020016    1.574    0.365
       252  -8.8386    144.4506    154.6176   4.8862178613e+01   2.1837432057e+01    0.2980352    0.2289586  71.10  0.001172405    1.683    0.406
       253  -8.2765    232.8656    153.7727   3.0276258320e+01   4.9974397231e+00    0.2485434    0.1635999 -60.39  0.001217863    2.042    0.510
       254  -9.6851    132.6635    152.7666   5.1460076959e+01   2.4608984478e+01    0.4801155    0.3277369  67.32  0.001077983    2.041    0.510
       255  -8.7115    133.5189    147.9952   5.0189421340e+01   2.5531940862e+01     0.348779    0.2194501 -35.28  0.001314039    1.792    0.442
       256  -8.8732     67.7857    153.4642   6.9748026598e+01   3.5671552375e+01    0.3760448    0.2354778  74.55  0.001247986    2.268    0.559
       257  -8.6247     20.4923    152.9686   8.3264005159e+01   4.1121659617e+01     0.181099   0.09678263  78.12 0.0007126697    2.304    0.566
       258 -10.4913    148.9059    145.1770   4.5658965266e+01   2.3026942831e+01    0.6544929    0.4439355 -88.03  0.001676712    2.708    0.631
       259  -9.6252     29.6882    150.8583   8.0407211090e+01   4.0808727350e+01    0.4128597    0.2143199  65.41  0.001646394    2.580    0.612
       260  -8.8512    189.5813    150.1052   3.7573228606e+01   1.3679699307e+01    0.3046755    0.2306725 -66.62 0.0009531968    1.687    0.407
       261  -8.3240    182.4706    150.9949   3.9258227508e+01   1.4916935054e+01    0.2273748    0.1429016 -45.62  0.001017121    1.578    0.366
       262  -8.6429     98.3234    150.5939   6.0375443904e+01   3.1562482831e+01     0.325317    0.2238106 -86.69 0.0009304467    2.073    0.518
       263  -9.4124    248.9100    149.1041   2.6776723682e+01   3.1503228343e+00    0.3046227    0.1626907 -39.14 0.0007600837    1.600    0.375
       264  -8.1534    212.9800    149.6893   3.2926255669e+01   9.2658181756e+00    0.1833572    0.1768544  10.61 0.0003898999    1.091    0.084
       265  -8.2145    162.4042    150.2613   4.3570501901e+01   1.9142055068e+01     0.210958    0.1452047 -56.25 0.0004712428    1.624    0.384
       266  -9.5939     40.1216    148.0005   7.6983139608e+01   4.0461408678e+01    0.5057949    0.2578359  61.28  0.001991172    2.746    0.636
       267  -8.7460      3.0080    150.0340   8.7749113751e+01   4.3161128849e+01    0.2280981    0.1066883  79.14 0.0008255766    2.576    0.612
       268  -7.8321    237.2874    149.6962   2.8725132294e+01   4.9589174647e+00    0.1254097   0.09952401 -64.48 0.0002534348    1.564    0.361
       269  -8.4923    198.8427    149.0036   3.5468952809e+01   1.2079767292e+01     0.216251    0.1917648 -70.73 0.0005078823    1.319    0.242
       270  -9.7968     89.4815    146.4897   6.2092699683e+01   3.4070095470e+01    0.6465877     0.386028  87.37  0.002202529    3.391    0.705
       271  -8.9776    233.6082    146.9783   2.8776906649e+01   6.0588589617e+00    0.3379112     0.144215 -38.37   0.00109154    2.110    0.526
       272 -10.1487     55.1901    144.8321   7.1994790499e+01   3.9499736106e+01    0.7890486    0.4025596  67.71  0.002683019    3.750    0.733
       273  -8.5315    223.1405    146.8062   3.0508892794e+01   7.9355606375e+00    0.1931817     0.177522 -47.90 0.0003625989    1.123    0.110
       274 -10.0316    106.4543    143.7349   5.6620817496e+01   3.1761898200e+01    0.7549808    0.5098177 -82.06  0.002309137    2.216    0.549
       275  -9.0462     78.2219    147.0704   6.5517657569e+01   3.5727299933e+01    0.2879595     0.180914  60.36  0.001123305    2.029    0.507
       276  -9.4090     13.5229    146.3200   8.4450658125e+01   4.3305816939e+01    0.3179075      0.18613  56.73  0.001296166    1.916    0.478
       277  -7.8943    206.4332    146.2444   3.3412778713e+01   1.1144395917e+01    0.1990792    0.1285009 -50.53 0.0005919014    1.604    0.376
       278  -8.4406    175.4863    145.9602   3.9653770696e+01   1.7361442822e+01    0.2234087    0.1459995 -45.90 0.0005185385    1.524    0.344
       279  -9.9901    139.0262    144.8231   4.8056892308e+01   2.5137363839e+01    0.7162719    0.3557781 -60.84  0.002421581    2.900    0.655
       280  -9.0423    139.3351    137.4987   4.6293514677e+01   2.6717202632e+01     0.439037    0.2495607 -19.98  0.001382041    3.575    0.720
       281  -9.1083    240.4532    145.0287   2.7280923882e+01   5.2294816911e+00    0.2041085    0.1672589 -54.23 0.0004813925    1.288    0.224
       282  -9.4978    243.3761    141.5152   2.6122062066e+01   5.3379765299e+00    0.3908493    0.1369972 -37.93  0.001547972    2.568    0.611
       283  -9.0003    247.1463    143.6659   2.5974034778e+01   4.3485296593e+00    0.2412697    0.1590251 -35.47 0.0004687528    1.322    0.243
       284  -9.0304    165.5424    143.9003   4.1417503355e+01   1.9846438972e+01    0.3127088    0.2432184  69.82 0.0009636947    1.615    0.381
       285  -9.7388    124.9681    142.1240   5.1136120215e+01   2.8590868224e+01    0.6187943    0.3947918 -70.07  0.002337252    2.224    0.550
       286  -7.8144    194.3197    143.7051   3.5211483088e+01   1.3999465260e+01    0.1425206    0.1165371 -83.68 0.0004315607    1.611    0.379
       287 -10.5130     69.6171    141.0190   6.6938524545e+01   3.8505728674e+01    0.4946498    0.3417283 -89.72  0.002251289    1.891    0.471
       288  -8.4418    182.0126    141.3504   3.7215277414e+01   1.6960901483e+01     0.257249    0.2060309 -69.73 0.0006487548    1.524    0.344
       289  -9.2082      3.1069    141.9327   8.6907822840e+01   4.5094686111e+01    0.2726838    0.1445535  64.51  0.001178246    2.231    0.552
       290  -7.9412    250.4823    140.5358   2.4857458314e+01   4.3274922263e+00    0.1284636    0.1092066 -39.16 0.0001744559    1.037    0.036
       291  -9.7401     23.6406    138.1394   8.0476018642e+01   4.4485310707e+01    0.5064951     0.249991  64.89  0.002062588    3.013    0.668
       292  -7.8362    218.5404    138.4749   2.9559629316e+01   1.0291328762e+01     0.138466    0.1259721 -44.70 0.0004835915    1.063    0.060
       293  -8.2620    207.4937    137.9204   3.1418995856e+01   1.2508143807e+01    0.2153921    0.1314872 -44.27 0.0009384849    1.546    0.353
       294  -8.7193    197.5087    137.4288   3.3199447687e+01   1.4579843567e+01     0.270421    0.2231673 -69.47 0.0009337376    1.428    0.300
       295  -8.8488    172.1626    137.7501   3.8524655022e+01   1.9745773038e+01    0.3065786    0.2301536 -71.72 0.0009076425    1.747    0.428
       296  -8.9730    248.3924    134.9998   2.4071229306e+01   5.5972457503e+00    0.2664955     0.164622 -44.56 0.0007680012    1.415    0.293
       297  -8.8654    250.7270    130.5249   2.2847888986e+01   5.9530213279e+00    0.4128531    0.1024527 -37.59  0.001359905    3.851    0.740
       298  -8.7904    162.4631    136.1360   4.0341475966e+01   2.2133814783e+01    0.2369415    0.2132189 -88.49 0.0006421796    1.270    0.212
       299  -8.9299    150.5264    135.6632   4.3064967651e+01   2.4769722491e+01    0.3210217    0.1992668  16.13  0.001156435    2.712    0.631
       300  -9.7254     55.9836    135.5666   7.0113747723e+01   4.1701660803e+01     0.480035     0.241156   5.55   0.00160333    4.000    0.750
       301  -9.1957     39.0569    135.8500   7.5429251714e+01   4.3586206583e+01    0.2764707    0.2095889  82.12 0.0009039732    1.480    0.324
       302  -8.2134    187.6584    135.2922   3.4678224720e+01   1.7006209239e+01    0.2056592    0.1335846 -34.77 0.0006560069    1.569    0.363
       303  -7.8416     95.6635    135.2789   5.7897288827e+01   3.5735894307e+01    0.1543863    0.1186256  69.03 0.0002783178    1.614    0.381
       304 -10.2684     83.4766    133.1109   6.1095058921e+01   3.8324886911e+01    0.5278179    0.3508107 -74.75  0.001306874    1.917    0.478
       305  -8.8065    179.5582    133.7794   3.6013708940e+01   1.8998639791e+01    0.2818945    0.2148834 -67.46 0.0007740828    1.604    0.376
       306  -8.9340    112.7298    133.0348   5.2430043331e+01   3.3108476025e+01    0.3413174    0.2536851  72.23 0.0008181802    1.797    0.443
       307  -8.0614    237.4293    133.1874   2.5356794560e+01   7.7878816954e+00    0.1935024    0.1098738 -49.62 0.0008691808    1.714    0.417
       308  -7.7876    231.4586    133.5597   2.6372493614e+01   8.7893138611e+00    0.1337677    0.1192771 -40.56 8.347995e-05    1.018    0.017
       309  -9.8821    132.0549    131.1404   4.6683346099e+01   2.9654189753e+01    0.4711569    0.3292723 -78.32  0.001219581    2.164    0.538
       310  -9.3815    142.9900    131.3172   4.3903054496e+01   2.7316567702e+01    0.3953177     0.248512 -55.48  0.001149715    1.768    0.434
       311  -9.7472     13.1410    129.3427   8.2478596108e+01   4.7449592709e+01    0.4690729    0.2366972  65.98  0.002036715    2.845    0.649
       312  -8.4407    247.0757    129.6967   2.3207841262e+01   6.7077430166e+00    0.2235574    0.1519955 -48.69 0.0004962081    1.346    0.257
       313  -8.1238    204.5090    130.0275   3.0239008521e+01   1.4580990883e+01    0.2012798    0.1170053 -61.33 0.0005790016    2.395    0.582
       314  -8.3672    192.7566    129.9052   3.2441122014e+01   1.7003924031e+01     0.272954    0.1908032 -57.32 0.0007159648    1.585    0.369
       315  -9.3363    168.2728    129.1936   3.7394762392e+01   2.2337323985e+01    0.3528468    0.2516142 -64.49 0.0007634984    1.729    0.421
       316  -9.5113    152.8965    128.5718   4.0805051725e+01   2.5788000135e+01     0.510211    0.2852823 -56.26  0.001487867    2.137    0.532
       317 -10.0742     99.2025    127.6435   5.5104743973e+01   3.6919821079e+01    0.5943112    0.3978043  87.53  0.001790213    2.631    0.620
       318  -9.6629     73.2306    129.2157   6.3440594852e+01   4.0875601629e+01    0.3442614    0.2514082 -82.08 0.0009078464    1.710    0.415
       319  -8.1712    220.5164    129.5499   2.7322991131e+01   1.1533061686e+01    0.1371115    0.1255788 -38.41  9.49281e-05    1.013    0.013
       320  -8.1871    211.7077    128.9491   2.8707729979e+01   1.3349354886e+01    0.2299266    0.1524129 -65.76 0.0009928179    2.019    0.505
       321  -8.3395    186.3723    129.2039   3.3552229550e+01   1.8474269666e+01    0.2170422    0.1329547 -51.39 0.0007138071    1.708    0.414
       322 -10.6807     60.4754    125.2440   6.6682760483e+01   4.3653817525e+01    0.7431678    0.4431835  76.37  0.002786432    3.160    0.684
       323  -8.6807     50.3196    128.6579   7.0624540486e+01   4.4101386070e+01    0.2712864    0.1989129  74.46 0.0006922208    1.709    0.415
       324 -10.4396     44.7528    123.5498   7.1472664272e+01   4.5993223467e+01    0.8559611    0.4732632  80.61  0.003102152    3.600    0.722
       325  -8.1110     26.3502    129.3004   7.8366868915e+01   4.6413854758e+01     0.139892   0.08854993 -36.72 0.0007037847    1.692    0.409
       326 -10.0366    117.8752    124.9870   4.9055947277e+01   3.3946862358e+01    0.6337833     0.441345  78.65  0.001395667    2.296    0.564
       327  -7.7782    228.5318    125.5133   2.5161003261e+01   1.0737160374e+01    0.1356533    0.1205667 -47.03 0.0001125872    1.036    0.035
       328  -9.0744    179.2126    124.3380   3.3892819985e+01   2.0959428852e+01    0.3217945    0.2419105 -61.91 0.0007012144    1.510    0.338
       329 -10.1569     28.8913    122.6805   7.6503789682e+01   4.7799971664e+01    0.5993612    0.3273171  70.35   0.00247245    2.983    0.665
       330  -8.0243    188.4857    123.5509   3.1827688602e+01   1.9129552950e+01    0.1460656    0.1399968 -63.16 0.0002081098    1.048    0.046
       331  -9.5321    158.5992    121.3137   3.7698766520e+01   2.6068514124e+01    0.4047548    0.2927277 -82.38  0.001050588    2.042    0.510
       332  -8.6692     84.1446    122.2864   5.8464834025e+01   4.0815467117e+01    0.3046341     0.252111 -15.55  0.001006283    1.350    0.260
       333  -7.7147    203.0053    121.9973   2.8725002372e+01   1.6387272352e+01    0.1720189    0.1582472 -44.74 0.0003932512    1.026    0.025
       334  -8.1766    195.0122    121.9721   3.0201377113e+01   1.8053452110e+01     0.226154    0.1727697 -73.12 0.0005327571    1.622    0.384
       335  -8.8553    172.1385    121.5123   3.4721526470e+01   2.3057544469e+01    0.2739784    0.2263931 -73.98 0.0006311286    1.412    0.292
       336  -9.8505    141.6298    117.8716   4.0946072143e+01   3.0512112371e+01    0.6636702    0.3310105 -53.39  0.001773123    2.322    0.569
       337  -9.8768    130.9186    118.4515   4.3864217725e+01   3.2697193298e+01    0.5314812    0.3733789  89.35  0.001631412    2.354    0.575
       338  -9.3804     71.2244    119.6811   6.1997720575e+01   4.3476017015e+01    0.3059327    0.2323384  73.67 0.0009862861    1.751    0.429
       339  -9.8956      2.9096    116.5860   8.4004392184e+01   5.1147225410e+01     0.558728     0.266391  85.34  0.002413381    2.884    0.653
       340  -8.0786    231.6242    117.7125   2.3047122062e+01   1.1512178522e+01    0.1919297    0.1100007 -48.94 0.0004989986    1.632    0.387
       341  -9.8995    109.4125    114.1085   4.8760057893e+01   3.8086368744e+01    0.5235312    0.3494393 -74.69  0.001319805    2.344    0.573
       342  -9.9618     92.7374    112.4338   5.3379515055e+01   4.1620715985e+01    0.5818256    0.3511244 -64.97  0.001410851    2.181    0.542
       343  -8.0378    167.4006    114.2592   3.3991173294e+01   2.5548908884e+01    0.2062359     0.141228 -52.39 0.0003695218    1.531    0.347
       344  -9.8845     78.9769    112.3731   5.7757870930e+01   4.3990062597e+01    0.5146961    0.3704918  83.51  0.001994116    2.165    0.538
       345  -8.6856    174.8120    111.7195   3.1794157714e+01   2.4397195264e+01     0.295155    0.1958196 -54.39 0.0006328248    1.619    0.382
       346  -9.0268    159.1860    111.7226   3.5190962037e+01   2.7890005456e+01    0.2674626     0.201612 -54.05 0.0007011404    1.398    0.284
       347  -9.9593    133.5842    109.3857   4.0835128284e+01   3.4057157938e+01    0.5964782    0.3162581 -47.35  0.001844035    1.953    0.488
       348  -9.6172     14.3268    111.0991   7.9455327110e+01   5.1730601720e+01    0.3229334    0.1877535  75.49  0.001519681    2.480    0.597
       349 -11.2590    249.2164    102.3108   1.7449283180e+01   1.0834599571e+01    0.9274865    0.2573628 -35.94  0.003156992    3.887    0.743
       350  -9.7258     66.5003    110.3144   6.1400448942e+01   4.6383334858e+01    0.3566911    0.2754698  82.36   0.00137044    1.782    0.439
       351  -8.2829    185.9044    115.9605   3.0566709999e+01   2.1143441484e+01    0.2307067    0.1760449 -76.23 0.0005400786    1.643    0.391
       352 -10.8019     22.7873    102.6004   7.5045911627e+01   5.3096591513e+01    0.6141563    0.3734048  68.40  0.002034762    2.574    0.612
       353  -9.3493    139.9088    104.3918   3.7908323259e+01   3.3689085542e+01    0.3567772    0.2693421 -89.93 0.0008544774    1.851    0.460
       354  -9.6838    121.9475    112.5181   4.4779625517e+01   3.5880239191e+01    0.3257603    0.2894418  78.86  0.000652039    1.292    0.226
       355  -8.2261    192.9684    114.9781   2.8977918347e+01   1.9806441275e+01    0.2229563    0.1697041 -72.18 0.0004004432    1.584    0.369
       356 -10.3105     45.7714    102.2330   6.6733108080e+01   5.0952141823e+01     0.709142    0.4218539  68.89  0.002775905    3.364    0.703
       357  -8.6128    166.7141    103.8689   3.1561114451e+01   2.7729320274e+01    0.2811645    0.1974605 -59.10 0.0007865617    1.605    0.377
       358  -9.7508    150.4404    102.6216   3.4888821404e+01   3.1670817448e+01    0.5177068    0.2733119 -54.64   0.00104612    2.307    0.567
       359 -10.3794    128.5962    101.4491   4.0044460158e+01   3.6787045592e+01    0.4756657    0.3316689 -49.91  0.001651602    1.516    0.341
       360  -7.8306    105.9702    103.0062   4.6858884833e+01   4.1198279024e+01    0.1786867    0.1706707  22.27            0    1.020    0.019
       361  -8.5337      6.9845    103.0154   8.0691644466e+01   5.4089744596e+01     0.189058    0.1395335  70.09 0.0006290274    1.671    0.401
       362  -8.0113    175.5713    101.7940   2.9209402393e+01   2.6113893533e+01     0.207538     0.135578 -52.74 0.0004252469    1.608    0.378
       363 -10.7692    108.6351     98.5978   4.4864208631e+01   4.1595765923e+01     0.840744    0.4709379  63.92  0.001203083    3.166    0.684
       364  -8.9989    107.6683     92.5277   4.3452811344e+01   4.3041460596e+01    0.5325838    0.3206094  21.76  0.002100301    2.314    0.568
       365  -8.3180    159.9748    100.9708   3.2289999017e+01   2.9819383949e+01    0.2358551    0.1826425 -79.98 0.0005403975    1.622    0.384
       366  -9.1438     82.1613     99.9093   5.3527127220e+01   4.6279377593e+01    0.3331679    0.2536138 -79.13  0.001062289    1.850    0.459
       367 -10.0518     63.9921     95.7882   5.8660820067e+01   5.0053775935e+01    0.5144877    0.3563203  88.07  0.001756668    2.617    0.618
       368  -8.3918    165.0219     94.0332   2.9424741516e+01   2.9963204760e+01    0.2359231    0.1779356 -76.13 0.0005690873    1.643    0.391
       369  -8.1061    176.4708     92.9736   2.6846723550e+01   2.7522925892e+01    0.2205321    0.1408239 -43.67 0.0005150708    1.557    0.358
       370  -9.2148    139.0277     91.8674   3.4765889589e+01   3.6349601866e+01    0.4150908    0.2749348 -59.20  0.001520472    1.852    0.460
       371 -10.1967    123.9710     90.9375   3.8389651027e+01   3.9896834859e+01    0.5231044    0.4318984  31.37  0.001128086    1.230    0.187
       372  -9.4083     34.9871     89.7840   6.7838555481e+01   5.4932044903e+01      0.41523    0.2710236 -86.44  0.001458052    2.437    0.590
       373  -9.3979      5.2057     91.8682   7.9486848407e+01   5.6739374873e+01    0.2529582    0.1654681  56.13   0.00120652    2.071    0.517
       374  -7.8946    157.8105     91.5788   3.0331235971e+01   3.2082053324e+01    0.1992347    0.1411972  65.41 0.0004591842    1.527    0.345
       375  -8.8240     23.3418     89.9672   7.2310451513e+01   5.5941359539e+01    0.2731289    0.1924374   5.92  0.001389748    1.550    0.355
       376  -7.8714    150.9978     88.9680   3.1153140156e+01   3.4140727797e+01     0.181762    0.1697759 -45.72 0.0004167602    1.105    0.095
       377  -9.9298     86.6418     86.5126   4.8303927933e+01   4.8329955097e+01    0.4950335    0.3555883  76.58  0.001181692    2.414    0.586
       378  -9.1240     94.9817     96.7606   4.8523357968e+01   4.4658352718e+01    0.2829394    0.2401208 -67.80   0.00058005    1.402    0.287
       379  -8.1495    164.3302     87.1132   2.7784280796e+01   3.1374877516e+01    0.2126925    0.1289458 -49.85 0.0004966531    1.740    0.425
       380  -8.5318     79.4086     86.1598   5.0629985706e+01   4.9677659329e+01    0.2396645    0.1875384  15.41 0.0005932128    1.327    0.247
       381  -9.7025     48.7240     84.2840   6.1221893959e+01   5.4606667056e+01     0.455757    0.3061232  66.56  0.001719532    2.692    0.629
       382  -7.7562    179.3411     85.1881   2.4366929835e+01   2.8230791261e+01    0.2060267    0.1246399 -49.80 0.0004574115    1.691    0.409
       383  -8.3857    157.9819     83.8004   2.8242835105e+01   3.3443107450e+01    0.2500586    0.2090729 -43.81 0.0004830238    1.232    0.188
       384  -8.8251     46.7054     91.9934   6.3967479754e+01   5.3166719948e+01    0.3980406    0.1726243  15.15  0.001468359    3.308    0.698
       385  -7.7332     64.2598     82.6279   5.4961749152e+01   5.2837396539e+01    0.1320076    0.1123042 -88.50 0.0006026095    1.653    0.395
       386  -9.5158     24.6165     80.4747   6.9677084468e+01   5.7928162462e+01    0.3938847    0.2596493 -88.57  0.001365708    2.450    0.592
       387  -9.2219     10.0710     81.0395   7.5584959520e+01   5.8863542356e+01    0.3099324    0.1872571  61.92   0.00152872    2.753    0.637
       388  -8.4219    150.6365     80.5582   2.8962626875e+01   3.5731558297e+01    0.2489406    0.1702141 -59.49 0.0007105576    1.732    0.423
       389  -8.7454    119.5187     80.3071   3.6545124845e+01   4.2885569505e+01    0.3007329     0.228334 -76.69 0.0009161333    1.864    0.464
       390  -8.9045     74.8139     80.4280   5.0537167559e+01   5.1617687165e+01    0.3120468    0.2076796 -56.49  0.001063126    1.792    0.442
       391  -8.8586    190.5871    109.5241   2.8152854342e+01   2.1338546323e+01    0.4890484     0.278282 -71.98  0.001654904    3.626    0.724
       392  -8.0808    166.9071     79.3305   2.5245874154e+01   3.2123336470e+01    0.1949353    0.1807963  70.57 0.0003632557    1.030    0.029
       393  -7.5559    184.3174     77.6874   2.1625224673e+01   2.8344182425e+01    0.1472794    0.1052831 -75.59 0.0006224505    1.644    0.392
       394  -9.1115    140.8957     82.2915   3.1671371282e+01   3.7692268739e+01     0.343277    0.2022866 -50.08 0.0009012603    1.888    0.470
       395  -9.6343    104.7557     83.0394   4.1572711331e+01   4.5510833124e+01    0.3771649    0.3017542 -72.43  0.001055463    1.671    0.402
       396  -9.2590    128.0602     75.0728   3.2764490111e+01   4.1912968838e+01     0.315765    0.2280324 -55.27 0.0007764219    1.613    0.380
       397  -8.4321    140.4871     75.0499   2.9735652649e+01   3.9055454113e+01    0.2128983    0.1459273 -41.45 0.0005336742    1.535    0.349
       398  -9.8958     63.2049     73.5628   5.2665742179e+01   5.4824611103e+01    0.4039325    0.2908287 -64.63  0.001102529    1.924    0.480
       399  -9.6501     82.5650     72.5943   4.5462118311e+01   5.1786530109e+01    0.3786868    0.2942726 -79.52  0.001254013    2.072    0.517
       400  -8.3565    163.4293     72.8614   2.4233685668e+01   3.4019144434e+01    0.2637081    0.1349337 -42.85  0.001111487    2.003    0.501
       401  -8.1256    151.3895     73.1537   2.6774900524e+01   3.6816670101e+01    0.1980509     0.132831 -51.39 0.0003270718    1.625    0.385
       402  -8.6728    115.5258     72.8824   3.5429300482e+01   4.5092475900e+01    0.2101259    0.1457366 -38.79 0.0004806123    1.524    0.344
       403  -8.0986     42.7086     72.5519   6.0321591588e+01   5.7777498668e+01    0.2025436    0.1615203 -73.33 0.0006523797    1.719    0.418
       404  -8.9746    105.9542     71.5449   3.7740094912e+01   4.7381709237e+01    0.2652417     0.202263 -59.15 0.0008118342    1.644    0.392
       405  -9.0203     95.1298     71.0816   4.0881642828e+01   4.9677117007e+01    0.3322853    0.2229784 -55.97 0.0009716069    1.921    0.479
       406  -9.3624     51.5299     69.4954   5.5901983379e+01   5.7283423614e+01    0.4049793    0.2589869 -70.07  0.001392746    2.752    0.637
       407  -8.9358     16.6775     69.6328   7.0305964908e+01   6.0853709580e+01    0.2624451    0.1848054 -73.97  0.001187435    1.777    0.437
       408  -7.5505    157.2722     69.6688   2.4604031857e+01   3.5994930161e+01      0.14528    0.1090064 -73.68 0.0003865598    1.590    0.371
       409  -8.5595    147.0760     68.0283   2.6280928471e+01   3.8673991757e+01    0.2214547    0.2055221 -89.62 0.0006792344    1.105    0.095
       410  -8.5584    138.7812     66.0921   2.7571104117e+01   4.0937761736e+01     0.218179     0.190513 -75.85 0.0006041714    1.280    0.219
       411  -8.7056    121.7285     65.8891   3.1653999889e+01   4.4899479916e+01    0.2501578    0.1953173 -59.10 0.0005663037    1.539    0.350
       412  -8.7694    110.0679     63.4741   3.4044421372e+01   4.7876165415e+01    0.2459981    0.2022361 -59.24   0.00056821    1.480    0.324
       413  -8.5391     37.3775     64.0050   5.9993699390e+01   6.0085937847e+01    0.2069245    0.1792738  50.92 0.0009864612    1.566    0.362
       414  -7.9155    158.3972     61.5151   2.2177000451e+01   3.7002281887e+01    0.1412952    0.1293409  88.86 0.0001190256    1.071    0.067
       415  -9.1264     97.8430     60.5411   3.6667822684e+01   5.0938929319e+01    0.3132264    0.2261402  60.37  0.001211347    1.633    0.388
       416  -9.6721     73.3887     59.3932   4.4366369014e+01   5.5781853649e+01    0.3762076    0.2407316 -48.03  0.001331404    1.815    0.449
       417  -7.9361    147.0000     58.9343   2.3738831102e+01   4.0106111390e+01    0.2155298   0.08237656 -35.10 0.0004903275    2.836    0.647
       418  -8.0249     89.1738     59.2323   3.8947597927e+01   5.2891946700e+01    0.1764216    0.1679623 -86.27 0.0005509143    1.325    0.245
       419  -8.7016    130.7221     57.3603   2.6865056455e+01   4.4176820191e+01    0.2415817    0.1699273 -49.91 0.0006211328    1.617    0.382
       420  -9.7595     23.4809     56.1518   6.3651211144e+01   6.2996010938e+01    0.3987637    0.2935501  87.16  0.002123819    2.664    0.625
       421  -9.3991      7.5380     56.9034   7.1062242320e+01   6.4052106011e+01    0.2732897    0.2040901 -85.94  0.001115658    2.000    0.500
       422  -8.0618    139.9846     56.0178   2.4387342293e+01   4.2202918139e+01    0.2144602     0.165103 -75.12 0.0004515553    1.590    0.371
       423  -8.7806    119.0871     55.2417   2.9052310049e+01   4.7166097071e+01    0.3482368    0.1844535 -41.52  0.001428912    2.078    0.519
       424  -8.7969     44.1642     55.5435   5.4449245207e+01   6.0868668737e+01    0.2278437    0.2016827 -71.52 0.0009879421    1.656    0.396
       425  -8.8621     62.8082     54.1552   4.6484364263e+01   5.8436264207e+01    0.3830625    0.1894529 -49.10  0.001533811    2.478    0.596
       426  -8.9554     54.1861     53.6832   4.9697252450e+01   5.9831781675e+01    0.3059522    0.2085843 -61.24  0.001485023    2.320    0.569
       427  -8.5669    169.6186     53.8643   1.8122801698e+01   3.5451958698e+01    0.1971285    0.1757512   0.81 0.0006021454    1.420    0.296
       428  -8.4974    105.8180     53.0660   3.1896359799e+01   5.0428622377e+01    0.2067507    0.1882523  89.29 0.0006864156    1.338    0.252
       429  -8.5785    250.5726     52.4648   7.5583877050e+00   1.8017135270e+01    0.1182757   0.09701679 -64.81 -3.350425e-05    1.045    0.043
       430  -9.3379     92.4913     50.5216   3.4964066278e+01   5.3603324389e+01    0.3363721    0.2365358 -52.52 0.0009867328    1.861    0.463
       431  -7.9219    144.8035     48.9708   2.1351663744e+01   4.2062076823e+01    0.1752132    0.1118025 -33.13 0.0006140072    1.742    0.426
       432  -7.8632    130.1348     49.1526   2.4525561724e+01   4.5502545042e+01    0.1869589    0.1611252 -83.53 0.0004052437    1.325    0.245
       433  -7.7545    163.6771     47.3198   1.7412703519e+01   3.7775092057e+01    0.1429687   0.09976161 -75.78 0.0003583613    1.673    0.402
       434  -8.4462    112.3274     46.9307   2.8140905936e+01   4.9885428370e+01    0.2365411    0.1892947  83.24  0.000764927    1.586    0.369
       435  -9.1227     82.2781     46.3101   3.6761247937e+01   5.6246294196e+01    0.2658151    0.2218547 -50.28 0.0007243673    1.518    0.341
       436  -8.2801     45.1356     44.5983   5.0218591638e+01   6.2629104266e+01    0.1967557     0.164029 -39.24 0.0005663371    1.374    0.272
       437  -8.9240     16.8142     44.5473   6.3110315833e+01   6.5725807681e+01    0.1994292    0.1544477 -65.33 0.0006508159    1.792    0.442
       438  -8.1263    132.7719     43.0149   2.2090021142e+01   4.5712858458e+01    0.1652274    0.1166519 -32.32 0.0003294723    1.586    0.370
       439  -9.2354     69.8096     41.6277   3.9373416032e+01   5.9231335532e+01    0.2966601    0.2365284 -56.96 0.0009235801    1.828    0.453
       440  -8.7808     58.0873     42.2706   4.4037631219e+01   6.1099358062e+01    0.2710117     0.174937 -53.75  0.001261625    2.343    0.573
       441  -9.6120      5.3013     41.9911   6.7909035284e+01   6.7030469841e+01    0.2831428    0.1984691 -78.10  0.001312265    2.353    0.575
       442  -8.3400    105.9255     41.1610   2.7921895373e+01   5.2083090564e+01    0.1993611    0.1817737  87.30 0.0005647955    1.315    0.240
       443  -8.3858     36.7503     40.4179   5.2357501599e+01   6.4390033230e+01    0.1971276    0.1483673 -46.12 0.0007179527    1.572    0.364
       444  -7.5523    160.6737     39.3539   1.5792988546e+01   3.9532265544e+01    0.1437438   0.09646925 -73.12 0.0007046737    1.768    0.434
       445  -8.6318     95.7899     38.0589   2.9667405898e+01   5.4666680626e+01    0.1919751    0.1822255 -75.41 0.0006967514    1.316    0.240
       446  -8.3334     80.9793     36.9508   3.3806833899e+01   5.7810884826e+01    0.1851418     0.164364 -82.01 0.0005445376    1.637    0.389
       447  -7.3684    133.6846     36.2994   1.9877262237e+01   4.6345602510e+01    0.1345606    0.1016492 -80.94 0.0007018138    1.611    0.379
       448  -9.4812     26.1439     35.1814   5.5336037007e+01   6.6450560736e+01    0.2574405    0.2135357 -50.62  0.001002229    1.620    0.383
       449  -8.2251    126.0149     35.2913   2.1179174695e+01   4.8266864524e+01    0.1877268     0.161872  57.74 0.0004643709    1.033    0.032
       450  -8.5099    111.8439     34.4412   2.4169082396e+01   5.1618033036e+01     0.249903    0.1647433 -49.25 0.0007560374    1.900    0.474
       451  -8.3771    119.1937     33.1179   2.2005173232e+01   5.0104948947e+01    0.1778855     0.154853 -79.92 0.0005925054    1.351    0.260
       452  -8.4561     60.9298     32.5574   3.9213245727e+01   6.2037434339e+01     0.205447    0.1751314 -42.91 0.0006364608    1.536    0.349
       453  -8.8743     48.6019     33.0754   4.4361658900e+01   6.3914539150e+01    0.2088349    0.1637127  39.79 0.0007257343    1.471    0.320
       454  -8.9928     72.1303     30.7791   3.4451070332e+01   6.0290833116e+01    0.2015835    0.1713045 -34.67 0.0006688264    1.409    0.290
       455  -8.8597     12.9982     30.2426   6.0041137836e+01   6.8504564624e+01    0.2487526    0.1579124 -56.12  0.001165611    2.062    0.515
       456  -8.3893    101.7887     29.1875   2.4928772519e+01   5.4465238640e+01    0.1896234    0.1713039  72.51 0.0006186644    1.257    0.205
       457  -8.8408     81.6869     27.3554   3.0004238922e+01   5.8874371495e+01    0.2376781    0.2053246 -82.60 0.0007670231    1.713    0.416
       458  -9.0531      3.7689     27.4278   6.3875001120e+01   6.9672039474e+01    0.1822494    0.1711052 -38.44 0.0008364535    1.490    0.329
       459  -9.4550    233.2231    245.8749   4.7192811235e+01  -9.7743576078e+00    0.4808609     0.223899 -31.06  0.001947262    2.064    0.516
       460  -8.2625    104.4156     22.7980   2.2055233918e+01   5.4590154633e+01    0.1621768    0.1228918   1.06 0.0003799437    1.545    0.353
       461  -8.4342    121.0508     21.6990   1.7950837542e+01   5.0935614216e+01    0.1848013    0.1493097  57.53 0.0004646827    1.053    0.050
       462  -9.0767     63.7146     20.9320   3.3510550069e+01   6.3009670599e+01    0.2631055    0.1909593 -46.92 0.0008894788    1.980    0.495
       463  -8.8566     48.5120     21.3558   3.9587137467e+01   6.5499814369e+01    0.2145223    0.1932131  40.17 0.0006695313    1.471    0.320
       464  -8.4837    209.0237     25.4854   6.1669018666e+00   3.0021340793e+01    0.1760814    0.1463154 -66.96 0.0003281458    1.113    0.102
       465  -8.0564     19.6957     21.3094   5.3039062752e+01   6.9259198384e+01   0.09682529   0.09018767  24.06 0.0003261303    1.609    0.378
       466  -9.0978     74.2753     19.4625   2.9308838571e+01   6.1211527807e+01    0.2221427    0.2084125 -55.75 0.0007129245    1.468    0.319
       467  -8.0640     38.9891     18.0099   4.2260373966e+01   6.7331805427e+01    0.1503426    0.1478459   1.19 0.0004446583    1.606    0.377
       468  -7.8533    112.8133     16.8094   1.8101000931e+01   5.3307511046e+01    0.1672436    0.1431225  85.52 0.0004651452    1.308    0.235
       469  -8.1055     88.0198     17.4990   2.4426621949e+01   5.8655792092e+01     0.186749    0.1094941  53.19  0.000456635    1.482    0.325
       470  -8.1157     30.0508     15.9820   4.5532325217e+01   6.8792639062e+01    0.1539824    0.1457294  40.42 0.0008173382    1.731    0.422
       471  -8.0086     97.3762     15.1541   2.1106060201e+01   5.6894420294e+01    0.1623416     0.114521 -38.97  0.000558777    1.727    0.421
       472  -8.3917      7.8124     15.5831   5.7008855533e+01   7.1216661224e+01    0.1420742   0.09064014  26.17 0.0007283292    1.683    0.406
       473  -8.2921     17.2567     13.9536   5.1128248690e+01   7.0549480689e+01    0.1365182   0.08465242 -32.66 0.0004898903    1.518    0.341
       474  -7.7557    191.4844    249.5160   5.5779870835e+01  -4.6747405758e+00    0.1254244    0.1041597  18.26 0.0005399045    1.090    0.082
       475  -8.1888    184.0157    250.0000   5.7360855972e+01  -3.6687056566e+00    0.2116795   0.06187761  34.92 0.0008017073    2.937    0.660
       476  -9.1215    175.5372    247.5438   5.8722052317e+01  -2.0278314695e+00    0.2844358    0.2392502  74.39  0.001049763    1.887    0.470
       477  -8.9215    132.4778    247.9929   6.7904431685e+01   4.4974350698e+00    0.3206501    0.2047651  63.54   0.00113622    2.195    0.545
       478  -8.3223    112.9888    248.6498   7.2187677608e+01   7.3605751424e+00    0.2115801    0.1620752 -85.58  0.001016629    1.649    0.394
       479  -9.1962    103.9082    246.9013   7.3937627026e+01   9.0546850865e+00    0.4457483    0.2489417 -87.41  0.001920976    3.223    0.690
       480  -8.2279     93.8199    249.2107   7.6362334841e+01   1.0099954984e+01    0.2277755    0.1112075  62.38 0.0009540421    2.865    0.651
       481  -9.4166    243.2028    246.1384   4.5444208775e+01  -1.1030162552e+01     0.373223    0.1661397 -28.72  0.001748159    2.136    0.532
