#   1 NUMBER                 Running object number                                     
#   2 MAG_AUTO               Kron-like elliptical aperture magnitude                    [mag]
#   3 X_IMAGE                Object position along x                                    [pixel]
#   4 Y_IMAGE                Object position along y                                    [pixel]
#   5 X_WORLD                Barycenter position along world x axis                     [deg]
#   6 Y_WORLD                Barycenter position along world y axis                     [deg]
#   7 A_WORLD                Profile RMS along major axis (world units)                 [deg]
#   8 B_WORLD                Profile RMS along minor axis (world units)                 [deg]
#   9 THETA_WORLD            Position angle (CCW/world-x)                               [deg]
#  10 FWHM_WORLD             FWHM assuming a gaussian core                              [deg]
#  11 ELONGATION             A_IMAGE/B_IMAGE                                           
#  12 ELLIPTICITY            1 - B_IMAGE/A_IMAGE                                       
         1 -14.2382     68.3230    144.3454   1.0477860293e+02   3.7232529429e+01     3.590082     1.655862 -83.34  0.005458822    4.539    0.780
         2 -13.8863    228.2595     15.4660   3.6799958723e+01   2.6719088485e+01     1.616357     1.112615  28.35  0.002712231    2.384    0.581
         3 -13.7213    201.7089     39.2510   4.5445204365e+01   2.9987365627e+01     1.404611      1.11933   3.65   0.00491085    1.697    0.411
         4 -13.5248    210.0589     34.1409   4.3110247189e+01   2.8661568407e+01     1.111157    0.8040057 -47.38  0.003884842    1.284    0.221
         5 -12.6504    217.3678     26.5664   4.0434820653e+01   2.7896043398e+01    0.5680631    0.4194595  48.02  0.001208414    1.618    0.382
         6  -9.3281    129.1820      8.3997   4.7038234454e+01   5.1284535392e+01    0.1856206    0.1197866  78.72 0.0006494939    1.682    0.405
         7  -9.9897      2.1915      3.2172   9.0336237837e+01   7.4018267802e+01    0.2473921   0.05016992 -41.04  0.001024835    3.537    0.717
         8  -9.5876    249.5270      1.3409   3.2194111795e+01   2.3685943712e+01    0.1909128   0.09762397  79.43  0.001017676    1.861    0.463
         9  -8.6143     91.3023      1.2775   5.2247709392e+01   6.0509055081e+01    0.1319561   0.07934164  32.58 0.0002566903    1.543    0.352
        10  -8.9273     61.3355      1.3148   6.1078997747e+01   6.6433269202e+01    0.1317532   0.07571386  21.93  0.000704697    1.691    0.409
        11  -9.6563     61.2261    199.4459   1.1399267091e+02   2.5188212156e+01    0.2196199    0.1568217 -83.76 0.0005820504    1.295    0.228
        12  -9.8620    174.1528    249.2989   9.7286779993e+01  -1.2708419306e+00    0.2020761    0.1602403  84.83  0.001229918    2.128    0.530
        13 -13.3325     40.4616    234.8962   1.2116909357e+02   2.0440544334e+01     1.010053    0.5259612  73.46  0.001889127    1.799    0.444
        14 -14.8052    124.8780    229.9170   1.0428186053e+02   9.6116681203e+00     5.713911     1.423376  36.38   0.01895382    3.989    0.749
        15 -13.3348     19.8896    220.9778   1.2402040222e+02   2.5436815659e+01    0.8460155    0.4640668  62.87  0.005307735    1.486    0.327
        16 -15.2072      7.3828    239.6348   1.2719231288e+02   2.3081066830e+01     2.198792     1.386497 -75.19   0.01597949    1.579    0.367
        17 -14.5680      9.4434    207.3546   1.2514607195e+02   2.9248003450e+01     1.145028     1.028583  -3.25  0.006927886    1.815    0.449
        18 -15.7583     40.0670    195.0270   1.1808718075e+02   2.8744391067e+01     6.322552     2.503891  77.94   0.02242538    4.248    0.765
        19 -13.2556     32.3230    207.7295   1.2074021767e+02   2.6854130996e+01    0.5974134    0.4400523 -49.55   0.00120456    1.842    0.457
        20 -12.3458    101.8441    171.9581   1.0085520250e+02   2.5438196089e+01     2.620385    0.5970207  48.42  0.006254376    6.442    0.845
        21 -13.5268     62.8463    160.6299   1.0878950586e+02   3.3980229820e+01    0.6241882    0.4011161 -40.65  0.001439158    1.953    0.488
        22 -11.7785     75.6905    164.4893   1.0612619521e+02   3.1276744821e+01    0.3864037    0.3093715  51.42 0.0003913338    1.250    0.200
        23 -12.8917     82.2116    158.2899   1.0347329099e+02   3.1808790621e+01    0.8770892    0.7536479  21.84 0.0007347407    1.393    0.282
        24 -13.1600     85.7575    226.8298   1.1179861532e+02   1.6123206936e+01     1.322377    0.6849167  65.47  0.003234684    2.255    0.557
        25 -10.5043    134.0000    146.9828   8.8001730248e+01   2.5359994033e+01    0.6428681     0.184423 -52.12  0.001816088    3.811    0.738
        26 -10.4659    138.9314    171.7730   9.1936714141e+01   1.8863330178e+01    0.3885001    0.1876501  48.51  0.001524637    2.158    0.537
        27  -8.7579     72.4487    188.4987   1.1023760234e+02   2.6118968974e+01    0.1353518    0.1138429  77.48 0.0001208549    1.054    0.051
        28  -9.4432    146.5059    183.3465   9.2384926268e+01   1.4991869866e+01    0.2478195     0.129784  40.10   0.00100566    1.827    0.453
        29 -12.3930     32.0582    144.2041   1.1450395147e+02   4.1516195360e+01    0.4868834    0.3378457  15.59  0.002743123    1.944    0.486
        30 -10.9200     97.1389    143.8461   9.6881866060e+01   3.2925014860e+01    0.3424287    0.2888708 -56.67 0.0008643763    1.133    0.117
        31  -9.9141    100.2037    140.2185   9.5312784270e+01   3.3278843950e+01    0.3539429    0.2584658 -20.93  0.001311045    1.898    0.473
        32 -12.3247     85.4982    142.0924   9.9684490256e+01   3.5254498323e+01    0.3113315    0.2618821 -47.08 0.0005241146    1.209    0.173
        33 -12.0107     60.3360    179.9353   1.1196937597e+02   2.9717593865e+01    0.4156852    0.2830405 -37.29  0.002147587    2.091    0.522
        34  -8.7831    159.3403    135.6544   7.9268417846e+01   2.2634998969e+01    0.1619574    0.1255663 -86.12 0.0007047289    1.784    0.440
        35 -10.9371    107.4523    131.5278   9.1444180968e+01   3.4077938501e+01    0.5357957    0.3668662  44.05  0.002380152    1.518    0.341
        36 -11.3024     46.0955    129.3970   1.0846886550e+02   4.3701137389e+01     0.293543    0.2213731  17.62  0.001635981    1.669    0.401
        37 -10.5561     96.3170    127.9073   9.3712665523e+01   3.6933927179e+01    0.3339059    0.2419889 -34.31 0.0009334995    1.549    0.354
        38 -10.7490     34.2765    129.5338   1.1187143201e+02   4.4894177090e+01    0.2907375    0.1404139  20.24  0.001315076    2.764    0.638
        39 -10.2204    115.3237    125.9344   8.7988961787e+01   3.3921920706e+01    0.2788467    0.2248227   2.89  0.001149638    1.588    0.370
        40 -10.3521    135.4309    122.5208   8.1840535171e+01   3.0635396455e+01     0.504129    0.1414373 -53.30  0.001155327    5.509    0.818
        41 -12.0014     65.7118    174.3440   1.0998580137e+02   3.0318321874e+01    0.3206679     0.261767 -48.52  0.001271074    1.407    0.290
        42 -11.0360     14.3847    121.7959   1.1646156507e+02   4.8464531892e+01    0.2718141    0.1722826  41.37  0.001574845    1.817    0.450
        43  -9.8024    106.2227    120.1162   8.9086813433e+01   3.7022317950e+01    0.2209137    0.1957254 -28.86 0.0003392754    1.188    0.158
        44  -8.9667    157.9733    160.7414   8.5281698585e+01   1.7538206041e+01    0.2589092    0.1653091 -83.66  0.000874339    3.533    0.717
        45  -9.5391    168.1247    113.2259   7.1607044703e+01   2.5415742617e+01    0.3016558    0.2013972 -65.68  0.001216678    2.041    0.510
        46 -10.0836    205.1961    110.6637   6.3495142005e+01   1.7550161009e+01    0.3334361    0.2589658  32.13  0.001178125    1.468    0.319
        47 -10.1425    134.6431    103.7877   7.7057564632e+01   3.4940105228e+01     0.487341    0.1405404 -47.05   0.00136377    3.573    0.720
        48 -11.7341    243.0019    102.6271   5.5452154444e+01   1.1000096844e+01    0.2885671    0.2181962 -85.49  0.001520507    1.767    0.434
        49  -8.7075    121.3479     98.7133   7.9163940546e+01   3.8896394392e+01    0.1559976    0.1249596  88.05 0.0007021774    1.655    0.396
        50  -9.1313    174.5475    149.4764   7.9082491245e+01   1.6518828335e+01     0.151091    0.1447676 -13.75 0.0001607811    1.005    0.005
        51 -10.0766    249.7560     87.9967   5.1183523454e+01   1.2021667421e+01    0.1847196     0.100442 -36.68 0.0004465584    1.575    0.365
        52  -8.9147    160.3290     82.3001   6.4734245739e+01   3.3314420483e+01    0.1573841    0.1219261  15.58 0.0005000124    1.642    0.391
        53  -8.7759     71.3439     82.7272   8.9858648848e+01   5.1585414852e+01     0.135337    0.1129773  78.11 0.0002496599    1.618    0.382
        54  -9.4075     61.8057     71.8055   8.9912419388e+01   5.5338192476e+01    0.2081759    0.1691197 -23.06 0.0004140944    1.179    0.152
        55 -10.7211     13.5177     60.2028   1.0544620961e+02   6.2783380404e+01    0.2226057    0.1787651 -49.32 0.0004174639    1.061    0.058
        56  -9.0052     23.8406     57.6176   1.0044212902e+02   6.2562508676e+01    0.1553201    0.1122767  33.01 0.0007481466    1.704    0.413
        57 -11.1358     61.5477    235.1401   1.1728487940e+02   1.7807971914e+01    0.3043347     0.194836  69.71 0.0005806612    1.392    0.282
        58 -14.6721     78.2132    247.3884   1.1522345860e+02   1.3333338835e+01     4.450931    0.9004106  35.24   0.01395263    5.755    0.826
        59  -9.2328     99.3345    180.9640   1.0291794218e+02   2.3780867960e+01    0.1928433    0.1722382 -76.01 0.0004996662    1.098    0.089
        60 -15.1490      3.6967    178.7868   1.2448084228e+02   3.5917722273e+01     9.421686    0.3600535 -75.80   0.01781316   14.807    0.932
        61 -10.3706    136.3593     43.0227   5.7618659594e+01   4.5590836792e+01    0.2543834    0.2077666  68.20 0.0004075552    1.277    0.217
        62 -10.0823    189.8188     15.1982   4.0497033547e+01   3.5751265345e+01    0.2032261    0.1655401 -74.12 0.0007393102    1.150    0.130
        63 -10.0495     93.7090    220.2823   1.0946135852e+02   1.6251175564e+01    0.2231622    0.2016764  59.15 0.0004516891    1.103    0.094
        64 -11.0584    192.7561    193.7935   8.4494027082e+01   4.5398481022e+00    0.7695671     0.409143 -58.93  0.002902034    3.567    0.720
        65 -13.2714     32.1085    247.9338   1.2346490912e+02   1.8956575649e+01      1.09738    0.6527211  35.94  0.005961981    1.809    0.447
        66  -8.9326    113.2782    207.6723   1.0371393621e+02   1.5748397835e+01    0.1350536   0.09628835  72.04 0.0002478919    1.594    0.373
