#   1 NUMBER                 Running object number                                     
#   2 MAG_AUTO               Kron-like elliptical aperture magnitude                    [mag]
#   3 X_IMAGE                Object position along x                                    [pixel]
#   4 Y_IMAGE                Object position along y                                    [pixel]
#   5 X_WORLD                Barycenter position along world x axis                     [deg]
#   6 Y_WORLD                Barycenter position along world y axis                     [deg]
#   7 A_WORLD                Profile RMS along major axis (world units)                 [deg]
#   8 B_WORLD                Profile RMS along minor axis (world units)                 [deg]
#   9 THETA_WORLD            Position angle (CCW/world-x)                               [deg]
#  10 FWHM_WORLD             FWHM assuming a gaussian core                              [deg]
#  11 ELONGATION             A_IMAGE/B_IMAGE                                           
#  12 ELLIPTICITY            1 - B_IMAGE/A_IMAGE                                       
         1 -12.4069    249.5382     56.1169   3.5307779479e+02   2.1014652638e+01    0.7574458     0.158876 -38.88  0.003251885    3.002    0.667
         2 -12.0780    249.6762     13.1381   3.4482336402e+02   2.5987166855e+01    0.4829167    0.1878131 -27.69  0.002497462    2.878    0.653
         3 -12.0966    183.7619     13.2831   3.4845392723e+02   3.8377079117e+01    0.6916015    0.2249551 -43.98  0.002504953    2.312    0.567
         4 -12.1619    174.2660      3.6992   3.4665941618e+02   4.1402786511e+01    0.3618078    0.2860799 -61.08  0.001415006    1.059    0.055
         5 -11.2918     49.6182     14.1416   1.3667617665e+01   6.9819137868e+01    0.3165097    0.2319821  37.42  0.000906246    1.300    0.230
         6 -10.2497     45.1909     12.1677   1.4542297031e+01   7.0994920249e+01    0.2457071    0.1872656  44.74 0.0008112211    1.174    0.149
         7 -12.4948    241.1614     10.9445   3.4475900887e+02   2.7636212592e+01    0.4770669    0.1296665 -41.61  0.002489249    2.237    0.553
         8 -11.7142    236.6437      6.8526   3.4414294721e+02   2.8834820226e+01    0.2614641    0.1491107 -73.53  0.001786957    1.532    0.347
         9 -10.5489     34.9787     13.7407   2.0949387647e+01   7.2791684691e+01    0.2741605    0.2041094  45.72 0.0009420895    1.269    0.212
        10 -11.2238     32.2007     10.2073   2.0323102670e+01   7.3801311057e+01    0.2516259    0.2211214 -12.02 0.0006088752    1.176    0.149
        11 -10.4166     78.9938     11.8356   2.3597336212e+00   6.3384115032e+01    0.2073769     0.197396 -58.35 0.0007399992    1.140    0.123
        12 -12.1233    178.0613      7.7337   3.4744725769e+02   4.0177712271e+01    0.4321088    0.2187941 -40.39  0.001707981    1.677    0.404
        13  -9.8064     69.4790      9.9199   4.0515253985e+00   6.5847374115e+01    0.1781024    0.1325797 -24.38 0.0005374731    1.518    0.341
        14 -10.3466     55.2474      8.3911   7.9940407964e+00   6.9275330250e+01    0.3591206    0.1756711 -29.97  0.001704246    2.236    0.553
        15  -9.3283      9.7619      9.9875   3.7332982562e+01   7.7335138056e+01    0.1501355   0.09892476 -43.78 0.0003654516    1.547    0.354
        16  -9.7350    218.7650      8.8173   3.4534435984e+02   3.1849618894e+01    0.1553399    0.1281635 -55.67 0.0005184099    1.182    0.154
        17 -11.4464     85.4805      7.2786   3.5868478737e+02   6.2266143887e+01    0.2671758    0.2480431 -45.41 0.0006946884    1.188    0.158
        18  -9.6125    212.8880      8.4995   3.4556853027e+02   3.2992705990e+01     0.154026   0.09798422  87.54  0.001013222    1.539    0.350
        19 -11.9762    124.6025      7.2391   3.5223389636e+02   5.2641139605e+01    0.5606297    0.2501267  81.57  0.002499843    2.155    0.536
        20 -11.0053     97.5214      6.5381   3.5598785871e+02   5.9377175976e+01    0.4163096    0.1986964 -46.45  0.001497594    2.207    0.547
        21  -9.4059     23.6540      5.2907   2.2520268931e+01   7.6000779376e+01    0.1158264   0.09876072  74.07 0.0007026787    1.660    0.398
        22 -10.9438     27.6843     11.4199   2.4024172759e+01   7.4437286316e+01    0.2349926    0.1608606 -28.26   0.00133275    1.560    0.359
        23  -9.6735     15.9621      4.5214   2.7916141980e+01   7.7361639366e+01    0.1837371     0.109366  36.09 0.0005399574    1.535    0.348
        24 -10.4514    120.7343      3.6654   3.5145216387e+02   5.3914281229e+01    0.2431526    0.1862858  34.32 0.0002199529    1.664    0.399
        25 -11.5477    113.9437      1.9556   3.5168000602e+02   5.5729650749e+01    0.3134342    0.1952073  78.94 0.0008087284    1.408    0.290
        26 -11.2272    162.2342     11.8664   3.4977881341e+02   4.3269124551e+01    0.2261005    0.1765595 -68.27 0.0008210973    1.054    0.051
        27  -9.2740    215.2956      2.6642   3.4418854723e+02   3.3126915559e+01    0.1233334   0.05622741 -56.34  0.000702919    1.648    0.393
        28  -9.6377    230.1562      1.6331   3.4335739479e+02   3.0500931299e+01    0.1332789   0.08782139  76.02 0.0006805077    1.728    0.421
        29 -11.9075    248.5735    127.0007   6.6016643858e+00   1.1402853752e+01    0.2827415    0.2174441  73.57  0.001989529    2.041    0.510
        30 -11.1311      5.3811    125.5050   6.8954551509e+01   4.9018977124e+01    0.2778814    0.1608332 -75.04 0.0007519863    1.566    0.361
        31 -10.3522    135.9267    123.8802   2.4843402208e+01   3.0455016905e+01    0.3681415    0.2124553  31.55  0.001538865    2.131    0.531
        32  -8.8041     30.2996    122.2614   5.8832719600e+01   4.7940392831e+01    0.1468253    0.1084493 -35.30 0.0001844172    1.511    0.338
        33  -9.3664     62.3223    120.6775   4.6328430074e+01   4.4381234252e+01    0.1642305    0.1150711  66.51 0.0007046222    1.678    0.404
        34 -10.5815      2.0116    118.0039   6.9664883872e+01   5.1299284209e+01    0.2177701    0.1926228  77.68 0.0004961147    1.064    0.061
        35 -10.8806    249.6155    117.2068   4.6866223839e+00   1.2672200827e+01    0.1692214   0.08387037 -32.42 0.0009559844    1.696    0.410
        36  -9.9004     55.8007    117.3731   4.8085853104e+01   4.6217123151e+01    0.2015643    0.1902619  16.81  0.000451921    1.125    0.111
        37 -10.6027     13.8855    117.0767   6.4758056191e+01   5.0810417010e+01    0.2437043    0.1533845 -41.01  0.001125064    1.709    0.415
        38  -9.5339     91.4969    116.1635   3.5314872233e+01   4.0685408729e+01    0.2258602    0.1510096 -54.65 0.0007595231    1.472    0.321
        39 -10.1896     21.0902    115.8187   6.1649282436e+01   5.0595470584e+01    0.3122697    0.1489503 -48.23  0.001242772    2.132    0.531
        40  -9.1534     96.4245    111.5414   3.2636565068e+01   4.0901137120e+01    0.1530074    0.1486597 -60.98 0.0001510223    1.028    0.027
        41  -9.5035     79.4746    110.9054   3.8040982186e+01   4.4160529886e+01    0.2292735    0.1503659 -54.98 0.0006905356    1.496    0.331
        42  -9.5595     72.8535    111.1017   4.0416969605e+01   4.5245369064e+01    0.2102517    0.1769024 -33.99  0.001028022    1.300    0.231
        43 -10.3773    224.9400    105.7742   5.3116672610e+00   1.7918625213e+01    0.1859178    0.1273219 -71.74  0.001083515    1.956    0.489
        44  -9.9858     26.0086    106.5302   5.8212374784e+01   5.2746451040e+01    0.2176898    0.1477075  18.69 0.0008246097    1.573    0.364
        45 -10.3398     12.6392    105.7352   6.3931253824e+01   5.4066617298e+01    0.2545212    0.1543698  44.76 0.0005756159    1.705    0.414
        46 -10.9382      1.8657    105.0687   6.8580942840e+01   5.4898602405e+01    0.3143554    0.1756872 -66.64  0.000806348    1.589    0.371
        47  -9.1789    102.6901    105.7631   2.9252314145e+01   4.1061575892e+01    0.2441772     0.119318  51.84 0.0008853948    2.315    0.568
        48 -12.7449    247.9924    100.3436   1.7012983574e+00   1.5293330462e+01     0.426243    0.3082385 -32.01  0.002998916    1.229    0.187
        49 -11.2867     28.2427     99.6230   5.6043019543e+01   5.4435592648e+01    0.4362918    0.2566741 -31.46  0.001368875    2.042    0.510
        50 -11.4214     63.8800     96.0927   4.0073353667e+01   5.0599089506e+01    0.4933402    0.4395463  29.57 0.0008661025    1.160    0.138
        51 -10.1293    103.0262     95.6266   2.6418829869e+01   4.3323723040e+01    0.2593376    0.2081499 -52.31  0.001273285    1.223    0.182
        52 -10.9636     16.3317     94.2895   6.0620481782e+01   5.6958362947e+01    0.3266176    0.2686562  -0.24 0.0008146402    1.327    0.246
        53  -9.8976      5.3052     95.1367   6.5945297034e+01   5.7456914238e+01    0.2413242    0.1512004 -53.22  0.001167621    1.487    0.328
        54  -9.6567     90.0748     94.2658   3.0096712992e+01   4.6254868806e+01    0.2151207    0.1956221  53.66 0.0005438523    1.102    0.092
        55 -10.5567     38.0237     93.4652   5.0386817618e+01   5.5021360004e+01    0.2200579      0.14787  25.08 0.0003593822    1.543    0.352
        56  -9.5861    108.5563     90.0671   2.3237352777e+01   4.3394741254e+01    0.2175579    0.1296525 -69.37 0.0008068843    2.458    0.593
        57  -9.4901      2.3079     88.3331   6.6556358295e+01   5.9470700921e+01    0.1531003   0.08908536 -44.45 0.0007041083    1.669    0.401
        58 -12.2286    249.0396     86.4965   3.5896484410e+02   1.7072489761e+01    0.5861906    0.1492136 -35.14  0.002348501    3.375    0.704
        59 -11.5582    232.2072     82.8277   3.5986202949e+02   2.0169929092e+01    0.4043572   0.08129323 -42.32  0.001513562    3.408    0.707
        60  -9.7094    115.9463     83.9656   1.9446850037e+01   4.3082870843e+01    0.2241144    0.2079062 -75.35 0.0003749589    1.041    0.039
        61 -12.0825    238.3641     82.0300   3.5909675782e+02   1.9308099270e+01    0.3080794    0.1441386 -48.54  0.001698968    1.721    0.419
        62 -10.0126    160.1759     81.1664   9.1027310485e+00   3.3950596493e+01    0.1966041    0.1498569 -66.37 0.0004184771    1.326    0.246
        63 -12.3709     54.8300     78.8049   3.9012780949e+01   5.6397933043e+01    0.3358142    0.3039072  76.55 0.0004035153    1.194    0.162
        64  -9.7006    202.0013     79.5049   2.5205828659e+00   2.5880719281e+01    0.1722001    0.1257064  65.90  0.001032632    1.589    0.371
        65 -10.1099    143.6253     77.0116   1.1082308062e+01   3.8283991183e+01    0.2658234     0.205038  72.55  0.000725069    1.371    0.271
        66  -9.8546    186.2411     81.9394   5.1727843689e+00   2.8495462073e+01    0.2680258    0.1593225 -81.94  0.001192487    2.624    0.619
        67 -10.6671    152.3436     76.1077   9.1651918765e+00   3.6525048898e+01    0.2684368    0.2071412  76.61 0.0009987215    1.385    0.278
        68 -10.4221      2.7135     75.0011   6.4514286244e+01   6.3024298446e+01    0.1990484     0.170214 -62.71 0.0006358291    1.065    0.061
        69 -10.0518    130.2050     74.3615   1.3154486113e+01   4.1774792040e+01    0.1973283    0.1811455 -44.49 0.0005697931    1.130    0.115
        70  -9.3843     48.3808     73.7706   4.0410369971e+01   5.8640844968e+01    0.2043961    0.1311539 -45.89 0.0002176308    1.560    0.359
        71  -9.4824    175.5474     71.4712   4.1517826785e+00   3.2344238765e+01    0.1355506    0.1168094 -57.32 6.919734e-05    1.011    0.010
        72 -10.3468     64.0449     69.7040   3.2155158742e+01   5.6930406854e+01    0.2391043    0.2039854 -52.45 0.0005254424    1.182    0.154
        73  -9.8220      7.9633     68.7026   6.0469591655e+01   6.4377668945e+01    0.1862877     0.176315  -1.73 0.0005401105    1.106    0.096
        74 -11.2817    192.0249     65.8525   5.7979177055e-01   2.9868457087e+01    0.2417907    0.2321459  38.73 0.0003667727    1.354    0.261
        75  -9.3218     70.1501     66.6119   2.8615411571e+01   5.6446323701e+01    0.2071298    0.1394279  30.88 0.0004625979    1.652    0.395
        76  -9.1356     40.2761     66.0070   4.1930230606e+01   6.1708703626e+01    0.1797567    0.1252132 -55.90 0.0003512104    1.420    0.296
        77 -12.3759    248.8739     44.8859   3.5095245820e+02   2.2511917248e+01    0.8406772    0.3043789 -28.13   0.00368822    3.528    0.717
        78 -10.4730    250.2320     64.9810   3.5473457561e+02   1.9771760335e+01    0.2216579    0.1259428 -48.56  0.001002582    1.302    0.232
        79  -8.9752     56.0000    216.1066   6.0982788717e+01   2.0930513693e+01    0.1992151   0.07530995 -71.10 0.0005286845    2.952    0.661
        80 -10.5600     99.9945     63.1013   1.7248113007e+01   5.0770150150e+01    0.3237256    0.2020236 -50.40  0.001456766    1.643    0.391
        81 -10.1313     75.2202     64.4538   2.5904088621e+01   5.5886046497e+01    0.3321599    0.2010446  56.48  0.001100984    1.832    0.454
        82 -10.2299     78.3896     62.8005   2.4145499913e+01   5.5569084570e+01    0.2199747     0.201616  78.61 0.0002124997    1.130    0.115
        83 -10.4681      4.2591     63.8017   6.1696406077e+01   6.5856577683e+01    0.2553386    0.2261212 -70.69 0.0006522169    1.103    0.093
        84 -10.8405      2.2737     59.9992   6.2172095658e+01   6.6928097057e+01    0.3598557    0.2530491 -32.35  0.001116041    1.376    0.273
        85 -10.9265    237.5386     61.4921   3.5506031724e+02   2.2240752007e+01    0.2641051    0.2321802 -75.66  0.002037856    1.269    0.212
        86 -11.8097    230.3941     59.8127   3.5531625563e+02   2.3656226951e+01    0.4240814    0.2286565 -69.06  0.001684069    2.140    0.533
        87 -10.4014    114.3046     60.4346   1.2541251318e+01   4.7956952725e+01     0.390518    0.2407239 -50.68  0.001393103    1.640    0.390
        88  -9.7404    124.8661     59.8455   9.9042596697e+00   4.5589557362e+01    0.2027065    0.1957352  38.47 0.0003681403    1.200    0.167
        89  -9.3769    128.8366     59.1547   8.8381202585e+00   4.4777299160e+01    0.1881305    0.1690186  40.80 0.0005017119    1.295    0.228
        90 -10.1092     66.1564     58.0080   2.7097425060e+01   5.9040203350e+01    0.3301702    0.1961508  69.41  0.001216072    2.958    0.662
        91 -10.6853     22.3561     58.0588   4.9335554845e+01   6.5845870364e+01    0.2419945    0.1946139  32.77 0.0004143195    1.287    0.223
        92 -10.5985     14.8434     57.7889   5.3823982583e+01   6.6627041038e+01    0.2080701     0.169745 -30.90 0.0004048054    1.182    0.154
        93  -9.9767    119.8781     55.2264   9.5209865409e+00   4.7540408153e+01    0.2335167    0.2056018 -32.99 0.0005715705    1.257    0.204
        94 -10.3056    123.8353     54.1811   8.3141298944e+00   4.6776927045e+01    0.2741869    0.2005323  60.06 0.0006880276    1.347    0.258
        95  -9.7124     78.6756     55.8200   2.1471935478e+01   5.6884501085e+01     0.258802    0.1922222  37.51 0.0008711426    1.411    0.291
        96  -9.1132     45.4300     56.4999   3.6008114763e+01   6.3105528527e+01    0.1401548    0.1369546  -6.15 0.0001584124    1.014    0.014
        97  -9.0220     39.4643     54.4253   3.8347295815e+01   6.4495437962e+01    0.1384811    0.1343713  11.71 6.532389e-05    1.033    0.032
        98  -9.6595     88.7996     52.8054   1.6942073037e+01   5.5204576470e+01    0.2118402    0.1929161  41.29 0.0006207789    1.142    0.125
        99 -10.9145     16.4547     50.1768   5.0561166666e+01   6.8312970520e+01    0.3520783    0.1929145 -30.28  0.001581296    2.047    0.511
       100  -9.3783    233.3178     50.6376   3.5319068800e+02   2.4358205593e+01     0.127242   0.06293458 -56.93 0.0007041714    1.768    0.434
       101  -8.9384    172.0004     49.7781   3.5904554747e+02   3.6390636166e+01     0.152505    0.1037344  72.95 0.0008297964    1.513    0.339
       102 -10.3101    147.1183     48.3084   2.1798298803e+00   4.2210724864e+01     0.376848    0.2106187  38.37  0.001566384    2.835    0.647
       103 -10.9818     94.0063     48.6208   1.3797733209e+01   5.4737871819e+01    0.2449699    0.2067567 -46.23 0.0002416803    1.219    0.180
       104  -9.8339      4.4926     47.4692   5.7849895339e+01   6.9894058272e+01    0.1335354    0.1180793 -36.25 7.266121e-05    1.020    0.020
       105 -10.4235    229.4555     45.0150   3.5232185231e+02   2.5737051855e+01    0.1799776   0.08972999 -38.34  0.001027782    1.587    0.370
       106  -9.1831      7.2992     45.3297   5.5281656046e+01   7.0215980122e+01    0.1443718   0.08547421 -34.94 0.0007030213    1.642    0.391
       107 -10.4959     38.8828     43.6965   3.4376771558e+01   6.6873369801e+01    0.3049044    0.2888211  77.45  0.001825897    1.221    0.181
       108 -10.3996    119.4880     40.8027   4.7574253215e+00   4.9882776584e+01    0.3269286    0.2536927  -1.01  0.001134646    1.859    0.462
       109 -10.6494    158.7355     39.2556   3.5788075736e+02   4.0808641076e+01    0.2246004     0.203792 -78.15 0.0002924333    1.099    0.090
       110  -9.4041     96.0078     38.0016   9.1676536024e+00   5.5955482561e+01    0.1705358    0.1528437  70.64 0.0004157031    1.041    0.039
       111 -10.0405     47.3516     36.1964   2.6451032652e+01   6.6855183758e+01    0.3031379    0.1773052 -51.92  0.001149803    1.968    0.492
       112 -10.6690     48.6998     32.0567   2.3768173481e+01   6.7327236412e+01    0.2553615    0.2321799  58.01 0.0006990859    1.176    0.149
       113  -9.7615    204.1325     65.3338   3.5906026939e+02   2.7601621323e+01    0.1733557    0.1392175 -63.48   0.00071252    1.114    0.103
       114  -9.0205     61.3651     37.2894   2.0481539188e+01   6.3902023733e+01     0.144591    0.1063085  18.93 0.0007024863    1.702    0.412
       115 -11.1966    119.2076     35.0473   2.8212936233e+00   5.0761795602e+01    0.2499333    0.2182202  73.11 0.0002997789    1.092    0.085
       116 -10.5583     40.4725     35.6482   2.9844165841e+01   6.8184158549e+01    0.3611993    0.2152059  52.16  0.001124018    1.961    0.490
       117 -10.7071    242.4230     34.2103   3.4926632566e+02   2.4839278410e+01     0.166684   0.06874311 -44.90  0.000947885    1.673    0.402
       118  -9.6804    174.0352     34.3272   3.5473432780e+02   3.8028521613e+01    0.1768404    0.1449088 -78.37  0.000342466    1.096    0.088
       119  -9.9744    178.3018     31.4213   3.5354007384e+02   3.7463915615e+01    0.2208798     0.185658  34.63 0.0009083069    1.701    0.412
       120  -9.7333    153.6543     31.9843   3.5644508089e+02   4.2928659770e+01    0.1836027    0.1552224 -62.04  0.000430853    1.059    0.056
       121  -9.6637    167.4792     30.9091   3.5452177873e+02   3.9910159796e+01    0.1790919    0.1179545 -36.24 0.0004331066    1.481    0.325
       122 -10.2005     92.1099     31.0285   7.4043519691e+00   5.7890415350e+01    0.2054206    0.1897153  74.56 0.0003380091    1.006    0.006
       123 -10.0090     17.9136     31.0675   4.2194633052e+01   7.2375647581e+01    0.1974549     0.178391  -6.39 0.0004897129    1.009    0.009
       124 -10.1447      3.8215     31.1688   5.3273919776e+01   7.3691274972e+01    0.1813392    0.1697915  28.84 0.0004780071    1.207    0.172
       125 -11.0495     59.1697     28.3916   1.7173543715e+01   6.5797552436e+01    0.3962431    0.3085408 -18.35  0.001444609    1.486    0.327
       126  -9.7795    104.0089     28.2591   3.4471790608e+00   5.5375115445e+01    0.1955727     0.162936  73.66 0.0003705811    1.102    0.092
       127  -9.7195    160.6606     27.0514   3.5419989278e+02   4.1924836388e+01    0.1784476    0.1472019 -57.18 0.0004014586    1.090    0.083
       128 -10.6063     46.8660     26.8926   2.2051572731e+01   6.8536246391e+01    0.2170047    0.1808181  40.87 0.0003904872    1.119    0.106
       129  -9.9050     13.4784     26.5029   4.3441243043e+01   7.3804982495e+01    0.1307613    0.1132517 -13.33 -2.365629e-05    1.048    0.045
       130 -10.6489    110.6623     24.9763   8.3495331087e-01   5.4156569529e+01    0.2754668    0.1891121  70.64 0.0008563696    1.342    0.255
       131 -10.4416     88.1237     24.3799   5.6574922314e+00   5.9729978375e+01    0.2175623    0.1767319 -65.45 0.0006120398    1.316    0.240
       132 -11.6377     98.4913     22.5226   2.3896845764e+00   5.7441217534e+01    0.2528526    0.2318487 -83.87 0.0001211515    1.056    0.053
       133  -9.5061     38.4930     22.5519   2.4165638535e+01   7.0809226872e+01    0.1321216    0.1195849  23.90 8.105308e-05    1.006    0.006
       134 -10.7456     66.5705     20.8137   1.0542942430e+01   6.5241392231e+01    0.2504479     0.218016  69.62 0.0007159399    1.139    0.122
       135  -9.5636    159.4384     20.5279   3.5248351851e+02   4.2967593341e+01    0.1306923    0.1061926 -68.85 8.199093e-05    1.028    0.027
       136 -10.6400    109.2137     19.0749   3.5888049609e+02   5.5206272269e+01    0.2837062    0.1684671 -40.81  0.000938203    1.703    0.413
       137 -10.4764    136.8562     23.1417   3.5594622230e+02   4.7983171640e+01    0.3479587    0.1301448  49.14  0.001287639    3.424    0.708
       138  -9.0681    226.3520     18.6868   3.4703392682e+02   2.9399556698e+01    0.1246201    0.0578899 -58.60 0.0007045786    1.728    0.421
       139 -10.2837     16.2099     18.3919   3.6951595500e+01   7.5035090659e+01    0.1968581    0.1613737  -6.88 0.0009908299    1.156    0.135
       140 -10.1354     23.5900     16.7824   3.0327279925e+01   7.4266545390e+01    0.1993363    0.1612335  67.06 0.0009688763    1.784    0.439
       141 -10.7293     19.8494     15.8354   3.2539094703e+01   7.4984987227e+01    0.3152293    0.2073661   8.80 0.0009269706    1.765    0.433
       142  -9.3003    147.3216     17.3289   3.5283926563e+02   4.6144527535e+01    0.1249251   0.09581051  41.95 0.0007048697    1.691    0.409
       143 -10.0445    123.9785    206.0033   4.2961309854e+01   1.4745889686e+01    0.1862431    0.1672331   9.51            0    1.005    0.005
       144  -9.0314    133.0127    198.9934   3.9840315215e+01   1.4932747740e+01    0.1545047    0.1361277  10.68            0    1.037    0.036
       145 -10.1607    247.9830    194.4799   1.8221015572e+01   1.9688377929e+00    0.1109212   0.09504294  60.97 0.0005555594    2.404    0.584
       146  -9.9038    133.0024     15.2533   3.5388891284e+02   4.9793645547e+01    0.1885671    0.1507289  86.00 0.0004303921    1.112    0.101
       147 -10.9717    247.5690    183.3177   1.6486167388e+01   3.5210136607e+00    0.2345895    0.1311832 -48.83  0.001408301    2.217    0.549
       148 -11.4125      2.1441    182.9071   7.3409195510e+01   3.3849947483e+01    0.4227772    0.2211477  76.75  0.002027407    1.803    0.445
       149  -9.2659      6.6938     15.7053   4.3684229727e+01   7.6634856619e+01    0.1288323   0.08417575 -19.04 0.0003171421    1.583    0.368
       150  -9.8525    243.6104    179.7449   1.6438513729e+01   4.4263252157e+00    0.1521199   0.08257498 -41.27 0.0009047727    1.604    0.377
       151 -11.3690     20.5775    174.8782   6.7558935057e+01   3.4455170112e+01    0.3184279    0.1942154  50.81   0.00103601    1.498    0.332
       152 -11.0381    114.1379     13.9539   3.5611657293e+02   5.4546353991e+01    0.3997314     0.144567  63.64  0.001639117    2.363    0.577
       153 -11.2136     21.4790    170.3206   6.6952037625e+01   3.5567798540e+01    0.2577528    0.2485447  81.85 0.0005259824    1.103    0.093
       154 -11.0168    224.4175    172.6264   1.7980391848e+01   7.6153240012e+00    0.3286805   0.09204265 -45.01  0.001297907    3.507    0.715
       155 -10.4851     27.5079    158.8637   6.4077907573e+01   3.8077753535e+01    0.2500731    0.2004258  78.18 0.0008360464    1.188    0.158
       156 -12.0326      3.0381    156.1786   7.1855728144e+01   4.0746164859e+01    0.4247859    0.2606368 -84.49 0.0009781568    1.507    0.337
       157  -9.0914     74.0044    153.7330   4.8398743723e+01   3.3879988307e+01    0.1856356    0.1291944  31.04 0.0004668256    1.418    0.295
       158 -11.1374      8.8193    150.2143   6.9576932524e+01   4.1967979221e+01    0.1951423     0.157975 -50.68 0.0005986277    1.337    0.252
       159  -9.7829     40.0744    147.8261   5.8670832444e+01   3.9809271011e+01    0.2270858     0.185812  58.46 0.0004211282    1.188    0.158
       160 -11.8742    248.6870    145.2799   9.8739263756e+00   8.7574575948e+00     0.308791    0.1371918 -42.08  0.001734408    1.768    0.434
       161 -10.0255     24.2854    146.6577   6.3984189490e+01   4.1707226821e+01    0.2678084    0.1630837 -17.19  0.001143729    2.241    0.554
       162 -11.1946     22.3485    141.7800   6.4174197526e+01   4.3227599034e+01    0.3114456    0.2587812  64.11 0.0007030828    1.148    0.129
       163 -11.9325      7.0783    141.3872   6.9554167652e+01   4.4506768316e+01     0.465664    0.1746523 -66.01  0.001801469    2.374    0.579
       164 -11.3728     12.2706    137.5802   6.7398363646e+01   4.5199045126e+01    0.4238248    0.1468354  23.54  0.001565173    2.744    0.636
       165 -11.9202      3.2822    136.7000   7.0577070401e+01   4.6039751634e+01    0.5765956     0.174449 -73.18  0.002034605    2.820    0.645
       166 -10.5580     28.3079    138.2567   6.1652458467e+01   4.3664041002e+01    0.2526035    0.2307879  42.51 0.0005330899    1.105    0.095
       167 -10.8335     26.3183    134.1346   6.1897530559e+01   4.5000354641e+01    0.2449859     0.168668 -52.13   0.00117273    1.476    0.323
       168 -11.0358     11.1955    133.8565   6.7469499129e+01   4.6311306876e+01    0.2455132    0.2244377  75.65 0.0006743899    1.025    0.024
       169  -9.2516    108.5479    133.0492   3.4057880984e+01   3.3460897150e+01    0.2196953    0.1359078 -79.52 0.0008087216    2.613    0.617
       170 -10.3629    235.3859    132.2053   9.1498192225e+00   1.2373677378e+01     0.173928   0.08539786 -45.09 0.0007946289    1.713    0.416
       171 -10.7168     17.6296    132.1361   6.4913018114e+01   4.6307775451e+01    0.2366391    0.1849261  43.77 0.0004015394    1.266    0.210
