#   1 NUMBER                 Running object number                                     
#   2 MAG_AUTO               Kron-like elliptical aperture magnitude                    [mag]
#   3 X_IMAGE                Object position along x                                    [pixel]
#   4 Y_IMAGE                Object position along y                                    [pixel]
#   5 X_WORLD                Barycenter position along world x axis                     [deg]
#   6 Y_WORLD                Barycenter position along world y axis                     [deg]
#   7 A_WORLD                Profile RMS along major axis (world units)                 [deg]
#   8 B_WORLD                Profile RMS along minor axis (world units)                 [deg]
#   9 THETA_WORLD            Position angle (CCW/world-x)                               [deg]
#  10 FWHM_WORLD             FWHM assuming a gaussian core                              [deg]
#  11 ELONGATION             A_IMAGE/B_IMAGE                                           
#  12 ELLIPTICITY            1 - B_IMAGE/A_IMAGE                                       
         1 -10.1895    220.7246     26.2526   4.0572983760e+01   2.7167039890e+01     0.708691    0.4250576  -6.37  0.002524771    2.761    0.638
         2 -10.8783    236.9792      9.0130   3.5106975097e+01   2.5445184769e+01    0.6322998    0.4773763 -67.23  0.001101727    1.130    0.115
         3  -7.7875    249.0387      2.0380   3.2757003222e+01   2.3595545354e+01    0.1726028    0.1405596 -66.13 0.0003107603    1.032    0.031
         4  -7.3408     63.4939    239.5105   1.1852754150e+02   1.7048694540e+01    0.1150573   0.09157979  63.24 0.0001143181    1.035    0.034
         5  -9.7977      2.9982    248.3620   1.2941541426e+02   2.2102833471e+01    0.3082143    0.2113756  75.72   0.00249248    1.084    0.078
         6  -7.7509    108.7883    238.1555   1.0974467259e+02   1.1029636222e+01    0.1799552    0.1391353  57.54 0.0005096414    1.144    0.126
         7  -8.2639     10.9127    233.7121   1.2749751840e+02   2.4003100025e+01     0.150464    0.1073769  63.28  0.001150754    1.104    0.095
         8  -8.2798    219.0110    230.9800   8.7203082983e+01  -5.0644917047e+00    0.1812842    0.1443617  12.20 0.0003264774    1.022    0.022
         9  -8.0332     24.8766    229.7971   1.2487234998e+02   2.3345479374e+01    0.1590145   0.09401478  63.88 0.0006827514    1.332    0.249
        10  -8.9971      4.3278    229.1552   1.2840122010e+02   2.5477007292e+01    0.2446718   0.09905779 -89.83  0.001394915    2.147    0.534
        11  -8.1070     82.4820    226.4803   1.1371210397e+02   1.6982252416e+01    0.1741681    0.1105851  31.25 0.0007247167    1.724    0.420
        12  -9.7036     18.8252    220.7276   1.2543608842e+02   2.5719489507e+01    0.2891109    0.2273172 -86.06  0.001455805    1.240    0.194
        13  -8.2074     30.3564    219.3638   1.2322895763e+02   2.4805898961e+01    0.2689711   0.09389295 -82.33  0.001230877    2.947    0.661
        14  -9.0525    217.6231    213.5011   8.4428592343e+01  -2.4089595257e+00    0.2725447    0.2501604  84.35 0.0008043367    1.833    0.455
        15 -10.1990     26.8925    212.3936   1.2342070342e+02   2.6573739538e+01    0.3125509    0.2626011 -44.63 0.0008539211    1.751    0.429
        16 -11.6152     37.2354    201.7993   1.2060174864e+02   2.7684237902e+01    0.8974648    0.8332497  31.70  0.005941613    1.435    0.303
        17  -7.2323    246.7006    213.3309   7.9109007920e+01  -6.7696760982e+00    0.1033733   0.09886716 -29.88 0.0007031184    1.645    0.392
        18 -10.4545    237.2111    206.5396   7.9537500700e+01  -4.4456748518e+00    0.2343397    0.1997048  -9.07 0.0003389031    1.179    0.152
        19  -9.0242    205.9470    208.0534   8.5683488936e+01   2.9857494697e-01     0.309725     0.183322  41.11  0.000758125    1.657    0.396
        20  -9.0593    206.9740    203.3373   8.4617123931e+01   8.6693614098e-01    0.2611718    0.1975839 -14.95  0.000223776    1.296    0.228
        21  -8.5583    207.4446    198.5834   8.3633755197e+01   1.5453691897e+00     0.227311    0.1944204   3.93 0.0002249302    1.025    0.024
        22  -9.3781    123.9953    206.0020   1.0248330390e+02   1.4675710279e+01    0.1897354    0.1702674  48.13  0.001157636    1.008    0.008
        23  -7.5070    232.0030    205.2944   8.0248886717e+01  -3.4705259366e+00    0.1790283    0.1409575  17.68 0.0003599011    1.125    0.111
        24  -7.3786    217.1965    198.9797   8.1821980838e+01  -1.5337498645e-01    0.1789389    0.1512735   3.24 0.0003096705    1.019    0.019
        25  -7.9789    233.9946    194.5200   7.7829093859e+01  -2.2056883727e+00     0.191966     0.153378 -14.70 0.0003723382    1.119    0.106
        26 -10.2370    175.0539    193.9013   8.9373297363e+01   8.0516198016e+00    0.2501715    0.2347242 -17.23 0.0004097997    1.122    0.109
        27  -8.4337    127.0740    192.9988   9.9797667116e+01   1.6792561404e+01    0.1997693    0.1851634  47.83 -0.001877172    1.008    0.008
        28 -10.8795     10.4069    207.3238   1.2622287064e+02   2.9209543106e+01    0.5080607    0.3434663  44.27  0.001996051    1.479    0.324
        29  -9.3136     59.8720    186.4762   1.1426727683e+02   2.8391190029e+01     0.221221    0.1842626 -81.84    0.0003529    1.111    0.100
        30  -8.9710     56.0228    183.9531   1.1485886474e+02   2.9438797953e+01    0.2743832    0.2431644 -51.46 0.0004955739    1.361    0.265
        31  -9.8086     28.6627    185.3408   1.2104364272e+02   3.2160627951e+01    0.3757768    0.1569186 -86.09  0.001729376    2.424    0.587
        32  -8.4035      7.1752    186.7989   1.2562558615e+02   3.3805913531e+01     0.230687     0.120787  49.45 0.0006726235    1.747    0.428
        33  -8.6607    196.3034    178.3522   8.1888146253e+01   6.9658461851e+00    0.2297534    0.2107686   7.71  0.000268136    1.051    0.049
        34  -9.0522     23.7572    178.8923   1.2156827151e+02   3.4076761458e+01    0.2417236    0.1392042  82.54  0.001364263    1.580    0.367
        35  -7.7235    182.0719    176.3263   8.4457300780e+01   1.0014078732e+01    0.3270125    0.1874482 -42.72  0.001186514    1.804    0.446
        36  -8.9762     62.3867    177.5249   1.1263859436e+02   3.0113354592e+01    0.2402898    0.2096338 -44.59 0.0008634289    1.390    0.281
        37  -8.9942     19.8664    173.5344   1.2197947074e+02   3.5643350082e+01    0.2587628    0.1282007  84.05   0.00131939    1.963    0.491
        38  -7.6021    105.8064    172.2991   1.0139115893e+02   2.4921664760e+01    0.1961364    0.1708665 -89.70 0.0004848744    1.168    0.144
        39  -8.8534     60.8330    170.9856   1.1219251902e+02   3.1832599086e+01    0.1949854    0.1747501  64.49 0.0002800782    1.115    0.103
        40  -7.9288    124.1022    169.8031   9.6485041974e+01   2.2314634796e+01    0.2077533    0.1895982  67.72 0.0003417675    1.112    0.101
        41  -8.5243     72.9347    167.2828   1.0872572462e+02   3.1108354940e+01    0.2402429    0.1812957 -60.97 0.0003983546    1.281    0.219
        42 -10.6193     59.4571    163.8927   1.1160579715e+02   3.3681675352e+01    0.4866667    0.2560645 -46.66  0.001442096    2.210    0.547
        43  -9.0674     80.2016    160.5236   1.0587051695e+02   3.1687216536e+01    0.4213951    0.2936641 -31.63   0.00121097    1.948    0.487
        44  -9.3337     12.3019    160.9070   1.2263762425e+02   3.9168423808e+01    0.2713948    0.1564537  74.71  0.001546624    1.630    0.387
        45  -6.9142    154.0356    150.2208   8.5210983064e+01   2.0865729881e+01    0.1961512    0.1243387  40.63 0.0003048072    1.568    0.362
        46  -7.2172     83.2578    150.3300   1.0336780108e+02   3.3691530856e+01    0.1408532    0.1057867 -36.18 0.0002127401    1.563    0.360
        47  -9.6137     68.3903    144.6844   1.0640514062e+02   3.7178901476e+01    0.5967309    0.3558221  64.79   0.00240778    2.136    0.532
        48  -7.9471     96.3533    145.7661   9.9012266496e+01   3.2736179159e+01    0.2172486    0.1271744 -48.68 0.0009486598    1.684    0.406
        49  -8.1627     83.8331    144.3587   1.0213777281e+02   3.5056580933e+01     0.264054    0.1971896 -52.13 0.0006843685    1.293    0.226
        50  -9.3347      4.8502    141.1309   1.2270688585e+02   4.4306156471e+01    0.3273967    0.1246417  86.07  0.001338729    3.083    0.676
        51  -7.5649    107.7920    132.9913   9.3216803127e+01   3.3831792973e+01    0.2220069    0.1763673   3.43  0.001052074    1.612    0.380
        52  -9.7618    199.7609    124.4888   6.8974919585e+01   1.6349160901e+01    0.2904952    0.2686329 -24.03 0.0003645362    1.016    0.016
        53  -8.2860    143.0576    126.0460   8.2177329599e+01   2.8462129678e+01    0.2285258    0.2229613 -25.63            0    1.006    0.006
        54  -9.4257    249.0072    110.9926   5.7268185604e+01   8.5492456976e+00    0.1973434    0.1693493 -30.59  -0.01509786    1.009    0.009
        55  -7.7066    146.6786     99.9592   7.4273725372e+01   3.3280814403e+01    0.2191976     0.197574 -38.21 0.0003202422    1.089    0.082
        56  -6.8741     87.7134     96.7119   9.0195228193e+01   4.5903691304e+01     0.147808    0.1114342 -19.03 0.0003276521    1.533    0.348
        57  -7.0702    250.6871     91.7069   5.2598676433e+01   1.1301784268e+01    0.1302669    0.1033072   4.10 0.0002237769    1.594    0.372
        58  -8.9217    201.7966     77.1053   5.6308879192e+01   2.4409334254e+01    0.3563516    0.2559141 -18.01  0.001138352    1.610    0.379
        59  -7.0644    117.2390     78.3404   7.5652470328e+01   4.4214421958e+01    0.1530537    0.1161371  -9.17 0.0001596564    1.553    0.356
        60  -6.6293    152.2422     53.9890   5.8911811612e+01   4.0329983027e+01    0.1791639     0.126577 -31.75 0.0003182862    1.446    0.308
        61  -9.6040    212.9272     32.6940   4.3030406882e+01   2.8211933665e+01    0.3058285    0.2271112 -57.49 0.0007184094    1.279    0.218
        62  -7.9363    245.2982    247.6416   8.5258813562e+01  -1.0773006282e+01    0.0947615   0.08862761  17.98 0.0007034966    1.707    0.414
        63  -9.6837    213.3251     27.2260   4.1602193423e+01   2.8786758060e+01    0.3915277     0.262444 -31.48  0.002099773    1.527    0.345
        64  -7.4001    171.5944     25.2686   4.6424385650e+01   3.9287965556e+01    0.1721234    0.1373674  -9.65 0.0008427313    1.466    0.318
        65  -7.4127    131.0608     20.4813   5.1972311217e+01   4.9919779823e+01    0.1993569    0.1271448  59.44 0.0003527137    1.444    0.308
        66  -9.3463    248.4132    241.8305   8.3773315466e+01  -1.0519779178e+01    0.2953975     0.212365 -45.00  0.000882652    2.363    0.577
