#   1 NUMBER                 Running object number                                     
#   2 MAG_AUTO               Kron-like elliptical aperture magnitude                    [mag]
#   3 X_IMAGE                Object position along x                                    [pixel]
#   4 Y_IMAGE                Object position along y                                    [pixel]
#   5 X_WORLD                Barycenter position along world x axis                     [deg]
#   6 Y_WORLD                Barycenter position along world y axis                     [deg]
#   7 A_WORLD                Profile RMS along major axis (world units)                 [deg]
#   8 B_WORLD                Profile RMS along minor axis (world units)                 [deg]
#   9 THETA_WORLD            Position angle (CCW/world-x)                               [deg]
#  10 FWHM_WORLD             FWHM assuming a gaussian core                              [deg]
#  11 ELONGATION             A_IMAGE/B_IMAGE                                           
#  12 ELLIPTICITY            1 - B_IMAGE/A_IMAGE                                       
         1 -13.4736    227.2544      3.0809   3.8211558163e+01   2.7869341267e+01      1.82962     0.630496  58.87  0.004313469    2.850    0.649
         2 -14.1389    194.5538     37.4993   5.0814769724e+01   3.1911571760e+01     1.494968      1.16346 -27.19  0.003410855    1.368    0.269
         3 -14.7247    203.9367     27.0881   4.6676007377e+01   3.0861297986e+01     1.782188     1.363278  30.52  0.001613564    1.657    0.397
         4 -11.7118     33.6501     13.1478   8.5568359718e+01   6.9519020792e+01    0.2275707    0.1301784 -28.20  0.001331572    1.486    0.327
         5 -12.2651     41.4076      6.9562   7.8799737235e+01   6.9402613278e+01    0.3820162    0.2050352 -38.25  0.002124484    1.937    0.484
         6 -12.5429     61.3504      3.3583   6.8620504458e+01   6.6754274412e+01    0.6028876    0.2889174  42.40  0.003113752    1.931    0.482
         7 -12.3200    194.0392    196.6050   9.0017714332e+01   4.3251494988e+00     1.303677      0.69649 -59.87  0.004916959    3.959    0.747
         8 -12.0550    139.7024    249.4522   1.0834137265e+02   5.1940312917e+00    0.3328971    0.2693232  82.36  0.001871215    1.499    0.333
         9 -15.9459     54.1670    204.0199   1.2004197961e+02   2.5847405464e+01     6.353882     1.749095  50.47   0.02591223    3.200    0.688
        10 -13.8624     60.3502    190.6322   1.1749698756e+02   2.7869685804e+01    0.8275056    0.7023275 -52.64  0.004026446    1.503    0.335
        11 -13.9017     73.9482    156.9990   1.1020544898e+02   3.3595807654e+01    0.6534586    0.5955744  57.40  0.001267869    1.157    0.136
        12 -15.6760     68.0160    143.9934   1.0971679720e+02   3.7485478437e+01     6.588631     3.221782  63.45   0.02576207    2.970    0.663
        13 -10.8251    112.3045    196.5740   1.0707396718e+02   1.8931915952e+01    0.4038543    0.2543318  13.32  0.001677701    3.239    0.691
        14 -10.9620    107.9639    203.5247   1.0893281944e+02   1.8249034921e+01     0.240229     0.191511 -74.15 0.0006374472    1.323    0.244
        15  -9.9411     81.9224    195.1686   1.1340894760e+02   2.3951239321e+01    0.2118578    0.1842693 -72.79  0.001080126    1.235    0.191
        16  -9.9869     96.1227    189.9533   1.0968327386e+02   2.2908189556e+01    0.3421535    0.1916962  35.93  0.001672354    1.844    0.458
        17 -10.0336    154.1174    185.9634   9.6341349455e+01   1.3615454969e+01    0.3154609    0.1878086 -73.56  0.001230861    3.143    0.682
        18  -9.8626     99.4756    186.3649   1.0845293912e+02   2.3139522482e+01    0.2500263    0.1437619  44.74 0.0007439632    1.597    0.374
        19 -11.2658    146.5533    184.2120   9.7675373331e+01   1.5368815090e+01    0.3873739    0.2504777  79.55  0.001059862    2.671    0.626
        20 -10.4981     99.4849    180.6899   1.0764229209e+02   2.4358302847e+01    0.2462176    0.2204973  66.55 0.0006098746    1.037    0.036
        21  -9.3776     43.0039    179.5774   1.2011069737e+02   3.2371278574e+01    0.1690149     0.107272  44.66 0.0004417704    1.544    0.352
        22 -12.2267     73.5982    175.7342   1.1286782445e+02   2.9356736656e+01    0.4065491    0.2640057 -44.11  0.002101725    2.013    0.503
        23 -12.1371     77.6399    170.9289   1.1129938108e+02   2.9864320342e+01    0.3325461    0.2826766 -41.98 0.0008416364    1.479    0.324
        24 -10.5357     47.6811    173.5858   1.1848331557e+02   3.3163585391e+01    0.3623795    0.2111422 -67.04  0.001768706    1.563    0.360
        25 -10.2502     53.9082    173.0265   1.1702324032e+02   3.2546099011e+01    0.2310644    0.1725184  84.83 0.0004488192    1.169    0.144
        26 -11.0318    138.4870    171.4898   9.7201665530e+01   1.9466920675e+01    0.2970564    0.2356303  75.30  0.001534138    1.453    0.312
        27 -10.1722    227.4777    169.9752   7.8420945205e+01   2.5073337061e+00    0.1822703    0.1151406 -55.76 0.0008096641    2.496    0.599
        28  -9.9782    161.7806    166.4014   9.0981515263e+01   1.5967210153e+01    0.2335342    0.1977379 -62.03 0.0006731087    1.328    0.247
        29 -14.7505     85.4429    229.8021   1.1635495219e+02   1.6653985929e+01     1.549491      1.01127 -84.55  0.008090657    1.625    0.385
        30  -8.8800    155.9863    159.0372   9.0780935524e+01   1.8625636884e+01    0.1738448    0.1689953  41.41 0.0003416952    1.012    0.012
        31 -12.2836     91.9716    154.6907   1.0535755878e+02   3.1424695027e+01    0.6180781    0.4418611 -29.99  0.003001217    1.999    0.500
        32 -12.2590    203.6009    200.1032   8.8793882273e+01   2.0665780576e+00    0.4574617    0.3415276   2.56   0.00259501    1.431    0.301
        33 -11.4145    133.7859    144.7572   9.3014145899e+01   2.6163267828e+01     1.189533    0.3187106 -55.31   0.00290499    5.573    0.821
        34 -10.7222    174.3820    148.8100   8.4472343519e+01   1.6886599654e+01    0.3137859    0.2718421  86.14 0.0009282031    1.418    0.295
        35  -9.3379    109.2113    147.2515   9.9662467657e+01   3.0241620793e+01    0.1957812    0.1609046  81.85 0.0003630876    1.301    0.231
        36 -10.7162     87.5788    146.2422   1.0501669913e+02   3.4100043438e+01    0.2943042    0.2288384  88.08 0.0008966834    1.340    0.254
        37 -10.4639    143.8698    145.7938   9.0796164974e+01   2.3899715171e+01    0.2991463    0.2048062 -77.06  0.001250945    2.120    0.528
        38 -11.2985    105.0326    139.5633   9.9216717267e+01   3.2770340324e+01    0.6224656    0.3708789 -35.98  0.002607809    2.193    0.544
        39 -12.4266     92.3949    139.9469   1.0260887698e+02   3.4821759861e+01    0.2845646    0.2568421 -61.46 0.0004679871    1.093    0.085
        40 -10.1753     97.8845    200.4124   1.1065719657e+02   2.0466820811e+01    0.2932261    0.2211423   9.36 0.0007175985    2.158    0.537
        41 -10.7393    105.9482    130.8116   9.7149433268e+01   3.4658596818e+01    0.3550036    0.3024823 -76.39  0.001090543    1.196    0.164
        42 -10.5807    113.2153    130.2999   9.5102290807e+01   3.3443930485e+01     0.314091    0.2812621 -15.05  0.001342203    1.312    0.238
        43 -10.9386    135.5910    127.9174   8.8760326104e+01   2.9549862215e+01     0.561481      0.14952 -48.73  0.001564054    3.834    0.739
        44 -18.0705      7.6960    240.4318   1.3056555015e+02   2.4029431577e+01     14.60597     1.372482 -78.12   0.03547797    9.469    0.894
        45 -10.1617    160.6582    128.0083   8.2706086309e+01   2.4124972763e+01    0.3421435    0.2436692 -63.10  0.001499622    1.710    0.415
        46 -11.2676    119.3047    124.2456   9.2103114001e+01   3.3675176336e+01    0.6004702    0.3680848 -27.34  0.002339418    2.403    0.584
        47 -11.0490    100.4053    126.5463   9.7725073414e+01   3.6644331150e+01    0.2765085    0.2361326 -25.09 0.0002537157    1.378    0.275
        48  -9.5320    135.0000    119.9315   8.6963834940e+01   3.1449779611e+01    0.2607756   0.08768658 -46.35 0.0008024238    2.942    0.660
        49 -10.0618    108.9846    119.1141   9.3677875647e+01   3.6835051556e+01    0.2151101    0.2094265 -62.13 0.0003396718    1.027    0.026
        50  -9.6842    135.1125    113.3803   8.5269365990e+01   3.2872705717e+01    0.3964425    0.1632291 -51.14  0.001323882    2.619    0.618
        51  -9.8354    167.4949    112.4632   7.7193903054e+01   2.5786377334e+01     0.336636    0.2352662 -79.83  0.001021479    2.260    0.558
        52 -11.7858    118.4071    109.7843   8.8775625741e+01   3.7148322833e+01    0.6044981     0.485509 -80.04  0.002607015    1.498    0.332
        53 -10.1584    205.4695    110.1658   6.8761705707e+01   1.7412557084e+01    0.3208797    0.2163359  41.38 0.0009753365    1.572    0.364
        54 -10.0416    134.6650    105.6746   8.3345037757e+01   3.4651142373e+01     0.446827    0.1439416 -42.71  0.001352394    3.100    0.677
        55 -15.3757     11.2859    206.4564   1.2835766867e+02   3.0022496635e+01     0.631255    0.5800993  43.84  0.003410874    1.549    0.354
        56 -11.3423     42.3014     92.0761   1.0778085089e+02   5.2927426456e+01    0.3327313    0.1994983  25.02 0.0009752135    1.992    0.498
        57 -10.5099     53.0470     90.5253   1.0387258282e+02   5.2120900678e+01    0.2794388      0.15477 -45.24  0.001350914    1.653    0.395
        58 -10.2726     39.7536     88.2669   1.0781994372e+02   5.4063689296e+01    0.1883716    0.1318815 -40.33  0.001067274    1.380    0.275
        59  -9.7854    156.6999     80.9558   7.0826324080e+01   3.4564861484e+01    0.2233438    0.2057796 -39.21 0.0007306115    1.080    0.074
        60  -9.2128    184.4987     77.4553   6.3959761934e+01   2.8314884288e+01    0.1517836    0.1502293   3.29 8.864989e-05    1.044    0.042
        61 -11.4746    153.5976     56.5294   6.3933184760e+01   3.9611325815e+01    0.4008673     0.290553 -80.19  0.000784028    1.881    0.468
        62 -10.7852    106.0657    210.8929   1.1025664590e+02   1.7112166872e+01    0.4024397    0.3095379  16.65  0.002305621    1.852    0.460
        63 -13.8635    184.1935     45.7679   5.4799545074e+01   3.3427499870e+01     1.205185     1.016066  17.46 0.0009654115    1.412    0.292
        64 -16.4764     58.1340    247.5279   1.2268102550e+02   1.7162794700e+01     8.766312     2.656214  31.11   0.01560825    9.520    0.895
        65 -10.8671    113.6127    208.4225   1.0839381829e+02   1.6380872638e+01    0.2274142    0.1907592  85.32 0.0007473443    1.213    0.175
        66 -11.1286    156.2532     50.7267   6.1499504029e+01   3.9854120729e+01     0.344547    0.2796759 -81.80 0.0009819891    1.451    0.311
        67  -9.4168    130.8517    213.8413   1.0558430391e+02   1.2519520431e+01     0.175792    0.1373069  67.86 0.0004179836    1.321    0.243
        68 -15.4158     29.6444    248.3929   1.2744382254e+02   2.0366390060e+01     0.799157    0.6874589  31.36  0.006114054    1.796    0.443
        69 -10.0200    189.7883     15.1226   4.5091487961e+01   3.5821697402e+01    0.2130822    0.1744611 -66.86 0.0006060255    1.197    0.165
        70 -10.0398     72.3992    230.6124   1.1885971103e+02   1.8311520834e+01    0.2704546    0.1444455  40.45  0.001228068    1.704    0.413
