#   1 NUMBER                 Running object number                                     
#   2 MAG_AUTO               Kron-like elliptical aperture magnitude                    [mag]
#   3 X_IMAGE                Object position along x                                    [pixel]
#   4 Y_IMAGE                Object position along y                                    [pixel]
#   5 X_WORLD                Barycenter position along world x axis                     [deg]
#   6 Y_WORLD                Barycenter position along world y axis                     [deg]
#   7 A_WORLD                Profile RMS along major axis (world units)                 [deg]
#   8 B_WORLD                Profile RMS along minor axis (world units)                 [deg]
#   9 THETA_WORLD            Position angle (CCW/world-x)                               [deg]
#  10 FWHM_WORLD             FWHM assuming a gaussian core                              [deg]
#  11 ELONGATION             A_IMAGE/B_IMAGE                                           
#  12 ELLIPTICITY            1 - B_IMAGE/A_IMAGE                                       
         1 -11.8755    121.6930     37.2400   6.4746079256e+01   5.0298002720e+01    0.4307419    0.4107668  78.74  0.001445897    1.083    0.076
         2 -11.8888     40.6752     30.0955   9.0634640449e+01   6.7302835238e+01    0.7141091    0.4601058  -6.55  0.002610951    2.578    0.612
         3 -10.8586     71.9656     13.7441   6.9124923025e+01   6.5248902581e+01    0.5656135    0.2636386 -34.14  0.002438602    1.998    0.500
         4 -11.5503     21.1538      2.0600   8.8180168333e+01   7.5159859061e+01    0.4914783    0.1979196  30.44  0.002345913    2.959    0.662
         5 -10.5156     22.5643      9.4744   9.1320726387e+01   7.3579489150e+01    0.3380553    0.2387754 -10.59   0.00203844    1.736    0.424
         6 -11.8674     30.2042      7.1694   8.5415540294e+01   7.3164011895e+01    0.3481721    0.3285796  23.88   0.00112321    1.254    0.203
         7 -12.0201     34.6537     12.8755   8.5944392249e+01   7.1529831399e+01    0.5146805    0.3549032 -51.53  0.002274436    1.314    0.239
         8 -10.5773     42.8495     18.6044   8.4498938799e+01   6.9339418336e+01    0.5150607    0.2388317 -36.16  0.002274213    2.294    0.564
         9 -10.3815     20.7067     17.6157   9.6179061571e+01   7.2094453465e+01     0.327009    0.2337824  83.72  0.001894336    1.957    0.489
        10 -11.7378    234.7431     15.0562   4.0382845975e+01   2.3161667146e+01    0.3279874    0.2398338 -73.70 0.0002260612    1.474    0.322
        11  -9.5648     89.0000      7.9572   6.0277680554e+01   6.2419788015e+01    0.3392506    0.1346209 -33.19   0.00131581    2.324    0.570
        12 -11.0306     89.0823     13.5089   6.3149833501e+01   6.1647825713e+01    0.4787258    0.3628586 -72.84  0.001595691    1.776    0.437
        13 -10.2801     92.5558      9.9925   6.0298994620e+01   6.1332546382e+01    0.4351795    0.2796766 -10.79  0.002023017    1.744    0.427
        14  -9.7347     63.3189     10.8833   7.0968574288e+01   6.7365157931e+01    0.2524424    0.1777755  86.06 0.0009500256    2.588    0.614
        15 -10.5168    126.1378     11.0611   5.2699752790e+01   5.2771270001e+01    0.2247137    0.1897983  29.34  0.001158473    1.221    0.181
        16 -11.7405     57.4296      3.1480   6.8903286713e+01   6.9637030132e+01    0.4588732    0.3366838 -16.37  0.002592266    1.336    0.251
        17  -9.6187     15.3505      8.9039   9.5674430321e+01   7.4373839705e+01    0.1674045    0.1183802 -50.30 0.0003556301    1.134    0.118
        18 -10.3035    224.0298      7.6644   3.9119441868e+01   2.6487523189e+01    0.1920155    0.1778632 -76.34 0.0004869924    1.094    0.086
        19  -9.7195    156.1812      7.8210   4.6289768509e+01   4.4869581686e+01    0.2052646    0.1670988  36.25  0.001024345    1.283    0.221
        20  -9.4983    210.5236      7.4920   4.0172735905e+01   2.9976695404e+01    0.1408624    0.1353155 -42.75 0.0002666572    1.029    0.029
        21 -10.8799     71.0896      5.7245   6.4979770259e+01   6.6613489800e+01    0.3252661     0.293187 -18.37  0.001609967    1.032    0.031
        22  -9.7841     64.9314      6.9437   6.8057826721e+01   6.7663582988e+01    0.2049578    0.1592877 -60.41 0.0007254789    1.643    0.392
        23 -10.7692     36.7296      6.1419   8.1048124134e+01   7.2499327651e+01     0.235897    0.1974235 -51.86 0.0008077413    1.262    0.207
        24 -10.1494      8.3106      5.3421   9.8836116483e+01   7.5658805444e+01    0.3332087     0.170082  44.64  0.001461515    2.723    0.633
        25  -9.7995      2.0462      6.4936   1.0380620201e+02   7.5817163728e+01    0.1993227    0.1409212  23.15  0.001007579    1.746    0.427
        26  -9.4089      1.5053      3.0019   1.0278299329e+02   7.6580067188e+01    0.1716205    0.1211295 -43.52  0.001161017    1.219    0.180
        27 -10.6106    107.8345      4.9121   5.3746965816e+01   5.8226379880e+01    0.2639366    0.2217747  -8.32  0.001412731    1.191    0.160
        28  -9.9062    104.3031      4.6482   5.4446813279e+01   5.9144680757e+01    0.2826509    0.2068313 -88.94 0.0005251257    1.707    0.414
        29 -10.1850    101.2179      2.2094   5.3943050672e+01   6.0182199010e+01    0.4248044    0.2157262  54.98   0.00139016    1.875    0.467
        30  -9.4597    120.8486      4.1595   5.0611041355e+01   5.4929067293e+01    0.2068293    0.1632712  33.16 0.0003742722    1.294    0.227
        31  -9.9081     41.1069      6.0997   7.8629305583e+01   7.1879896180e+01    0.1987473    0.1523171 -20.59 0.0006302468    1.277    0.217
        32  -9.9886    130.0302      3.2628   4.8499313550e+01   5.2553898037e+01    0.2062339    0.1929119  74.66 0.0004566134    1.078    0.073
        33  -9.8154     90.4931      2.6839   5.6997291649e+01   6.2721599452e+01    0.2243642    0.1706077 -80.07 0.0008728375    1.738    0.425
        34  -9.6288    176.3678      2.2936   4.1741018204e+01   3.9732435987e+01    0.2472072      0.15913  34.72  0.001098577    1.756    0.430
        35 -11.4730     80.3032      1.7029   5.9485103867e+01   6.5169577119e+01    0.3318289    0.1859372  53.64 0.0009480106    1.798    0.444
        36  -9.7701    187.1354      1.2648   4.0291307094e+01   3.6833874889e+01    0.2004621    0.1247923  88.84            0    1.691    0.409
        37  -9.2910     67.4086      1.4762   6.3818135554e+01   6.7940647894e+01    0.1348954    0.1191252  -7.21 0.0001767271    1.036    0.035
        38 -10.1097      9.9268      1.4732   9.5764665847e+01   7.6320600835e+01    0.1476094    0.1149853  18.73  0.001010567    1.536    0.349
        39  -9.4359     22.9496    142.9851   1.1659719533e+02   4.3899977871e+01    0.1375501     0.103285  75.22 0.0003799733    1.023    0.023
        40 -11.5220      1.5675    225.9995   1.2403285660e+02   3.1190766271e+01    0.2526155   0.08660112  89.88  0.001439647    2.723    0.633
        41 -11.6089      3.2218    249.0220   1.2422173065e+02   2.7756482451e+01     0.506565     0.208494  69.38  0.003947566    1.794    0.443
        42 -12.0120     14.1281    238.6872   1.2232812163e+02   2.8201742167e+01     0.318486    0.0633008  51.26  0.001417571    2.445    0.591
        43 -12.2581      4.1723    232.7206   1.2375619313e+02   2.9969229702e+01    0.3141733    0.1485493  57.85  0.002509532    1.320    0.242
        44 -11.9464      9.3101    245.1272   1.2322559253e+02   2.7743561106e+01    0.3464396    0.1619303  30.04  0.002410117    2.580    0.612
        45 -12.5782      6.2479    241.4127   1.2361462464e+02   2.8539552488e+01    0.3642931    0.2589785  51.15  0.002696056    1.277    0.217
        46  -9.5335     24.6199    139.1216   1.1592599044e+02   4.4536303886e+01    0.1548532   0.08640597 -69.08 0.0009335876    1.739    0.425
        47 -10.2729    212.6524    133.9227   7.3757730858e+01   1.4018283983e+01    0.2322847    0.1784988  51.85 0.0006119783    1.373    0.272
        48  -9.2545     96.0064    133.7579   9.7690811237e+01   3.6440793234e+01    0.1666193    0.1008952  44.64 0.0004040834    1.523    0.343
        49 -10.5802      2.2596    133.1218   1.2102381850e+02   4.7658344130e+01    0.2486092    0.1210963  47.29  0.001528145    1.720    0.419
        50 -10.0626     35.1939    130.8835   1.1260746201e+02   4.5214767976e+01    0.1675101    0.1312541 -51.07 0.0005121261    1.660    0.398
        51 -11.0294     11.6861    129.6357   1.1849567007e+02   4.7652810102e+01    0.2453425    0.1447354  64.25   0.00104042    1.376    0.273
        52 -10.0620    248.6659    129.3196   6.7303437550e+01   7.7889578919e+00    0.1124939    0.0966723 -54.31 0.0003999122    1.699    0.412
        53  -9.4526     20.4323    125.4100   1.1595746802e+02   4.7805768530e+01    0.1168206   0.08751026  74.40 1.948103e-06    1.049    0.047
        54 -11.2794      8.4734    121.7418   1.1883472971e+02   4.9576752381e+01    0.3236417     0.140296  64.36 0.0008733831    2.011    0.503
        55 -12.0648     23.8916    121.0460   1.1468482358e+02   4.8434003010e+01    0.4114277    0.2054864  68.30  0.001111324    1.858    0.462
        56 -11.2852     65.9873    110.8934   1.0176465502e+02   4.5855358860e+01    0.3058024    0.2154768  70.78  0.001013858    1.395    0.283
        57 -12.0271      4.7938    108.4959   1.1898905398e+02   5.2705593561e+01    0.3589602    0.2843148 -11.48  0.002009862    1.934    0.483
        58 -11.3328     57.7462    107.5039   1.0356313659e+02   4.7716321227e+01    0.2899483    0.2327225   9.08  0.001134251    1.840    0.457
        59  -9.9312    186.9616    103.0958   7.1229865322e+01   2.3679075321e+01    0.2121153    0.1973207  36.89 0.0005253031    1.036    0.035
        60  -9.1247    161.5120    102.4557   7.6038412408e+01   2.9499059666e+01    0.1436517    0.1368596  47.59 8.252734e-05    1.010    0.010
        61 -10.3416     62.0131     97.9586   1.0067757328e+02   4.9294760965e+01    0.2042738    0.1535195 -39.47  0.001136143    1.706    0.414
        62 -10.0219     36.5961     97.2111   1.0836019141e+02   5.2516887877e+01    0.1825904   0.09673598 -62.84 0.0009588653    1.699    0.412
        63 -10.4685      3.1893     95.6129   1.1855903767e+02   5.5656837750e+01     0.208208    0.1582486  74.93 0.0005811059    1.099    0.090
        64 -10.1442     19.2246     87.2884   1.1263694219e+02   5.6390355255e+01    0.3221111     0.175972 -68.55  0.001087366    1.541    0.351
        65 -12.2480     20.8629     92.8358   1.1275787549e+02   5.4987433928e+01    0.2973967    0.2781447 -28.86 0.0005189268    1.432    0.301
        66 -10.7029     24.0942     88.3342   1.1116036160e+02   5.5742719854e+01     0.275854     0.169614  89.58 0.0001181587    1.445    0.308
        67 -10.9887    125.1420     93.3113   8.2000106307e+01   3.9157225179e+01    0.2435554    0.2300408 -78.32 0.0002229647    1.051    0.048
        68  -9.9998     94.0881     93.4817   9.0314118122e+01   4.5214382748e+01    0.2060098    0.1350622  44.67 0.0005376951    1.539    0.350
        69 -10.4473     43.6932     91.1366   1.0519122399e+02   5.3140278140e+01    0.4469752    0.2134381 -78.59  0.001933821    2.132    0.531
        70 -10.5435     29.3512     92.4500   1.0999481669e+02   5.4322394487e+01    0.2234105    0.1737096  83.77 0.0005602881    1.098    0.090
        71 -11.5585     10.1406     79.2524   1.1478715806e+02   5.8906076542e+01    0.3592324    0.1868593 -85.01 0.0009835714    1.605    0.377
        72 -11.6920     10.8578     90.9530   1.1575781350e+02   5.6188275269e+01    0.3672118    0.2755434 -67.46  0.002506738    1.285    0.222
        73 -10.2872     11.2124     85.1398   1.1505812392e+02   5.7485324624e+01    0.2298981    0.1299458  81.26 0.0007354771    1.584    0.369
        74 -11.0278     57.5585     91.8486   1.0091042225e+02   5.1279560961e+01    0.2321926    0.2114845  -0.79 0.0006194283    1.475    0.322
        75 -10.3601     76.6154     89.3092   9.4480542029e+01   4.9084763161e+01    0.2605116    0.2157159  32.29  0.001487929    1.416    0.294
        76  -9.8386     64.9397     88.5224   9.7925123375e+01   5.1022303334e+01    0.2062198    0.1628192 -70.33 0.0004877168    1.154    0.133
        77  -9.5381    113.7593     85.8060   8.2957668937e+01   4.3033448590e+01    0.1995554    0.1884132 -18.75  0.001119789    1.215    0.177
        78 -10.8044     55.0646     85.2177   1.0041775133e+02   5.3121702301e+01    0.2840549    0.1975211 -77.13 0.0006977028    1.344    0.256
        79 -11.7315      4.0829     82.2044   1.1716395096e+02   5.8620173812e+01    0.5522993    0.2424236 -81.60  0.002928558    1.825    0.452
        80 -10.2543    124.5587     82.8244   7.9328698364e+01   4.1338338029e+01      0.28833    0.2278893  56.52 0.0009928674    1.257    0.204
        81  -9.3853    124.4185     79.2018   7.8334282181e+01   4.2074435595e+01    0.2035652    0.1366334 -56.06  0.000473888    1.604    0.376
        82  -9.9257     76.8901     82.9334   9.2908487963e+01   5.0461295712e+01    0.2007515    0.1819761 -85.69 0.0004160309    1.016    0.015
        83  -9.7447    250.2515     80.9910   5.6150977241e+01   1.2730474387e+01     0.174203    0.1015387 -22.49 0.0005490593    1.537    0.349
        84  -9.7258     89.5724     80.7601   8.8466274239e+01   4.8772906647e+01    0.1939268     0.129274 -66.21 0.0003977137    1.583    0.368
        85 -10.7702     64.6121     79.4640   9.6029313226e+01   5.3124274528e+01    0.4375174    0.2581888 -64.29  0.002173673    1.585    0.369
        86  -9.1369     42.4948     81.5839   1.0391956819e+02   5.5478073812e+01    0.1263458    0.1097795 -74.89 0.0001898284    1.078    0.072
        87  -9.6327     24.6376     78.6816   1.0963182869e+02   5.7923221678e+01    0.1931949    0.1256982 -46.15  0.001113789    1.753    0.429
        88 -10.8872     28.0858     77.0714   1.0816087370e+02   5.7989736664e+01      0.18892    0.1627703  70.31 0.0003634419    1.162    0.139
        89  -9.8428    176.7248     76.9411   6.6185914898e+01   3.0094691589e+01    0.2114813    0.1996235 -28.04  0.001006838    1.064    0.060
        90 -10.9089     42.4732     76.1814   1.0289333253e+02   5.6730815850e+01    0.3027433    0.1758129  52.20  0.001342847    1.848    0.459
        91 -10.6558     55.3681     75.7757   9.8300911213e+01   5.5246934919e+01    0.2592647    0.2196012 -83.60  0.000790934    1.079    0.073
        92 -10.6437     15.0715     75.8005   1.1262812429e+02   5.9353967271e+01    0.2314301    0.1654573  82.02  0.001034318    1.235    0.190
        93 -11.3753     20.4731     73.1554   1.1029806589e+02   5.9551819335e+01    0.3575586    0.1805784 -55.71  0.001338448    1.840    0.456
        94 -10.0808     70.2249     75.5563   9.3224156920e+01   5.3164436877e+01    0.1721185    0.1358431  25.57 0.0009373505    1.578    0.366
        95 -11.1380     36.2152     73.0582   1.0452575861e+02   5.8130632497e+01    0.4578051     0.384469 -59.55  0.002970346    1.185    0.156
        96  -9.2535    224.4447     74.4731   5.7838736661e+01   1.9063417139e+01     0.138979    0.1285617 -12.59 9.364088e-05    1.027    0.026
        97  -8.9953    136.5119     74.5028   7.3967035123e+01   4.0215464899e+01    0.1484667    0.1459341  78.99 -4.760016e-05    1.008    0.008
        98 -10.0911    216.9952     72.4407   5.8342951649e+01   2.1032044543e+01    0.2162486    0.1775156 -20.23  0.000478316    1.158    0.137
        99 -11.1537    105.9206     72.1067   8.1227553252e+01   4.7439493230e+01     0.239262     0.214312  57.99 0.0003624203    1.126    0.112
       100  -9.2723     92.4881     72.5030   8.5302736303e+01   5.0007192418e+01    0.1433664    0.1333595 -77.78  1.22743e-05    1.021    0.021
       101  -9.1673     81.3246     72.6672   8.8839769353e+01   5.1987396843e+01    0.1460483    0.1060814  86.01 0.0007050856    1.708    0.415
       102  -9.9964     99.9750     70.5735   8.2488654406e+01   4.8959503125e+01    0.2066625    0.1833019 -58.96 0.0004838439    1.086    0.079
       103  -9.9794     76.3208     70.1515   8.9768118761e+01   5.3386901881e+01    0.2881986    0.1097386 -47.05  0.001077598    2.613    0.617
       104 -11.1228     46.4314     69.2424   9.9992125333e+01   5.7874640837e+01    0.2863425    0.2250249  20.86 0.0005773093    1.614    0.381
       105  -9.3735     91.0082     69.4922   8.4873633171e+01   5.0924242064e+01    0.1908028    0.1210435  71.54 0.0004611751    2.249    0.555
       106 -11.2765     10.0806     60.0330   1.1232583824e+02   6.3340868786e+01    0.2098771    0.1688305  23.14 0.0003817059    1.554    0.357
       107 -10.6007     10.7000     67.5310   1.1314778411e+02   6.1567975082e+01    0.2882733    0.1654493 -78.42  0.001006656    1.405    0.288
       108 -11.8166      7.3036     64.0066   1.1399002186e+02   6.2595782670e+01    0.2676488    0.2563294 -40.41  0.002039446    1.313    0.239
       109 -10.7757      5.6670     69.0237   1.1523769278e+02   6.1538566858e+01    0.1756316    0.1221506 -83.34 0.0006771293    1.137    0.121
       110  -9.3176     29.6286     71.3067   1.0661725940e+02   5.9186034336e+01    0.1323502   0.08208258  68.38 0.0007033281    1.762    0.432
       111 -11.0115     15.3671     64.7881   1.1094898131e+02   6.1881179203e+01    0.4064251    0.2727159 -89.80  0.001753046    1.319    0.242
       112 -13.4363     20.0864     57.7089   1.0783044057e+02   6.3166495626e+01    0.4108871    0.2458361 -81.22  0.001246092    1.500    0.333
       113 -10.2221      1.4289     66.9048   1.1659800342e+02   6.2262945680e+01    0.1779538   0.09127349 -80.86 0.0005986255    1.536    0.349
       114  -9.7929    132.8635     65.6346   7.2095807067e+01   4.2692847723e+01    0.3334365    0.2099376  30.42   0.00136398    2.127    0.530
       115 -11.1752     62.7625     63.2248   9.2502698098e+01   5.7057491899e+01    0.5268958    0.3290917 -52.86  0.002356455    1.462    0.316
       116 -10.4348     34.5648     64.6217   1.0343898678e+02   6.0256611366e+01    0.2947332    0.1694919 -54.79  0.001077904    1.572    0.364
       117 -10.7401     39.0207     61.5506   1.0101780251e+02   6.0496316977e+01    0.3797508    0.2072676 -66.19  0.001518181    1.591    0.372
       118 -10.0752    150.1559     62.0188   6.6982754408e+01   3.9097573132e+01    0.2490516    0.2111902  61.07  0.001259246    1.186    0.157
       119 -10.6375    101.3091     61.2111   7.9142517466e+01   5.0595926251e+01    0.3031178    0.2410911 -72.07  0.001290792    1.410    0.291
       120  -8.9145     92.7150     61.3049   8.1794939975e+01   5.2308470726e+01    0.1431801    0.1109329 -83.15 0.0001957551    1.562    0.360
       121  -9.8192     49.0539     58.8939   9.6432023217e+01   5.9919510403e+01     0.336642    0.1896579  71.78   0.00140824    2.951    0.661
       122  -9.5273    193.1345     58.6799   5.8025101337e+01   2.8658256695e+01     0.292677    0.1446331  71.80  0.001079041    2.573    0.611
       123 -10.8078     83.7428     56.7721   8.3197705144e+01   5.4956068798e+01    0.2725759    0.2420718 -55.29 0.0007399207    1.056    0.053
       124 -12.0689     88.6480     53.0805   8.0314492655e+01   5.4781311462e+01    0.5546604    0.3647122  62.41  0.002013155    1.837    0.456
       125  -9.9840     33.6636     54.6906   1.0153153747e+02   6.2639529836e+01    0.3957102    0.1624042 -41.24  0.001401701    3.245    0.692
       126  -8.9878     71.6800     57.2725   8.7516694412e+01   5.6967059692e+01    0.1360175    0.1051613  84.31 0.0004271949    1.569    0.362
       127 -11.8423    114.5248     53.9197   7.2874328035e+01   4.9119528992e+01     0.350408    0.3128992  59.62 0.0007243629    1.143    0.125
       128  -9.9129     33.6131     57.8242   1.0230185741e+02   6.1923931692e+01    0.1785432    0.1630051 -85.32 0.0005957511    1.100    0.091
       129  -9.8546    106.0684     53.2292   7.5007001914e+01   5.1140987296e+01     0.210323    0.1896928  62.08 0.0007032668    1.144    0.126
       130 -12.0461     65.8193     52.5967   8.8135801284e+01   5.8925971926e+01    0.4708054    0.2370862  40.81   0.00212294    2.172    0.540
       131 -11.6265     13.9815     42.0439   1.0729831540e+02   6.7225312086e+01    0.7079949    0.4073963  79.41  0.003147118    2.086    0.521
       132  -9.5533     19.5597     44.5313   1.0525682768e+02   6.6243206026e+01     0.194964    0.1527551 -66.76  0.000597989    1.044    0.042
       133 -12.1675      5.6869     50.7822   1.1275164616e+02   6.5737011563e+01    0.4639123    0.2316368 -48.74 0.0002037336    1.965    0.491
       134 -11.1478     13.9785     48.9352   1.0875115843e+02   6.5644940531e+01    0.3063328    0.2199868  57.89   0.00115982    1.540    0.351
       135  -9.3553    149.0283     52.0000   6.3906888117e+01   4.1013945466e+01      0.24809   0.08709857  58.45 0.0003895812    2.850    0.649
       136 -10.2448    121.9926     51.0916   6.9887361171e+01   4.7887952923e+01    0.2208628    0.2161323 -71.66  0.000359447    1.017    0.017
       137 -10.0678     76.0000     48.9950   8.3177500006e+01   5.7975244113e+01    0.4727391    0.1691377 -45.41  0.001732163    2.621    0.618
       138 -11.0160     79.0010     45.8864   8.0976730920e+01   5.8065516440e+01     0.249894    0.2267721  77.45 0.0003454529    1.206    0.170
       139 -11.5574     57.0181     46.7701   8.9589229978e+01   6.1525582379e+01    0.3800746    0.3335183 -58.31 0.0007374555    1.022    0.021
       140  -9.2909     98.2445     47.9750   7.5424898893e+01   5.3827880922e+01    0.1955001    0.1197385 -42.14 0.0007019496    1.566    0.361
       141  -9.6769    154.8544     47.5215   6.1187344528e+01   4.0197019583e+01    0.2202139    0.1506979  59.72 0.0003386876    1.459    0.315
       142  -9.8975    135.6651     46.2107   6.4803316192e+01   4.5351987254e+01    0.2367869    0.2008452  73.27 0.0003470549    1.246    0.197
       143 -10.1090     31.5074     46.0256   1.0020842576e+02   6.4833978385e+01    0.2502003      0.17846  71.12   0.00128499    1.675    0.403
       144 -11.1843     26.2817     43.6303   1.0192581677e+02   6.5876892686e+01    0.3273245    0.2698174 -89.61  0.001328857    1.229    0.186
       145 -11.0139     69.3611     42.0737   8.3061277512e+01   6.0554233242e+01    0.2463943    0.2334433 -30.87 9.332422e-05    1.089    0.082
       146 -10.6678      2.8224     42.3642   1.1266764451e+02   6.7819389905e+01    0.2476302    0.2026223 -23.34   0.00153433    1.509    0.337
       147 -10.0251      5.7027     39.2979   1.1071490865e+02   6.8367315003e+01    0.2075645    0.1188056 -74.85 0.0006491788    1.409    0.290
       148  -9.8823    159.3907     41.9723   5.8401371511e+01   3.9813442226e+01    0.2152124    0.1856931 -29.41 0.0002824926    1.155    0.134
       149 -10.8737    140.2288     40.7826   6.1804787576e+01   4.5036401902e+01    0.3105528    0.2582272 -63.49 0.0006911351    1.310    0.237
       150  -9.2738     95.2588     42.3456   7.4196042552e+01   5.5519924359e+01    0.1438317     0.113609  -6.20 0.0006272575    1.595    0.373
       151  -9.6849    185.6938     41.5629   5.3878330232e+01   3.2855695563e+01    0.3025057   0.09849077  50.06 0.0007875671    3.049    0.672
       152  -9.7612     42.8493     40.8056   9.3546794127e+01   6.4733833890e+01    0.1626222    0.1414353  78.03 0.0003681539    1.297    0.229
       153 -10.2616     35.1833     41.2215   9.7138761915e+01   6.5530354306e+01    0.2778192    0.1868297  22.64  0.001252897    1.848    0.459
       154  -9.5447    132.2596     39.0768   6.2935773840e+01   4.7350610649e+01    0.3581339    0.2123339 -85.36  0.001244765    3.059    0.673
       155  -9.7908    128.0872     38.7667   6.3788579773e+01   4.8457702081e+01    0.2239473    0.2005373 -70.57 0.0004628356    1.195    0.163
       156  -9.9655     58.0741    248.3401   1.1575914984e+02   2.2346628106e+01    0.1333884    0.1053778  66.67 0.0005326765    1.287    0.223
       157  -9.5249     87.1815     39.1759   7.5546519401e+01   5.7787140202e+01    0.1875538    0.1651514 -80.05 0.0002951913    1.284    0.221
       158 -10.2941     22.5198     38.4515   1.0228890414e+02   6.7380531865e+01    0.2065698    0.1591016  81.45 0.0005236567    1.435    0.303
       159 -11.2812     26.5074     35.3617   9.9426105669e+01   6.7713790270e+01     0.411491    0.2163438 -42.89  0.002112431    1.893    0.472
       160 -10.8462      3.8539     35.2426   1.1082495638e+02   6.9388368459e+01    0.4485556    0.2168774 -30.16   0.00229275    2.711    0.631
       161 -10.7424     38.8932     35.3860   9.3471152140e+01   6.6391257027e+01    0.2703523    0.2135077   9.62  0.001629047    1.595    0.373
       162 -11.5724     18.7581    248.5443   1.2186894836e+02   2.6392198769e+01     0.211606    0.1560406  11.53  0.001655736    2.949    0.661
       163 -10.4587     96.9514     35.0608   7.0709969490e+01   5.6466675477e+01    0.2130301    0.2026752 -15.42  0.001204527    1.058    0.055
       164  -9.5956    134.2714     34.4874   6.0721548835e+01   4.7529995840e+01    0.1881912    0.1407102  43.74 0.0003466626    1.378    0.274
       165  -8.7917     81.3701     34.2984   7.5510915477e+01   5.9857462054e+01    0.1444914    0.1104995   5.77 0.0007030339    1.737    0.424
       166  -9.2939    144.8563     32.8427   5.7878729294e+01   4.4980675459e+01    0.2097689    0.1733495 -65.39 0.0004116535    1.323    0.244
       167 -10.9093     18.8533     32.1967   1.0232746047e+02   6.9087031807e+01     0.432485    0.2381119  -6.82  0.001950491    3.025    0.669
       168 -10.4353     73.0921     32.0485   7.7553465669e+01   6.1859455515e+01    0.2084532    0.1939746 -33.64 0.0004313023    1.024    0.023
       169  -9.4948    166.4628     30.9907   5.3320157079e+01   3.9385929074e+01    0.2271093    0.1493321 -25.63 0.0004826006    1.514    0.339
       170 -10.1765    129.1116     31.0238   6.0507223100e+01   4.9375070077e+01    0.2244212    0.2205951  -6.74 0.0006311706    1.018    0.018
       171  -9.5899    115.2780     39.5981   6.7324018153e+01   5.1473582070e+01    0.1603005    0.1115961 -62.49 0.0006986177    1.766    0.434
       172  -9.2240     83.7173     30.2684   7.2941514140e+01   6.0116880051e+01    0.1342861    0.1096028 -72.42            0    1.493    0.330
       173 -10.3891      8.5423     28.8908   1.0688005109e+02   7.0556319116e+01    0.2477911    0.1831218  80.95  0.001234811    1.473    0.321
       174 -10.4445     97.4868     27.2800   6.7172940168e+01   5.7655369543e+01    0.3646698    0.2349573 -12.00  0.001193462    2.028    0.507
       175  -9.7170     70.2825     28.6883   7.7137861265e+01   6.3004070746e+01     0.134116    0.1061846 -71.20 0.0002718495    1.571    0.363
       176  -9.3527    146.9880     26.9005   5.5202767320e+01   4.5212008457e+01    0.1934444    0.1685181 -25.78 0.0009825052    1.150    0.131
       177  -9.5474    106.4753     27.4404   6.4657999596e+01   5.5542217800e+01    0.1456969     0.141319  -3.77 0.0004560535    1.024    0.023
       178 -10.9731     13.0749    249.3284   1.2274988372e+02   2.6820220294e+01    0.2318677   0.07926223  40.16  0.001174406    1.988    0.497
       179 -10.9405     77.3319     25.8606   7.3191338777e+01   6.2174065288e+01    0.4079313    0.2043357 -26.42  0.001605186    2.518    0.603
       180 -11.3873     75.7313     21.4249   7.1654994493e+01   6.3252400785e+01    0.3149676    0.2900856   6.97 0.0006982341    1.119    0.106
       181 -10.6588    113.4117     25.2841   6.1877959794e+01   5.4185981785e+01    0.2819155    0.2572204 -62.49 0.0003915547    1.167    0.143
       182  -9.0662     18.8248     24.9215   1.0001596577e+02   7.0693852612e+01    0.3497109   0.08495965 -49.93  0.001340995    3.159    0.683
       183  -9.1479    153.5344     25.4918   5.3486477706e+01   4.3612135679e+01    0.1505391     0.149545 -65.38 0.0005242846    1.004    0.004
       184 -10.2113     58.8684     23.8950   7.9584377568e+01   6.5889047714e+01    0.3470135    0.2368877 -19.81  0.001754668    1.801    0.445
       185  -9.8842     58.2023     19.2821   7.7622015916e+01   6.6848673984e+01    0.2159688    0.1740421 -55.81  0.001242715    1.329    0.248
       186  -9.5416    219.6540     23.6729   4.4186632791e+01   2.6054813133e+01     0.151836    0.1021086  31.06  0.000705021    1.749    0.428
       187 -10.6261      1.9982     22.0779   1.0880866987e+02   7.2437593449e+01     0.248242    0.1409952 -77.92 0.0007034635    1.550    0.355
       188 -10.8802     30.5161     21.0888   9.2101643643e+01   7.0378747834e+01    0.2712174    0.2091485 -38.92  0.001026588    1.192    0.161
       189  -9.7594     26.6001     15.7569   9.1924760741e+01   7.1896748403e+01    0.2576911    0.1191129 -47.61  0.001279575    1.783    0.439
       190  -9.8439    229.6862    248.0274   8.9329229793e+01   2.2847486936e-02    0.1299412   0.09163416  24.14 0.0005698819    1.105    0.095
       191  -9.9651    225.0001    246.7314   8.9833350760e+01   7.2793606704e-01     0.142392    0.0884674  30.62  0.001143623    1.071    0.066
       192  -9.5833    202.3990    240.2491   9.2345237326e+01   4.2894647805e+00    0.1015438    0.0951879  -7.16 0.0009165384    1.534    0.348
       193 -10.1285     30.8205     16.1562   8.9709437462e+01   7.1349352276e+01    0.2120274    0.1822593 -40.73  0.001044443    1.037    0.036
       194  -9.4042     60.6411    241.0000   1.1498827759e+02   2.3043277794e+01     0.203803   0.03933379  38.21 0.0009120058    3.753    0.734
       195 -11.5602     13.7214     20.8420   1.0151643349e+02   7.1983671149e+01    0.3015448    0.2289877  60.16  0.001305594    1.648    0.393
       196 -11.2168     13.8955     16.1300   9.9686885840e+01   7.2983987151e+01    0.2405496    0.1927104  36.01 0.0009711395    1.525    0.344
       197  -9.0914    175.7198     21.3444   4.8545864886e+01   3.7998153367e+01    0.1622696    0.1064558 -54.02 0.0003027985    1.634    0.388
       198  -9.6153    165.1242     21.1168   4.9987465933e+01   4.0949893500e+01    0.2174436    0.1696767 -48.86 0.0008618492    1.304    0.233
       199 -10.7235     85.3123     20.5414   6.7872680337e+01   6.1419578350e+01    0.4048842    0.2430565  13.00  0.001414055    2.999    0.667
       200  -9.2426     49.6831    240.6593   1.1674093086e+02   2.4313849357e+01   0.07760124    0.0700732  33.29 0.0007048734    1.709    0.415
       201  -9.8875    148.5896    238.6855   1.0050681564e+02   1.1976149551e+01    0.1440164    0.1013748 -41.45  0.001128077    2.065    0.516
       202  -8.9279     65.6400     19.2991   7.4495762012e+01   6.5538395758e+01    0.1339172    0.1067964 -76.41 0.0007035304    1.713    0.416
       203  -9.9547    200.1187     17.1798   4.4201054516e+01   3.1801489364e+01    0.3223389     0.128059  49.73  0.001162153    2.645    0.622
       204 -10.0250    108.2969     16.3349   5.9143398083e+01   5.6709427999e+01    0.2338776    0.1829643 -12.58 0.0006462063    1.325    0.246
       205  -9.6619     91.0155    237.0243   1.0977303633e+02   1.9920254476e+01    0.1279309    0.1126747  23.37 0.0008492332    1.655    0.396
       206 -12.1375     25.6522    235.8374   1.2041763445e+02   2.7499735605e+01    0.3274067    0.1842941  35.16  0.001941289    1.786    0.440
       207  -9.4874    204.4774    235.4440   9.1464369075e+01   4.4192167423e+00    0.1036457   0.07127849  33.17 0.0001764506    1.012    0.012
       208  -9.9274    249.3315    234.0928   8.4853325112e+01  -1.5313785462e+00    0.1631389   0.09055308  29.51 0.0004172652    1.236    0.191
       209 -10.0259    154.4718     15.0344   4.9339479989e+01   4.4589416759e+01    0.2262406    0.2004043  70.34 0.0003497083    1.121    0.108
       210  -9.7771    191.0378     13.5246   4.3997774295e+01   3.4620524697e+01    0.2267822    0.1437767  71.00 0.0007394431    1.582    0.368
       211 -12.3245      9.6832    228.0416   1.2276718918e+02   3.0160379143e+01     0.306789    0.1933734  63.26  0.001687762    1.077    0.072
       212  -9.3019    243.0078    230.2159   8.5215127213e+01  -4.2591806084e-01    0.1328273   0.05863072  38.88 0.0008607018    1.654    0.396
       213  -9.7305     99.6253     11.3161   5.8992176158e+01   5.9486659492e+01    0.2537919    0.1310418  59.05 0.0009280928    1.967    0.492
       214  -9.4874    209.5134    229.5237   8.9979988793e+01   4.2309716602e+00    0.1049798   0.07323778  31.67 2.512132e-05    1.007    0.006
       215  -9.7249    140.6463    228.5973   1.0080148589e+02   1.4260688808e+01     0.157375   0.08956925 -32.33 0.0008988894    3.202    0.688
       216  -9.6911    223.4669    226.5708   8.7530224414e+01   2.5213279900e+00     0.105767   0.07070335  27.51 7.116717e-05    1.074    0.069
       217 -11.3218      8.2305    218.5768   1.2276645361e+02   3.1725341573e+01     0.219335     0.154699  17.95  0.001703462    2.410    0.585
       218  -9.1248    249.3393    211.3228   8.1686812439e+01   1.4119069853e-01    0.1112947   0.05795329  19.99 0.0005688181    1.720    0.419
       219  -9.2527    209.6903    211.3392   8.7548348261e+01   5.8735590775e+00   0.09595878   0.07884271  57.45 0.0007044341    1.688    0.407
       220 -10.0395     20.1775    209.8291   1.2044910844e+02   3.1983006934e+01    0.1608668   0.08379332  58.05  0.000785689    1.302    0.232
       221 -10.1304      9.9901    203.4733   1.2204156154e+02   3.3967178138e+01    0.1404064   0.07138385  42.60 0.0004314529    1.545    0.353
       222  -8.9967    193.4955    201.5508   8.8750014399e+01   9.3646039680e+00    0.1142484   0.08580709  33.34 3.883699e-05    1.010    0.010
       223  -9.9741     23.1864    197.0977   1.1941447909e+02   3.3781431542e+01    0.1416238    0.1173381  73.29 0.0006602636    1.285    0.222
       224 -10.7702     13.9716    192.7309   1.2096138477e+02   3.5400748207e+01    0.1748307     0.102115  69.45 0.0004936361    1.260    0.206
       225 -10.4478      6.4577    191.4496   1.2232010386e+02   3.6295799850e+01    0.1726721    0.1125479  62.49 0.0004890076    1.036    0.035
       226  -9.3606     20.6320    189.1791   1.1956298585e+02   3.5384920304e+01     0.124779   0.08013695 -78.76 0.0003891668    1.620    0.383
       227  -9.5050     22.5044    179.9510   1.1878353375e+02   3.6835957274e+01    0.1409127   0.08502399 -89.45 0.0004070915    1.482    0.325
       228 -10.5337      5.4118    167.4472   1.2172740622e+02   4.0674119298e+01    0.2179766    0.1148663  68.53   0.00142363    1.410    0.291
       229  -9.4648    226.5979    164.2007   7.7397851073e+01   7.9520177005e+00    0.1558819    0.1026006  -6.98 0.0006133686    1.603    0.376
       230  -9.8854     14.5037    163.9824   1.1967941462e+02   4.0537529290e+01    0.1377177   0.06926709 -59.23 0.0008103044    2.545    0.607
       231  -9.3966     41.2270    157.9577   1.1346586826e+02   3.9032794937e+01    0.1395323   0.08138243 -82.99 0.0004548724    1.592    0.372
       232  -9.1526    247.4705    155.4892   7.2659497269e+01   5.3314511878e+00    0.1195257   0.09371866  15.27 0.0001693668    1.013    0.013
       233 -10.4175      2.4466    153.5045   1.2183966627e+02   4.3567053477e+01    0.1989186   0.09189378  31.51  0.001222759    2.206    0.547
       234  -9.6087     23.2957    150.6609   1.1701545698e+02   4.2318437131e+01    0.1211659   0.06059226  64.78 0.0005807536    1.655    0.396
       235  -9.1980    237.7316    149.6772   7.2983612933e+01   7.5757373344e+00    0.1235572   0.07872817  14.30 0.0002921462    1.567    0.362
