#   1 NUMBER                 Running object number                                     
#   2 MAG_AUTO               Kron-like elliptical aperture magnitude                    [mag]
#   3 X_IMAGE                Object position along x                                    [pixel]
#   4 Y_IMAGE                Object position along y                                    [pixel]
#   5 X_WORLD                Barycenter position along world x axis                     [deg]
#   6 Y_WORLD                Barycenter position along world y axis                     [deg]
#   7 A_WORLD                Profile RMS along major axis (world units)                 [deg]
#   8 B_WORLD                Profile RMS along minor axis (world units)                 [deg]
#   9 THETA_WORLD            Position angle (CCW/world-x)                               [deg]
#  10 FWHM_WORLD             FWHM assuming a gaussian core                              [deg]
#  11 ELONGATION             A_IMAGE/B_IMAGE                                           
#  12 ELLIPTICITY            1 - B_IMAGE/A_IMAGE                                       
         1 -12.4647     75.2745     51.5629   7.9945338205e+01   5.7349779508e+01     1.347016    0.8076723 -45.66  0.006488384    1.747    0.428
         2 -13.2868     42.5636     45.8449   9.0819909876e+01   6.3035385829e+01     1.126904    0.6307936  42.55 0.0008099743    2.432    0.589
         3 -12.0679    124.9708     28.0015   5.6028890570e+01   5.0534537285e+01    0.7893667    0.4595042  43.25  0.002345093    1.609    0.379
         4 -12.9477    116.2243     41.4379   6.3163113272e+01   5.0803339956e+01     1.061802    0.8297297  80.41  0.005332702    1.740    0.425
         5 -11.3996    156.8154     53.1183   5.7678685891e+01   3.9326742097e+01     1.120418    0.4855626 -45.53  0.004070808    2.596    0.615
         6 -12.4211    132.2701     14.6331   4.9638491303e+01   5.0222119885e+01     1.586834    0.5828667  58.46   0.00632902    2.291    0.563
         7 -12.7442    162.4981     28.7549   4.8928824234e+01   4.1177288466e+01    0.9442194    0.4247363  45.31 0.0009430106    2.330    0.571
         8 -11.4265    154.9145     25.0168   4.9026947879e+01   4.3517931832e+01     1.314699    0.5746081  50.95  0.005420594    2.093    0.522
         9 -10.5756    147.5051     16.6593   4.7565248083e+01   4.6265015339e+01    0.5966513    0.5124891 -14.69  0.003498573    1.283    0.221
        10 -12.1908     60.4317     46.8723   8.3808288916e+01   6.0521716403e+01      1.08553    0.5171981 -48.22  0.004794071    2.252    0.556
        11 -11.3041      6.2535     35.3065   1.0396066307e+02   6.8137227193e+01     1.831743    0.3725608 -53.67   0.00708025    3.040    0.671
        12 -10.7725     22.0599      5.0619   8.2769194610e+01   7.1993297181e+01    0.2850417    0.1892776 -34.87  0.000834505    1.491    0.329
        13 -10.9951     14.1535     23.6201   9.5734096442e+01   6.9791180593e+01    0.3635879      0.25815 -29.69 0.0002400125    1.054    0.051
        14 -11.9129     26.0635     27.8657   9.1425151070e+01   6.8028989922e+01    0.4997714    0.4019202   6.97  0.002430708    1.280    0.219
        15 -11.8105     20.2458     22.0051   9.1888063410e+01   6.9567472801e+01    0.7262817    0.2224982 -44.80  0.003256386    2.612    0.617
        16 -12.1622     22.8816     11.5478   8.5662199571e+01   7.0978092163e+01    0.5293933    0.3345789  -5.34  0.002166879    1.448    0.309
        17 -12.6304     17.0206     12.8241   8.9446090480e+01   7.1348950981e+01    0.7746179    0.4840253 -21.33  0.004040354    1.290    0.225
        18 -10.9333    178.7601     21.1770   4.4196719588e+01   3.7945551174e+01    0.5917218    0.3134802  41.60  0.001823276    2.223    0.550
        19 -11.3214    183.1985     25.2311   4.4755201525e+01   3.6379396855e+01    0.6756173    0.3408591  49.61  0.002986741    2.026    0.506
        20 -12.3179    104.5646     12.8921   5.5073731407e+01   5.6891322440e+01    0.5361131    0.4439717 -27.56  0.001932114    1.339    0.253
        21 -11.4989    105.9164     20.6408   5.7865467495e+01   5.5779562839e+01    0.4249291    0.3266477 -24.58  0.000580927    1.369    0.269
        22 -11.0552    214.3501     23.0665   4.0450453532e+01   2.9035197728e+01    0.5636854    0.3801194   8.98  0.002751242    2.419    0.587
        23 -10.3652     87.1647      7.3149   5.7355272387e+01   6.1182794590e+01     0.571386    0.2974357  54.61  0.002833582    1.819    0.450
        24 -11.2831     90.6952     21.0337   6.2307128441e+01   5.9008063109e+01    0.6079773    0.3706524 -22.00  0.002274161    1.663    0.399
        25 -11.2436     86.0912     14.3818   6.0815565970e+01   6.0697287519e+01    0.7325224    0.4184084  13.41  0.002841538    2.094    0.522
        26 -10.9629     41.0358      5.2642   7.3335385999e+01   6.9586687872e+01    0.5037631    0.2520454 -13.28  0.002547659    2.182    0.542
        27 -10.1339     47.2696     18.9194   7.7400641253e+01   6.6921244954e+01    0.3710379    0.2862217   4.58    0.0023951    1.097    0.088
        28 -10.0599     31.9682     12.1990   8.1302839808e+01   6.9872112282e+01    0.2055138    0.1881335  32.98  0.000588931    1.685    0.406
        29 -12.2002     49.0792     12.8436   7.3644682464e+01   6.7474017842e+01    0.7119009    0.3034154  39.03  0.003463204    2.302    0.566
        30 -11.8014     35.6955     17.9157   8.2272227406e+01   6.8592265226e+01    0.6291236    0.3034911 -24.19  0.001829986    2.058    0.514
        31 -12.0182     68.2445     18.0382   6.8478254864e+01   6.3682954512e+01    0.4985698    0.4181266  16.61  0.001963941    1.078    0.073
        32 -12.0818    237.9020     15.5760   3.6493373231e+01   2.4521828014e+01    0.5838847    0.3917984  66.44  0.002469106    1.529    0.346
        33 -11.3788    164.9652     18.0065   4.5213552550e+01   4.1749683186e+01     0.470415    0.2728764  38.95  0.001549767    1.955    0.488
        34 -10.5189    226.1151     15.6708   3.7523625807e+01   2.7146710819e+01    0.4012535    0.2012054 -41.03  0.001639127    1.792    0.442
        35  -9.5357    192.2720     16.1602   4.1094519985e+01   3.5131967421e+01    0.4632249     0.212116  41.57  0.001846792    2.966    0.663
        36 -11.4891    192.8246      7.3235   3.8668165379e+01   3.5894892043e+01    0.6350051    0.4131537  12.30   0.00270542    2.349    0.574
        37 -11.9582    137.7158     23.2245   5.1600629519e+01   4.7997452764e+01     1.173464     0.596324  62.19  0.004339304    1.850    0.459
        38 -11.3416    211.9079      9.7011   3.7387289970e+01   3.1079037687e+01    0.5032923    0.3259194   8.53  0.001654441    2.585    0.613
        39  -9.7622     94.5243     12.0232   5.7345162271e+01   5.9177332318e+01    0.2229514    0.1758291  51.51 0.0004701962    1.251    0.201
        40  -9.3559      4.6264     11.1604   9.5671222026e+01   7.2591041934e+01    0.3418054    0.1377814 -38.35  0.001883785    1.838    0.456
        41 -12.1061    246.1749      6.1653   3.3816579638e+01   2.3765334632e+01     0.646806    0.5250539 -89.11  0.004425772    1.159    0.138
        42 -10.5221    237.4095      6.2350   3.4462418318e+01   2.5646165593e+01    0.3200112    0.1434221 -40.61  0.001216632    1.926    0.481
        43 -10.6534    232.4633      7.3745   3.5091288665e+01   2.6616052100e+01     0.353645    0.2330396 -76.54  0.001457085    1.399    0.285
        44 -10.2969    228.0395      3.7903   3.4626298433e+01   2.7974757916e+01    0.3341793    0.2289702 -52.41   0.00165412    1.299    0.230
        45 -11.1497    218.9159      2.9468   3.5155769891e+01   3.0132314383e+01      0.31398    0.2838115 -76.38  0.001127664    1.100    0.091
        46 -10.1990    223.8096      1.8395   3.4509225403e+01   2.9124788754e+01     0.267102     0.180733  84.20  0.001107407    1.339    0.253
        47 -10.0009    168.9427      9.7497   4.2164734714e+01   4.1572598023e+01    0.3640537    0.1639889  48.06   0.00156314    2.237    0.553
        48  -9.2075    163.4313      9.5268   4.2841592137e+01   4.2972103848e+01    0.2525241    0.1931494  -0.07 0.0008833584    1.592    0.372
        49  -9.0024    162.7128      6.3297   4.1965701010e+01   4.3443497976e+01    0.4512564    0.2112007  34.18  0.001805473    2.965    0.663
        50  -9.9279     65.9817     10.4397   6.5706077498e+01   6.4974961335e+01    0.3063255    0.1652142  44.18  0.000998069    1.749    0.428
        51  -9.7144     62.9136      6.8652   6.5082844222e+01   6.5904828387e+01    0.2817788    0.2122879  10.44  0.001187265    1.118    0.106
        52  -9.1544      1.1264      7.4336   9.6040431809e+01   7.3427716014e+01    0.1893207   0.05164156 -47.38 0.0006113376    2.727    0.633
        53 -10.5405    183.4884      4.7015   3.8965458305e+01   3.8431157389e+01    0.4102356    0.2409644 -29.75  0.002036823    1.811    0.448
        54 -10.1961    153.3563      7.1492   4.3537899772e+01   4.5705214016e+01    0.5987048    0.1824933  68.63   0.00212684    3.027    0.670
        55  -9.4556     78.4896      7.5012   6.0052467438e+01   6.2923606131e+01    0.2371377    0.1151419  51.63 0.0006668143    1.942    0.485
        56 -10.4912     76.7228      3.5733   5.8765459696e+01   6.3640876390e+01    0.3618468    0.2582918   7.39  0.001379825    1.314    0.239
        57 -10.2843     72.6792      2.6881   5.9632379620e+01   6.4508988652e+01    0.5775266    0.2576705  21.85  0.002405364    2.927    0.658
        58 -10.8499    176.6115      5.5542   3.9987978600e+01   4.0052534866e+01    0.3910111    0.2313586  84.49  0.001146134    1.685    0.407
        59 -10.8002    114.3855      3.6324   4.9132404930e+01   5.5468052094e+01    0.4940951    0.2450952  52.24 0.0008906957    1.670    0.401
        60 -10.9764    106.3632      1.8210   5.0139992637e+01   5.7460426531e+01    0.6288168    0.3519108  68.05  0.002127516    1.877    0.467
        61 -11.0809    142.5442      2.5304   4.3664812035e+01   4.8776423018e+01     0.403028    0.2553871  48.14  0.001084607    1.436    0.304
        62 -11.9391    133.9008      2.6880   4.5118997908e+01   5.0881986347e+01    0.4553832    0.2786783  60.98  0.001597199    1.405    0.288
        63  -9.2542    170.1834      3.7346   4.0235012323e+01   4.1811855678e+01     0.222626    0.1111757 -64.34 0.0007934202    2.623    0.619
        64 -10.7842    205.9790      2.3882   3.6126905221e+01   3.3207023653e+01    0.5287211    0.2209788  80.58  0.002311289    2.373    0.579
        65  -9.9409    158.3051      2.1767   4.1283113704e+01   4.4899816049e+01    0.4398641    0.1837276  54.22  0.001928338    2.073    0.518
        66 -11.2576      3.1672      1.8577   9.2077791947e+01   7.4162212264e+01    0.4003963    0.1687102  11.64    0.0021712    2.620    0.618
        67 -10.2246     13.0203      1.8738   8.6153812023e+01   7.3343422012e+01    0.2771883    0.1406512  17.34  0.001244211    1.961    0.490
        68  -9.2244    152.2252      1.3150   4.1843103282e+01   4.6480449213e+01    0.1894037    0.1114089  78.37 0.0005113191    1.661    0.398
        69  -9.6156    122.6739      1.2679   4.6600708792e+01   5.3699630687e+01    0.3910477    0.1048866  65.37  0.001340588    3.371    0.703
        70 -10.1944     82.2400      1.3091   5.6046480263e+01   6.2729361000e+01    0.1983551    0.1007203  51.94 0.0003324274    1.740    0.425
        71  -8.5908     34.2780      1.2696   7.4372003140e+01   7.0995853658e+01     0.116621   0.07215935   3.60 0.0002749114    1.487    0.327
        72  -9.7453    239.8597    146.7026   6.6804880439e+01   4.3788985458e+00    0.2355685    0.1739061 -18.93 0.0007255081    1.255    0.203
        73 -10.5680    143.3223    248.4989   1.0425464327e+02   4.0704478527e+00    0.3096799     0.205617 -30.08  0.001803517    2.108    0.526
        74 -10.9754    249.6318    142.8987   6.4343460801e+01   3.2529722763e+00    0.6344269    0.2314137 -34.75  0.002502812    2.402    0.584
        75 -10.7307     33.3785    144.5989   1.1577937148e+02   4.1192263283e+01     0.433489    0.2981424  43.52   0.00217833    1.569    0.363
        76 -10.7146    133.3680    141.3353   8.8306924760e+01   2.7012715340e+01    0.3507615    0.3009629 -70.83   0.00175773    1.290    0.225
        77 -10.5207     22.9567    127.0208   1.1637633658e+02   4.6355014207e+01    0.3354382    0.1778562  36.58 0.0003191127    2.113    0.527
        78 -11.6657     23.7532    135.1298   1.1717513621e+02   4.4332246979e+01    0.9130771    0.3642784  42.48  0.004198113    2.693    0.629
        79 -12.3519     30.0886    132.9037   1.1516490998e+02   4.4328757040e+01    0.4845783    0.3013036 -65.76 0.0003077269    1.326    0.246
        80  -9.9354     80.1583    136.6255   1.0169827909e+02   3.7498063111e+01    0.4480532    0.3003101 -24.49  0.002004157    2.141    0.533
        81 -10.3569     67.4518    135.6919   1.0511029846e+02   3.9514154331e+01    0.3723766    0.2151587 -44.67 0.0009342488    1.814    0.449
        82 -10.2149     47.3748    135.7273   1.1076662380e+02   4.1931688024e+01    0.4780909    0.1584176 -62.90  0.001371179    2.487    0.598
        83 -10.4867     39.7415    137.6262   1.1315632182e+02   4.2265165286e+01     0.246965    0.2302185  86.28 0.0006551076    1.127    0.113
        84  -9.2102    216.2126    136.3470   6.8665356943e+01   1.0706401258e+01     0.352885    0.1684158 -23.48   0.00124161    2.840    0.648
        85  -9.1789    192.4488    136.4808   7.3382610368e+01   1.5619170086e+01    0.1524534    0.1429727 -15.50 0.0001502373    1.011    0.010
        86 -10.6627     93.0501    129.8297   9.6654578585e+01   3.7139811627e+01    0.4765755    0.2996952 -70.59  0.002056802    1.877    0.467
        87  -9.2893     87.3067    135.3417   9.9434127272e+01   3.6721863361e+01    0.1510749      0.11076 -28.31 0.0005209059    1.687    0.407
        88  -9.3254    107.4972    145.9804   9.6073806064e+01   3.0787630740e+01    0.2161865    0.2015408  47.94 0.0003851331    1.092    0.084
        89 -10.4752     74.2234    132.6687   1.0262231223e+02   3.9329652517e+01    0.3078864    0.2198686 -37.64  0.001532878    1.555    0.357
        90 -10.2358     62.1622    132.0802   1.0597247185e+02   4.1090905907e+01    0.4158725    0.3200842 -29.22  0.002225947    1.563    0.360
        91  -9.5368     39.3317    132.8697   1.1258908547e+02   4.3469030695e+01    0.2152815    0.1702708  55.10 0.0005318943    1.368    0.269
        92  -9.3964    103.5243    130.9553   9.3945673823e+01   3.5079991090e+01    0.2695365    0.2108609  17.86 0.0007448811    1.524    0.344
        93 -11.0453     10.7426    126.9957   1.1975312636e+02   4.7253964231e+01    0.4593097     0.192048 -57.98 0.0008183525    1.936    0.484
        94 -10.4738     81.9549    125.5148   9.8935762964e+01   3.9950400915e+01    0.4108736    0.2839104 -23.85  0.001165465    1.935    0.483
        95  -9.7443    241.9953    127.7560   6.2187902622e+01   7.1319259981e+00    0.1681066    0.1200235  45.64 0.0004661973    1.576    0.366
        96  -9.5564      2.4534    126.1731   1.2190487654e+02   4.7968417570e+01    0.2639655    0.1481798  74.08  0.001149562    1.877    0.467
        97 -10.0379      4.2418    121.3566   1.2091756382e+02   4.9000019091e+01    0.3795383    0.1728569 -70.40    0.0017403    1.656    0.396
        98 -11.6841      2.3108    111.9607   1.2041418940e+02   5.1326454753e+01    0.4705369    0.3041931  65.50  0.002060107    1.735    0.424
        99 -11.4395      3.8985    105.7186   1.1918939306e+02   5.2712572021e+01    0.4255182      0.34924 -84.13  0.002392915    1.143    0.125
       100 -10.6626     55.5924    123.5339   1.0635042227e+02   4.4002287943e+01     0.509122    0.3665693 -23.43  0.002340002    1.782    0.439
       101  -9.4648     41.4837    148.9968   1.1422075663e+02   3.9322081996e+01    0.2035411    0.1845611  45.42 0.0003422363    1.256    0.204
       102 -10.1021     18.8631    123.0280   1.1701600570e+02   4.7632978740e+01    0.3836635    0.1323675 -65.54 0.0009246608    2.171    0.539
       103  -9.1912    224.0934    126.8522   6.4998348435e+01   1.0800908555e+01    0.2186068    0.1841367 -52.54  0.000506381    1.309    0.236
       104  -9.4159     66.8574    124.3579   1.0315595304e+02   4.2385817953e+01    0.3422754    0.2120064 -13.77  0.001396351    2.830    0.647
       105 -11.9840    104.1440    122.1567   9.1736910917e+01   3.7071306959e+01    0.4768647    0.4119526 -43.29 0.0009279093    1.120    0.107
       106  -9.7436     49.3389    123.0951   1.0813266823e+02   4.4824221113e+01    0.2990696    0.2113055 -25.60  0.001224409    1.799    0.444
       107 -11.0801     45.5276    120.0339   1.0873841208e+02   4.5986718734e+01     0.589623     0.341085  84.82  0.002584378    2.436    0.589
       108  -9.6855     94.1745    123.2476   9.4866857354e+01   3.8545221494e+01    0.2015984    0.1721745 -85.24  0.001034288    1.303    0.233
       109  -9.3549     71.6947    120.7857   1.0098572693e+02   4.2604800712e+01    0.2312557    0.1623767 -43.58 0.0007042116    1.401    0.286
       110  -9.2314    221.2391    120.4197   6.3966660432e+01   1.2521645181e+01    0.1863782     0.145422  63.81  0.000591541    1.573    0.364
       111  -8.8681    148.4018    119.8011   7.9239268577e+01   2.8679950509e+01    0.2308693    0.1474877 -31.92 0.0009445242    1.700    0.412
       112 -10.6027     33.1396    119.3274   1.1233216279e+02   4.7364738241e+01    0.2975725    0.2454024 -81.91  0.001505246    1.129    0.115
       113  -9.5910    185.3744    118.8078   7.0483490262e+01   2.0621419291e+01    0.2299227     0.143245 -28.86 0.0009539478    1.701    0.412
       114  -8.8696     13.6733    118.7466   1.1795403490e+02   4.9028071184e+01    0.1209838   0.07917296 -45.41 0.0002169333    1.549    0.354
       115  -9.6224    113.6791    115.8779   8.7470375044e+01   3.6767733128e+01    0.2618562    0.2192993  18.69 0.0007001927    1.330    0.248
       116  -9.9117     94.5201    112.1067   9.2106853710e+01   4.1152925854e+01    0.3758329    0.3020706  39.73  0.001909398    1.321    0.243
       117 -10.7717    107.4635    111.8846   8.8225905980e+01   3.8878270041e+01    0.6145445    0.3946842 -71.83  0.002440593    2.275    0.560
       118 -11.0033    102.4975    109.4183   8.9043094523e+01   4.0371696954e+01    0.6434534    0.5214832   4.54  0.002534316    1.476    0.323
       119  -9.3038     79.4705    113.9959   9.7130989512e+01   4.3129521341e+01    0.3069824    0.1655869 -44.21  0.001304271    1.803    0.445
       120 -11.2382     79.3802    108.3307   9.5822159093e+01   4.4506347326e+01    0.7382793     0.397046  35.55  0.002218319    2.008    0.502
       121 -10.4937     90.0026    104.4827   9.1546884751e+01   4.3717458962e+01    0.4594968    0.3585791   1.09  0.001534626    1.580    0.367
       122 -10.5651     85.8745    103.8672   9.2674504030e+01   4.4544009981e+01    0.4642243    0.3118078 -13.67  0.001121974    2.158    0.537
       123  -9.1875     67.6375    114.3177   1.0085126829e+02   4.4742559294e+01    0.3244917    0.2496247 -85.74  0.001675369    1.502    0.334
       124  -9.9137     67.1539    110.5569   1.0017869669e+02   4.5722277062e+01    0.3408433     0.234196  21.06  0.001691329    1.734    0.423
       125  -7.4599     26.4317     86.7461   1.0867575406e+02   5.5734380853e+01    0.8841465    0.5944955 -78.85  0.004917096    1.592    0.372
       126 -11.4016     42.1488     93.8087   1.0469477151e+02   5.2679719240e+01    0.3939268    0.2969662  82.17  0.001291704    1.698    0.411
       127 -11.5093      9.3626     97.0700   1.1628961549e+02   5.4449153216e+01    0.6520776     0.457357  85.89  0.001222248    1.514    0.340
       128 -11.9502      6.9638     88.5906   1.1577005705e+02   5.6562313962e+01    0.5330509    0.4405481  46.80  0.002258912    1.509    0.337
       129 -11.2162     35.4430     93.0259   1.0683198660e+02   5.3502653449e+01     1.355315    0.6123656 -70.46  0.005745977    2.369    0.578
       130 -12.1642     42.3284     85.4269   1.0270907767e+02   5.4625867967e+01     1.078147    0.4223889  23.63  0.004453914    3.058    0.673
       131 -11.6896     17.1124    101.0089   1.1440176231e+02   5.3037486263e+01    0.2660636    0.2364458 -64.07 0.0003851327    1.111    0.100
       132 -11.9209     18.7385    106.1271   1.1468283127e+02   5.1704939501e+01    0.2654391    0.2066607 -56.89  0.000235909    1.108    0.098
       133 -11.8593     25.1195    113.6133   1.1386045422e+02   4.9428586255e+01    0.9752141    0.3340025  15.79  0.003701037    4.386    0.772
       134 -12.5977     25.2360    107.0318   1.1278862902e+02   5.1007840544e+01     1.030516    0.7358428 -21.53  0.005250642    1.717    0.418
       135 -11.6122     22.3743     94.9479   1.1165142662e+02   5.4109730783e+01    0.4995813    0.3192539  13.89  0.001871611    1.952    0.488
       136 -12.2028     18.2469     89.8062   1.1212496529e+02   5.5608027841e+01    0.5333412    0.2265901 -56.11  0.000543269    1.759    0.432
       137  -9.1445    126.7485    113.4358   8.3206402234e+01   3.4710227449e+01    0.2127971    0.1519471  29.43 0.0006719573    1.556    0.357
       138  -9.7550     48.7226    112.3711   1.0635331480e+02   4.7521829953e+01    0.2391947     0.208118 -75.80  0.001403515    1.116    0.104
       139 -11.0325    170.3459    110.4980   7.1575866880e+01   2.5690789780e+01    0.4674866    0.3965842 -24.61  0.001394893    1.193    0.162
       140 -10.0501    120.2597    109.6385   8.3983280290e+01   3.6894939896e+01    0.3110397    0.2094324 -47.60  0.001373471    1.448    0.310
       141  -9.4982     58.4665    108.4089   1.0246344372e+02   4.7360083037e+01    0.2767477    0.1257739 -60.07 0.0006035431    1.974    0.493
       142 -10.4044    157.4071    106.5265   7.3490505107e+01   2.9471827924e+01    0.4254448    0.3177534   5.93  0.001584569    1.776    0.437
       143 -10.6163    143.8219    106.1216   7.6722624744e+01   3.2633231739e+01    0.3585965    0.3093587  84.83  0.001353843    1.412    0.292
       144 -11.6036    145.5929    100.4841   7.4694781872e+01   3.3418930621e+01    0.5929686    0.5088455 -15.10  0.002036862    1.244    0.196
       145  -9.1441    167.2014    105.1482   7.0838627212e+01   2.7490516874e+01    0.2136227    0.1899151 -80.52 0.0006266065    1.311    0.237
       146  -9.7216     57.4114    103.1801   1.0165836376e+02   4.8751959777e+01    0.3329992    0.1556301 -56.76  0.001430593    1.848    0.459
       147  -8.9982     82.4179    102.5015   9.3413700441e+01   4.5418995013e+01    0.1490411    0.1336789 -40.84 0.0001131588    1.033    0.032
       148  -9.3817     50.7649    101.9621   1.0357266370e+02   4.9820563096e+01    0.2702874    0.1591075 -50.33 0.0009154016    1.461    0.316
       149 -10.8829     51.9828     95.6408   1.0174970439e+02   5.1192423248e+01    0.7947916    0.4512928 -84.26  0.003101182    3.112    0.679
       150 -10.1559    210.3987     98.2704   6.0372880825e+01   1.8791136062e+01    0.6071126    0.3905018   1.07  0.002372733    2.647    0.622
       151  -9.4229    120.7782    101.1971   8.1513251569e+01   3.8671174440e+01    0.2235691    0.1858462  -8.70  0.001072485    1.362    0.266
       152 -11.6528     67.1535     95.2562   9.6534951989e+01   4.9375664009e+01    0.4864159     0.446355   7.57  0.001579565    1.184    0.155
       153 -11.0767     89.8146     89.5083   8.7491101267e+01   4.7174730920e+01    0.8019822    0.3979041 -33.77  0.003033043    2.367    0.577
       154  -9.5455     80.7207     98.4189   9.2895214533e+01   4.6641814441e+01    0.2925083     0.218443  -3.31 0.0009198731    1.694    0.410
       155  -9.2634     77.3089     96.9491   9.3615332535e+01   4.7510850306e+01    0.2500226    0.2234963 -19.91 0.0005752189    1.138    0.121
       156 -10.0742     82.7983     93.3844   9.0863237568e+01   4.7473178845e+01    0.3416767    0.2545246  30.08  0.001081617    1.451    0.311
       157 -10.9393     76.5774     92.9873   9.2798081288e+01   4.8539115557e+01    0.5590769    0.4051766  12.86  0.001807146    1.661    0.398
       158 -10.0423     57.4909     97.9482   1.0043161823e+02   4.9993338376e+01    0.2336805    0.1940583  -4.76 0.0009276351    1.376    0.273
       159 -10.3093    117.4043     93.5911   8.0281193119e+01   4.1022710481e+01     0.545099    0.4244488  14.44  0.002302257    1.510    0.338
       160 -10.7673    120.7727     89.2438   7.8026276832e+01   4.1239185863e+01    0.4107706    0.3215811 -24.62  0.001425669    1.338    0.252
       161 -11.1555    121.2109     85.3845   7.6727436918e+01   4.1944594973e+01    0.5207312    0.3714289  60.97  0.002325147    1.722    0.419
       162 -10.6594    125.9899     93.6747   7.7888870751e+01   3.9192814944e+01    0.5283467      0.39365 -43.01  0.002110536    1.314    0.239
       163  -9.8929    122.3204     93.6740   7.8909934525e+01   3.9976537190e+01    0.2976023     0.227816 -58.47 0.0006534256    1.476    0.322
       164  -9.5002    141.6076     95.9565   7.4406551259e+01   3.5259311737e+01    0.3999958    0.2029372  38.36  0.001474771    2.171    0.539
       165  -9.3617    160.5477     93.5311   6.9107298384e+01   3.1347710527e+01    0.4984448    0.2825435  73.37  0.001586643    3.484    0.713
       166 -10.7439    152.2017     91.6372   7.0521796449e+01   3.3685118759e+01    0.5473471    0.4565527  68.69  0.002547538    1.370    0.270
       167 -11.4657    102.0296     90.2993   8.3878831706e+01   4.4785372744e+01    0.9104367     0.636993 -20.67  0.004074653    1.708    0.414
       168  -9.4353    102.6587     80.1933   8.0596811831e+01   4.6815955258e+01    0.3436208    0.1689209 -39.01 0.0009027313    1.987    0.497
       169 -10.0949    104.4392     75.9398   7.8687458562e+01   4.7333771644e+01      0.41428    0.3768131  81.90  0.001696468    1.374    0.272
       170 -11.1535    113.6485     83.6017   7.8352049216e+01   4.3903983850e+01    0.4387092    0.3781482 -46.19  0.001384391    1.179    0.152
       171  -9.2581    137.9721     93.0667   7.4499406166e+01   3.6675280604e+01    0.2691856     0.196588   6.28  0.001138762    1.857    0.461
       172  -9.6487    200.2942     88.3462   5.9570807164e+01   2.2852480864e+01       0.3404    0.2450784 -68.75  0.001548525    1.761    0.432
       173  -9.8590     66.7480     88.6375   9.4937183794e+01   5.0965676087e+01    0.3374682    0.2270712 -13.81  0.001203172    1.935    0.483
       174 -10.4372     67.1425     81.9492   9.2939364957e+01   5.2423686221e+01    0.4462783    0.3590592  10.77  0.002455982    1.365    0.267
       175 -11.4887     73.5460     77.9479   8.9511576985e+01   5.2364571129e+01    0.7007697    0.4715673 -24.01  0.003378347    1.641    0.391
       176 -10.7121     80.7286     83.7123   8.8779765667e+01   4.9977537372e+01    0.5008678    0.3188575 -41.83  0.002127994    1.445    0.308
       177 -10.4119     77.4506     81.2478   8.9157226355e+01   5.1041083429e+01    0.5278236    0.2279581 -47.65  0.001692484    2.114    0.527
       178 -10.4662    183.7992     85.7250   6.1944830840e+01   2.7237998683e+01    0.7893127     0.319122 -47.42    0.0026378    2.765    0.638
       179 -10.5234    165.7196     83.6198   6.5081334977e+01   3.1989358105e+01    0.4571744    0.3563628 -51.73  0.001434891    1.352    0.261
       180 -11.4125    142.6820     84.0133   7.0587564481e+01   3.7402234919e+01     0.539496    0.4014876  41.75  0.001121111    1.359    0.264
       181 -10.9128    127.3813     79.7228   7.3254447840e+01   4.1729386398e+01     1.065818    0.2974711 -43.31  0.003064584    3.614    0.723
       182  -9.5661    128.4905     63.9292   6.7827168811e+01   4.4405534723e+01    0.3078313     0.143255 -39.86  0.001168068    2.155    0.536
       183  -9.8342    124.3621     72.7176   7.1837225935e+01   4.3747233502e+01    0.2477195    0.2218143  88.30 0.0007815689    1.367    0.268
       184 -11.6304    122.6187     68.5029   7.0931090138e+01   4.4918729656e+01    0.7840044    0.3809572  43.07  0.003052688    2.070    0.517
       185 -12.6966     52.4063     73.6446   9.5895910195e+01   5.6180877070e+01    0.6002886    0.3128511 -58.25 0.0006768907    1.937    0.484
       186 -11.2858     47.0729     74.5323   9.8150920561e+01   5.6598333811e+01    0.3473713    0.2462318 -58.63            0    1.367    0.269
       187 -10.4686    109.1302     80.6209   7.8758951356e+01   4.5441783560e+01    0.3796686    0.3088065 -17.88  0.001073467    1.282    0.220
       188 -10.3495    232.8911     77.6497   5.1693637707e+01   1.7218972419e+01    0.3808157    0.2285399 -33.31  0.001576581    1.544    0.352
       189  -9.1578    170.3520     77.9925   6.2452188832e+01   3.1878099103e+01    0.2180723    0.2030156 -32.10 0.0005892397    1.063    0.060
       190  -9.4684    175.0556    246.5025   9.7907952081e+01  -5.1996633923e-01    0.1984493    0.0995594  36.85 0.0009601951    1.619    0.382
       191 -10.7632     85.6185     73.6768   8.4020419451e+01   5.1302535909e+01     1.272905    0.7097725  20.70  0.005099208    2.486    0.598
       192 -10.9559     79.7596     67.7237   8.4071521043e+01   5.3513173131e+01    0.5386325      0.41574  38.06    0.0020989    1.400    0.286
       193 -10.6858     84.1268     64.0302   8.1302515750e+01   5.3497195307e+01    0.4853693    0.2733358 -26.03  0.001015528    2.050    0.512
       194 -11.6345     91.3229     62.5877   7.8374396090e+01   5.2469885018e+01     1.079616    0.4057223  44.43  0.003919279    2.815    0.645
       195 -10.6970     91.9867     57.9225   7.6498331663e+01   5.3207997315e+01    0.4334023    0.3686724  50.87  0.002368189    1.370    0.270
       196 -10.7545     87.5919     57.2101   7.7707196535e+01   5.4159633505e+01    0.5692307    0.2307933 -36.21  0.001885482    2.434    0.589
       197 -11.6995     14.0195     74.6894   1.1071891943e+02   5.9359171064e+01    0.4460584    0.2971277 -66.12  0.001890292    1.292    0.226
       198 -11.6541      1.9740     71.2672   1.1457669214e+02   6.0754363274e+01    0.5699753    0.1492001 -64.60  0.002391384    2.634    0.620
       199 -12.3793      6.1624     62.7750   1.1124711267e+02   6.2439844912e+01    0.7294583    0.3633676 -35.04  0.003997369    1.858    0.462
       200  -9.4154    134.8210     77.6000   7.0609085439e+01   4.0453403763e+01    0.2231682    0.1497613  60.84 0.0009515603    1.746    0.427
       201  -9.7378    192.4288     65.7395   5.4790457490e+01   2.8512841830e+01    0.2820066    0.2347833 -81.78 0.0007893802    1.316    0.240
       202 -12.2343    186.4033     70.4171   5.7156528943e+01   2.9233617745e+01     1.008054    0.6618008 -37.69  0.003666913    1.478    0.323
       203 -10.4985     64.7448     75.3679   9.1859884197e+01   5.4208191327e+01    0.4047736    0.2589274  -6.32 0.0005817403    2.158    0.537
       204 -11.3568     58.0090     77.8396   9.5031023198e+01   5.4563392410e+01    0.6576447    0.3450798 -67.00 0.0003908813    2.770    0.639
       205  -9.9679    184.1727     60.9002   5.4845401421e+01   3.1305109676e+01    0.3303068    0.2539993 -67.91  0.001186197    1.470    0.320
       206 -10.0264     13.1177     47.2353   1.0436191381e+02   6.5352401127e+01     0.405257    0.1521198 -38.51  0.001917379    2.234    0.552
       207 -10.1860     17.7757     41.4980   1.0045511849e+02   6.6190315776e+01    0.3533772    0.2044105 -18.15  0.002004885    1.777    0.437
       208 -10.5671     22.5752     37.0277   9.6656594375e+01   6.6678864423e+01    0.5044377    0.2609282  42.88   0.00245856    3.159    0.683
       209 -12.1188     21.5329     46.8865   1.0046730758e+02   6.4838035919e+01    0.5441043    0.4144456 -21.96  0.002153199    1.190    0.159
       210  -9.1126    199.2615    244.4598   9.3034637400e+01  -3.9158376198e+00    0.1733149   0.09783581  42.59 0.0008534582    1.715    0.417
       211 -11.9558     40.5311     70.4606   9.9519062250e+01   5.8188796076e+01    0.9223511    0.2736142 -47.28  0.003537499    2.650    0.623
       212 -11.4031     32.4854     72.0977   1.0306773231e+02   5.8584482818e+01     0.525815     0.266656  23.76  0.002084914    2.274    0.560
       213 -10.6781     20.4679     55.5230   1.0350361994e+02   6.3137601851e+01    0.6277913    0.4062859  78.49  0.002587478    3.208    0.688
       214 -11.7333     27.3799     54.5169   1.0025806083e+02   6.2809364270e+01    0.9380161    0.5656078  -4.74  0.004885489    1.949    0.487
       215 -11.1213     41.0009     56.9902   9.5303826251e+01   6.1005082521e+01    0.4260655    0.3255821  53.39  0.001893386    1.925    0.480
       216 -11.5642     50.8421     61.2073   9.2691015768e+01   5.9017876187e+01    0.3409261    0.3355663 -80.88  0.001104483    1.317    0.241
       217 -11.4939     46.1227     58.6727   9.3755518939e+01   6.0095205962e+01    0.5271888    0.2806587 -40.89  0.002616508    1.602    0.376
       218 -11.4145     33.5916     58.2497   9.8767115730e+01   6.1482013518e+01    0.5551208    0.3012956  -7.27 0.0007630216    2.531    0.605
       219  -9.4233    152.4757     73.0410   6.4868378566e+01   3.7113328595e+01    0.3677611    0.1798881  36.49  0.001287098    2.584    0.613
       220  -9.9643    161.9992     70.7993   6.2072166885e+01   3.5180589877e+01    0.3344956    0.2757095  80.34  0.001137886    1.400    0.286
       221 -10.0804     14.5243     67.4352   1.0895511812e+02   6.0953327997e+01     0.330698     0.262036 -15.01  0.002104779    1.368    0.269
       222  -9.8842    172.4716     68.5082   5.9235971802e+01   3.2983683382e+01    0.3572383    0.2850671  16.53  0.001083523    1.511    0.338
       223  -9.7732    172.0196     65.1760   5.8337951531e+01   3.3643651749e+01     0.538355    0.5040474   0.57  0.002918801    1.135    0.119
       224 -11.4361    220.0996     66.3399   5.0671709613e+01   2.1836134472e+01    0.6515952    0.3927006  55.96  0.002595846    1.745    0.427
       225 -10.8064     21.1294     65.6431   1.0590338350e+02   6.0912973309e+01    0.2563677    0.2123395 -82.29 0.0003828193    1.456    0.313
       226  -8.2924     25.5634     65.4930   1.0408706971e+02   6.0615586919e+01     0.262313    0.1511847 -33.36  0.000528561    1.634    0.388
       227 -10.4901     59.5067     63.9802   9.0229876378e+01   5.7335619937e+01    0.4956975    0.2268246 -40.01  0.001637681    1.984    0.496
       228 -10.0714     57.3171     61.2951   9.0185156484e+01   5.8177778556e+01    0.2518516    0.1918581 -26.80 0.0006276949    1.181    0.154
       229  -9.6559     53.1494     66.0405   9.3328228149e+01   5.7727705689e+01    0.2544147    0.1839075  42.94  0.001146558    1.717    0.418
       230  -9.9417    202.4382     64.6766   5.2865891650e+01   2.6251018516e+01    0.4196028    0.2231009  65.89 0.0001276646    2.062    0.515
       231  -9.5588    197.7118     62.3352   5.2980825840e+01   2.7756217205e+01    0.2552497     0.221017 -84.52 0.0009272306    1.206    0.171
       232 -11.4033    234.2551     61.2060   4.7528651394e+01   1.9413132741e+01    0.5717654    0.4355214  73.94  0.002562164    1.412    0.292
       233 -10.3860    159.3698     62.1163   5.9968130742e+01   3.7280817434e+01    0.5757298    0.2754137  45.68  0.002205821    2.132    0.531
       234 -11.3554    127.8616    241.7624   1.0642718660e+02   7.5274521063e+00    0.3614382    0.3229857  57.39   0.00253018    1.125    0.111
       235 -11.5629    121.5286     59.9353   6.8334237229e+01   4.6682708971e+01     1.067735    0.5249043  38.20  0.004131855    2.202    0.546
       236 -10.8897    117.4190     56.1021   6.8131229673e+01   4.8252355386e+01     0.558588    0.4276702  43.90  0.001638816    1.282    0.220
       237 -11.7623    115.0175     49.1955   6.6331440890e+01   4.9907284052e+01    0.8286304    0.3844188  40.05  0.002204411    2.218    0.549
       238  -9.6165     68.0089    240.4835   1.1776950509e+02   1.6292634275e+01    0.1740777   0.09715209  40.46  0.001027078    1.580    0.367
       239 -12.7701    119.5938     37.6563   6.0888613308e+01   5.0561632608e+01    0.8146052    0.6163957 -86.46  0.003071262    1.955    0.488
       240  -9.6027    148.2485     60.6986   6.1944565839e+01   4.0249378777e+01    0.4376611    0.1402328  56.40  0.001347962    3.248    0.692
       241 -10.2814    134.5759     50.7254   6.1825539174e+01   4.5139017444e+01    0.3578216    0.2748768 -85.63  0.001690563    1.798    0.444
       242 -10.6515    136.5548     56.4272   6.3278179854e+01   4.3770230977e+01    0.6657172    0.4482708   3.16  0.002611309    2.071    0.517
       243 -11.5728    145.7381     46.8545   5.7979070975e+01   4.3001127595e+01     1.112449    0.4150136 -25.75  0.003696569    3.238    0.691
       244 -10.6447    105.6911     58.2788   7.2300386115e+01   5.0410555505e+01    0.4341394    0.2734964  44.92  0.002008259    1.596    0.373
       245 -11.0998    148.6329    237.8549   1.0184503827e+02   4.9311720250e+00    0.5178999    0.1973923  44.09  0.002289215    2.271    0.560
       246 -10.5140    162.2382     45.0665   5.4079406555e+01   3.9140215906e+01    0.5411661    0.4405438  10.01  0.002792283    1.442    0.307
       247 -11.0633    137.9307     33.5323   5.5137642661e+01   4.6726223645e+01    0.5623061    0.3733051 -60.05  0.001676689    2.017    0.504
       248 -10.6837    198.3112    232.7307   9.1380995281e+01  -2.1540883743e+00    0.3203489    0.2940393 -26.98  0.002217329    1.360    0.265
       249  -9.5341    205.2904    233.9942   9.0260362590e+01  -3.4055749378e+00    0.1698677    0.1378333  15.36 0.0005317781    1.026    0.025
       250  -9.5201     15.2323    233.7421   1.2676472873e+02   2.3576474286e+01    0.1954635    0.1185704 -75.73  0.001041055    1.586    0.369
       251 -10.2677    247.3526    231.5213   8.2218693567e+01  -9.1640663553e+00    0.2129403    0.1270458 -22.49 0.0008088402    1.567    0.362
       252 -11.1944    155.7953     42.0015   5.4336620910e+01   4.1180917904e+01    0.4070133    0.3814764  53.86    0.0010548    1.021    0.020
       253 -11.7511    153.1421     35.9688   5.2896867246e+01   4.2643713163e+01    0.4287789    0.3029929  70.13 0.0003803097    1.455    0.313
       254  -9.7836    187.6858     55.5505   5.2722197416e+01   3.1247877298e+01    0.2754768    0.2300016  50.22 0.0008415421    1.228    0.186
       255 -10.0183     68.1235     33.0596   7.5215169366e+01   6.1626296060e+01    0.4907911     0.309094  36.37  0.002612419    1.578    0.366
       256  -9.5235     65.1083     28.4898   7.4396513431e+01   6.2809130177e+01    0.2203657    0.1571488  35.84 0.0006692848    1.418    0.295
       257 -10.2521     66.9745     54.6903   8.4181106185e+01   5.8100600221e+01    0.3234785    0.2112046 -48.74  0.001047347    1.618    0.382
       258  -9.7101     59.5068     24.0054   7.4603250802e+01   6.4361546672e+01    0.2503079    0.1650708 -19.59 0.0004410013    1.393    0.282
       259 -10.2575     60.4324     19.9963   7.2383371553e+01   6.4762536986e+01    0.2604288     0.223495 -54.74  0.001106348    1.821    0.451
       260  -9.5729     23.3736    231.5634   1.2523830291e+02   2.3164944509e+01    0.1862339   0.08209795  42.65 0.0006430201    1.913    0.477
       261 -11.4231     60.8534     36.5493   7.9524468918e+01   6.2237707998e+01    0.4813541    0.2880433 -46.00  0.001270196    1.905    0.475
       262 -11.2941     57.6431     30.4742   7.8242416796e+01   6.3692230018e+01    0.4798266     0.290514   0.29  0.002371396    2.004    0.501
       263 -11.4998     48.8529     30.4216   8.1930988203e+01   6.4962534987e+01    0.6278732    0.2722783  30.11   0.00283727    2.423    0.587
       264 -10.7947    245.2948     51.1652   4.3885806994e+01   1.8442935951e+01    0.4370073    0.2298958  85.72   0.00194297    2.584    0.613
       265 -10.8011    240.5299     49.9345   4.4117983867e+01   1.9638952933e+01    0.3693074     0.280652 -21.04  0.001364286    1.504    0.335
       266  -9.5540    212.2393     53.0263   4.8346374821e+01   2.5646579603e+01      0.25501     0.180329 -89.60  0.001240586    1.600    0.375
       267 -10.9193    201.9080     49.7288   4.8919796666e+01   2.8597624282e+01    0.7022115    0.3817806 -35.12  0.003086246    1.771    0.435
       268 -10.8515    200.0344     45.0214   4.7915664491e+01   2.9709212607e+01    0.5693738    0.2761843  73.92  0.002287374    2.399    0.583
       269 -11.0111    174.1073     48.0220   5.2835653710e+01   3.5737746389e+01    0.5940387    0.4488321  82.94  0.002957206    1.463    0.316
       270  -9.5871    176.5004     43.4920   5.1080858522e+01   3.5767175871e+01    0.3345398    0.2232523  81.25  0.001457592    1.712    0.416
       271 -10.4475     91.1688     47.8967   7.3050719466e+01   5.5104350272e+01    0.3261798    0.2199746 -37.22 0.0009325653    1.482    0.325
       272  -9.7024      2.5112     48.6300   1.0948041412e+02   6.5634867020e+01    0.2458683     0.189868  -4.49  0.001728211    1.457    0.313
       273  -9.7224    194.4898     46.5495   4.9133778944e+01   3.0859521503e+01    0.4665828    0.2451159  88.86  0.001701612    3.054    0.673
       274 -10.9342    136.9800     44.8974   5.9266768259e+01   4.5424797064e+01    0.8764134    0.2429018  48.08  0.002732078    3.333    0.700
       275  99.0000     94.2059     76.3589   8.2050603390e+01   4.9212036086e+01     2.153897     1.192827  -5.45  0.005656503    6.006    0.834
       276  -9.5910    234.3217     43.7079   4.3331032589e+01   2.1851374867e+01    0.3952408    0.1608237 -35.76  0.001697263    2.177    0.541
       277  -9.7857    231.5302     38.5893   4.2414630767e+01   2.3152053279e+01    0.3034926    0.2070961 -42.38  0.001673328    1.326    0.246
       278  -9.7488    228.2063     37.1483   4.2425706752e+01   2.4090903042e+01    0.2333472    0.1873179  87.41 0.0007528493    1.221    0.181
       279  -9.2057    101.4961     44.5114   6.8503366409e+01   5.3562289741e+01     0.203163    0.1386463  57.46 0.0007011151    1.721    0.419
       280 -11.0687     94.4890     41.2890   6.9426031764e+01   5.5497757160e+01    0.7443949    0.3168849  48.60  0.002987627    2.382    0.580
       281  -8.9274    189.9786    229.9851   9.2546403259e+01  -4.4602021424e-01    0.1547842    0.1280681  19.67 0.0006856449    1.013    0.013
       282 -10.0234    167.6151    237.8085   9.8104106174e+01   1.9288842870e+00    0.1518261    0.1219633 -59.76 0.0009484394    1.682    0.405
       283  -9.5422    108.4870    230.0385   1.0888545003e+02   1.2534838016e+01    0.1707081    0.1225107 -64.58 0.0007514287    1.579    0.367
       284  -9.2284    181.0164    228.2230   9.4021227043e+01   1.2564583863e+00    0.1766755   0.09075535  36.77 0.0008732416    1.662    0.398
       285  -9.9074    234.1798    223.0949   8.3082223474e+01  -6.2508316018e+00    0.1980275    0.1381176   6.15 0.0006153488    1.250    0.200
       286  -8.9983    209.4971    223.4722   8.7715473470e+01  -2.5748510933e+00    0.1302853    0.1026651  12.12 0.0002904828    1.064    0.060
       287  -9.6183     10.0367    217.7431   1.2685635104e+02   2.7151730938e+01    0.1527781    0.1141028  71.18   0.00107715    1.054    0.051
       288 -10.4473    189.2146     41.3205   4.8456926264e+01   3.2877844542e+01    0.5887452    0.2365415 -23.43  0.001858403    3.143    0.682
       289 -10.3536     86.1375     30.6857   6.7827430614e+01   5.8695089579e+01    0.4162551    0.2386977 -13.37  0.001914232    2.030    0.507
       290 -10.7517     81.5493     40.0292   7.3218003680e+01   5.8190622115e+01    0.5650967    0.2876722  47.75  0.002520582    2.150    0.535
       291  -9.6468     78.1386     34.9005   7.2315042032e+01   5.9600622107e+01    0.7603284    0.3954498 -28.25  0.003535324    1.900    0.474
       292 -10.5656     81.6622     31.4798   6.9658343957e+01   5.9445202120e+01    0.4224912    0.2989645 -56.61  0.002092436    2.249    0.555
       293  -8.8569    217.6712     39.3155   4.4149137265e+01   2.6244450280e+01    0.1463418   0.09279672 -64.46 0.0006343248    1.677    0.404
       294  -9.8389    193.6274     39.0191   4.7176910182e+01   3.2087773901e+01    0.2527475    0.1975355  67.16 0.0003392244    1.242    0.195
       295 -11.6895    176.1161     35.7848   4.8861001760e+01   3.6880014353e+01    0.7615255    0.5459529  74.85  0.002497079    1.405    0.288
       296 -10.3464    165.1211    212.3752   9.4690894375e+01   6.5026384715e+00    0.2860615    0.1979578  52.84  0.001200387    1.601    0.376
       297 -10.4077    176.9917     29.8988   4.6990874261e+01   3.7387251087e+01    0.5069168    0.1956638  57.79  0.001591851    2.312    0.568
       298  -9.2382    204.5240    208.5038   8.6042941468e+01   4.6393569212e-01    0.1337029    0.1125326  11.67 -2.602595e-06    1.001    0.001
       299  -9.6480    133.1405     37.0102   5.7402651545e+01   4.7442427668e+01    0.3964154    0.2782822 -70.55  0.001813661    2.070    0.517
       300  -9.6204    206.9349     37.0278   4.4870704080e+01   2.9095979174e+01    0.2094869    0.1960594 -79.17 0.0006862061    1.037    0.036
       301  -9.5255     94.7556     36.0691   6.7276563672e+01   5.6214874992e+01    0.2502046    0.1907304  62.23  0.001307702    1.664    0.399
       302  -9.6491    153.1119    207.8363   9.6478432839e+01   9.3805676416e+00    0.2086111    0.1783714  55.80 0.0008006499    1.241    0.194
       303  -9.6075     61.0628    206.9042   1.1614056199e+02   2.3790127447e+01    0.1886743    0.1544888  70.37 0.0005370524    1.018    0.017
       304 -12.2528    105.9367     32.9197   6.2730993991e+01   5.4277344467e+01    0.5543213    0.3250865  17.09  0.001261922    2.283    0.562
       305 -12.2457    113.8470     25.1720   5.7625982388e+01   5.3468067292e+01    0.8406237    0.3796501  51.88  0.002643648    1.976    0.494
       306 -10.6835    239.8563     31.9760   4.0031493031e+01   2.2146244067e+01    0.4054957    0.3835729 -59.66   0.00272427    1.161    0.139
       307  -9.6716    215.9576     33.1539   4.2798936639e+01   2.7437423140e+01    0.3473604    0.2102008  13.58  0.001388217    3.427    0.708
       308 -10.7831    198.1273     28.9120   4.3823854033e+01   3.2249023539e+01    0.5492517    0.3913922 -26.12  0.002383847    1.524    0.344
       309  -9.2115    186.6753     32.6547   4.6379367324e+01   3.4624898231e+01    0.2658239    0.1688731  17.05  0.001145297    2.496    0.599
       310 -10.6063    189.5856     27.6585   4.4580602883e+01   3.4505342606e+01    0.4236093    0.3066899  21.51  0.001361823    1.861    0.463
       311  -8.9929     36.4263     32.1391   8.8242173045e+01   6.6214899208e+01     0.158573    0.1085083 -47.64 0.0004050441    1.580    0.367
       312  -9.3899    199.6900     24.6802   4.2503444758e+01   3.2367424714e+01    0.2123575    0.1605441  49.16 0.0006302486    1.434    0.303
       313  -9.3909    221.5207     29.8409   4.1366556653e+01   2.6547534794e+01    0.1949033    0.1241731 -33.33  0.001018467    1.551    0.355
       314  -9.3159     99.7273     30.3886   6.3499292888e+01   5.5953375666e+01    0.2242525    0.1680209  55.44  0.000705093    1.439    0.305
       315  -9.7510     97.7523     26.5831   6.2531236550e+01   5.6859378254e+01    0.2719342    0.2289671 -40.89  0.001171264    1.406    0.289
       316 -10.1473    230.5917     27.1133   3.9792761436e+01   2.4803942557e+01    0.3414204    0.1950952 -36.47   0.00112176    1.631    0.387
       317 -10.1322    238.2659    204.6954   7.9002542329e+01  -4.3460570712e+00    0.2643217    0.1554897 -22.39  0.001429515    1.618    0.382
       318 -10.9801    211.3079     18.9032   3.9726921015e+01   3.0229783694e+01    0.2287783    0.1990639 -80.98 0.0002987538    1.024    0.024
       319  -9.4272    250.5350     26.4598   3.7846041985e+01   2.0531543225e+01    0.2528433    0.1106394 -32.70  0.001068607    2.133    0.531
       320 -11.3725      6.8716    195.0326   1.2618797988e+02   3.2074479564e+01    0.8548555    0.1174884 -68.84  0.003140545    4.551    0.780
       321 -10.3235     86.0585     23.9435   6.4995786262e+01   5.9595545359e+01     0.197882     0.165717  15.78            0    1.037    0.035
       322 -12.1275      4.8835    184.4389   1.2594123739e+02   3.4504732724e+01    0.5900303    0.4126031  80.84  0.003093657    1.107    0.097
       323 -10.3515     16.8327    202.9043   1.2473599819e+02   2.9525430007e+01    0.2989877    0.1275514 -75.58  0.001622166    2.002    0.500
       324  -9.2935     44.9592     24.3992   8.0981679653e+01   6.6432526707e+01    0.1980876     0.154796 -33.43 0.0005794816    1.336    0.251
       325  -8.5746    207.2861    201.3171   8.4179552448e+01   1.1348877214e+00    0.1366346   0.09386297   1.90 0.0004136415    1.588    0.370
       326  -8.6148      1.3034    200.3125   1.2754600976e+02   3.1443270924e+01    0.1000747   0.07402535 -61.22 0.0004883943    1.614    0.380
       327 -10.4865    234.0797    197.0542   7.8304320669e+01  -2.5949545481e+00    0.3545436    0.2680787  11.22   0.00152312    1.167    0.143
       328  -8.6950    195.3443    199.6678   8.6244111433e+01   3.4463505795e+00    0.1287225    0.1101913  73.92 0.0007050405    1.758    0.431
       329 -10.2757     38.5244     21.9565   8.2819446384e+01   6.7633825729e+01    0.2937672    0.1666878 -24.95  0.001182799    1.578    0.366
       330 -10.6204    245.8040    200.8791   7.6943191956e+01  -4.9459399910e+00    0.1996989    0.1458956   0.92 0.0007011117    1.180    0.153
       331  -9.0247    223.4480     22.0616   3.9286662338e+01   2.7031245952e+01    0.2004127     0.155016  81.74 0.0005742646    1.230    0.187
       332  -8.9352     83.5601    195.9814   1.1006780659e+02   2.3079758068e+01    0.1859134    0.1228821 -67.53  0.000553444    1.519    0.342
       333  -9.3943     74.5069     19.5442   6.6920254268e+01   6.2361857099e+01    0.2329787    0.1711194  -0.03 0.0005547944    1.280    0.219
       334  -9.9167    169.8327    191.5115   9.0046880793e+01   9.4398925134e+00    0.3554712    0.2104808  26.60  0.001137366    1.830    0.453
       335  -9.0783     16.4660    191.5673   1.2406029333e+02   3.1963460709e+01    0.1152325   0.09100981  84.43 3.133661e-05    1.052    0.049
       336  -8.8374      1.4880     20.6002   1.0133508186e+02   7.1152790723e+01    0.1141492   0.08263732 -32.09 0.0003316615    1.020    0.020
       337 -10.1024    239.3553    185.1764   7.5018480293e+01  -1.6610996066e+00     0.389976    0.2215901  -3.48  0.001459273    2.360    0.576
       338  -9.1770    205.4916     17.3499   3.9941225777e+01   3.1790088613e+01     0.228221    0.1149368  71.05  0.001068027    1.865    0.464
       339 -10.2991    250.1803    178.7726   7.1837736117e+01  -2.4241284893e+00    0.4241964    0.1464222 -29.04  0.001614503    3.000    0.667
       340  -9.6860     28.0172    176.1534   1.2039310562e+02   3.4288153494e+01     0.220337    0.1530418 -86.20 0.0009389734    1.199    0.166
       341 -10.2191     52.1463    173.6425   1.1459052100e+02   3.2272994186e+01    0.4596183    0.2086644 -86.97  0.001782115    2.859    0.650
       342 -10.5024    186.3436     15.1598   4.1522234929e+01   3.6699775862e+01    0.2509292    0.2126041  81.03 0.0003409248    1.075    0.070
       343  -8.9571    174.2103     15.8250   4.3255288721e+01   3.9654320272e+01    0.1818409    0.1446704  48.23 0.0004642967    1.278    0.218
       344  -9.8011    231.3466    175.4797   7.4490770853e+01   1.1777461673e+00    0.3822467    0.1252449  39.74  0.001422062    3.114    0.679
       345  -9.7802    247.3155    174.2443   7.1404649158e+01  -1.2855379336e+00    0.4854522    0.2087183  23.51  0.001710191    3.996    0.750
       346  -9.7647     39.4937    173.5038   1.1753226806e+02   3.3726924690e+01    0.2570079    0.1792199  86.44 0.0008330753    1.282    0.220
       347 -10.5400     35.5620    170.1711   1.1810400536e+02   3.4909267706e+01    0.3681128    0.2073423 -85.91  0.001946799    1.652    0.395
       348 -10.4246      8.5570    157.3961   1.2321244705e+02   4.0266293244e+01    0.3237736    0.1817285 -68.22 0.0007117898    1.478    0.323
       349 -11.6786      9.5762    166.9585   1.2373800593e+02   3.8002760883e+01    0.5180423     0.354835  87.93  0.002146078    1.167    0.143
       350 -11.3254     13.7111    159.4308   1.2218614600e+02   3.9396291105e+01    0.4311482    0.2388778 -73.09  0.001512702    1.458    0.314
       351  -9.1962    197.9961    167.7590   7.9326819439e+01   8.5661031988e+00    0.2030624    0.1831118  11.87 0.0007469613    1.041    0.039
       352  -9.8127    188.4983    165.6352   8.0850992991e+01   1.0799948405e+01    0.5677449     0.219582 -31.15  0.001798548    3.554    0.719
       353  -8.7612    156.4879    166.4552   8.8124821628e+01   1.6927475247e+01    0.1483861     0.141755  19.95 0.0002405188    1.004    0.004
       354  -8.7175    152.4033    166.5238   8.9087649774e+01   1.7708937136e+01    0.1464219    0.1414822   6.02 0.0001476649    1.023    0.022
       355 -10.2885     18.8119    164.9732   1.2148841262e+02   3.7692261419e+01    0.2780859    0.2358905 -53.98  0.001918374    1.390    0.281
       356  -9.6109    209.0000    164.0709   7.6318592403e+01   7.1359457975e+00    0.3279284    0.1351501 -40.95  0.001141403    2.391    0.582
       357  -9.9224    205.0296    163.0044   7.6876246089e+01   8.0836274273e+00    0.2658571    0.2185792  14.47 0.0005862039    1.194    0.163
       358  -9.3669     40.2070    162.9996   1.1623133152e+02   3.6105911833e+01    0.3742746    0.1395641 -85.66  0.001247565    4.125    0.758
       359 -10.3204     27.9844    161.8813   1.1905228367e+02   3.7585430102e+01    0.4087694    0.1731177 -63.46  0.001977795    1.991    0.498
       360  -9.3751     78.8783    160.0930   1.0614108449e+02   3.1981909028e+01    0.2265646    0.1768745  77.50  0.001218063    1.332    0.249
       361 -10.1715    246.5100    158.5019   6.8241710470e+01   1.2976302244e+00    0.2892005    0.1182322 -34.86  0.001212838    2.172    0.540
       362  -9.4987    215.1428    158.2617   7.3852626454e+01   7.0003961636e+00    0.2646639    0.1818691 -22.07  0.001302274    1.451    0.311
       363  -9.4096    223.9639    156.7224   7.1848256928e+01   5.6106815134e+00    0.1988039    0.1774989   0.51 0.0005423602    1.051    0.048
       364 -10.1647     21.7159    155.6408   1.1993704576e+02   3.9613763589e+01     0.321916    0.2152268  13.26   0.00179795    2.110    0.526
       365 -12.0418     22.9402    149.1063   1.1896933764e+02   4.1052939805e+01    0.5764202    0.3069583 -39.41  0.001657558    2.565    0.610
       366 -10.5183     15.7514    147.7466   1.2062190584e+02   4.1963835112e+01    0.2887954     0.232765  56.52 0.0009741242    1.311    0.237
       367 -11.5963     12.4985    139.1627   1.2058514606e+02   4.4239216527e+01    0.7582699    0.4245049 -87.20  0.004130715    1.584    0.369
       368 -10.5760    104.5374    153.9718   9.8428208863e+01   2.9402861457e+01     0.356369    0.3403827 -55.52  0.002019843    1.068    0.063
       369 -10.7983     31.8430    153.4029   1.1721018718e+02   3.9224974993e+01    0.4633893    0.3003131  86.25  0.002602648    1.462    0.316
       370 -11.7128      3.9317    147.6251   1.2349476019e+02   4.2855318805e+01    0.7114167    0.3787002 -78.05  0.003266683    1.466    0.318
       371 -11.7534      3.2688    139.4106   1.2294690555e+02   4.4811479246e+01    0.6025289    0.2740829 -77.47  0.003156584    1.725    0.420
       372 -11.1809     63.3513    150.6704   1.0871567246e+02   3.6376160796e+01    0.4668205    0.3433325 -12.51  0.002372618    2.040    0.510
       373 -11.2624     46.7903    148.0096   1.1270204646e+02   3.8993539770e+01    0.7481024    0.3092797 -62.82  0.003289554    2.040    0.510
       374  -9.4278    214.8908    151.1843   7.2325012960e+01   8.3047668214e+00    0.2726536    0.1775121  65.47  0.001150452    2.553    0.608
       375  -9.4252     71.3464    151.2921   1.0669653903e+02   3.5165654389e+01    0.2790522    0.1818443  15.24  0.001303655    2.172    0.540
       376 -10.4397    234.7627    149.4531   6.8295093320e+01   4.8498908019e+00    0.4358391    0.2040123 -28.18  0.001795094    2.170    0.539
