#   1 NUMBER                 Running object number                                     
#   2 MAG_AUTO               Kron-like elliptical aperture magnitude                    [mag]
#   3 X_IMAGE                Object position along x                                    [pixel]
#   4 Y_IMAGE                Object position along y                                    [pixel]
#   5 X_WORLD                Barycenter position along world x axis                     [deg]
#   6 Y_WORLD                Barycenter position along world y axis                     [deg]
#   7 A_WORLD                Profile RMS along major axis (world units)                 [deg]
#   8 B_WORLD                Profile RMS along minor axis (world units)                 [deg]
#   9 THETA_WORLD            Position angle (CCW/world-x)                               [deg]
#  10 FWHM_WORLD             FWHM assuming a gaussian core                              [deg]
#  11 ELONGATION             A_IMAGE/B_IMAGE                                           
#  12 ELLIPTICITY            1 - B_IMAGE/A_IMAGE                                       
         1 -15.9350    221.8542    184.2072   9.6010133340e+01  -2.0421614172e-02     6.076576     4.244682  57.05   0.03037695    1.830    0.454
         2 -19.1488    220.3006     66.1857   6.9949138290e+01   2.2069140816e+01     8.165722     5.424795  62.58   0.03767785    1.506    0.336
         3  -9.4737    150.5749     12.2887   6.6532596143e+01   4.5656694104e+01    0.1545498    0.1251718   3.87 0.0009396254    1.567    0.362
         4  -9.5080    149.3582      7.5520   6.5387737673e+01   4.6375312940e+01    0.1880521    0.1377618  30.47  0.001107911    1.602    0.376
         5 -10.5519    225.4239      7.4012   5.6616638247e+01   2.8780361508e+01    0.1194813   0.09599406 -89.01 0.0003304037    1.081    0.075
         6 -13.2046     62.1229    141.3863   1.2529158153e+02   3.9594321665e+01    0.7270092    0.5688131  12.53  0.001343973    1.652    0.395
         7  -9.5400    192.1088    144.0753   9.3250042574e+01   1.3863159848e+01     0.223622    0.2120285 -61.26 0.0003769733    1.051    0.048
         8  -8.7411    105.4794    143.4489   1.1389051844e+02   3.2219326125e+01    0.1512746    0.1443022 -71.60 0.0001719386    1.014    0.014
         9 -10.0182     11.4328    234.7622   1.4698945647e+02   2.4019775494e+01    0.1515718   0.08442717 -71.30 0.0009491043    1.658    0.397
        10 -13.0829     30.9611    131.5615   1.3223786550e+02   4.5491834948e+01    0.5689526    0.3893207  16.21  0.003241578    1.894    0.472
        11  -9.5763    121.4815    138.4872   1.0855029113e+02   3.0342208653e+01     0.154457    0.1501088 -60.86 0.0003500912    1.033    0.032
        12 -12.1376      9.6716    128.5062   1.3761816356e+02   4.7956250355e+01    0.3391291    0.2846992 -64.59  0.002274299    1.093    0.085
        13 -10.4206    188.8336    129.7903   9.0584034703e+01   1.7559101969e+01    0.3653007    0.2513648 -47.60 0.0008124304    1.413    0.292
        14 -10.6282    112.0584    131.7273   1.0948355877e+02   3.3784968875e+01    0.4064388    0.2103801 -67.90  0.001352975    3.038    0.671
        15 -11.2342    116.1758    127.7797   1.0743503588e+02   3.3908099970e+01    0.3605752    0.2478748 -75.09 0.0009434874    1.926    0.481
        16 -14.7631     72.5291    136.9448   1.2156218165e+02   3.9228509827e+01     1.901196     1.693607  -1.73  0.005529045    1.355    0.262
        17 -11.1541    200.0217    144.0915   9.1645249504e+01   1.2151147033e+01    0.4207101    0.2960125  77.27  0.000382511    2.036    0.509
        18 -10.4121    229.5779    124.9605   8.1878617151e+01   9.6594017215e+00    0.1880794    0.1690746 -49.13 0.0003175139    1.009    0.009
        19 -10.9084    101.5721    124.5927   1.1067978341e+02   3.7427504055e+01    0.3422641     0.298329  -1.10  0.001205613    1.355    0.262
        20 -11.4198    205.1633    122.8173   8.5717841921e+01   1.5315995552e+01    0.3570764    0.2860473  42.47  0.001417398    1.361    0.265
        21 -10.3121    143.9503    167.3018   1.0924118645e+02   1.9026799413e+01    0.4756711    0.3085111  82.41  0.001782569    2.616    0.618
        22 -10.2860    106.0778    119.3284   1.0813892886e+02   3.7814330309e+01    0.2039202     0.199542  50.03 0.0005153673    1.060    0.057
        23 -10.2045     41.0193    119.2968   1.2722295683e+02   4.7386368581e+01    0.1734894    0.1602484 -57.08 0.0002785726    1.086    0.079
        24  -9.3006    194.7436    118.3461   8.6651999914e+01   1.8552360936e+01    0.2164414    0.1763543  79.58  0.000578505    1.376    0.273
        25  99.0000    207.8119    103.3227   8.0619445820e+01   1.8484030812e+01    0.9720764    0.5128421 -71.58  0.002953631    4.249    0.765
        26 -11.8535    200.6406    101.2530   8.1397764138e+01   2.0522592259e+01    0.5762561    0.3666075 -56.98  0.002568036    1.657    0.397
        27 -11.1589    207.0098    110.2334   8.2405443415e+01   1.7354850108e+01    0.3530371    0.3304282  76.54 0.0009930157    1.092    0.084
        28 -11.8713    211.8785    113.8826   8.2396360134e+01   1.5563844391e+01    0.7163559    0.4655809 -65.97  0.002257318    1.886    0.470
        29 -11.3913    215.8153    112.0177   8.1273318153e+01   1.5047263341e+01     0.376018    0.2564576 -72.49  0.001391283    1.854    0.461
        30 -12.5825      2.2042    166.4918   1.4365252992e+02   3.9739089581e+01    0.3135703    0.2057542 -66.14  0.001918473    1.303    0.232
        31  -9.3862    209.8202    146.5234   9.0272140534e+01   9.5868666242e+00    0.2733528    0.1982709 -42.75 0.0008047445    1.305    0.234
        32 -10.7099    149.5137    163.7183   1.0716558867e+02   1.8703054531e+01    0.3479019    0.2466178  87.60   0.00131299    2.045    0.511
        33 -11.9051    244.3725    104.1097   7.4995619669e+01   1.0421835621e+01    0.2745279    0.1899205  58.40  0.001103845    1.599    0.375
        34 -10.2598     86.6803    103.9943   1.0987726293e+02   4.4732994218e+01    0.2629096    0.1999553 -48.07 0.0004142804    1.239    0.193
        35  -9.7785     85.7298     99.3923   1.0895291300e+02   4.5899034642e+01    0.2819986    0.1817687 -50.25  0.001239657    1.487    0.327
        36 -12.8382     13.6297    145.5509   1.3876115892e+02   4.3694526486e+01      0.93777    0.3152591 -82.77  0.003132915    4.378    0.772
        37  -9.0016    250.5413    159.4442   8.5785880948e+01  -6.7244576622e-01    0.1360025    0.1182734 -26.66 9.184233e-05    1.042    0.040
        38  -9.3088    107.0253    158.4555   1.1659307008e+02   2.8302564741e+01    0.2298626    0.1893534 -60.39 0.0004972016    1.170    0.145
        39  -9.9976     90.5979     49.7920   9.2255951798e+01   5.4246141702e+01     0.389513    0.1264589 -35.08  0.001438542    3.205    0.688
        40  -8.7445     75.2949     49.2925   9.6932520955e+01   5.7018050962e+01    0.1306099    0.0920448   3.17 0.0002610324    1.557    0.358
        41  -9.3682     92.0987    158.7924   1.2050785001e+02   3.0822052188e+01    0.2145653    0.1834929  83.81 0.0004145992    1.176    0.149
        42  -9.4535    179.4099     32.0763   6.7486105848e+01   3.6624433280e+01    0.2644664    0.1520346  50.84 0.0009025964    1.748    0.428
        43 -13.9414     40.0397    149.9475   1.3260592608e+02   4.0169836777e+01    0.9499649    0.8137588 -73.07  0.003585962    1.034    0.033
        44  -9.8432    232.4506    154.8217   8.7909774991e+01   3.4647999346e+00    0.3872201    0.1759097  41.35  0.001575087    2.471    0.595
        45  -9.4767    195.7523    141.7976   9.1980411828e+01   1.3543714495e+01     0.270078    0.2137403  72.34 0.0006657994    1.498    0.332
        46 -12.3514    231.2026     26.0571   5.9908388029e+01   2.5309646611e+01    0.3886701    0.1810188  72.98   0.00111423    1.981    0.495
        47 -11.6375    237.4476     25.5467   5.9211431356e+01   2.4007861328e+01    0.3054529    0.1617387  67.69 0.0008596656    1.772    0.436
        48 -10.5822    182.7866    153.7734   9.7424071385e+01   1.3833409739e+01    0.3382327    0.2808231  87.42 0.0004294104    1.463    0.317
        49 -10.2239    206.7027     21.3429   6.1426658830e+01   3.1438806302e+01    0.1599433    0.1216301  60.51 0.0007083516    1.361    0.265
        50 -10.7366    158.8374    216.0965   1.1504494020e+02   5.6178254623e+00    0.2701958    0.2095574  37.08 0.0004252893    1.207    0.172
        51 -12.3284    180.5027    148.8032   9.6791810231e+01   1.5389193649e+01    0.6620976    0.5501795 -83.53  0.001373749    1.432    0.302
        52  -9.5980    237.6844    145.4617   8.4996248005e+01   4.2103801319e+00    0.2599569     0.140636  47.18 0.0007419982    2.049    0.512
        53 -11.6348    245.9588    237.6876   1.0164278408e+02  -1.2515310681e+01    0.2012348    0.1689961  -5.51 0.0003810162    1.103    0.093
        54 -10.2068    176.2853    190.3745   1.0656052316e+02   7.4690279599e+00    0.2539132    0.1800586  51.90  0.000750291    1.472    0.320
        55 -11.4839    166.0390    152.0000   1.0073856605e+02   1.7833753681e+01    0.4461939    0.3175824 -80.68 0.0007043427    2.007    0.502
