#   1 NUMBER                 Running object number                                     
#   2 MAG_AUTO               Kron-like elliptical aperture magnitude                    [mag]
#   3 X_IMAGE                Object position along x                                    [pixel]
#   4 Y_IMAGE                Object position along y                                    [pixel]
#   5 X_WORLD                Barycenter position along world x axis                     [deg]
#   6 Y_WORLD                Barycenter position along world y axis                     [deg]
#   7 A_WORLD                Profile RMS along major axis (world units)                 [deg]
#   8 B_WORLD                Profile RMS along minor axis (world units)                 [deg]
#   9 THETA_WORLD            Position angle (CCW/world-x)                               [deg]
#  10 FWHM_WORLD             FWHM assuming a gaussian core                              [deg]
#  11 ELONGATION             A_IMAGE/B_IMAGE                                           
#  12 ELLIPTICITY            1 - B_IMAGE/A_IMAGE                                       
         1  -8.5620     18.0149      3.7546   1.0667776107e+02   7.0448303249e+01    0.1261902   0.07671025  20.54 0.0005554417    1.575    0.365
         2  -8.1779    184.3570    245.2905   1.1990084840e+02  -3.2696380725e+00    0.1284131   0.08871875  18.01 0.0007027562    1.685    0.407
         3 -11.5194     78.2049    221.9613   1.3728716629e+02   1.8854826131e+01    0.5426762    0.3523123  45.83  0.001610206    1.466    0.318
         4 -10.7793     58.8249    203.8324   1.3912530187e+02   2.5390180804e+01    0.4781968     0.237681  65.53  0.002327247    2.125    0.529
         5 -11.7548     63.1382    214.7835   1.3942451014e+02   2.2486716063e+01    0.9440901    0.4916961  68.78  0.004810752    1.974    0.493
         6  -9.1033      2.0041    211.2721   1.5020708784e+02   3.0230800089e+01    0.1243396   0.08324916  50.03 0.0008972457    1.531    0.347
         7 -10.0234    132.1291    205.6850   1.2420014844e+02   1.3196977969e+01    0.2330027    0.1580504  58.56 0.0009118106    1.428    0.300
         8  -8.7808    127.3112    206.3373   1.2531605310e+02   1.3942936821e+01     0.130662    0.1116904  -4.89 0.0007045045    1.687    0.407
         9  -9.4849    182.7562    183.9983   1.0954530628e+02   7.6467479932e+00    0.1935239    0.1246781 -43.93 0.0008929911    1.630    0.386
        10  -9.8839    195.9944    180.2667   1.0604912480e+02   5.6749520679e+00    0.2638112    0.1594797  -6.04 0.0009063015    3.536    0.717
        11  -9.1899    189.3124    172.6315   1.0584900792e+02   8.5240298814e+00    0.1518735    0.1190159 -86.60 0.0007036683    1.770    0.435
        12  -8.9275    202.6720    170.3455   1.0262117779e+02   6.1956604337e+00    0.1483944    0.1186777 -85.72 0.0007050373    1.750    0.429
        13 -11.0847    152.9000    168.3217   1.1289505794e+02   1.7044374894e+01    0.4551005    0.2054296 -55.21   0.00164876    2.528    0.605
        14 -10.4395    142.8409    163.2402   1.1416359563e+02   2.0234206859e+01    0.2958478    0.1794762 -40.17  0.001225461    1.852    0.460
        15 -10.6778    155.1072    157.2516   1.1006770076e+02   1.8995705508e+01    0.4002258     0.200791 -32.22  0.001353174    3.003    0.667
        16 -10.7844    170.1432    156.2820   1.0645996894e+02   1.5967092842e+01    0.3481206    0.1797767 -44.58  0.001366783    1.969    0.492
        17 -10.4414    182.1531    152.7013   1.0303511486e+02   1.4091596998e+01    0.2538523    0.2012093  67.28  0.001209445    1.437    0.304
        18 -10.6434    161.6263    152.1987   1.0746856053e+02   1.8695699119e+01    0.2894883    0.2066264 -37.73  0.001314225    1.499    0.333
        19  -9.2499    203.3247    150.3206   9.8090190642e+01   9.9392132949e+00    0.1549647    0.1190727   4.95 0.0004180036    1.679    0.404
        20 -10.0814    174.2303    155.3986   1.0536178193e+02   1.5263876637e+01    0.2228034    0.1441721  56.06 0.0009515074    1.659    0.397
        21 -10.9082    156.9194    143.1855   1.0650705071e+02   2.1693511032e+01    0.4024727    0.2501493  68.57  0.001539725    2.287    0.563
        22 -11.2362    184.4705    141.6822   1.0000622786e+02   1.5858061499e+01    0.3679951     0.271545 -62.78    0.0016693    1.574    0.365
        23 -11.5548    150.1588    141.0141   1.0759081718e+02   2.3650575554e+01    0.4635483    0.2848621 -53.71  0.001945196    1.688    0.408
        24 -11.0813    166.1665    136.9868   1.0292907465e+02   2.0983040488e+01    0.3531534    0.2712664 -66.12  0.001621791    1.482    0.325
        25 -11.3336    175.1970    133.1682   9.9993822081e+01   1.9743605306e+01    0.6019508    0.1825491 -45.10  0.001774451    3.299    0.697
        26  -9.2346    186.3016    129.3202   9.6666716598e+01   1.7987912060e+01    0.1566684     0.125542   4.07 0.0006038417    1.626    0.385
        27  -9.9999    192.9966    123.8190   9.3933997211e+01   1.7551217808e+01    0.2659753    0.1839814  21.01  0.001090753    2.076    0.518
        28 -10.2244    166.4279    122.7377   9.9387301799e+01   2.3967905374e+01       0.2806    0.2007204  26.35  0.001197342    1.772    0.436
        29 -10.1075    179.9747    120.4886   9.5833775443e+01   2.1274141045e+01    0.2486238    0.1554486  51.36 0.0008081954    1.616    0.381
        30 -10.5054    141.3792    117.6167   1.0402810453e+02   3.0748090321e+01    0.3659423      0.24344   0.59  0.001291827    3.018    0.669
        31  -9.5705    159.5151    111.4751   9.8089123764e+01   2.7943365819e+01    0.1561728    0.1540358 -82.84 0.0007042684    1.008    0.008
        32  -9.9227    187.6678    109.8571   9.1532038109e+01   2.1592315599e+01    0.3197612    0.1463266 -32.86  0.001092928    2.565    0.610
        33  -9.7810    159.1981    103.3992   9.6024969916e+01   2.9681614632e+01    0.2289958    0.1498514  61.57 0.0009551967    1.701    0.412
        34 -10.1190    152.0352    101.3965   9.7159202434e+01   3.1765937182e+01    0.3376526    0.1611665 -51.80  0.001192334    2.388    0.581
        35  -9.1431    177.6650     75.3354   8.4383077637e+01   3.0497079599e+01    0.1617443    0.1163145 -75.05 -0.001223037    1.742    0.426
        36  -9.5868    169.8670     58.6492   8.1230367903e+01   3.5189788725e+01    0.2059696    0.1952739   5.91  0.001143384    1.177    0.150
        37  -8.7916     84.6763     21.3857   8.9287445045e+01   5.9088223571e+01    0.1699787    0.1521038 -67.14  0.001085607    1.672    0.402
        38  -7.9499     93.2845     17.3233   8.5263051649e+01   5.7920020508e+01    0.1305426   0.08405375  20.12 0.0004598295    1.598    0.374
        39  -8.8585     75.0762     17.2074   9.0596117058e+01   6.1253904650e+01    0.1885265    0.1362634  16.81 0.0003616396    1.241    0.194
