#   1 NUMBER                 Running object number                                     
#   2 MAG_AUTO               Kron-like elliptical aperture magnitude                    [mag]
#   3 X_IMAGE                Object position along x                                    [pixel]
#   4 Y_IMAGE                Object position along y                                    [pixel]
#   5 X_WORLD                Barycenter position along world x axis                     [deg]
#   6 Y_WORLD                Barycenter position along world y axis                     [deg]
#   7 A_WORLD                Profile RMS along major axis (world units)                 [deg]
#   8 B_WORLD                Profile RMS along minor axis (world units)                 [deg]
#   9 THETA_WORLD            Position angle (CCW/world-x)                               [deg]
#  10 FWHM_WORLD             FWHM assuming a gaussian core                              [deg]
#  11 ELONGATION             A_IMAGE/B_IMAGE                                           
#  12 ELLIPTICITY            1 - B_IMAGE/A_IMAGE                                       
         1 -13.9927    221.7064     26.6616   3.5128696705e+02   2.8614164946e+01    0.9262754    0.7662996 -34.63  0.004222832    1.314    0.239
         2 -11.7951    221.6735      6.3999   3.4687978159e+02   3.0795902807e+01    0.3102724     0.185491 -36.35  0.001961756    1.453    0.312
         3 -12.0345     59.5799      3.0974   6.2247499610e+00   6.8752064434e+01    0.5179798    0.1658245  52.31   0.00206995    2.517    0.603
         4 -10.0947     86.2966    240.8829   5.9021582618e+01   1.3004619905e+01    0.1816555   0.09389504 -48.28  0.000897251    2.305    0.566
         5 -12.2629    243.6622    248.6922   3.0029065070e+01  -4.6666511273e+00     0.379999     0.195378 -15.04   0.00265503    1.615    0.381
         6  99.0000     33.4679    228.4590   7.0359477304e+01   2.1086471422e+01    0.1239239    0.1016534  44.76 0.0008083316    1.014    0.014
         7 -12.1203     52.9732    232.2633   6.5999083829e+01   1.8333494300e+01    0.2454592    0.1612858 -61.41  0.001002416    1.771    0.435
         8 -11.7046     88.0606    219.8170   5.6503449480e+01   1.6827913067e+01    0.4127901      0.32382  22.57  0.001608885    1.154    0.134
         9 -10.2329    153.6088    211.8495   4.0577527634e+01   9.9334752418e+00    0.1594241     0.120341 -56.48 0.0007727571    1.705    0.413
        10  -9.8564    164.6191    206.2256   3.7452528974e+01   9.4730630808e+00     0.381309    0.1473547 -51.60   0.00158433    3.235    0.691
        11  -9.2871     51.2822    201.2933   6.3949384183e+01   2.5163961594e+01     0.266771    0.1166585 -70.95  0.001155654    2.445    0.591
        12  -9.9604    192.7959    194.4325   3.0122210956e+01   7.7921681468e+00    0.3888248    0.2219008 -62.62  0.001474252    5.122    0.805
        13  -9.8600     57.0683    194.4940   6.1761888150e+01   2.6079008946e+01    0.3193384    0.1644768  50.37  0.001254306    1.900    0.474
        14  -9.5245     42.9419    194.8103   6.5620240448e+01   2.7581335368e+01     0.164924    0.1397036  42.08 0.0009762268    1.062    0.059
        15 -11.7882     33.7403    190.1093   6.7759412252e+01   2.9653970268e+01    0.5955241    0.3794706  57.98  0.001960117    1.472    0.321
        16  -9.8885     48.6807    194.1210   6.4001296073e+01   2.7120430537e+01    0.2059354    0.1688467  39.77 0.0005961583    1.095    0.087
        17  -9.5106    234.9240    191.6603   2.2724401447e+01   3.2313076252e+00    0.1490601    0.1179192  -8.94 0.0004751554    1.107    0.097
        18 -10.5986     53.9157    189.9265   6.2166301880e+01   2.7523102455e+01    0.2035115    0.1704317  52.41 0.0003120662    1.092    0.084
        19 -16.0143     69.5069    142.9245   5.1212185151e+01   3.7372654610e+01      6.62222     3.160444  58.75   0.02196622    3.125    0.680
        20 -11.6831     55.2494    180.5560   6.0808585682e+01   2.9635254089e+01    0.4128654    0.2970762 -23.21  0.001274843    1.816    0.449
        21 -11.6828    179.7764    169.2794   2.8100371681e+01   1.3799693493e+01     0.775101    0.5632215  -3.67  0.004379756    1.501    0.334
        22 -10.3148    174.9991    180.1937   3.1019670512e+01   1.2566380210e+01    0.2661423     0.204515 -12.57  0.001118091    1.250    0.200
        23 -11.1799    172.3607    176.3462   3.0850708175e+01   1.3630739136e+01    0.3954448    0.3197822 -22.98  0.001404051    1.123    0.110
        24 -12.5300    132.1476    171.1601   3.8725895378e+01   2.0796352524e+01    0.6403607    0.2744673  39.71  0.002575385    2.302    0.566
        25 -19.4685     13.9712    142.0835   6.9961988901e+01   4.3824919735e+01     19.85531     6.189408 -83.31   0.06573565    3.342    0.701
        26  -9.4268     28.7116    250.8454   7.2564272695e+01   1.7139816482e+01   0.09953168   0.07132778  17.44 0.0006328424    1.435    0.303
        27 -12.0557    133.8604    145.7277   3.3378295455e+01   2.5959997163e+01      1.28124    0.2988628 -53.41  0.003097351    5.958    0.832
        28 -10.8098    112.9454    151.2418   3.9868850912e+01   2.8355536262e+01    0.3837569    0.2387571  74.83  0.001398476    3.098    0.677
        29 -11.1499     88.4748    149.4959   4.6481598580e+01   3.2805611136e+01    0.3107123    0.2695107  38.22 0.0001942419    1.129    0.114
        30 -12.9572     94.1908    144.1499   4.3776997349e+01   3.3204879626e+01    0.8129364    0.6783516 -44.58  0.004169465    1.230    0.187
        31 -12.1513    105.8150    133.5869   3.8209303249e+01   3.3765673725e+01    0.6869794    0.4131293 -32.65  0.002772001    2.121    0.529
        32 -12.0254     94.6480    131.6679   4.1091784686e+01   3.6211672377e+01    0.4009107    0.3110987 -67.65  0.001929559    1.368    0.269
        33 -10.9316    135.5649    130.9170   2.9738034112e+01   2.8857869872e+01    0.4238479     0.204853 -56.19  0.001592988    2.418    0.586
        34 -11.0073    114.1582    125.9817   3.4150979518e+01   3.4019163131e+01    0.3371918    0.2768039 -19.87  0.000788839    1.421    0.296
        35 -10.5843    101.7238    120.9648   3.6547870420e+01   3.7544671167e+01    0.3098996    0.2573777  -7.80 0.0006973907    1.475    0.322
        36  -9.6159    162.4657    119.9649   2.1234937745e+01   2.5970487349e+01    0.1974969    0.1928678 -34.65 0.0004457654    1.060    0.056
        37 -10.0973    109.8141    116.1592   3.3024929145e+01   3.7135526365e+01    0.2589656    0.2187461 -37.30 0.0002981084    1.225    0.184
        38  -9.8046     86.4227    117.2386   4.0452931742e+01   4.1253892986e+01    0.2128441     0.149584 -69.55  0.000812867    1.584    0.369
        39 -10.2045    158.5068    114.4122   2.0729461782e+01   2.7813877447e+01    0.3227028    0.2251535 -66.51 0.0006849574    1.805    0.446
        40 -10.6496     81.8741    110.0183   4.0239978931e+01   4.3870301817e+01    0.3043522    0.2627346  37.12 0.0005291838    1.175    0.149
        41 -11.3696    116.4018    109.0902   2.9398196184e+01   3.7438366905e+01    0.4978875     0.246182  52.71  0.001860131    2.316    0.568
        42 -11.1632     47.3767    229.5777   6.7132747354e+01   1.9461265023e+01    0.1738557    0.1177428  55.81 0.0005635476    1.367    0.268
        43  -9.6780    151.4115    106.1645   2.0186142512e+01   3.0849647461e+01    0.2728152     0.200973 -68.51 0.0009342148    1.625    0.385
        44 -12.5500    118.3114    103.3836   2.7382648337e+01   3.8310733628e+01    0.7879725    0.4462981  50.33  0.003272758    1.850    0.459
        45 -10.7710     71.2635     99.4335   4.1338749213e+01   4.8387161149e+01    0.4920698    0.2122974  49.41  0.001657726    2.781    0.640
        46 -10.9435     47.4132    234.0427   6.7424412399e+01   1.8557804199e+01    0.1487675    0.1171889 -73.33 0.0005653622    1.467    0.318
        47 -12.7946    177.7162     66.6928   5.3397634902e+00   3.2225129785e+01    0.6561012     0.403835 -45.78  0.001065039    1.431    0.301
        48 -11.7095     58.9720    232.4186   6.4600383658e+01   1.7661472103e+01    0.1776509    0.1677455 -69.71  0.000489375    1.257    0.204
        49 -13.6838    193.9682     53.5390   3.5996491113e+02   3.0730219143e+01     1.028628    0.8930273  31.95  0.003485328    1.563    0.360
        50 -12.3550    200.0897     48.1913   3.5801672130e+02   3.0203203470e+01    0.4433604    0.3803349  43.81  0.001505418    1.541    0.351
        51 -10.0527     59.9819    245.9107   6.5361116621e+01   1.4962167252e+01    0.1344335    0.1068024 -59.51 0.0006140293    1.535    0.348
        52 -10.9534     60.9245     21.5798   1.6003645489e+01   6.6315264038e+01    0.2606958    0.2263956  76.86 0.0007480266    1.293    0.226
        53 -11.0953     24.9251    245.5258   7.3158925891e+01   1.8493806727e+01    0.1274123   0.09275553 -12.72 0.0007800359    1.940    0.484
