#   1 NUMBER                 Running object number                                     
#   2 MAG_AUTO               Kron-like elliptical aperture magnitude                    [mag]
#   3 X_IMAGE                Object position along x                                    [pixel]
#   4 Y_IMAGE                Object position along y                                    [pixel]
#   5 X_WORLD                Barycenter position along world x axis                     [deg]
#   6 Y_WORLD                Barycenter position along world y axis                     [deg]
#   7 A_WORLD                Profile RMS along major axis (world units)                 [deg]
#   8 B_WORLD                Profile RMS along minor axis (world units)                 [deg]
#   9 THETA_WORLD            Position angle (CCW/world-x)                               [deg]
#  10 FWHM_WORLD             FWHM assuming a gaussian core                              [deg]
#  11 ELONGATION             A_IMAGE/B_IMAGE                                           
#  12 ELLIPTICITY            1 - B_IMAGE/A_IMAGE                                       
         1 -13.1824      7.5434    146.0051   1.1622719997e+02   4.3426281050e+01     4.639379     1.357842 -86.93   0.01307099    5.588    0.821
         2 -12.0509    214.0935     36.9798   3.7642385746e+01   2.8103332243e+01    0.9115933    0.7099646 -55.06  0.005166931    1.149    0.130
         3 -11.6575    234.2996     20.1901   3.2211559560e+01   2.5911118110e+01    0.6787799    0.4931352 -62.77  0.002744286    1.107    0.096
         4  -9.6984      1.7922      6.2231   8.6065926826e+01   7.4059987470e+01    0.5051956   0.07025869 -44.46  0.001795716    5.314    0.812
         5 -11.9286    112.0532    231.1912   1.0042014833e+02   1.0285128270e+01      0.82029    0.5721163  33.96  0.004319564    1.319    0.242
         6 -12.4181     81.7904    238.7544   1.0786507841e+02   1.3177337830e+01     1.574997    0.6172171  27.40  0.006124311    3.232    0.691
         7 -12.9858      8.8472    207.6554   1.2081356482e+02   2.8525503994e+01     1.420067    0.9203048 -80.23  0.004185225    1.335    0.251
         8 -11.5431     68.4150    243.9151   1.1116229220e+02   1.3949499030e+01    0.8549842    0.6193778  83.50   0.00411068    1.385    0.278
         9 -12.3052     10.9741    232.7009   1.2184041113e+02   2.2900988723e+01     1.302909    0.5488536  85.25  0.005527895    2.294    0.564
        10 -11.2184     57.5131    240.7386   1.1312526175e+02   1.5997499657e+01    0.6223228    0.4696266  75.04  0.001708677    1.198    0.165
        11 -12.6893     35.9891    249.7339   1.1805824598e+02   1.6783308437e+01     3.166041    0.7771651  29.82   0.01110257    5.051    0.802
        12  -7.6940     32.7658    234.9995   1.1770502246e+02   2.0135070384e+01    0.1483982    0.0886079 -80.85 0.0004275869    1.580    0.367
        13  -8.0354     27.5129    234.5285   1.1872020600e+02   2.0812169591e+01    0.2125814   0.07488665  44.57  0.001018619    2.242    0.554
        14 -11.6310    127.9623    230.3446   9.6804297163e+01   7.9962872413e+00    0.7679851    0.3825759  32.12  0.003516469    1.890    0.471
        15  -9.4555    163.8225    223.4963   8.7963503334e+01   3.6145307936e+00    0.3352466    0.1486713 -35.37  0.001354672    2.802    0.643
        16 -10.6781     84.3856    219.8339   1.0520665462e+02   1.6787302380e+01    0.5163509    0.3682772 -84.17   0.00144863    1.516    0.340
        17  -8.3416    178.3356    222.5236   8.4739400377e+01   1.5027956417e+00    0.2190494    0.1216231 -43.70 0.0009110263    1.905    0.475
        18  -9.4087     76.2556    222.5587   1.0734951158e+02   1.7344409909e+01      0.33137    0.1680127 -58.34  0.001241656    2.073    0.518
        19  -9.5849     73.4003    218.8058   1.0757816015e+02   1.8562120016e+01    0.2434323    0.1956932 -88.87  0.001450611    1.221    0.181
        20  -7.9618     32.5932    222.2234   1.1682242926e+02   2.2884948888e+01    0.1655631    0.1018477 -67.83 0.0007836384    1.616    0.381
        21  -9.6438     43.0085    217.9384   1.1425042832e+02   2.2643113475e+01     0.251149    0.1988382 -88.72 0.0004302687    1.153    0.133
        22  -9.0772     66.1736    216.5006   1.0896312320e+02   2.0055268998e+01    0.2727511    0.1619495  85.84  0.001334365    1.930    0.482
        23  -9.4928     41.0290    208.4691   1.1385596103e+02   2.5017992107e+01    0.2471865    0.1855535  84.17 0.0005984534    1.179    0.152
        24 -11.9383      3.0088    245.9433   1.2396795840e+02   2.0992429766e+01     1.566557    0.4752965 -80.30  0.007476951    2.993    0.666
        25 -10.8904     20.4547    195.1551   1.1738787095e+02   3.0311785868e+01    0.3674784    0.2895054  28.11  0.002327003    1.519    0.342
        26 -11.3809      8.2135    189.1550   1.1971870316e+02   3.2842449275e+01    0.5706982     0.274298  86.20  0.002837455    1.932    0.482
        27 -10.0915      2.4310    185.6644   1.2078733471e+02   3.4142053525e+01    0.4145721    0.1691584 -84.42  0.001948175    2.132    0.531
        28 -10.3156      2.2713    179.8501   1.2042364811e+02   3.5531012359e+01    0.4133975    0.1934849 -77.00    0.0021206    1.745    0.427
        29 -10.2607     55.9310    176.9551   1.0680666685e+02   3.0816375832e+01    0.4589615     0.300199 -31.90   0.00214614    2.181    0.541
        30 -10.3277     61.8143    171.4033   1.0449674636e+02   3.1454935199e+01    0.3686096    0.3024185 -24.60 0.0009501831    1.554    0.357
        31 -11.4893     26.1759    203.3075   1.1674749217e+02   2.7834765971e+01    0.4774548    0.4384079 -24.42  0.001032689    1.508    0.337
        32  -9.6438      1.9991    151.7764   1.1827261937e+02   4.2373709181e+01     0.482859    0.1576514 -80.72  0.001489177    2.773    0.639
        33 -10.2896      2.2563    168.9377   1.1962460216e+02   3.8154156118e+01    0.5523321    0.1684707 -77.65  0.002227324    2.724    0.633
        34 -10.2585      2.4482    161.3434   1.1897334321e+02   3.9990431950e+01    0.4450711    0.2385418 -77.17  0.002379216    1.509    0.337
        35  -7.5225     72.7165    173.2639   1.0185504727e+02   2.9488425371e+01    0.1428916     0.103503  68.51 0.0006884268    1.487    0.328
        36 -10.2501      8.2386    168.6784   1.1813159283e+02   3.7761450714e+01    0.3401879    0.1965452 -45.26  0.001358864    2.062    0.515
        37 -11.2245     79.6121    156.1815   9.7146000590e+01   3.2814343415e+01    0.8796175    0.8137943  76.48  0.002364527    1.074    0.069
        38 -11.6298     68.3619    144.7530   9.8344096704e+01   3.7397948598e+01    0.8544791    0.6044148  77.40  0.002830196    1.725    0.420
        39  -9.9960     72.3748    162.0831   1.0018807035e+02   3.2373327854e+01    0.3120186    0.3094041 -73.42 0.0004831829    1.108    0.097
        40 -11.7235     58.9532    158.0710   1.0330977328e+02   3.5231724763e+01    0.5449114    0.3229347 -40.78  0.001414685    1.996    0.499
        41  -8.4023     36.1748    160.1508   1.0994222920e+02   3.7352875811e+01     0.300588    0.1536698  66.01  0.001256989    2.460    0.594
        42  -8.9652     32.8104    157.3473   1.1051881256e+02   3.8410336056e+01    0.2479044    0.1623116 -73.60 0.0005020666    1.334    0.250
        43  -8.6659     95.0228    142.2286   8.9999492398e+01   3.3875641478e+01    0.2818393    0.2403969  40.44  0.001046012    1.212    0.175
        44  -8.7529     97.9965    139.5097   8.8555068596e+01   3.4043625829e+01    0.3566934    0.2291692 -22.71  0.001388773    2.351    0.575
        45 -10.6796     83.1660    140.3445   9.3086963659e+01   3.6311693802e+01    0.3519213    0.2835581 -50.64 0.0005726814    1.192    0.161
        46 -10.4749     58.1005    133.2130   9.9332320430e+01   4.1754014221e+01    0.6444252    0.2629029 -74.45  0.001975976    3.826    0.739
        47  -9.3104    106.8671    131.0900   8.4083534384e+01   3.4523441358e+01    0.3919015    0.3339089  17.30  0.001402269    1.314    0.239
        48 -10.0935     66.9846    128.3690   9.5587479464e+01   4.1797128390e+01    0.5238551    0.3145701  69.19  0.001909166    2.637    0.621
        49  -9.0155     94.2816    127.2906   8.6900052950e+01   3.7740699823e+01    0.2709075    0.2506003 -66.63 0.0004885662    1.078    0.073
        50 -13.3716     35.8050    192.0788   1.1353870593e+02   2.9462165625e+01     2.868335     1.191379  65.27   0.01101565    3.152    0.683
        51  -8.0934    105.1494    119.4949   8.1766023700e+01   3.7654809765e+01    0.2203065    0.1556261  38.10 0.0004855377    1.465    0.317
        52  -7.8116    205.5120    110.4556   5.6038448009e+01   1.8173226765e+01    0.1446748    0.1318899 -46.57 0.0002333518    1.016    0.016
        53  -8.3215     53.3359     91.3056   9.1654013329e+01   5.2717438083e+01    0.1489382   0.09988953 -24.58 0.0003176627    1.670    0.401
        54  -7.9831     41.6358     91.7250   9.6130149903e+01   5.4003024045e+01    0.1442856   0.09447195 -26.26 0.0005213582    1.667    0.400
        55 -10.5903      1.8536     87.8847   1.1047508155e+02   5.8003722692e+01    0.6347762    0.1957865 -71.58  0.002470726    2.980    0.664
        56  -9.9507      2.2946     80.2473   1.0895179270e+02   5.9751810965e+01    0.3561904    0.1858967 -76.09  0.001804013    1.942    0.485
        57  -9.9689      2.0984     63.6474   1.0562077801e+02   6.3463466969e+01    0.5045643   0.06360354 -65.16  0.001307665    7.105    0.859
        58  -9.5605     13.5142     60.3217   9.9682327976e+01   6.3502541660e+01    0.2198227    0.1904821 -63.61 0.0006863295    1.299    0.230
        59 -12.1098    207.0603     43.3566   3.9888837935e+01   2.8808101217e+01    0.9763074    0.7600589  28.83  0.005494476    1.924    0.480
        60 -12.0081     99.7306    228.2442   1.0277521818e+02   1.2744677074e+01     1.053429    0.4404753  38.60  0.004588669    2.077    0.518
        61 -10.9728    222.6585     30.7840   3.5423311435e+01   2.7048449534e+01    0.4501932    0.3796308  34.08  0.001175491    1.751    0.429
        62  -7.9365     29.1627     53.1593   9.0369768487e+01   6.3643180153e+01    0.1534244    0.1423311  18.23 0.0004175135    1.303    0.232
        63  -8.9411      2.3989     38.7240   9.8761558521e+01   6.8533134691e+01     0.174358   0.08002693 -45.91 0.0009509119    1.647    0.393
        64  -8.6749    128.7199     36.2262   5.0285406257e+01   4.8230217088e+01     0.313383    0.2027298 -63.42  0.001072489    2.077    0.519
        65  -8.9388      2.0000     29.9594   9.6020572501e+01   7.0179833725e+01    0.1851836   0.05478237 -54.76  0.000803107    2.947    0.661
        66  -9.9141     19.0536    238.0495   1.2058756848e+02   2.0981608106e+01    0.2707006    0.2309161  19.10  0.001197449    1.647    0.393
