#   1 NUMBER                 Running object number                                     
#   2 MAG_AUTO               Kron-like elliptical aperture magnitude                    [mag]
#   3 X_IMAGE                Object position along x                                    [pixel]
#   4 Y_IMAGE                Object position along y                                    [pixel]
#   5 X_WORLD                Barycenter position along world x axis                     [deg]
#   6 Y_WORLD                Barycenter position along world y axis                     [deg]
#   7 A_WORLD                Profile RMS along major axis (world units)                 [deg]
#   8 B_WORLD                Profile RMS along minor axis (world units)                 [deg]
#   9 THETA_WORLD            Position angle (CCW/world-x)                               [deg]
#  10 FWHM_WORLD             FWHM assuming a gaussian core                              [deg]
#  11 ELONGATION             A_IMAGE/B_IMAGE                                           
#  12 ELLIPTICITY            1 - B_IMAGE/A_IMAGE                                       
         1 -15.7002    246.9552    194.1309   2.7408498739e+01   9.7888763166e-01     3.453542    0.6056623 -36.26   0.01266801    4.765    0.790
         2 -15.1788    219.2841     52.8606   2.0810738686e+00   2.5364078922e+01     1.684737     1.052958 -44.49  0.007844203    1.282    0.220
         3 -15.5906    244.4284     63.6495   2.2353579547e+00   1.9270005708e+01     1.680345     1.282964 -34.77    0.0100505    1.149    0.130
         4 -14.7565    193.8616     38.1067   8.6983803004e-01   3.2645171136e+01     1.804634       1.0633  53.72  0.009218293    2.015    0.504
         5 -13.7604    180.1293     24.3540   3.5845540025e+02   3.7465901016e+01      1.07033    0.4829856 -73.38  0.004318145    2.796    0.642
         6 -14.4469     44.4998     22.9690   3.0503194306e+01   7.0153783997e+01     1.534472    0.9405133 -43.83  0.007707339    1.709    0.415
         7 -13.9314     81.3047     39.0995   2.2790226062e+01   5.9831739890e+01    0.9089488    0.5234591 -44.92  0.004038094    1.806    0.446
         8 -13.1021    239.4867     19.0197   3.5285003019e+02   2.5554715788e+01    0.7148134     0.300294 -36.84  0.002940128    1.762    0.432
         9 -13.9056    235.3016     45.1836   3.5892439414e+02   2.3278863750e+01    0.8903214     0.654301 -33.68  0.005006355    1.240    0.194
        10 -11.2900    227.5001     15.6052   3.5274078437e+02   2.8223084540e+01    0.3561417    0.1659714 -61.30  0.001889282    1.913    0.477
        11 -13.3880    178.0715      6.3556   3.5352410662e+02   3.9875988967e+01    0.6615146    0.3942085 -36.14   0.00361223    1.522    0.343
        12 -13.9302    161.2634     11.5928   3.5648014018e+02   4.3388130136e+01     1.362259    0.4178883  72.66   0.00513811    3.010    0.668
        13 -13.2539    169.5918      3.2567   3.5325098920e+02   4.2180621241e+01    0.6022402    0.4292398 -61.12  0.003378463    1.207    0.171
        14 -13.4010    156.3950      3.7474   3.5445910344e+02   4.5344149220e+01    0.9783832    0.4114278  72.92  0.004352175    2.181    0.542
        15 -13.2656      4.9842      3.6874   4.7815481177e+01   7.9213091905e+01    0.7472182    0.3545338  32.28  0.003845332    2.170    0.539
        16 -11.2526    192.5556      5.2378   3.5224641469e+02   3.6662883521e+01     0.240324   0.09847115 -33.21  0.001137641    2.064    0.516
        17 -12.6223    143.8958      4.0623   3.5572580399e+02   4.8434368301e+01    0.5377704    0.3818468 -82.96  0.002992809    1.293    0.226
        18 -11.7564    230.1563      9.5007   3.5121931791e+02   2.8345169325e+01    0.3521252    0.2496443  66.45  0.001980496    1.721    0.419
        19 -10.7095    222.3134      4.6818   3.5049883108e+02   3.0386489617e+01    0.1306715   0.06258951 -55.40 0.0007036892    1.648    0.393
        20 -10.8711     86.0238      3.3074   4.0405877522e+00   6.3260279298e+01     0.200664    0.1655422  66.83  0.001168774    1.105    0.095
        21 -10.3078    217.2607      1.4316   3.4997770973e+02   3.1731594045e+01    0.1634009   0.09226677 -74.81 0.0009466437    1.608    0.378
        22 -11.1779    175.9543    180.1569   3.6997515065e+01   1.2263143484e+01    0.2925973    0.1812778  33.50  0.001322345    1.593    0.372
        23 -12.0103    185.4004    170.6721   3.3437979086e+01   1.2462276185e+01    0.5651273    0.2799447 -22.27  0.002309889    2.916    0.657
        24 -12.2661    156.7850    231.3184   4.8738650644e+01   6.5476202562e+00    0.3184194    0.3060647  55.17   0.00238052    1.448    0.310
        25 -11.3683    177.6021    169.0932   3.4643873925e+01   1.3937193587e+01    0.2575081    0.1863202  23.44  0.001446861    1.400    0.286
        26 -13.0489     97.0151    165.2978   5.2837639115e+01   2.7775236348e+01    0.6425111    0.3855893 -82.61  0.002656854    2.437    0.590
        27 -11.2784    149.1492    167.6828   4.0343437221e+01   1.8775502114e+01    0.2167686    0.1719654  52.31  0.001176675    1.450    0.310
        28 -12.1180    182.5008    159.4954   3.1845105951e+01   1.4850958599e+01    0.2698296    0.1851132 -14.69  0.001410439    1.638    0.389
        29 -12.4908    169.8836    163.0513   3.5032701405e+01   1.6256567570e+01    0.5549132    0.3366448 -42.12    0.0027962    1.594    0.373
        30 -13.6307    174.8302    160.5112   3.3541431054e+01   1.5913168153e+01     0.793946    0.4523687  58.95  0.003271768    3.154    0.683
        31 -12.1948    138.6064    160.8215   4.1467103615e+01   2.1928411121e+01    0.3207242    0.2371002 -61.89  0.001626168    1.575    0.365
        32 -12.3734    157.8628    224.4095   4.7594155155e+01   7.4714788475e+00    0.2975216    0.1984983 -27.86   0.00182409    1.590    0.371
        33 -12.8781     86.6314    152.2134   5.3579908175e+01   3.2540608761e+01    0.6974466    0.2827659 -57.55  0.002600914    2.432    0.589
        34 -12.4982    178.8654    153.6534   3.1380671205e+01   1.6488529774e+01    0.3623358    0.3540519  65.37  0.002300635    1.255    0.203
        35 -12.4470    163.0672    151.0527   3.4051503977e+01   1.9668183680e+01    0.5784864     0.351117 -35.52  0.002769196    1.635    0.389
        36 -11.9553    241.5904    144.0331   1.9191045148e+01   8.4079068761e+00    0.3000897    0.2486164  85.46   0.00196144    2.117    0.528
        37 -11.3654    173.8091    144.1814   3.0414198051e+01   1.9093076086e+01    0.2413321    0.2210362 -28.33 0.0007472041    1.040    0.039
        38 -10.6129     53.6790    143.6675   6.2361548642e+01   3.9425548224e+01    0.1500272    0.1089773 -35.01 0.0007049447    1.699    0.411
        39 -11.4471     39.6379    140.3963   6.6526628022e+01   4.1955097370e+01    0.2891748    0.2530505 -62.95  0.001620582    1.176    0.149
        40 -12.0428    100.1747    136.4839   4.6679510597e+01   3.4170134518e+01    0.4972282    0.1766928  39.11  0.001671722    2.722    0.633
        41 -11.5447     20.4987    235.5040   7.8446571248e+01   2.1648045591e+01    0.1175921   0.08865678  50.32 0.0008106844    1.000    0.000
        42 -15.5664    244.2945    118.3050   1.3755599072e+01   1.1705072501e+01     2.005084    0.9958421 -31.43   0.01028961    1.649    0.394
        43 -13.8714    247.2201     79.1585   5.2977645555e+00   1.6728465020e+01    0.7145261    0.4614914 -37.17   0.00324227    1.189    0.159
        44 -13.2433    228.3237    172.2957   2.6403583800e+01   6.1377408289e+00    0.6676903    0.6188629 -30.43  0.004946309    1.402    0.287
        45 -12.6369    122.3340    124.6038   3.7861504590e+01   3.2861706994e+01    0.5437885    0.3599316 -44.04  0.002454342    1.506    0.336
        46 -12.4485    133.2766    119.9802   3.3931261849e+01   3.1721817139e+01    0.3324606    0.2256208  38.95  0.001186039    1.550    0.355
        47 -13.1316    129.6502    116.7120   3.4041666807e+01   3.3174907135e+01    0.4530569    0.3702651 -30.87  0.001561246    1.309    0.236
        48 -12.9641     86.4975    110.9951   4.5215484242e+01   4.2954067968e+01    0.5247468    0.2576638 -46.39  0.001980926    2.093    0.522
        49 -11.9068     95.0051    111.7200   4.2649882273e+01   4.1204015852e+01    0.6322724     0.350205 -70.68  0.002268453    2.564    0.610
        50 -12.3707     98.2211    109.5845   4.1108082817e+01   4.1113083395e+01    0.3878548    0.3073684  45.87  0.001721407    1.279    0.218
        51 -13.0528    144.1988    102.1884   2.6761531360e+01   3.3209163677e+01    0.9115068    0.4118894 -50.80  0.003344603    2.334    0.572
        52 -11.8767    108.3590    108.7319   3.7831309443e+01   3.9318978062e+01    0.3000908    0.1915986  53.68  0.001271749    1.702    0.413
        53 -12.7989    102.7803    105.7537   3.8714927114e+01   4.1139924757e+01    0.3763691    0.3165272   0.65  0.001561359    1.501    0.334
        54 -13.1913    112.8921     99.8854   3.4144538973e+01   4.0429193920e+01    0.5221125     0.397387 -51.66  0.002171449    1.284    0.221
        55 -13.3260     91.6299    101.1503   4.1006920937e+01   4.4436459552e+01    0.5179228    0.3598281  18.47  0.002192553    1.956    0.489
        56 -10.5458     30.6605    101.6697   6.4278550542e+01   5.3440801376e+01     0.156101    0.1005311 -38.70 0.0007051762    1.740    0.425
        57 -11.8920     46.2819    100.1801   5.7551343766e+01   5.2073766896e+01     0.388282    0.2500623 -67.18  0.001782365    1.473    0.321
        58 -13.4399     99.2453     94.2861   3.6650237831e+01   4.4558219136e+01    0.4447801    0.4036318  -8.26  0.002114543    1.278    0.218
        59 -13.5556     90.2578     90.9534   3.8603835494e+01   4.7158163354e+01    0.6351397    0.3161644  48.34  0.002407263    2.119    0.528
        60 -12.5407     43.7926     89.7932   5.6295122688e+01   5.5164175308e+01    0.5225221    0.2469166  37.34  0.002103133    2.139    0.533
        61 -11.7888     12.9782     89.6958   7.0109221926e+01   5.8174313275e+01    0.1927289    0.1865971  77.01  0.001177549    1.102    0.093
        62 -11.8801      2.7252     88.3648   7.4622428397e+01   5.9120431465e+01    0.3420203    0.2750307  78.11  0.001977068    1.198    0.166
        63 -12.1038      2.7675     82.9464   7.3981886670e+01   6.0571440882e+01    0.4401346    0.2017963 -62.17  0.001976681    1.827    0.453
        64 -12.3599    150.8267    107.0208   2.6543434331e+01   3.0815505736e+01    0.5539334    0.3155999 -23.31  0.002062943    2.683    0.627
        65 -12.9037     93.9106     79.4390   3.3849867586e+01   4.9062295548e+01    0.5136714    0.3912782 -86.30  0.002328471    1.688    0.407
        66 -12.1771    220.5301     77.0488   7.6389024731e+00   2.1738762383e+01    0.3366902    0.1724143 -53.74  0.001439144    2.000    0.500
        67 -12.2776      5.2352     76.5022   7.1929057295e+01   6.2168000612e+01    0.4339741    0.2656552  65.17  0.001992758    1.815    0.449
        68 -11.2635    179.1116    133.1788   2.6998851293e+01   2.0184679731e+01    0.3948477    0.1641729 -42.66  0.001588001    2.217    0.549
        69 -12.8149     14.9763     74.8248   6.6703295743e+01   6.2018105626e+01    0.3932056    0.2790379  74.20  0.002029815    1.559    0.359
        70 -11.9875    218.9165     71.1375   6.4422681077e+00   2.2900632170e+01    0.2265292    0.1736642  82.75  0.001012153    1.534    0.348
        71 -10.8879     74.7534     69.5817   3.7385414181e+01   5.5175772797e+01     0.216965    0.1423807  52.89 0.0009513167    1.657    0.397
        72 -15.0353    243.9394     93.6985   8.7075936181e+00   1.5258187336e+01     1.908359    0.9776253 -51.61  0.009986159    2.003    0.501
        73 -12.6818    195.2841     56.7519   5.6193088900e+00   2.9795527707e+01    0.6564178    0.4003167 -21.32  0.003170465    1.953    0.488
        74 -13.3757    199.0810     51.1807   3.7383445011e+00   2.9761315101e+01    0.5394446      0.34262 -41.79  0.002546211    1.327    0.246
        75 -12.7500    202.8469     42.6456   1.1561312210e+00   3.0098928567e+01    0.5287374    0.2618192 -36.46  0.002372674    1.698    0.411
        76 -13.9338    231.7429    224.0435   3.4428524736e+01  -1.0800412404e+00      1.12983    0.4762816 -29.59  0.006561713    2.106    0.525
        77 -12.2481     85.2890     47.7619   2.5149449528e+01   5.7415643082e+01    0.7336873    0.3947581  53.62   0.00307897    1.875    0.467
        78 -13.3723    112.0808     37.8471   1.3460808768e+01   5.2609557887e+01    0.5920457    0.4243651  69.79  0.002919779    1.398    0.285
        79 -11.4920    120.7083     56.4884   1.8323311502e+01   4.7464747431e+01    0.3288224    0.2219507 -64.19  0.001459304    1.738    0.424
        80 -12.2308     97.1386     36.6527   1.6795000159e+01   5.6484476285e+01    0.2648008    0.1972124 -46.97  0.001313465    1.381    0.276
        81 -12.7714    122.5079     46.7064   1.4416681593e+01   4.8646091228e+01    0.4436898     0.361829  36.37  0.001993628    1.414    0.293
        82 -10.7658    234.4752     28.9708   3.5534680761e+02   2.5383121993e+01    0.1785249    0.1442706 -73.64   0.00121898    1.219    0.180
        83 -13.3645    242.1603    217.6304   3.1865031744e+01  -1.3840929794e+00    0.5700889    0.3419941   0.37  0.003675323    1.499    0.333
        84 -11.9986     83.9600    238.2225   6.4774700074e+01   1.4377563760e+01    0.2407739    0.1904106 -26.80  0.001579836    1.635    0.388
        85 -14.0779    146.8618    220.4595   4.9281646597e+01   9.5210249979e+00    0.8044556    0.7144377  27.38  0.004424236    1.164    0.141
        86 -11.2375    105.5291    225.3472   5.8766529587e+01   1.4050023579e+01    0.2407306    0.1972499  16.44  0.001056827    1.180    0.152
        87 -11.1767    224.6155     22.6750   3.5454134735e+02   2.8017113722e+01    0.2877596    0.1640923 -51.18  0.001157861    1.377    0.274
        88 -11.5246    206.3972     23.3264   3.5595425246e+02   3.1701724908e+01    0.2261677    0.1943757  79.58  0.001116237    1.299    0.230
        89 -10.4181    102.9812     25.5178   1.0537224048e+01   5.6600699269e+01    0.2213913      0.13387  63.41  0.001024364    1.567    0.362
        90 -14.7464    189.6330    211.2743   3.9582199814e+01   5.4315176988e+00     1.742381     1.294384  38.49   0.01139622    1.580    0.367
        91 -11.8514    187.2247     19.3601   3.5642913786e+02   3.6394164858e+01    0.3076356    0.2242778 -83.69  0.001245094    1.294    0.227
        92 -10.5846    128.9669     18.4882   2.7578582698e+00   5.0799038571e+01    0.2195945     0.129476  71.84  0.001036208    1.600    0.375
        93 -13.6022    199.6880    176.4960   3.1897868399e+01   9.4060069251e+00    0.9209166    0.6827968 -41.92  0.005668575    1.425    0.298
        94 -13.8459    189.0887    193.9758   3.6883856911e+01   8.1243989224e+00     0.643945    0.4658797  26.95  0.002851491    1.332    0.249
        95 -14.1794    194.1696    186.0427   3.4590521436e+01   8.6729412542e+00     1.183747    0.6811204  39.27  0.006057834    1.876    0.467
        96 -10.9533     79.3234    224.6639   6.4598159891e+01   1.7442541005e+01    0.1331797   0.07867862  55.01 0.0004830264    1.714    0.417
        97 -12.9172    221.0305    222.4155   3.5884492822e+01   2.5126606053e-01    0.2420842    0.1702875  28.89  0.001736693    1.539    0.350
        98 -11.8318    144.8054    202.9100   4.7203541793e+01   1.2804164059e+01    0.4850734    0.2525629  14.85  0.002102011    2.615    0.618
        99 -12.6461    146.3156    207.8517   4.7614145644e+01   1.1724217145e+01    0.6706528    0.3578145   6.64  0.002762083    3.171    0.685
       100 -11.2091     93.4891    207.4980   5.9519104787e+01   1.9038246788e+01    0.1303522    0.1148084  34.78 0.0008104729    1.024    0.024
       101 -11.7082     93.7031    199.0221   5.8457625697e+01   2.0755316197e+01    0.1790171    0.1753359  77.28  0.000895828    1.116    0.104
       102 -10.9028    141.1804    197.5617   4.7178696590e+01   1.4290917847e+01    0.2970237    0.1196747  24.96  0.001129833    2.982    0.665
       103 -10.6993     98.0294    185.9517   5.5670185658e+01   2.2946792257e+01    0.2145759    0.1647363 -17.72  0.001126951    1.650    0.394
