#   1 NUMBER                 Running object number                                     
#   2 MAG_AUTO               Kron-like elliptical aperture magnitude                    [mag]
#   3 X_IMAGE                Object position along x                                    [pixel]
#   4 Y_IMAGE                Object position along y                                    [pixel]
#   5 X_WORLD                Barycenter position along world x axis                     [deg]
#   6 Y_WORLD                Barycenter position along world y axis                     [deg]
#   7 A_WORLD                Profile RMS along major axis (world units)                 [deg]
#   8 B_WORLD                Profile RMS along minor axis (world units)                 [deg]
#   9 THETA_WORLD            Position angle (CCW/world-x)                               [deg]
#  10 FWHM_WORLD             FWHM assuming a gaussian core                              [deg]
#  11 ELONGATION             A_IMAGE/B_IMAGE                                           
#  12 ELLIPTICITY            1 - B_IMAGE/A_IMAGE                                       
         1 -12.4226     74.8528     51.6581   8.1588405019e+01   5.7393398692e+01     1.342081    0.7741867 -48.22  0.006321926    1.862    0.463
         2 -13.3853     42.0600     45.6568   9.2123430783e+01   6.3164180243e+01     0.775278    0.5792529  52.30  0.000501847    2.001    0.500
         3 -11.9301     27.4263     55.0848   1.0138736152e+02   6.2764218814e+01     1.188057    0.6263012 -46.91  0.006414863    1.501    0.334
         4 -12.0898    124.8942     28.0009   5.7793578786e+01   5.0548591242e+01    0.8283816    0.4147306  44.92  0.002552792    1.896    0.473
         5 -12.2233     60.5332     46.0611   8.4799114893e+01   6.0662362668e+01     1.121183    0.5183455 -44.64  0.005070591    2.051    0.512
         6  -9.7130     50.0119      6.3155   7.1248125744e+01   6.8167421028e+01    0.2056357    0.1375583  17.27 0.0004298404    1.356    0.263
         7 -11.2821      6.3531     34.0722   1.0430351781e+02   6.8481776468e+01     2.071989    0.2416099 -52.32  0.007644123    3.801    0.737
         8 -10.4699     47.0663     18.9292   7.8774214953e+01   6.6985341659e+01    0.3624762     0.295756 -25.22  0.001719209    1.233    0.189
         9 -10.2588     32.0481     12.3288   8.2451205979e+01   6.9891845423e+01    0.2059753    0.1904402 -17.31 0.0005968112    1.452    0.311
        10 -11.1966     14.2456     23.5105   9.6526503528e+01   6.9881021226e+01    0.3668098     0.287152 -10.79 0.0002144428    1.186    0.157
        11 -10.9593     22.3328      5.4318   8.3828511159e+01   7.1968983001e+01    0.2731179    0.1728989 -35.51 0.0007591493    1.485    0.327
        12 -11.9479     36.3543     18.6853   8.3482911801e+01   6.8439930183e+01    0.8575068    0.4364083 -27.24  0.004567909    1.813    0.448
        13 -12.2150     48.9206     12.7902   7.4995421945e+01   6.7546209317e+01     0.641539    0.3113657  39.83  0.003342077    2.080    0.519
        14 -11.7990     26.0373     28.0526   9.2534479842e+01   6.8056199570e+01    0.4663461    0.3855225 -34.24  0.002205424    1.194    0.163
        15 -12.5567     16.9046     13.3236   9.0676269605e+01   7.1346302221e+01    0.7609956    0.4645938 -24.70  0.003341884    1.338    0.253
        16 -12.1639     22.6782     11.6134   8.6809835964e+01   7.1045754743e+01     0.506907    0.3360586  -6.59  0.002087761    1.365    0.268
        17 -11.4151    106.0206     20.2887   5.9372775233e+01   5.5826125034e+01    0.3687484     0.234435 -33.06 0.0005883715    1.669    0.401
        18 -11.6934    137.7735     23.1784   5.3338155044e+01   4.7975958623e+01    0.7705585    0.5670035  52.45  0.001712748    1.244    0.196
        19 -11.4697    148.5951     21.2018   5.0657146066e+01   4.5489638499e+01     1.694807      1.08097 -62.57   0.00789322    1.988    0.497
        20 -10.8990    178.7859     21.0387   4.5952344836e+01   3.7826951485e+01    0.5898605     0.345662  38.19  0.002138174    2.106    0.525
        21 -11.6615     20.1620     22.1411   9.2948868712e+01   6.9616511218e+01    0.6721247    0.2240964 -44.03  0.003164418    2.381    0.580
        22 -10.7970    214.6943     22.9202   4.2190852610e+01   2.8677275728e+01    0.4469668    0.3367505   6.27  0.002384585    1.923    0.480
        23 -10.6783     87.5115      7.4785   5.8909718543e+01   6.1156285376e+01    0.5657815    0.2891593  56.87    0.0026707    1.934    0.483
        24 -11.2155     90.7325     20.6573   6.3745452130e+01   5.9078070841e+01    0.6080621    0.3837368 -28.62   0.00264608    1.610    0.379
        25 -11.3691     85.9641     14.5530   6.2512247693e+01   6.0750973590e+01    0.7377212    0.4229324   9.10  0.002996506    2.198    0.545
        26 -11.9619     68.1923     18.1832   7.0034618222e+01   6.3710537708e+01    0.4930257    0.4347325   5.49  0.001789941    1.103    0.093
        27 -12.2035    237.7434     15.8495   3.8347811380e+01   2.4130724582e+01    0.5780936    0.3905227  59.18  0.002604386    1.637    0.389
        28  -9.5397    120.2056     19.8677   5.5807496988e+01   5.2603109507e+01    0.4324997    0.1835929 -30.92  0.001563569    2.407    0.585
        29 -11.1525    165.0983     17.8534   4.6926177311e+01   4.1662009853e+01    0.4634237    0.2767311  39.52  0.001464496    1.897    0.473
        30 -10.3727    226.1371     15.4187   3.9242856196e+01   2.6835441554e+01    0.3851618    0.1855692 -41.96  0.001792548    1.843    0.457
        31 -12.0330    132.1214     15.0259   5.1538554544e+01   5.0237474784e+01     1.156155    0.5190327  70.78  0.003985426    2.492    0.599
        32  -9.5315    141.3573     12.4529   4.8947447894e+01   4.8208089365e+01    0.2308864    0.1673818  -1.54 0.0007928783    1.626    0.385
        33 -12.2364    104.5052     12.6879   5.6662260744e+01   5.6973438525e+01    0.5043246    0.4489039 -35.54  0.001857788    1.290    0.225
        34 -11.3331    211.8146      9.8704   3.9194624295e+01   3.0834016557e+01    0.4819884    0.3203409   8.42  0.001206238    2.456    0.593
        35 -11.2905    192.3807      7.8455   4.0600735042e+01   3.5798937144e+01    0.5577092    0.3464615   7.81  0.002120281    2.582    0.613
        36  -9.6763     94.4722     12.0934   5.9008212088e+01   5.9233427596e+01    0.2103013    0.1755695  65.60 0.0004228818    1.385    0.278
        37  -8.7170      4.3246     11.7759   9.6888087724e+01   7.2598533419e+01     0.311312    0.1516123 -40.78  0.001892238    1.538    0.350
        38 -12.1511    246.8840      6.8896   3.5660085694e+01   2.3114705001e+01    0.5384331    0.4787086  -6.47  0.003020276    1.547    0.353
        39 -10.8413    241.9161      3.9395   3.5366904760e+01   2.4519017495e+01    0.2892892    0.1778916 -84.24  0.001151364    1.508    0.337
        40  -9.9071    168.9233      9.7462   4.3914760569e+01   4.1513644673e+01    0.3698404    0.1654905  49.00  0.001564379    2.242    0.554
        41  -9.1204    163.0133      9.9831   4.4785133245e+01   4.2989115127e+01    0.1897478    0.1775633  79.68 0.0006208822    1.041    0.039
        42  -9.6585    163.5818      5.4604   4.3313347895e+01   4.3267223025e+01    0.3386854    0.2177967  27.56  0.001553106    1.965    0.491
        43 -10.1578     66.0187     10.0738   6.6973053264e+01   6.5057165209e+01    0.3268391     0.195543  52.91  0.001444855    1.921    0.479
        44  -9.7572     62.9442      6.6401   6.6394842981e+01   6.5975810058e+01     0.273892    0.1875005   9.55  0.001404457    1.369    0.270
        45 -11.3761    234.3579      6.6667   3.6527913527e+01   2.5913748389e+01    0.5472592    0.2897618  59.18  0.002584719    2.017    0.504
        46 -10.2848    228.0392      3.4807   3.6283408859e+01   2.7688666785e+01    0.2875006     0.241043 -47.41  0.001874666    1.194    0.162
        47 -10.9736    218.7885      3.2652   3.6967880270e+01   2.9860188706e+01    0.2977009    0.2816309 -66.61  0.001058345    1.183    0.155
        48 -10.3456    223.5122      2.0073   3.6291742852e+01   2.8884409057e+01    0.2942793    0.2127441  73.59  0.001071902    1.321    0.243
        49 -11.0449     40.9302      5.4918   7.4740894291e+01   6.9622603571e+01    0.4630266     0.232558  -8.96  0.002229705    2.517    0.603
        50 -10.4798    183.5096      4.4922   4.0635886040e+01   3.8337010423e+01    0.3862947    0.2479452 -27.50  0.001818922    1.697    0.411
        51  -9.7601    154.1770      7.3044   4.5195472929e+01   4.5474384364e+01    0.5378283    0.1442105  64.07  0.001885438    2.982    0.665
        52 -10.9976     75.0856      4.4033   6.1191284170e+01   6.3947892863e+01    0.6386771    0.4386095  55.92  0.003712314    1.582    0.368
        53  -9.3203      1.1562      7.1252   9.6602877119e+01   7.3567262498e+01    0.1442381   0.05964513 -45.69 0.0004887867    1.884    0.469
        54 -10.6928    176.5684      5.5767   4.1732711986e+01   3.9978250680e+01    0.3796289    0.2194481  83.27 0.0009623454    1.705    0.414
        55 -10.8435    115.1134      3.2135   5.0477729938e+01   5.5396073585e+01    0.6989911    0.2437425  52.05  0.001565929    2.288    0.563
        56 -10.4989    142.3598      3.0414   4.5564568811e+01   4.8806174895e+01    0.3872852    0.2671258  51.79  0.001667173    1.303    0.232
        57 -11.7054    133.6844      2.6908   4.6844946925e+01   5.0977499439e+01    0.4137391    0.2675051  58.02  0.001411193    1.336    0.251
        58  -9.9028    207.7044      2.9583   3.7839494474e+01   3.2530112524e+01     0.264734    0.1785273  79.28 0.0009094708    1.339    0.253
        59  -9.4397    204.4901      1.4948   3.7757687366e+01   3.3449170767e+01    0.2195364    0.1140993  74.10 0.0006987946    1.733    0.423
        60  -9.3833    169.7426      2.9373   4.1774462311e+01   4.1938859053e+01    0.2323169    0.1254562 -55.97  0.001068849    2.091    0.522
        61  -9.1666    157.4876      2.5420   4.3216173776e+01   4.5061005580e+01    0.2093837    0.1831418  20.70  0.001268889    1.298    0.229
        62  -9.0506    160.9315      1.0000   4.2284519668e+01   4.4325592537e+01    0.2979261   0.07626817  65.25 0.0009890387    3.016    0.668
        63 -11.1739      3.3571      1.7958   9.2677849100e+01   7.4239105208e+01     0.403247    0.1660892  14.12  0.002176535    2.771    0.639
        64 -10.3339     12.8323      1.8534   8.7136225318e+01   7.3429389709e+01     0.247231    0.1392148  15.66  0.001079115    1.768    0.434
        65  -8.7180    152.0108      1.1917   4.3534370043e+01   4.6550028486e+01    0.1841165   0.09313113  68.91 0.0005396065    1.744    0.426
        66 -10.3919     82.2094      1.3210   5.7605894234e+01   6.2805975254e+01    0.1967559    0.1028041  52.43 0.0003202644    1.721    0.419
        67 -10.8718    106.1923      1.8365   5.1816597492e+01   5.7570080882e+01    0.5825101    0.2062802  64.41  0.001615828    2.799    0.643
        68  -9.5185    239.8226    146.8473   6.8872598014e+01   3.8630111474e+00    0.2114826    0.1728827  -4.30 0.0005815187    1.195    0.163
        69 -10.2151    142.9386    249.5063   1.0575304551e+02   4.1139461838e+00    0.1702566    0.1568089  50.10  0.001074673    1.162    0.139
        70 -10.7113    249.5663    142.5540   6.6330663544e+01   2.7757631647e+00    0.5860593    0.2284976 -31.77  0.002335856    2.396    0.583
        71  -9.9360    107.2746    145.9656   9.7513356587e+01   3.0801795150e+01    0.2399701    0.2102058  49.87 0.0004068429    1.151    0.131
        72 -10.7439     33.1227    144.4824   1.1671392060e+02   4.1491515233e+01    0.3862712    0.2627001  42.96  0.002263267    1.586    0.370
        73 -11.1862    133.4061    141.5721   8.9930077767e+01   2.6827021731e+01    0.3371969    0.2851894 -69.11 0.0004030487    1.259    0.205
        74 -11.7973     23.5475    134.9365   1.1804471255e+02   4.4656578499e+01    0.9000266    0.3520774  42.89  0.004177743    2.694    0.629
        75 -12.2184     29.9939    132.8288   1.1605791211e+02   4.4583936761e+01    0.7063479    0.3771354 -62.97 0.0003813718    1.545    0.353
        76 -10.3535     39.4003    138.1715   1.1425325533e+02   4.2370692399e+01    0.2937946    0.2458887  14.46  0.001820881    1.564    0.361
        77  -9.6470     79.4823    137.9920   1.0335425832e+02   3.7313138286e+01    0.3129995    0.2010314 -66.29   0.00138155    1.490    0.329
        78  -9.6813     82.3423    135.2925   1.0205837998e+02   3.7531908955e+01    0.2296388    0.1811707   3.05 0.0006265346    1.761    0.432
        79 -10.6368     67.5860    135.7012   1.0619844517e+02   3.9582249487e+01    0.3392113    0.2483254 -39.15 0.0009580398    1.580    0.367
        80  -8.8475    216.7020    135.3076   7.0314981298e+01   1.0365270221e+01    0.1414123    0.1150064 -67.91 0.0003199418    1.592    0.372
        81 -11.0757     93.0871    131.2965   9.8288340709e+01   3.6766504161e+01    0.7025518    0.2964199 -58.65  0.002604824    2.364    0.577
        82 -10.2629     74.3570    132.5853   1.0375092727e+02   3.9387324277e+01    0.3077216    0.2350477 -29.94  0.001580927    1.640    0.390
        83 -10.0631     62.1032    132.1801   1.0710037146e+02   4.1173814479e+01    0.3825352    0.2948562 -47.00  0.002113704    1.342    0.255
        84  -9.6423     39.0350    132.6954   1.1357993620e+02   4.3732454470e+01    0.2361853    0.1612326  82.79 0.0008245692    1.511    0.338
        85  -9.2619    103.6771    130.7890   9.5275442304e+01   3.5046000641e+01    0.1966491    0.1851612  34.06  0.000401238    1.145    0.127
        86 -10.9220     10.8131    127.0922   1.2051956115e+02   4.7519502651e+01    0.5137877    0.1971435 -58.25  0.001547944    2.116    0.527
        87 -10.2386     82.0811    125.3949   1.0013692200e+02   3.9974361861e+01    0.3521795    0.2593248 -19.04 0.0009862282    1.907    0.476
        88 -10.1664    241.6960    127.6931   6.4265126642e+01   6.6621980173e+00    0.1816257    0.1384389  62.62 0.0006244916    1.660    0.398
        89  -9.2045    224.0129    126.9361   6.7042706021e+01   1.0334925554e+01    0.2202841    0.1694167 -61.89 0.0005492321    1.613    0.380
        90 -11.0135      4.4550    120.6212   1.2152407566e+02   4.9464588800e+01    0.8499187   0.08552007 -59.10  0.002865545    4.324    0.769
        91 -11.4662      2.3519    112.0483   1.2114910186e+02   5.1593610555e+01    0.3822257    0.2754494 -84.30  0.001321677    1.162    0.139
        92 -11.5445      3.8490    105.3811   1.1990760289e+02   5.3061375629e+01    0.4097087    0.3449346 -71.02  0.001884612    1.099    0.090
        93 -10.6852     55.9380    123.5117   1.0731185270e+02   4.4069266967e+01    0.5286061    0.4112183   0.99  0.002438898    1.751    0.429
        94  -9.6063     49.7977    122.9751   1.0899947296e+02   4.4927468223e+01    0.2442928    0.1943569  -5.99 0.0009080056    1.693    0.409
        95 -11.2043     45.5276    120.3316   1.0978887299e+02   4.6048069427e+01     0.676015    0.3390731 -87.93   0.00252552    3.016    0.668
        96 -10.4222     47.2905    135.9801   1.1181057512e+02   4.2045795841e+01    0.4958416    0.1742366 -61.87  0.001363234    2.335    0.572
        97  -9.6751     18.7354    124.2377   1.1802604566e+02   4.7603725803e+01    0.3505288    0.1107561 -62.93  0.001509653    2.326    0.570
        98 -11.9550    104.1435    122.1199   9.3172283268e+01   3.7018270897e+01    0.4772968    0.4322948 -38.70  0.001439673    1.134    0.118
        99  -9.5296     66.9514    124.3534   1.0427685473e+02   4.2438547630e+01    0.3018845    0.2005861   5.87  0.001372267    2.384    0.580
       100 -10.2446     22.9978    126.9685   1.1719950530e+02   4.6606395451e+01    0.1856221     0.150234 -75.84            0    1.014    0.014
       101  -9.1411    148.1922    119.9798   8.1079148689e+01   2.8491000093e+01    0.2597411    0.1829156 -15.92 0.0007210729    1.968    0.492
       102  -9.3208     71.7724    120.4512   1.0209070092e+02   4.2714966347e+01    0.1805018    0.1420394  11.89 0.0008792076    1.627    0.386
       103 -10.7090     33.2740    119.2551   1.1319574415e+02   4.7550385992e+01     0.298638    0.2523651  86.06   0.00182355    1.167    0.143
       104  -8.8352     13.6740    118.7545   1.1874931141e+02   4.9285599180e+01    0.1170028   0.07961525 -46.16 0.0002367315    1.535    0.349
       105  -9.4905    113.6425    115.9141   8.9025916086e+01   3.6669681790e+01    0.2519619    0.2185488  22.81 0.0005548956    1.286    0.222
       106  -9.5744     67.6668    114.3408   1.0203103031e+02   4.4774059956e+01    0.3164789     0.214862  80.86  0.001470755    1.999    0.500
       107  -9.8882     67.3928    110.5145   1.0128715969e+02   4.5735338883e+01    0.3358129     0.226874  28.96  0.001684852    1.708    0.414
       108 -11.0571     42.2535     94.0572   1.0574205034e+02   5.2700069006e+01    0.4252732    0.3138863 -86.20    0.0015812    1.559    0.359
       109 -11.9939     33.3146     93.6659   1.0865083561e+02   5.3660948732e+01     1.317277    0.8744601 -88.46  0.006993991    1.807    0.447
       110 -12.7342     19.3148     91.1125   1.1284880206e+02   5.5398285906e+01     0.821205    0.5267589 -74.05  0.001726722    1.400    0.286
       111 -12.2431     42.0185     85.4484   1.0387223235e+02   5.4727409330e+01     1.483843    0.4285755  25.77  0.005276211    4.274    0.766
       112 -11.6437     17.0755    100.9638   1.1523448013e+02   5.3251302365e+01     0.268584    0.2300934 -66.06 0.0003922123    1.079    0.073
       113 -12.9233     25.4752    106.7393   1.1354412321e+02   5.1240157005e+01    0.9521818     0.729445 -17.17  0.003911627    1.663    0.398
       114 -11.9286     18.7504    106.1379   1.1551511970e+02   5.1907907481e+01    0.2556771    0.2184031 -50.70 0.0002444481    1.194    0.162
       115 -11.6001      9.2767     96.7931   1.1705661920e+02   5.4741778143e+01    0.5105686    0.4420941  79.65  0.002089715    1.264    0.209
       116 -12.0320      7.1280     88.7793   1.1651557954e+02   5.6722241808e+01    0.4759834    0.4531887  42.31  0.001809834    1.327    0.247
       117 -11.3708     22.6629    114.0322   1.1551706308e+02   4.9727901911e+01    0.3702179    0.2466243   3.04  0.002096222    2.128    0.530
       118 -11.2255     28.3159    113.1095   1.1369937718e+02   4.9476954177e+01    0.3807058    0.2591888   8.77   0.00151246    1.998    0.500
       119  -9.0153    126.7717    113.5990   8.4876791640e+01   3.4533374045e+01    0.2107875    0.1490153  54.89 0.0006243845    1.538    0.350
       120  -9.5523     94.0304    112.0663   9.3646645662e+01   4.1201830471e+01     0.422905    0.2427916  34.17  0.001811621    1.940    0.484
       121 -10.6008    107.6109    111.9421   8.9704536116e+01   3.8754207083e+01    0.7876071    0.4415897 -70.14  0.002759696    2.918    0.657
       122 -10.5482    101.7752    110.3778   9.0973847447e+01   4.0211081617e+01     0.482641     0.397234  60.07  0.002020518    1.346    0.257
       123  -9.7516    103.2946    106.2920   8.9479394006e+01   4.0874849495e+01    0.2487482    0.2178887  20.77 0.0004652541    1.266    0.210
       124  -9.7991     48.8956    112.2681   1.0732006177e+02   4.7631180555e+01    0.2381668    0.2067267  53.85  0.001049324    1.288    0.223
       125 -10.4737    170.3651    110.5483   7.3454747413e+01   2.5407081397e+01    0.4316014    0.3403897 -43.45  0.001730092    1.244    0.196
       126 -11.3324     79.4494    108.4884   9.7136966456e+01   4.4451855821e+01    0.7310863    0.3982467  40.30  0.002572071    1.976    0.494
       127 -10.2792     90.2100    104.4098   9.2863700149e+01   4.3657883576e+01    0.3844415    0.2570143  31.04  0.001337608    1.687    0.407
       128 -10.5499     85.9269    103.8728   9.4026921967e+01   4.4503668864e+01    0.4599242    0.3188604 -16.70  0.001302386    2.063    0.515
       129 -10.1647    120.3949    109.3985   8.5486796614e+01   3.6802323183e+01    0.3198483    0.2348038 -36.94   0.00147539    1.396    0.284
       130  -9.4430    175.5059    108.1170   7.1691938777e+01   2.4689694503e+01    0.4325388    0.1523617 -39.23  0.001374211    2.772    0.639
       131  -9.1967    129.9754    110.0000   8.3079003248e+01   3.4657368256e+01    0.2623455   0.09001371  44.80  0.000808555    2.985    0.665
       132  -9.4743     58.4344    108.6443   1.0364961658e+02   4.7368481325e+01     0.260576    0.1263018 -64.69 0.0007630525    1.990    0.497
       133  -9.9489    157.5735    106.4173   7.5244996762e+01   2.9230333649e+01    0.3776969    0.2785987  -5.63  0.001604116    1.876    0.467
       134 -10.0545    143.3177    106.0145   7.8576225024e+01   3.2585613548e+01    0.3139798    0.2850544  63.37  0.001349338    1.160    0.138
       135 -11.0458    145.4878    100.6582   7.6550621799e+01   3.3219925311e+01    0.5138086    0.4735606  12.77  0.002495778    1.164    0.141
       136  -9.6972     45.7126    105.8839   1.0706803551e+02   4.9522140314e+01    0.1950352    0.1541938 -52.67 0.0009779236    1.129    0.114
       137  -9.9017     57.2932    102.9393   1.0277491560e+02   4.8879088727e+01    0.3508887    0.1701226 -60.95  0.001473688    1.870    0.465
       138  -8.8213     82.4230    102.5066   9.4756870562e+01   4.5394789463e+01    0.1475705    0.1327385 -44.78 0.0001204518    1.048    0.046
       139  -9.7089     50.5232    101.9269   1.0472315464e+02   4.9931994566e+01    0.3395297    0.2353386  -5.62  0.001724321    2.027    0.507
       140 -10.7868     52.1901     95.6036   1.0277960400e+02   5.1236545074e+01    0.6340753    0.3431506 -74.14  0.002497117    2.352    0.575
       141  -9.5180    120.5943    101.2609   8.3217608257e+01   3.8574143295e+01    0.2233052    0.1439988 -35.43 0.0009244016    1.631    0.387
       142 -11.4160     67.2615     95.5189   9.7804910610e+01   4.9311962997e+01    0.5203294    0.4697874  -1.23  0.002033243    1.236    0.191
       143 -10.8151     89.7173     89.6647   8.9017083745e+01   4.7107815990e+01    0.8959171     0.504571 -25.90  0.003400275    2.640    0.621
       144  -9.8433     77.5129     96.9601   9.4873638286e+01   4.7462916953e+01    0.3131315    0.3051367  57.78  0.001046005    1.128    0.113
       145 -10.4318     82.9431     93.4728   9.2220435316e+01   4.7398367682e+01    0.3998737    0.3193288  24.53  0.001274355    1.400    0.286
       146 -10.5680     76.4690     93.0188   9.4169410620e+01   4.8533236885e+01    0.5702075     0.391889   1.66  0.002007288    2.124    0.529
       147  -9.7231    210.4998     98.0032   6.2276141453e+01   1.8399210870e+01    0.2820106    0.2107147  36.38 0.0009825928    1.521    0.342
       148  -9.6705     60.5459     97.5439   1.0048818053e+02   4.9744449145e+01    0.2284992    0.1634422  57.11 0.0007471546    1.732    0.423
       149  -9.6105     57.4897     97.5339   1.0148324422e+02   5.0137041437e+01    0.2240967    0.2007657 -54.56 0.0007351125    1.024    0.023
       150  -9.3833    141.4327     95.9531   7.6221297596e+01   3.5127432782e+01     0.446157    0.1933965  42.54  0.001542362    2.449    0.592
       151 -10.5467    120.9906     89.3017   7.9656359097e+01   4.1063921466e+01    0.4542625    0.3051897  39.32  0.001622317    1.557    0.358
       152 -10.7557    121.0647     85.0319   7.8346950855e+01   4.1934733702e+01    0.3932771    0.3100834  48.61  0.001289388    1.313    0.239
       153 -10.1248    122.3908     93.7861   8.0592801661e+01   3.9814787207e+01    0.3013517    0.2380185 -38.34 0.0007172611    1.242    0.195
       154 -10.1925    125.9676     93.5028   7.9536594754e+01   3.9102605912e+01    0.3680796    0.2930052  34.33  0.001012484    1.329    0.248
       155 -11.3765    102.4813     89.7677   8.5130101326e+01   4.4738512132e+01    0.8662806    0.6085296 -29.77  0.004017946    1.545    0.353
       156 -10.8712    113.1471     84.9185   8.0544133769e+01   4.3637881683e+01    0.6395973    0.3275032 -36.06  0.001925409    2.048    0.512
       157 -10.5249    108.9875     80.6576   8.0436207522e+01   4.5377955854e+01    0.3751471     0.320449 -20.48   0.00107908    1.205    0.170
       158 -10.2999    104.7742     76.4992   8.0372221443e+01   4.7080623103e+01    0.4568049    0.3354071  69.84  0.002086564    1.906    0.475
       159 -10.4450    152.1963     91.7706   7.2391545245e+01   3.3461924921e+01     0.387847    0.3299807 -86.93  0.001331131    1.388    0.280
       160 -10.0615    117.5436     93.1219   8.1743881656e+01   4.0983192910e+01    0.4562525    0.3013656  30.09  0.001224357    1.774    0.436
       161 -10.0561     98.9512     61.7810   7.7231474694e+01   5.1103663854e+01     0.414564    0.2664581 -19.00   0.00183713    1.889    0.471
       162 -10.0911     94.4020     76.1917   8.3466381711e+01   4.9154536845e+01    0.5596635    0.3430744  32.09   0.00220138    1.815    0.449
       163  -9.6191    174.7809    246.5623   9.9450121396e+01  -4.5244794120e-01    0.2449467   0.09710781  36.53  0.001147902    2.106    0.525
       164 -10.8429     91.0935     47.9894   7.4698054111e+01   5.5084480393e+01    0.4994592     0.251186 -26.58   0.00130799    2.242    0.554
       165 -10.3335     67.2894     81.8131   9.4134104818e+01   5.2432809228e+01     0.536229    0.3773849 -35.79  0.002779087    1.371    0.271
       166 -11.6693     85.7365     73.7524   8.5478100039e+01   5.1226976505e+01    0.6522312    0.5580145  44.06  0.002452738    1.287    0.223
       167 -10.9566     79.0754     82.7622   9.0441421043e+01   5.0424698302e+01     0.625735    0.4969946 -69.87  0.002538966    1.490    0.329
       168 -11.8035     73.6097     77.7282   9.0778421373e+01   5.2385734347e+01     1.394648    0.6544137 -28.40  0.004656988    3.646    0.726
       169 -11.0080     79.9032     67.7087   8.5461644767e+01   5.3464932901e+01      0.58772    0.3965604  39.46  0.002387223    1.588    0.370
       170 -10.6045     84.0477     64.3360   8.2925745002e+01   5.3420153537e+01    0.3457326     0.229572 -30.41 0.0004781863    1.498    0.332
       171 -11.0051     91.4256     62.6894   7.9928625734e+01   5.2391848044e+01    0.4879875       0.3493  53.09  0.001686516    1.644    0.392
       172 -11.5688     90.0495     57.7339   7.8628343219e+01   5.3575661941e+01    0.6797237    0.4937434  40.62  0.003507674    1.423    0.297
       173  -9.8799    199.9365     87.8955   6.1482038953e+01   2.2652785401e+01    0.2264823    0.2151826 -53.30  0.000459727    1.019    0.018
       174 -10.1658    183.8486     86.3973   6.4057372777e+01   2.6809434521e+01    0.6228228    0.2240229 -44.33  0.002019395    2.802    0.643
       175 -10.3611    165.7604     83.5954   6.6953523036e+01   3.1755679050e+01    0.4143139    0.3043994 -52.23  0.001499898    1.430    0.300
       176 -11.3452    143.1347     84.0964   7.2303171545e+01   3.7117314261e+01    0.3581174    0.3313529  46.51 0.0005864358    1.092    0.085
       177 -10.1031    127.2618     82.8307   7.5986140473e+01   4.1017936583e+01    0.4195109    0.2633747 -50.59  0.001641535    1.698    0.411
       178  -9.6899    127.4085     77.2055   7.4191727273e+01   4.2095039272e+01    0.3269852    0.2388853 -60.99  0.001474284    1.660    0.398
       179  -9.6980    124.9751     73.1614   7.3550278387e+01   4.3421041016e+01    0.3421552    0.2406667  71.75  0.001121955    1.939    0.484
       180 -11.5472    122.5027     68.5263   7.2703441496e+01   4.4846865885e+01    0.5958074    0.4017576  41.27  0.002734136    1.506    0.336
       181  -9.6672     60.5008     83.0987   9.6829144108e+01   5.3082268836e+01    0.2497833     0.217088 -55.73 0.0009613574    1.108    0.098
       182 -11.1958     46.9471     74.2313   9.9236227336e+01   5.6723859842e+01     0.305974    0.1969461 -53.23 -0.0006383859    1.346    0.257
       183 -11.1055     57.8971     77.6328   9.6226325333e+01   5.4642975902e+01    0.3539852    0.2640135 -62.06 0.0004806014    1.383    0.277
       184 -12.9316     52.3179     73.4981   9.7061134647e+01   5.6253538133e+01    0.5726151    0.3056385 -58.16 0.0007702755    1.829    0.453
       185  -8.7605    118.6464     80.2885   7.7552613634e+01   4.3422310084e+01    0.1533794    0.1234669 -88.48 0.0006465389    1.673    0.402
       186 -10.0354      1.3673     78.8526   1.1686201685e+02   5.9282796908e+01    0.3400896    0.1274506 -76.07   0.00138497    2.574    0.611
       187 -11.4417      1.9685     71.2952   1.1532538509e+02   6.0942142630e+01    0.3992698    0.1686852 -67.18   0.00204737    1.836    0.455
       188 -12.3918      6.2860     62.4548   1.1190369324e+02   6.2662510365e+01    0.6956733    0.3838966 -33.89  0.003082108    1.752    0.429
       189 -10.5183    232.3415     76.2222   5.3405121015e+01   1.7072941753e+01    0.5541127     0.277537 -54.28  0.002265925    2.263    0.558
       190  -8.5412     33.2966     78.3197   1.0528991832e+02   5.7203475075e+01    0.1355548   0.08155517 -37.18 0.0007018607    1.615    0.381
       191 -11.8639     14.0488     74.6212   1.1152342951e+02   5.9526571229e+01    0.4493339    0.3065428 -62.25  0.001765119    1.179    0.152
       192 -10.4200     14.4866     67.3182   1.0978343341e+02   6.1119358715e+01    0.3429525    0.2782297 -10.19  0.002149776    1.402    0.287
       193 -12.0635    186.2375     69.8814   5.8965463114e+01   2.9086127154e+01     1.107843    0.6238062 -38.45  0.003951925    1.711    0.415
       194 -10.6970     65.2268     74.9867   9.2860587196e+01   5.4223885434e+01    0.4428228    0.3143529  -0.74  0.001229555    1.792    0.442
       195  -9.5503    102.7716     80.2192   8.2151356519e+01   4.6715291739e+01     0.339747    0.1842051 -31.13  0.001152751    2.145    0.534
       196 -10.6367     15.6630     44.3931   1.0322996405e+02   6.5859947913e+01    0.8605947    0.2624474 -32.60  0.002991511    4.654    0.785
       197 -10.5584     22.3552     36.9244   9.7683669033e+01   6.6787520833e+01    0.5382073    0.2970584  46.53   0.00269263    3.133    0.681
       198 -10.1994     53.2964     49.1914   8.8810657444e+01   6.1099632675e+01     0.450562    0.3671953 -88.79  0.002504034    2.078    0.519
       199 -11.7817     40.9148     70.4867   1.0045238313e+02   5.8201588834e+01    0.6918895    0.2672523 -50.51  0.001797371    2.076    0.518
       200 -11.4884     32.3083     72.0693   1.0411895496e+02   5.8691681997e+01    0.5337603    0.2721933  26.18  0.001930246    2.280    0.561
       201  -9.5357    199.0669    244.5181   9.4695812824e+01  -3.9434169602e+00    0.1908445   0.09718894  38.26  0.001038272    1.617    0.382
       202 -11.7280     21.3450     47.0344   1.0152956158e+02   6.4906665196e+01    0.4914045    0.2674712 -41.12  0.002774079    1.472    0.321
       203 -12.1598     48.6330     60.2557   9.4439847488e+01   5.9507370889e+01    0.7087859    0.5229995  44.34  0.002328686    1.706    0.414
       204 -11.1089     40.8985     57.0642   9.6480662978e+01   6.1044957838e+01    0.3687188     0.293595  58.48  0.001558681    1.817    0.450
       205 -11.0057    128.0650    242.0293   1.0765786961e+02   7.6191343848e+00     0.327521     0.306327  32.20  0.002365687    1.225    0.184
       206 -11.1648     33.6711     58.0945   9.9721860100e+01   6.1570222389e+01    0.4197261    0.2195398 -33.06 0.0006882343    1.907    0.475
       207 -11.0876     20.2524     55.1014   1.0438476694e+02   6.3339779549e+01    0.3437501    0.2813118  11.98 0.0008732124    1.422    0.297
       208  -9.6825     24.4039     72.9121   1.0729765087e+02   5.9172399912e+01    0.3265668    0.1370226 -65.19  0.001468419    2.206    0.547
       209  -8.9556     20.2384     71.9584   1.0864293962e+02   5.9699510644e+01    0.1783015    0.1402361 -54.63  0.001153922    1.029    0.029
       210  -9.6183    162.1687     70.8957   6.3946678159e+01   3.4929230099e+01    0.2454911    0.2106247 -71.98  0.001086347    1.288    0.223
       211  -9.6562    172.4667     68.5114   6.1142578716e+01   3.2762410720e+01    0.2939053    0.2187744  32.69  0.001221461    1.562    0.360
       212  -9.8691    172.0357     65.2438   6.0256183012e+01   3.3415429147e+01    0.4147841    0.3421928 -64.01  0.001986882    1.301    0.231
       213 -11.3877    219.8635     66.5504   5.2714515888e+01   2.1442521288e+01    0.5513594    0.3593606  66.02  0.001939497    1.631    0.387
       214  -9.0886     64.3335     62.4473   8.9216156869e+01   5.6974050521e+01    0.3844548    0.1693744  49.90  0.001323125    3.708    0.730
       215 -10.6295     59.4911     63.5582   9.1372543869e+01   5.7432742142e+01     0.482692     0.204936 -44.18  0.001827769    2.070    0.517
       216 -10.1974     57.3087     61.3062   9.1453665659e+01   5.8188562777e+01    0.2497273    0.2034655 -15.76 0.0006044012    1.202    0.168
       217 -10.6477     21.1540     65.4552   1.0674710008e+02   6.1063637626e+01     0.232137    0.1883478 -74.89   0.00059823    1.349    0.259
       218  -9.5765     25.8784     65.3794   1.0487480549e+02   6.0711343511e+01    0.2466606    0.1544137 -34.41 0.0008148957    1.503    0.335
       219  -9.5164    192.3250     65.6572   5.6717781686e+01   2.8259527016e+01    0.2600162    0.2171869 -71.45 0.0007646737    1.257    0.205
       220  -9.7754     52.9742     65.9561   9.4573835271e+01   5.7789861403e+01    0.2772369    0.1811896  45.48  0.001436016    1.930    0.482
       221 -10.0334    105.7494     64.2955   7.6036363821e+01   4.9255085022e+01    0.3727329    0.2387756  31.96   0.00168023    1.719    0.418
       222  -8.9107    201.8201     64.5734   5.4875601607e+01   2.6085839699e+01    0.2794252    0.1525185  69.37  0.001148564    2.073    0.518
       223  -9.3831    197.9911     62.6949   5.4967557803e+01   2.7323586932e+01    0.4269687    0.2004995 -58.60  0.001334057    3.162    0.684
       224 -11.4296    234.3249     61.0848   4.9436798785e+01   1.8941259865e+01    0.5302358    0.3840087  65.28  0.002074382    1.473    0.321
       225 -10.0872    159.0954     62.1812   6.1917075410e+01   3.7173890923e+01    0.5192852    0.2226415  45.69  0.001850463    2.452    0.592
       226 -11.0072    149.3509    238.0595   1.0309672654e+02   4.8732388060e+00    0.3667167    0.2581525  30.34  0.002221255    1.343    0.256
       227 -11.9233    120.5213     57.7479   6.9591601579e+01   4.7211885220e+01     1.930499     1.313734 -77.61  0.007779495    2.633    0.620
       228 -12.3475    117.7500     43.7751   6.5352234692e+01   5.0081983421e+01    0.7857295    0.5165303  64.10  0.003001582    1.771    0.435
       229 -10.5482    136.2976     56.7184   6.5241690209e+01   4.3690103945e+01    0.5856001    0.3790307  -4.85  0.002010612    2.259    0.557
       230 -10.5380    133.9902     49.9898   6.3510059371e+01   4.5317426093e+01    0.4421591    0.2845601 -66.23  0.001584548    2.390    0.582
       231 -10.5645    105.9050     57.7582   7.3711898864e+01   5.0406982624e+01     0.331508    0.2406631 -58.23  0.001572593    1.756    0.431
       232 -10.3634    155.3723     49.7452   5.8752030748e+01   4.0066668139e+01    0.4452754    0.3025992 -11.39  0.001342842    1.856    0.461
       233  -9.7599    187.8066     55.7012   5.4654284219e+01   3.0945002115e+01    0.2325403    0.2245616 -81.13 0.0006332418    1.021    0.020
       234 -10.1199     67.0343     54.8665   8.5597120260e+01   5.8055245838e+01    0.3217243     0.187767 -50.53  0.001070612    1.815    0.449
       235  -8.6947    221.3125    239.3394   8.9900825952e+01  -6.6291985734e+00    0.1239449   0.07704718   8.38 0.0002836302    1.695    0.410
       236 -11.1527     60.7020     35.9839   8.0722342829e+01   6.2368924014e+01    0.4013242    0.2355224 -33.82  0.001292144    1.556    0.357
       237 -11.0528     57.1336     30.8115   7.9950302654e+01   6.3739187209e+01    0.4959778     0.295781  12.90  0.002232084    2.045    0.511
       238 -11.3558     48.5421     30.6273   8.3421632719e+01   6.4999990285e+01    0.6296775    0.2673574  28.58  0.002822948    2.665    0.625
       239  -9.3245      6.8703     55.0937   1.0997247227e+02   6.4205797833e+01    0.1684891    0.1025843 -45.31 0.0003866948    1.281    0.219
       240 -11.2884    244.9439     50.9965   4.5799153947e+01   1.8034186881e+01    0.5939056     0.298496 -89.39   0.00240529    3.021    0.669
       241  -9.5332    237.4892     54.4163   4.7442603182e+01   1.9200697512e+01    0.2411666    0.1689014  87.69 0.0006365146    1.574    0.365
       242 -10.9507    240.4054     50.5736   4.6194666356e+01   1.9094006608e+01     0.399848    0.3006271 -30.31  0.001806559    1.353    0.261
       243  -9.3424    212.0304     53.0260   5.0292997537e+01   2.5344808801e+01    0.2451057    0.1591254 -64.81  0.001142878    1.707    0.414
       244  -9.0722    205.4932     52.4646   5.1053197681e+01   2.7020263833e+01    0.3431039     0.129069  58.90  0.001274062    2.575    0.612
       245 -10.5869    201.7084     48.9614   5.0644266990e+01   2.8460045090e+01     0.621679    0.2454236 -31.15  0.002326536    2.542    0.607
       246 -10.7806    201.1432     45.3712   4.9746393382e+01   2.9107580456e+01      0.57946    0.2949734  77.12  0.002337713    2.336    0.572
       247 -11.1310    157.5599     55.5092   6.0143016095e+01   3.8632434107e+01    0.6060553    0.4598605 -83.62  0.002194758    1.634    0.388
       248 -10.7598    174.0209     47.9712   5.4713390550e+01   3.5588569556e+01     0.523052    0.3900963 -89.65  0.002540552    1.523    0.344
       249  -9.3646    176.7179     43.5709   5.2938553206e+01   3.5524971431e+01     0.288508    0.1906101  78.23  0.001258971    1.654    0.395
       250 -12.9334    118.4477     37.9981   6.3045857903e+01   5.0757663832e+01     1.279484    0.6227705  50.95  0.003886334    1.929    0.482
       251  -9.3121    172.3176    239.3079   9.8894008749e+01   9.7868982899e-01    0.1225169   0.08637653  13.07 0.0004469112    1.634    0.388
       252 -10.8615    198.8181    232.7373   9.2936746097e+01  -2.3207847720e+00     0.398491     0.293426  26.95  0.002528346    1.124    0.111
       253  -9.7113     15.1419    233.7067   1.2753308941e+02   2.4110264364e+01    0.1949005    0.1243579 -82.40  0.001082536    1.424    0.298
       254 -10.1443    247.3528    231.5425   8.4101280352e+01  -9.4179912442e+00    0.2086717    0.1277262 -22.40 0.0009145859    1.572    0.364
       255 -10.5373    242.5662    231.2666   8.4869701028e+01  -8.7162935155e+00    0.2389145     0.129923  44.77  0.001308904    2.197    0.545
       256  -9.4843     23.3612    231.5530   1.2602056404e+02   2.3655950021e+01    0.1844099    0.0807779  44.21 0.0006683671    1.893    0.472
       257  -9.0753    108.3119    230.3225   1.1011132371e+02   1.2709380992e+01    0.1123377   0.09687569   4.02 0.0004288623    1.654    0.395
       258  -9.1399     68.4536    240.4745   1.1863164047e+02   1.6592804975e+01    0.1163545   0.08898051  63.83 0.0001625913    1.006    0.006
       259  -9.3043    181.2975    228.3309   9.5555341882e+01   1.1501425782e+00    0.1264888   0.08977344   8.28 0.0007028821    1.641    0.391
       260 -10.1628    234.3132    222.9283   8.4878352699e+01  -6.4877711358e+00    0.1716113    0.1345874   3.09 0.0005492387    1.071    0.066
       261  -8.6712    209.3452    223.3259   8.9453338252e+01  -2.6842426090e+00    0.1325898   0.08519379   9.19  0.000705043    1.744    0.426
       262  -9.1674    161.8157     47.8641   5.6894438426e+01   3.8713271948e+01    0.2572078    0.2052825 -61.34  0.000432196    1.368    0.269
       263  -9.6661    162.5616     43.7674   5.5466745202e+01   3.9110718713e+01    0.3572462    0.2576834  67.42   0.00174392    1.381    0.276
       264 -11.5053    145.7283     47.2863   5.9951291846e+01   4.2849173064e+01     1.103506    0.4238937 -25.18  0.003634728    3.268    0.694
       265 -10.9707    139.2320     44.3050   6.0361557032e+01   4.4892330303e+01    0.5489095     0.234523  44.14  0.002026886    2.429    0.588
       266  -9.9707    102.7681     58.9659   7.5076065477e+01   5.0844266403e+01    0.1938209     0.177427 -59.75 0.0003083957    1.267    0.211
       267  -9.8169    234.2625     44.9855   4.5536133943e+01   2.1250939690e+01    0.1947743    0.1631151 -53.63 0.0004888176    1.056    0.053
       268 -11.0174    155.8289     42.0371   5.6181183604e+01   4.1063559826e+01    0.3926358    0.3631064  38.58   0.00110712    1.097    0.088
       269 -11.6546    153.0970     36.0191   5.4744340825e+01   4.2567817571e+01    0.3045041    0.2797599 -55.38 0.0003982775    1.140    0.123
       270 -11.0533     95.2601     41.4856   7.0884664794e+01   5.5301454990e+01    0.7942145     0.364356  53.81  0.003194614    2.501    0.600
       271  -9.7592    188.9225     42.0053   5.0568980328e+01   3.2637586022e+01    0.3343526    0.1780976 -33.82  0.001024672    1.857    0.461
       272 -10.8402     81.0514     39.8328   7.4845445934e+01   5.8312985032e+01    0.6470633    0.4081416  43.10  0.003293602    1.624    0.384
       273  -8.8113     77.7540     34.4472   7.3781524190e+01   5.9747962773e+01    0.8100244    0.3831113  28.05  0.003258121    2.756    0.637
       274 -10.8728     82.1720     31.9649   7.1242770925e+01   5.9292686252e+01    0.6133024    0.4514066  37.58  0.001754513    1.319    0.242
       275 -10.5008    231.0721     38.8706   4.4404248832e+01   2.2805878565e+01    0.5127345    0.2731923 -70.30  0.002168433    2.312    0.568
       276  -9.4686    193.8327     38.9668   4.9002406629e+01   3.1809127385e+01    0.1949595    0.1868815  31.84   0.00035847    1.184    0.156
       277 -10.9968    176.8953     36.5240   5.0807952122e+01   3.6430343942e+01    0.4093331     0.323296 -23.26  0.002153937    1.385    0.278
       278  -9.3691    133.0225     36.8972   5.9172109330e+01   4.7446773525e+01    0.3634441    0.2053709 -52.08  0.001509048    2.288    0.563
       279  -9.5200    206.9686     37.0497   4.6738499026e+01   2.8794986182e+01    0.2128862    0.1972824 -83.86  0.000689205    1.044    0.042
       280 -10.6999    138.0906     33.6759   5.6942962121e+01   4.6628941180e+01    0.5526099    0.3056469 -53.21  0.002023927    2.383    0.580
       281  -9.3388     94.6441     36.0409   6.8927364711e+01   5.6242398355e+01      0.25697    0.1919187  65.14  0.001323112    1.735    0.424
       282  -9.2873     63.3259    222.3116   1.1805858807e+02   2.0688456296e+01    0.1024503    0.0945881 -31.86  0.000308491    1.661    0.398
       283 -12.2180    105.9462     32.7972   6.4365913698e+01   5.4293243307e+01    0.5642036    0.3346857  18.36  0.001281757    2.275    0.560
       284 -12.3504    113.2032     25.0461   5.9445852964e+01   5.3645351268e+01    0.8679346     0.389312  55.72  0.003659244    2.088    0.521
       285  -9.3623    216.1930     32.8386   4.4544879531e+01   2.7096891241e+01    0.3271882    0.1982714   5.77  0.001295003    3.362    0.703
       286  -9.7140     10.0167    217.9715   1.2761506753e+02   2.7616993100e+01      0.17232     0.122849  76.24 0.0006943237    1.018    0.017
       287 -10.2116    164.9797    212.3484   9.6248159056e+01   6.4899154458e+00    0.2674348    0.1742429  53.20   0.00128837    1.631    0.387
       288  -9.7110    157.1103     20.4992   4.8994436369e+01   4.3410119946e+01    0.5983196    0.3156835  85.52  0.002394871    2.521    0.603
       289 -11.2529    160.0033     29.9507   5.1542180648e+01   4.1579563226e+01    0.3966554    0.3658724 -14.34  0.001359338    1.181    0.153
       290 -12.2656    164.2630     27.7611   5.0142514688e+01   4.0756670634e+01    0.3189157    0.2905656 -48.44 0.0002739521    1.139    0.122
       291 -10.2366     68.5322     32.9897   7.6479541952e+01   6.1583562515e+01    0.4236374    0.3031988  42.18  0.002066346    1.515    0.340
       292 -11.4080    240.0310     32.1790   4.1908117819e+01   2.1639336580e+01    0.4027739    0.3409628  61.86  0.002503733    1.339    0.253
       293 -10.8803    198.3092     29.1278   4.5695048558e+01   3.1948125231e+01    0.4130087    0.3829515  31.46   0.00200942    1.269    0.212
       294  -9.2904    199.7007     24.6798   4.4321273623e+01   3.2138957908e+01    0.2038933    0.1981242  30.27  0.000713188    1.210    0.174
       295 -10.5997    189.2721     27.9694   4.6537916506e+01   3.4358871225e+01    0.4514957    0.3107919  10.45  0.002129635    2.150    0.535
       296  -9.1962    204.3570    208.6767   8.7862272946e+01   2.7686039798e-01    0.1227636    0.1039511  70.06            0    1.769    0.435
       297 -11.0132    176.8932     29.7853   4.8801977524e+01   3.7283742645e+01    0.5352199    0.2201501  52.56   0.00174699    2.331    0.571
       298 -11.2814    183.1413     25.2149   4.6575152958e+01   3.6240563495e+01    0.6327572    0.3075317  51.26  0.002716905    2.071    0.517
       299  -9.5463    153.2565    207.8926   9.7934901682e+01   9.3292565441e+00     0.244698    0.1664739  48.30   0.00125565    1.369    0.269
       300  -9.4004    221.8113     29.7525   4.3153976089e+01   2.6145686871e+01      0.18764    0.1833162 -78.36 0.0005849868    1.174    0.148
       301  -9.3822     99.5205     30.3492   6.5199397323e+01   5.6013237343e+01    0.2369814    0.1891025  70.76  0.001085068    1.598    0.374
       302  -9.5228     98.0234     26.6775   6.4138897553e+01   5.6809310203e+01    0.2342251    0.2092985  50.51 0.0008598056    1.205    0.170
       303 -10.1633    230.6406     26.9953   4.1588179819e+01   2.4423439700e+01    0.3285188    0.1955698 -39.25    0.0011411    1.535    0.348
       304  -9.0448     41.1310     28.4800   8.5721364678e+01   6.6313618245e+01    0.3222467    0.1189707 -30.80  0.001280424    3.063    0.674
       305  -9.3025     65.3406     28.4510   7.5721342541e+01   6.2798201505e+01     0.224631    0.1173863  35.97  0.000698789    1.907    0.476
       306  -9.9332    250.5511     26.4991   3.9674977268e+01   2.0038825476e+01    0.2570616    0.1114997 -33.21 0.0009162762    2.123    0.529
       307  -9.7520     61.0213    206.9350   1.1710442135e+02   2.4093051769e+01    0.1887743    0.1491903  70.97 0.0004796094    1.028    0.027
       308  -9.3317     45.0027     24.4474   8.2228836411e+01   6.6453640834e+01    0.2014906    0.1506086 -35.52 0.0005780468    1.332    0.249
       309  -9.5494    168.8360     23.8635   4.8220750967e+01   4.0044105685e+01        0.219    0.1825426  39.84 0.0007069972    1.282    0.220
       310 -10.4220     86.0582     23.9373   6.6578346208e+01   5.9623571388e+01    0.2074201    0.1704185  30.38            0    1.118    0.105
       311  -9.6821    238.5076    204.5100   8.0841055509e+01  -4.6774932323e+00    0.2525272    0.1136418 -33.50  0.001216511    2.184    0.542
       312 -10.6625      4.7675    204.1767   1.2783265638e+02   3.0855275514e+01    0.3030971     0.107583 -67.49  0.001554877    2.529    0.605
       313 -10.0954     16.7246    203.4952   1.2556312221e+02   2.9869586166e+01    0.2951758   0.06492639 -70.40  0.001225268    3.561    0.719
       314  -9.5816     59.5073     23.9850   7.5983181892e+01   6.4392892179e+01    0.1781687    0.1371886 -19.59 0.0003766167    1.163    0.140
       315 -10.0619     60.4514     19.9705   7.3768516144e+01   6.4796137362e+01     0.266178    0.2089135 -50.25  0.001074247    1.822    0.451
       316  -9.1474    223.4864     22.3093   4.1151989061e+01   2.6657129586e+01     0.216509    0.1131199  72.77 0.0006123097    1.863    0.463
       317 -10.6903    245.6478    200.8768   7.8922040666e+01  -5.2811302368e+00    0.2170234    0.1487476  20.29 0.0007074164    1.330    0.248
       318  -9.8389     74.1366     19.5259   6.8553310929e+01   6.2467557686e+01    0.2607559    0.1899867  27.63 0.0008045548    1.258    0.205
       319 -10.2189    233.6305    197.2938   8.0348852627e+01  -2.8887937110e+00    0.2633684    0.2055632 -27.84  0.000899794    1.294    0.227
       320  -8.9283     83.5389    195.9694   1.1116177728e+02   2.3278213500e+01    0.1851821    0.1214562 -69.34 0.0005776366    1.523    0.343
       321 -12.1372      4.8279    184.3140   1.2667816412e+02   3.4995793460e+01    0.5720568    0.4030967  75.78  0.002986706    1.103    0.093
       322  -9.7737    211.5265     18.8526   4.1487828220e+01   2.9915027697e+01    0.2021219    0.1673108  71.26 0.0003460826    1.194    0.162
       323  -9.8278    169.7675    191.5995   9.1705229695e+01   9.3117116375e+00    0.3496623    0.1980833  31.28  0.001189392    1.838    0.456
       324  -9.2914    191.3043     17.0487   4.3235405204e+01   3.5105557945e+01     0.187863     0.174192 -48.15  0.001146719    1.140    0.123
       325  -9.8242    239.8141    184.7242   7.6814676156e+01  -2.0608386148e+00    0.2413008    0.1705124  -0.93 0.0007721017    1.412    0.292
       326  -9.7402    250.3599    178.5404   7.3773041316e+01  -2.8700665582e+00     0.324128    0.1096535 -30.69  0.001257259    2.926    0.658
       327 -10.3821    186.3221     15.0985   4.3285438648e+01   3.6567779207e+01    0.2560929    0.2036295  71.87 0.0004204718    1.158    0.137
       328  -9.1302    174.2033     15.8265   4.5033038215e+01   3.9558656823e+01     0.184856    0.1464947  49.66 0.0004912736    1.284    0.221
       329  -9.7444     27.8803    176.4736   1.2127884538e+02   3.4581232962e+01    0.2781192    0.1514817 -68.61   0.00149313    1.608    0.378
       330 -10.2272     52.1043    173.6940   1.1555743711e+02   3.2516265660e+01    0.4708346    0.2029986 -87.87  0.001801648    3.239    0.691
       331  -9.6951    247.6955    173.8992   7.3281858958e+01  -1.7516760623e+00    0.4469472    0.1623313  29.74  0.001484387    4.441    0.775
       332  -8.9990    230.4484    175.4854   7.6613169954e+01   9.4075673523e-01    0.1364235    0.1165971  -2.74 9.616883e-05    1.021    0.021
       333  -9.9924     39.2608    173.4269   1.1846177676e+02   3.4069423024e+01     0.259976    0.1855313  73.95  0.001344795    1.242    0.195
       334 -10.4479     35.2699    169.6924   1.1899079422e+02   3.5356096026e+01    0.3468927    0.1963789 -82.21  0.001526108    1.555    0.357
       335 -10.3656      8.8050    157.2781   1.2389973227e+02   4.0654606024e+01    0.3156627    0.1639224 -64.84    0.0010168    1.661    0.398
       336 -11.8026      9.4496    167.0365   1.2452621036e+02   3.8396603623e+01    0.5361142    0.3613943  88.67  0.002682722    1.157    0.136
       337 -11.3444     13.6157    159.5014   1.2298821642e+02   3.9753704387e+01    0.4710124    0.2259203 -75.42  0.001633701    1.666    0.400
       338  -8.9337    198.0082    167.9841   8.1220316095e+01   8.2299979857e+00    0.1738908     0.158603 -12.78 0.0005262566    1.056    0.053
       339  -8.8037    156.5060    166.4572   8.9757219906e+01   1.6774608988e+01    0.1466364    0.1407501  39.70 0.0004019155    1.010    0.010
       340 -10.1833     18.8711    164.8768   1.2226037000e+02   3.8068049820e+01    0.2380272    0.2269049   3.89  0.001338252    1.493    0.330
       341  -9.2317    188.6221    164.1624   8.2323341259e+01   1.0787339428e+01    0.2052636    0.1333898 -28.00 0.0005467334    1.682    0.405
       342 -10.0190    205.5789    162.6850   7.8591057863e+01   7.7021245688e+00     0.407212    0.2494858  20.17  0.001405264    2.121    0.528
       343 -10.3739     28.5302    160.4841   1.1962257585e+02   3.8170434721e+01      0.29024    0.1862191 -52.30  0.001671267    1.725    0.420
       344  -9.7704     79.2502    160.1611   1.0720092960e+02   3.2020090519e+01     0.268443    0.1803674 -86.29  0.001329122    1.611    0.379
       345  -9.2053    215.3854    158.3710   7.5771222680e+01   6.5542568685e+00    0.2759025    0.1225516 -25.04 0.0009479815    3.157    0.683
       346  -9.2108    223.6242    156.8125   7.3902779124e+01   5.2429667914e+00    0.1958997    0.1239058 -42.62  0.000755034    1.613    0.380
       347  -9.9960     21.9801    155.5676   1.2067973022e+02   3.9930201773e+01    0.2925154    0.2040024  17.68  0.001769666    1.999    0.500
       348 -12.0931     22.8470    149.1829   1.1982332495e+02   4.1344331335e+01    0.5593092    0.3163078 -38.45  0.001984933    2.564    0.610
       349 -10.6957    104.3866    153.9974   9.9808593919e+01   2.9423040096e+01    0.4090249    0.2885554 -64.96  0.002005255    1.425    0.298
       350 -11.0290     31.6568    153.4440   1.1812585555e+02   3.9509920910e+01    0.4506702    0.2807807  87.33  0.002512995    1.490    0.329
       351 -10.0997     70.8505    151.2676   1.0793310824e+02   3.5355247785e+01    0.3818404    0.1987489  37.30   0.00174834    2.015    0.504
       352 -11.8237      3.8819    147.6658   1.2424689870e+02   4.3224747774e+01    0.6889272    0.3688139 -77.87  0.003293231    1.444    0.307
       353 -12.3995      3.5560    138.5724   1.2353685113e+02   4.5342561104e+01     0.645575    0.2694672 -77.21  0.003275414    1.871    0.466
       354 -10.0144     46.4638    151.6833   1.1423128915e+02   3.8351436030e+01    0.3389908    0.2580297  47.07  0.002015373    1.382    0.276
       355 -11.4185     47.7081    147.2420   1.1331971019e+02   3.9274359010e+01    0.4929689    0.4785037  87.08  0.002893821    1.209    0.173
       356 -11.2448     63.4190    150.4591   1.0972619645e+02   3.6561191596e+01    0.4867588    0.3456229   2.26  0.002223624    2.303    0.566
       357  -9.4680    214.9630    151.0617   7.4237941199e+01   7.9170555370e+00     0.176159    0.1620911  -6.41  0.001000503    1.013    0.013
       358  -9.5271    234.4929    150.5078   7.0588263746e+01   4.2519057715e+00    0.1404605    0.1231747 -12.54 -1.786768e-05    1.012    0.012
       359 -11.0922     15.5306    147.7291   1.2146275490e+02   4.2313091668e+01    0.3920949    0.2457514 -79.56  0.001534901    1.273    0.214
       360 -10.1547     14.0515    133.8352   1.2040669969e+02   4.5690721930e+01    0.2604077    0.1888099  59.58  0.001307749    1.436    0.303
       361 -10.8691     14.0222    140.9915   1.2116548544e+02   4.4010026630e+01    0.3055084    0.2282415 -68.02  0.001554449    1.187    0.157
       362 -11.1583     11.1090    137.8792   1.2158387040e+02   4.4963138863e+01    0.3928861    0.2175267 -80.58  0.001923999    1.463    0.316
