#   1 NUMBER                 Running object number                                     
#   2 MAG_AUTO               Kron-like elliptical aperture magnitude                    [mag]
#   3 X_IMAGE                Object position along x                                    [pixel]
#   4 Y_IMAGE                Object position along y                                    [pixel]
#   5 X_WORLD                Barycenter position along world x axis                     [deg]
#   6 Y_WORLD                Barycenter position along world y axis                     [deg]
#   7 A_WORLD                Profile RMS along major axis (world units)                 [deg]
#   8 B_WORLD                Profile RMS along minor axis (world units)                 [deg]
#   9 THETA_WORLD            Position angle (CCW/world-x)                               [deg]
#  10 FWHM_WORLD             FWHM assuming a gaussian core                              [deg]
#  11 ELONGATION             A_IMAGE/B_IMAGE                                           
#  12 ELLIPTICITY            1 - B_IMAGE/A_IMAGE                                       
         1 -11.8426    227.5801     18.9594   3.5585519691e+01   2.7221580977e+01    0.7157831    0.6130418 -70.51  0.002768895    1.047    0.045
         2 -12.2957    210.3245     35.1095   4.1090122622e+01   2.9178758406e+01     1.002986    0.9043968 -70.70  0.006370233    1.042    0.041
         3 -10.8103    217.7828     28.1968   3.8623120952e+01   2.8323943337e+01    0.5091684    0.3529999  43.74  0.001308315    1.851    0.460
         4 -10.9467      1.8745     32.1842   1.0220542988e+02   6.9554739748e+01    0.6164631    0.1957413 -61.58  0.002630663    3.275    0.695
         5  -9.9405      2.0000     10.9949   9.3992628451e+01   7.3279829748e+01    0.4206993   0.05167909 -51.32  0.001261348    7.030    0.858
         6  -9.4925    248.5760      1.8626   3.0450310709e+01   2.4649221102e+01    0.3826503    0.1642845  81.05  0.002006433    2.233    0.552
         7  -8.6533    125.3198      5.4927   4.4586403064e+01   5.2848982764e+01    0.2741202    0.1854322 -74.60 0.0009387591    1.935    0.483
         8  -8.3963     33.0000    226.9150   1.2062062525e+02   2.2958425156e+01    0.1807969   0.05819624 -74.81 0.0008049176    2.960    0.662
         9 -11.9291      3.6178    184.0606   1.2381466651e+02   3.4915217337e+01     1.026102    0.4716193  87.88  0.005400986    1.914    0.478
        10 -12.0834     17.3545    218.4711   1.2311574060e+02   2.6288243283e+01    0.8346887    0.4878737  61.00  0.002549522    1.408    0.290
        11 -11.5946     32.0025    205.8473   1.1931375887e+02   2.7484424838e+01    0.6216061    0.3982971 -43.83  0.003513687    2.245    0.555
        12 -13.5301     39.0755    193.7883   1.1677422970e+02   2.9404317806e+01     3.640371     1.267909  61.56   0.01283014    4.120    0.757
        13 -13.9347      6.1505    139.2803   1.1972374922e+02   4.5172414299e+01     7.064846     1.337788 -78.71   0.01891275    6.371    0.843
        14  -8.7253     48.8023    225.2172   1.1737591308e+02   2.1514437904e+01    0.1458775    0.1310964 -75.35 0.0003634953    1.307    0.235
        15 -10.4829     44.8113    218.0243   1.1761177647e+02   2.3469532672e+01    0.4353928    0.3346172  55.67  0.001967039    1.139    0.122
        16  -9.8981     29.8776    218.8464   1.2068807156e+02   2.4945189644e+01    0.3905237    0.2640079  49.73  0.002281868    1.306    0.235
        17 -10.8469    119.7413    225.8015   1.0255706152e+02   1.1544332923e+01    0.6926367    0.3782413 -53.89  0.003494352    2.059    0.514
        18  -9.7285     24.7803    202.4891   1.2057789560e+02   2.8952932361e+01    0.2125666     0.144281 -86.07 0.0006425974    1.262    0.207
        19  -7.8961    209.6829    200.3630   7.9486644718e+01   1.3015110076e+00    0.1227128    0.1101894 -88.01 0.0007041239    1.768    0.434
        20 -10.0481     20.7892    194.1607   1.2081732201e+02   3.1175932423e+01    0.2607681    0.1630112  78.94  0.001143053    1.392    0.281
        21 -10.2360     59.9975    178.7565   1.1025517855e+02   3.0448223460e+01    0.4146709    0.2661793 -37.96   0.00168449    2.121    0.529
        22 -10.1036     65.3580    173.2685   1.0821083611e+02   3.1072045748e+01    0.3498859    0.2717799 -31.37 0.0008606752    1.679    0.404
        23 -10.2359     31.8998    168.1364   1.1598735892e+02   3.6130718459e+01    0.4042484    0.3312064 -84.51  0.002361746    1.038    0.037
        24 -11.2555     72.9752    153.8226   1.0329851104e+02   3.4796854857e+01     1.042249      0.49473  60.78  0.003653261    3.354    0.702
        25 -11.3822     68.5761    144.5867   1.0296879536e+02   3.7696210032e+01     0.781641    0.5186059  77.36  0.002940096    1.907    0.476
        26 -10.0699     75.4083    163.6663   1.0422053300e+02   3.2034805255e+01    0.3045191    0.2868868   6.59 0.0006211598    1.250    0.200
        27 -11.7102     62.4197    159.6270   1.0706288257e+02   3.4772342136e+01    0.5201716    0.2992434 -44.77  0.001476099    1.969    0.492
        28 -11.3312     81.9837    157.3300   1.0143035996e+02   3.2634761300e+01    0.8758375    0.6888775 -67.64  0.001685812    1.219    0.180
        29 -13.2558     55.6364    247.5574   1.1775088154e+02   1.6332056152e+01      4.00914    0.7829251  31.93   0.01175843    7.089    0.859
        30  -8.6650    124.9610    154.1225   8.9353707730e+01   2.6133458675e+01    0.2479689    0.2115181 -55.71 0.0003215435    1.181    0.153
        31 -10.5778     85.2730    141.4760   9.7620991695e+01   3.6050002005e+01    0.3420784    0.2663787 -41.84 0.0007417501    1.333    0.250
        32  -8.7271     31.9546    143.8047   1.1319375571e+02   4.2048338512e+01    0.2795417     0.169622  37.94   0.00148849    1.780    0.438
        33  -9.1566     98.3605    141.8263   9.3977451981e+01   3.3842434138e+01    0.5663576    0.3500627 -18.43  0.002081303    2.963    0.663
        34  -8.9759     75.6367    136.6325   9.9473193898e+01   3.8694528885e+01    0.2778664    0.2299269  77.00 0.0002252601    1.327    0.246
        35  -9.7522     58.8435    133.7374   1.0390940523e+02   4.1666540694e+01    0.3303837     0.201423 -82.67  0.001487182    1.936    0.484
        36  -9.6344     57.6264    129.1808   1.0345812147e+02   4.2954640172e+01    0.2735662    0.2119076  70.86 0.0008094848    1.466    0.318
        37 -11.3825     84.8055    231.1667   1.1055786020e+02   1.5668299527e+01     0.901228    0.4311489 -88.33  0.003388017    3.626    0.724
        38  -9.2625    107.6452    131.4141   8.9077432094e+01   3.4735019703e+01    0.4561349    0.3022593  37.38  0.002050356    1.560    0.359
        39  -9.2962     96.1697    127.5341   9.1506354930e+01   3.7700485377e+01    0.3017423    0.2432577 -31.15 0.0004363389    1.341    0.254
        40  -7.8761    106.1831    119.8669   8.6747506679e+01   3.7756396463e+01    0.2054606    0.1732286 -24.41 0.0002413319    1.282    0.220
        41  -8.1506    205.2189    110.6098   6.0739565687e+01   1.8438331088e+01    0.2104098    0.1370759  40.10 0.0009603651    1.714    0.417
        42  -9.0885    249.0047    104.7167   5.2429162143e+01   1.0558302337e+01    0.2945564    0.1362403 -53.73  0.001185038    2.674    0.626
        43 -10.9842     87.1844    224.9002   1.0939691582e+02   1.6579051820e+01    0.4085796    0.2725816  69.20 0.0008524858    1.567    0.362
        44 -13.4794      6.9801    241.3752   1.2617689707e+02   2.2762550932e+01     1.802293     1.151718 -87.36   0.01305711    1.368    0.269
        45 -12.9266      9.0752    207.6637   1.2410503140e+02   2.9315849803e+01     0.976671    0.8770398 -87.92   0.00478731    1.288    0.224
        46 -11.2131    125.9898    229.9323   1.0177139435e+02   9.7939224668e+00    0.5275904    0.3111583  40.01  0.002549959    1.456    0.313
        47 -10.2261     13.3686     60.3337   1.0476091154e+02   6.3228838168e+01    0.2746788    0.1786495 -58.67  0.000850656    1.326    0.246
        48  -8.5419     42.6475     60.1292   9.2101861294e+01   6.0752874321e+01    0.2857584    0.1594534  43.60  0.001367475    2.404    0.584
        49 -10.5785      2.0827     57.5876   1.0902468510e+02   6.4409576232e+01    0.4980343    0.1300917 -65.46  0.001961802    3.230    0.690
        50  -9.4405     12.9701     52.9573   1.0299197360e+02   6.4807288870e+01    0.2099771    0.1080116 -34.11  0.001011331    1.710    0.415
        51 -10.5900    194.4990     49.5192   4.6805291659e+01   3.0990828016e+01    0.4231887    0.2471911 -59.51    0.0019191    1.934    0.483
        52 -10.2933    102.7816    240.4149   1.0785025787e+02   1.1350657655e+01    0.2898648    0.2151235  21.09  0.001532923    1.594    0.373
        53 -11.8420    202.5213     40.9583   4.3494188356e+01   3.0247505897e+01    0.8531327    0.4985334  68.17  0.003494753    1.673    0.402
        54 -11.8591    115.1198    237.9454   1.0504295830e+02   9.9831227631e+00    0.9643381    0.3949245  28.29  0.003850621    3.049    0.672
        55 -12.1817    111.0331    230.4794   1.0499709111e+02   1.1988010801e+01     1.470316    0.2775238  40.93  0.004734734    4.039    0.752
        56  -8.5035    135.1133     41.8789   5.5155489437e+01   4.6543418522e+01    0.2158187    0.1866597 -81.34 0.0006061231    1.335    0.251
        57 -12.2510    132.5602    232.6059   1.0074471795e+02   8.2798281275e+00     1.236471    0.6068155  25.95  0.005421984    2.437    0.590
        58  -7.9112    189.5092     15.4762   3.8485087368e+01   3.6357692942e+01    0.1301489    0.1141795 -89.81 3.217464e-05    1.013    0.013
        59  -9.2836     59.6860    233.2271   1.1585096516e+02   1.8580699777e+01    0.3146864    0.1981617 -60.25  0.001127726    1.794    0.443
        60  -9.1506     53.2116    231.0912   1.1696272021e+02   1.9800844012e+01    0.2095205    0.1539845  64.32 0.0005227275    1.120    0.107
