#   1 NUMBER                 Running object number                                     
#   2 MAG_AUTO               Kron-like elliptical aperture magnitude                    [mag]
#   3 X_IMAGE                Object position along x                                    [pixel]
#   4 Y_IMAGE                Object position along y                                    [pixel]
#   5 X_WORLD                Barycenter position along world x axis                     [deg]
#   6 Y_WORLD                Barycenter position along world y axis                     [deg]
#   7 A_WORLD                Profile RMS along major axis (world units)                 [deg]
#   8 B_WORLD                Profile RMS along minor axis (world units)                 [deg]
#   9 THETA_WORLD            Position angle (CCW/world-x)                               [deg]
#  10 FWHM_WORLD             FWHM assuming a gaussian core                              [deg]
#  11 ELONGATION             A_IMAGE/B_IMAGE                                           
#  12 ELLIPTICITY            1 - B_IMAGE/A_IMAGE                                       
         1 -14.2838    167.4435     48.7583   7.2332697212e+01   3.7252380061e+01     1.844859     1.236382  22.08  0.005535056    1.834    0.455
         2 -14.3483    181.2628     34.0829   6.4983485323e+01   3.5664177000e+01     1.114482    0.9989871  23.17  0.003797362    1.122    0.109
         3 -13.6295    185.4896     27.5655   6.2160530653e+01   3.5339782634e+01    0.6513149    0.5919815  37.57  0.001382905    1.086    0.079
         4 -12.8547    189.6441     14.9975   5.7430900905e+01   3.5620446408e+01    0.3537563    0.3328906 -86.29  0.001009151    1.099    0.090
         5 -12.6547    183.4559     11.7874   5.7209442241e+01   3.7608269759e+01    0.6180235    0.3356645 -84.11  0.002331392    2.666    0.625
         6 -13.8274    202.0714      3.7925   5.2328948013e+01   3.3383950516e+01    0.9958066    0.6108543  62.87  0.004107495    1.555    0.357
         7 -11.6819     77.8136     10.1690   7.9957050633e+01   6.3068805168e+01    0.4263021    0.1959962  55.38  0.001741797    2.856    0.650
         8 -10.6797     69.3201      8.0922   8.1924370709e+01   6.4856912339e+01    0.1947818    0.1663567  24.47 0.0007497749    1.212    0.175
         9 -12.8178     59.6447      6.3138   8.4695050255e+01   6.6692138851e+01    0.6003946    0.3138148  51.38  0.002801119    2.588    0.614
        10 -11.9400     58.8987    201.8563   1.2611578469e+02   2.8437332364e+01    0.2094238    0.1516246  61.42  0.001104407    1.067    0.063
        11 -18.5720     45.0906    240.9616   1.3064978001e+02   2.3996212699e+01     6.045903     4.828154  58.53   0.05714436    1.329    0.247
        12 -12.4422    193.5588    192.9141   1.0117279918e+02   9.3993469952e+00    0.6020274     0.407251 -48.79  0.003271997    2.006    0.502
        13 -12.2780    140.9225    175.4142   1.0805332015e+02   2.1050887926e+01    0.2864538    0.1884088 -46.77  0.001558493    1.790    0.441
        14 -11.9968    137.2715    171.2452   1.0813548103e+02   2.2356888080e+01    0.2907531    0.2249336  55.26  0.001285234    1.148    0.129
        15 -10.9087    193.7942    164.9171   9.6383737202e+01   1.3050844043e+01    0.2573434     0.236998   4.48  0.001168878    1.141    0.124
        16 -10.5420    196.2779    174.6434   9.7678599188e+01   1.1267961990e+01     0.211275    0.1756335  65.66 0.0007737299    1.507    0.336
        17 -11.6539    196.0256    170.3908   9.6973239328e+01   1.1883759302e+01    0.3686398    0.3524836 -62.74  0.001817218    1.348    0.258
        18 -10.6650    154.5827    196.8829   1.0858095572e+02   1.5492139847e+01    0.2085712    0.1622793  64.90  0.001135613    1.356    0.263
        19 -19.1493     32.0398    102.7297   1.2213848628e+02   5.0505490823e+01     15.42916    0.6042587 -68.51   0.02533865   19.335    0.948
        20  -9.9255    223.5900    163.7955   9.0973750921e+01   7.6190157964e+00    0.1595312    0.1168704 -38.54 0.0007087191    1.658    0.397
        21 -10.5961      3.1282    162.2525   1.3366172690e+02   4.0906598466e+01    0.1345018    0.1097047  86.24 0.0006900018    1.231    0.188
        22  -9.8298      9.7525    160.7184   1.3233094909e+02   4.0663266952e+01    0.1238667   0.07268397  48.11 0.0007420438    1.559    0.359
        23 -10.7013    237.5087    159.4948   8.7844837057e+01   5.5741807167e+00     0.127396    0.1061461  19.38 0.0001201121    1.034    0.033
        24 -10.7165    120.0471    156.8752   1.0940084159e+02   2.7766014110e+01    0.2803449     0.166038 -62.09  0.001484401    1.890    0.471
        25 -12.1598    139.9229    200.4171   1.1164946150e+02   1.7363255511e+01    0.2383605    0.2060924  43.39  0.001751508    1.142    0.124
        26 -11.0019     11.3342    153.4976   1.3159828038e+02   4.1895773436e+01     0.281643    0.1308025  46.42  0.001835678    1.919    0.479
        27 -12.3595    134.0215    145.4327   1.0455763633e+02   2.7427074064e+01    0.9596978    0.2702031 -55.27  0.002936678    5.194    0.807
        28 -12.4643    111.2922    150.0818   1.1018534036e+02   3.0464879771e+01    0.4857925    0.2392349  55.09  0.002287864    2.108    0.526
        29 -10.7948    174.5988    149.1800   9.7009302432e+01   1.9087293431e+01    0.2587982    0.1775214  46.17 0.0008829882    1.317    0.240
        30 -12.2271    144.6797    145.2907   1.0229273785e+02   2.5494188588e+01    0.3583207    0.2725148 -76.08  0.001018541    1.651    0.394
        31 -12.9674    110.3636    140.0488   1.0875466737e+02   3.2538406366e+01    0.6201381     0.381176 -35.11  0.003009001    2.399    0.583
        32 -12.5226    100.0093    139.7683   1.1101909956e+02   3.4256732789e+01    0.2423651    0.2268724  67.50 0.0004647763    1.109    0.098
        33 -10.1554     18.8342    200.6220   1.3278075717e+02   3.2836569066e+01     0.121876   0.07476916  46.89 0.0006746853    1.463    0.317
        34 -11.7453    105.9927    131.0037   1.0817502912e+02   3.5039717868e+01    0.3286923    0.2778645 -73.09  0.001324658    1.164    0.141
        35 -11.3624    105.2790    126.3886   1.0750507522e+02   3.6083172571e+01    0.2840232    0.2270808 -44.09 0.0009331739    1.397    0.284
        36 -12.3314    117.5653    129.8738   1.0531349062e+02   3.3301385395e+01    0.3565364    0.3184357  25.45  0.001189898    1.301    0.231
        37 -12.4445    135.6286    124.2527   1.0010245368e+02   3.1072679387e+01    0.8550971    0.1633445 -48.51  0.002276747    5.742    0.826
        38 -11.6005    125.5172    127.4808   1.0304166709e+02   3.2346784546e+01     0.311442    0.2025549  83.25  0.001368112    2.430    0.588
        39 -10.7149    112.0428    119.0552   1.0448967238e+02   3.6416222758e+01    0.2207524    0.1879212  50.33 0.0004282125    1.162    0.139
        40 -12.0794     12.8767    115.4760   1.2841640871e+02   4.9365746633e+01    0.1997342    0.1843979 -45.52   0.00151905    1.458    0.314
        41 -11.1792    168.1984    113.0258   9.0494125284e+01   2.6430996615e+01    0.3726915    0.2961661 -78.31   0.00141204    1.690    0.408
        42 -10.6037    205.4331    110.1828   8.2553185851e+01   1.8653687418e+01    0.3215273    0.1922163  41.53 0.0009872869    1.611    0.379
        43 -13.0287     61.3230    108.7245   1.1530001991e+02   4.6125991880e+01    0.3558936    0.3342427 -11.39  0.002457577    1.391    0.281
        44 -11.1187    160.9015    127.6365   9.5349650592e+01   2.5426770222e+01    0.2770704    0.2118645 -54.09  0.001297615    1.472    0.321
        45 -10.2879    150.1873    101.0904   9.1457334091e+01   3.2461747428e+01    0.2531139    0.2089222  70.89 0.0006628166    1.373    0.272
        46 -12.3912     66.7074    104.7829   1.1320162852e+02   4.6302335586e+01    0.3453405    0.2450834  15.27  0.001918248    2.087    0.521
        47  -9.8146    127.3092     94.6632   9.5203392353e+01   3.8443942487e+01    0.1460535    0.1127901 -84.94 0.0005305958    1.681    0.405
        48 -10.5324    176.8219     74.9218   7.8582456084e+01   3.0868307130e+01    0.2527696    0.2230413  81.99 0.0004497368    1.311    0.237
        49 -10.6450     13.7286     59.9425   1.2106026743e+02   6.1156133590e+01     0.168955    0.1501454 -71.55 0.0004791654    1.150    0.130
        50 -11.3981    159.7086    236.0835   1.1249490342e+02   9.6356181901e+00    0.1436283    0.1152343  44.90 0.0004224837    1.100    0.091
        51 -10.6003    167.9087    189.6289   1.0516802057e+02   1.4265757593e+01    0.1865112    0.1654673  -9.59 0.0008990091    1.359    0.264
        52 -12.0718    206.8742    180.0634   9.6773785461e+01   8.6570882943e+00    0.6473023    0.2736332  35.12  0.002946492    2.285    0.562
        53 -10.8535    159.1729    205.9907   1.0898997902e+02   1.3481812985e+01     0.270724    0.1833103  65.70  0.001680393    1.756    0.430
        54 -13.4101     11.4513    206.5153   1.3422372378e+02   3.2547885571e+01    0.3590712    0.2104599  44.76  0.002903503    1.559    0.358
        55 -12.4185      6.3102    206.6925   1.3503750197e+02   3.2972046491e+01    0.1444632   0.08913498  69.14 0.0009409809    1.104    0.094
        56 -10.4489    209.9817    199.5546   9.9451428944e+01   5.8159544576e+00    0.1784788    0.1624713 -49.14 0.0005834729    1.560    0.359
        57 -10.4750    163.9210    204.8718   1.0802227726e+02   1.2856813016e+01    0.1704835    0.1560664  48.29 0.0004046912    1.164    0.141
