#   1 NUMBER                 Running object number                                     
#   2 MAG_AUTO               Kron-like elliptical aperture magnitude                    [mag]
#   3 X_IMAGE                Object position along x                                    [pixel]
#   4 Y_IMAGE                Object position along y                                    [pixel]
#   5 X_WORLD                Barycenter position along world x axis                     [deg]
#   6 Y_WORLD                Barycenter position along world y axis                     [deg]
#   7 A_WORLD                Profile RMS along major axis (world units)                 [deg]
#   8 B_WORLD                Profile RMS along minor axis (world units)                 [deg]
#   9 THETA_WORLD            Position angle (CCW/world-x)                               [deg]
#  10 FWHM_WORLD             FWHM assuming a gaussian core                              [deg]
#  11 ELONGATION             A_IMAGE/B_IMAGE                                           
#  12 ELLIPTICITY            1 - B_IMAGE/A_IMAGE                                       
         1 -13.3034    185.1028     91.4540   8.3783198917e+01   2.5631209165e+01     2.619679    0.9536932  41.01  0.007494287    4.030    0.752
         2 -13.1712    199.1731     54.1515   7.1728805208e+01   2.8377754358e+01     2.070014    0.9441841 -36.70  0.008607094    2.254    0.556
         3 -10.3491    245.5033     42.4805   6.3171909410e+01   1.9193789356e+01     1.414754    0.7706305 -32.96  0.007052536    2.072    0.517
         4 -11.6428    215.2359     31.4833   6.4132708703e+01   2.7605797533e+01     3.185107    0.4393307  63.62   0.00899379    5.193    0.807
         5 -10.5638    192.0390      2.3211   5.9994087237e+01   3.6421969484e+01     1.274439    0.4942369  58.19  0.005795654    2.223    0.550
         6  -9.9625    201.7394     36.7547   6.7070913019e+01   3.0176705243e+01    0.8055087    0.3390729 -27.20  0.003154879    3.122    0.680
         7 -11.0289    204.4475     25.2633   6.3977431719e+01   3.0962952501e+01     1.306382    0.5439788  57.39  0.005725565    2.208    0.547
         8 -10.6973    249.2490      4.9828   5.5390257769e+01   2.3096140479e+01     1.267877    0.1915112 -36.82  0.004523168    4.844    0.794
         9 -10.6777    228.1280     33.0788   6.3027533693e+01   2.4379240769e+01     1.170229    0.5015004  60.09  0.005314386    2.216    0.549
        10 -11.2234    199.4839     14.0905   6.1933576581e+01   3.3437262758e+01     1.115332    0.6402153 -77.45  0.005041706    1.897    0.473
        11 -11.2998    204.8226      5.3508   5.9347911156e+01   3.3082995525e+01     1.821265     0.731896  61.69  0.008489989    2.124    0.529
        12 -10.8029    225.1389     23.2280   6.1207445567e+01   2.6316273775e+01    0.5891482    0.3986227 -79.17  0.002725744    1.351    0.260
        13 -10.2447    240.4373      2.3743   5.5562769565e+01   2.5283093425e+01    0.3913589    0.2352914  85.74  0.001174639    1.393    0.282
        14 -12.1388    237.8187     18.1973   5.8925106585e+01   2.4049141409e+01     1.683126     0.858955 -83.73  0.008281098    2.061    0.515
        15 -10.7606    230.3880     14.0867   5.8760467743e+01   2.6202439543e+01    0.8521204    0.5352375  31.59  0.004072608    3.219    0.689
        16 -10.7910    232.3948      3.5138   5.6430025348e+01   2.6932384706e+01    0.6867125    0.3555476 -87.92  0.002926132    1.798    0.444
        17 -10.2390    244.6512     14.2165   5.7532664820e+01   2.3020478956e+01    0.4160889    0.2626756 -87.78  0.001601884    1.373    0.272
        18 -10.3856    239.3353      9.7180   5.7090118715e+01   2.4706457411e+01    0.3923698    0.2748749 -79.96  0.001398307    1.169    0.145
        19 -10.7211    185.5028     37.8680   6.9667796581e+01   3.4034096646e+01    0.8883229     0.425758 -24.12  0.003628251    2.821    0.646
        20  -7.9883    162.4733     37.5765   7.3386983100e+01   3.9795682597e+01    0.2064143    0.1497951  42.47 2.045193e-05    1.421    0.296
        21 -11.7438    220.9929     11.3977   5.9077129833e+01   2.8656452150e+01     1.183235    0.6998804 -26.93  0.006372124    2.174    0.540
        22 -10.8758    212.8789      8.5708   5.9255119893e+01   3.0851755815e+01    0.7292344    0.4669909 -38.64  0.004226792    1.688    0.408
        23  -9.9447    155.6633     10.2255   6.6775560858e+01   4.4474128991e+01    0.4649098    0.2676692 -36.41  0.002005365    1.965    0.491
        24  -8.8633    140.6138     13.4746   7.0244586569e+01   4.7772841540e+01    0.2849853    0.1942648  51.96  0.001049647    1.250    0.200
        25  -8.1499    179.8766     12.3244   6.3895229186e+01   3.8378805684e+01     0.220614    0.1472896 -88.10  0.001188649    1.491    0.329
        26  -7.8184    167.7882     10.9700   6.5183801052e+01   4.1461225529e+01    0.2078868    0.1278763 -61.62 0.0009370312    1.916    0.478
        27  -8.7924     84.7522     10.4744   8.1972041336e+01   6.0156198207e+01    0.2320494    0.1701626  10.43  0.000771909    1.310    0.236
        28  -8.4178    148.9842      9.0498   6.7498133147e+01   4.6187728692e+01    0.2117287    0.1461441 -75.78  0.001136914    1.763    0.433
        29  -8.0017    175.0126      8.4760   6.3545163391e+01   3.9943661671e+01    0.2127444    0.1094435  68.69 7.527584e-05    1.619    0.382
        30  -8.3921    132.0389      7.5473   6.9980178083e+01   5.0314450640e+01    0.2571522    0.1349533 -45.69   0.00123799    2.443    0.591
        31  -9.3206    111.5417      7.2585   7.4031660553e+01   5.4950752463e+01    0.2435565    0.1594171  -4.68  0.001377561    1.800    0.445
        32  -9.0307     60.8441      6.1084   8.7717933195e+01   6.4786556822e+01    0.2008861    0.1401904  29.95 0.0005906906    1.180    0.153
        33 -10.1090     63.7103      2.6016   8.5253398219e+01   6.4635183240e+01    0.4227256    0.2340874  50.94  0.001326905    1.889    0.471
        34  -8.0851    170.6338      5.2576   6.3285231055e+01   4.1308149926e+01    0.2442487    0.1941471  37.43  0.001494438    1.457    0.314
        35  -6.9507    168.6951      2.6874   6.2867614971e+01   4.2007883461e+01    0.1828992    0.1345162 -82.95 0.0005199785    1.361    0.265
        36  -7.8564    176.5178      4.5357   6.2344786210e+01   3.9950353683e+01    0.1312537    0.1063555  84.75 4.323689e-05    1.078    0.072
        37  -9.1937    120.1452      4.1643   7.1177303776e+01   5.3304853472e+01    0.3096482    0.1222579  57.05   0.00141526    1.978    0.494
        38  -8.7022    151.7891      1.7688   6.4975118199e+01   4.6146711046e+01     0.174869    0.1377773 -80.73  0.001064993    1.361    0.265
        39  -8.1784    148.1750      2.1996   6.5645074080e+01   4.6971357780e+01    0.1685017    0.1358214 -84.07 0.0004328228    1.322    0.244
        40  -8.2318    173.5022      1.5022   6.1948312523e+01   4.0953167615e+01    0.2212716    0.1229397  53.94 0.0009516265    1.639    0.390
        41  -8.4146    137.4705      1.4579   6.7146224578e+01   4.9552449164e+01     0.221521    0.1115637  77.06  0.001018629    2.165    0.538
        42  -8.2235    193.6483    167.3331   1.0024704298e+02   8.4433673574e+00    0.1546795    0.1221124  89.02 0.0007046557    1.781    0.439
        43  -9.3121    232.6597    246.0863   1.0759326764e+02  -1.1861903128e+01    0.4906924    0.1898496 -36.40  0.002295407    2.786    0.641
        44  -9.9983    245.3030    230.1875   1.0249294867e+02  -1.1604750899e+01    0.3619429    0.2204234 -15.57  0.001910262    1.714    0.417
        45  -9.3663    248.7364    224.3389   1.0080979248e+02  -1.1303510599e+01    0.3491229    0.2098161 -17.01  0.001610637    1.719    0.418
        46 -10.5044    240.6690    239.9086   1.0505842017e+02  -1.2236086363e+01    0.5400956    0.3392276  15.99  0.002546498    1.515    0.340
        47  -8.6869    249.5082    250.3855   1.0525798686e+02  -1.4851826748e+01    0.2256871    0.1428871  22.00 0.0007217756    1.327    0.246
        48  -9.3910    249.0000    245.7510   1.0455906712e+02  -1.4202003029e+01    0.3323596    0.2161678 -17.98  0.001310139    1.477    0.323
        49  -9.8036    244.2274    244.8089   1.0525728587e+02  -1.3400547388e+01    0.4065291    0.2255153  10.33  0.002108746    2.114    0.527
        50 -10.0326    247.3147    239.5672   1.0379099624e+02  -1.3164557587e+01    0.4470163    0.2507779 -14.35  0.001817511    1.999    0.500
        51  -9.0777    240.9464    250.4286   1.0680692855e+02  -1.3645231452e+01    0.3451514   0.09948565  41.25  0.001389347    3.367    0.703
        52  -9.6263    124.0936    163.9091   1.1568136226e+02   2.3756261322e+01    0.2387364    0.2044103  79.69 0.0004874373    1.228    0.186
        53  -9.2998    151.9666    162.4953   1.0859336258e+02   1.8370677950e+01    0.2477081     0.150814  43.98 0.0008320443    1.599    0.375
        54  -9.4227    173.6869    163.0760   1.0368535515e+02   1.3583680349e+01    0.2523829    0.1987262 -66.14  0.001187236    1.488    0.328
        55  -8.0926    189.6669    158.3213   9.9116265183e+01   1.1122859699e+01     0.155865    0.1237373 -89.26 0.0007049713    1.701    0.412
        56 -10.6077    146.0009    155.7495   1.0856612386e+02   2.1157752255e+01    0.4470404    0.2430912 -42.12  0.001753132    1.961    0.490
        57  -9.9481    160.6349    155.4168   1.0499427675e+02   1.8078145753e+01     0.473326    0.2735937  74.35  0.001412054    4.005    0.750
        58 -10.1582    118.4668    153.9790   1.1507185128e+02   2.7188504578e+01    0.4622922    0.2390537 -50.56  0.001602728    1.921    0.480
        59  -7.7997     80.5122    156.5264   1.2538479157e+02   3.3203069904e+01    0.1432184    0.1305441 -81.31 0.0001741601    1.006    0.006
        60  -9.5202    136.9917    153.7384   1.1034166350e+02   2.3514175838e+01    0.3261365    0.1969111 -26.18  0.001180373    2.661    0.624
        61  -7.5954    221.3198    152.3023   9.1365309107e+01   5.6155775983e+00    0.1482528    0.1135156   3.16 0.0006239697    1.627    0.385
        62 -11.0686    174.7441    148.4336   1.0015751421e+02   1.6481346829e+01    0.4881082    0.2951115  50.81  0.002025434    1.685    0.407
        63 -10.7920    172.7208    145.5529   9.9947743532e+01   1.7552420278e+01    0.3915465    0.2878748  46.63  0.001692796    1.348    0.258
        64  -8.8716    111.9280    147.7628   1.1545895236e+02   2.9915815906e+01    0.2945246    0.2029257  58.60  0.001285595    1.604    0.376
        65  -8.0782    224.6817    145.3057   8.9179472566e+01   6.2465069890e+00    0.1447307     0.115558 -76.29 0.0005751589    1.631    0.387
        66 -11.5098    140.5291    135.4697   1.0527850375e+02   2.6952539173e+01    0.7041247    0.3904895  51.26   0.00236473    1.881    0.468
        67 -10.8985    146.8630    139.1534   1.0457313179e+02   2.4734796102e+01    0.4716743    0.3079342  69.88  0.001840343    2.154    0.536
        68 -12.6031    170.1238    132.9284   9.7535385140e+01   2.0856347141e+01     1.376994    0.5867721 -37.90  0.004625369    2.600    0.615
        69 -12.3144    179.3664    134.5437   9.5850378760e+01   1.8387046589e+01    0.9501485     0.650264  78.61  0.003797847    2.180    0.541
        70 -11.4066    186.1071    141.4930   9.6030807363e+01   1.5396060126e+01    0.6456777    0.3724518  29.70  0.002424864    2.346    0.574
        71 -12.2298    153.1100    124.5405   9.9473488594e+01   2.6581834482e+01      1.00982    0.6196549 -62.55  0.003905211    2.112    0.527
        72  -9.5704    209.7798    138.3164   9.0423038660e+01   1.0762025639e+01    0.2921048    0.2416921  59.17 0.0008265788    1.299    0.230
        73  -9.7173    213.1428    134.9539   8.8996695684e+01   1.0683004362e+01    0.3551443    0.1670172 -41.21  0.001372528    2.041    0.510
        74  -9.8667    200.6167    137.6187   9.2083260098e+01   1.2927142387e+01    0.3105139    0.1957662  51.15 0.0009044639    1.637    0.389
        75 -10.8916    148.3378    143.8914   1.0532001530e+02   2.3341864519e+01    0.4446256    0.2757972 -51.38  0.001854345    1.656    0.396
        76 -10.8165    150.1259    134.4854   1.0265389048e+02   2.5060050341e+01    0.4142735    0.3286063  89.98  0.001877484    1.579    0.367
        77 -11.0245    186.6864    129.1507   9.2960134530e+01   1.7821524565e+01    0.6424819    0.3741146 -70.17   0.00210881    3.284    0.695
        78 -10.5161    203.2620    116.8794   8.6616441191e+01   1.6433786061e+01    0.5675902    0.3533917  15.12  0.001921117    3.481    0.713
        79 -11.8602    190.5058    124.6618   9.1064842491e+01   1.7852336204e+01    0.9068314    0.5923977 -74.69  0.003481051    2.427    0.588
        80 -10.4134    196.5223    122.1051   8.9211384836e+01   1.6968054053e+01    0.4622714    0.3433118  27.85  0.002104192    1.650    0.394
        81  -7.7860     87.2660    130.5139   1.1846033334e+02   3.8391894762e+01    0.3497373    0.1905622 -87.65 0.0009045778    6.079    0.835
        82  -8.3082    225.6143    130.6073   8.5694019595e+01   8.8208359878e+00    0.3203028    0.1428454  50.12  0.001239749    2.376    0.579
        83  -9.4846    213.5468    123.6005   8.6272525216e+01   1.2789867526e+01    0.3605351    0.2884704  37.65  0.001255944    1.369    0.270
        84 -10.1088    202.2315    127.2245   8.9303596063e+01   1.4637655154e+01    0.3736511    0.1990656  35.94  0.001401252    2.375    0.579
        85  -7.9432    114.3009    126.6892   1.1005920583e+02   3.4419398674e+01    0.1548651    0.1216329  85.43 0.0003054078    1.605    0.377
        86 -10.3524    162.0022    124.7951   9.7411506835e+01   2.4479342652e+01    0.4064584    0.2783596  62.85  0.001273284    1.671    0.402
        87 -11.7165    157.1286    136.1928   1.0136820022e+02   2.3109577087e+01    0.8122773     0.384777 -45.20  0.002965251    2.129    0.530
        88  -8.0281    101.2065    123.7991   1.1300094411e+02   3.7568176894e+01    0.2544495    0.1643892  81.31 0.0009481367    2.791    0.642
        89  -7.5228    249.5270    136.4648   8.2928094437e+01   2.9067812406e+00    0.1391256    0.1247158 -40.18 0.0008088493    1.028    0.027
        90  -7.7683     84.6426    123.3069   1.1761520512e+02   4.0519130357e+01    0.1496219    0.1122773  76.53 5.674233e-05    1.726    0.421
        91 -10.8932    190.8259    108.9143   8.7101906464e+01   2.0917171817e+01    0.6892577    0.4715971   6.72  0.002643442    2.634    0.620
        92 -11.4449    182.5437    115.9591   9.0585877618e+01   2.1489198358e+01    0.5915551    0.4800107  25.22  0.002344669    1.457    0.314
        93 -11.8654    184.7353    109.1443   8.8404824410e+01   2.2329883362e+01    0.7308915    0.4902977 -31.61   0.00318538    1.646    0.393
        94 -11.9624    185.0687    102.7796   8.6713725730e+01   2.3495149033e+01    0.7362288     0.469111 -41.84  0.003210142    1.567    0.362
        95  -9.7286    194.6790    116.0111   8.8091633937e+01   1.8608354455e+01    0.4142433    0.2236179 -53.16  0.001594745    2.075    0.518
        96 -12.3722    163.5641    136.5536   9.9930230856e+01   2.1573077019e+01    0.8939531    0.6515722 -75.45   0.00380838    1.833    0.454
        97  -8.7848    219.1213    115.7493   8.3415715037e+01   1.3034184675e+01     0.295454    0.1869031  48.90  0.001342836    1.662    0.398
        98 -11.4111    172.7621    113.3685   9.2053316100e+01   2.4345362743e+01     0.644883    0.4295831 -19.88  0.002588146    2.101    0.524
        99  -8.2349    214.0947    115.6269   8.4288917756e+01   1.4189676935e+01    0.2399051    0.1840016  10.26 0.0004600594    1.843    0.457
       100 -10.0190    215.8211    107.8302   8.2128316847e+01   1.5260891222e+01    0.3030122    0.2671213 -83.94  0.001619028    1.182    0.154
       101  -8.7166    129.8007    114.3956   1.0279440028e+02   3.4002303038e+01     0.351555     0.183375 -25.97  0.001088119    3.491    0.714
       102  -8.0759    248.5272    113.5661   7.8106366564e+01   7.1472791565e+00    0.1392021    0.1244245 -51.75 0.0001853143    1.018    0.018
       103 -11.5582    162.2767    110.4290   9.3670885494e+01   2.7444955768e+01    0.5544458    0.4880132  83.80  0.002749431    1.237    0.191
       104  -9.3805     14.9456    112.0796   1.3591671347e+02   5.1079155741e+01    0.2509672    0.1809125 -72.32  0.000494544    1.203    0.168
       105  -9.1971    104.5463    112.0024   1.0914402700e+02   3.9649871421e+01    0.2667395    0.2220165  38.45 0.0003685812    1.237    0.192
       106  -8.1079    149.6539    110.2947   9.6646712261e+01   3.0435336267e+01    0.1625288    0.1261787  88.57 0.0002728848    1.669    0.401
       107  -7.7111    123.7543    110.0029   1.0326124841e+02   3.6253368402e+01    0.2040855    0.1307737 -45.69 0.0007686392    1.554    0.356
       108 -10.6397    166.8545    100.9975   9.0141250392e+01   2.8256086523e+01    0.5012076    0.2694273 -52.35  0.001906189    2.102    0.524
       109 -11.3390    161.1357    100.3409   9.1261665474e+01   2.9763483178e+01    0.8249257    0.4930498 -65.15  0.003033964    2.505    0.601
       110 -10.1902    196.4900    103.4753   8.4624911071e+01   2.0612214338e+01    0.5284112    0.2750428  67.27  0.001905037    2.583    0.613
       111  -8.9647    150.2648    103.0452   9.4560392493e+01   3.1798006184e+01    0.2948056     0.216993 -58.05  0.001324321    1.508    0.337
       112  -8.5547    211.1005    101.1644   8.1361961900e+01   1.7586784104e+01    0.2307662    0.2054797  28.02  0.001217245    1.316    0.240
       113  -9.1559    226.1015    247.9138   1.0911973371e+02  -1.1109677130e+01    0.3349798    0.1747686  30.91  0.001234301    1.660    0.398
       114  -9.4471    130.2327     98.4074   9.8372937318e+01   3.7316629802e+01    0.2828131    0.2418158 -57.01 0.0005542688    1.242    0.195
       115  -8.0471    231.0492     95.3450   7.6693211484e+01   1.4071719279e+01    0.1930208    0.1783616  85.46   0.00045658    1.095    0.087
       116 -12.0038    189.7642     77.9453   7.9385296446e+01   2.6894578728e+01    0.6522842    0.6046991  13.49  0.003545539    1.283    0.220
       117 -11.6744    202.2538     72.7768   7.5894743956e+01   2.4696307575e+01    0.6717741    0.3960157  63.17    0.0028245    1.675    0.403
       118 -11.0265    217.9061     93.3282   7.8318985725e+01   1.7419040666e+01    0.5939506    0.3918722 -42.77  0.002829869    1.448    0.310
       119 -11.5776    179.2343     84.9055   8.3229641507e+01   2.8271923643e+01    0.6641846     0.432614  29.25  0.002733771    2.155    0.536
       120  -8.7215    232.8380     84.7866   7.4011029982e+01   1.5488105592e+01    0.4329597    0.1687605 -45.09  0.001551895    2.358    0.576
       121  -8.9448    163.5040     70.5903   8.2538492415e+01   3.4662097200e+01     0.296679      0.14991 -36.96 0.0008508581    2.075    0.518
       122  -8.4255    236.5547     83.4452   7.3173893440e+01   1.4884645146e+01    0.2752526    0.1737486 -79.72 0.0008504732    2.061    0.515
       123 -12.1804    198.8507     88.5824   8.0448425092e+01   2.2798044297e+01    0.9285485    0.5825358  36.97  0.003946551    2.029    0.507
       124  -9.3216    135.2322     83.3246   9.2771437383e+01   3.9167351387e+01    0.2712401    0.1925472 -67.32 0.0007285296    1.913    0.477
       125 -11.0399    171.5679     91.8193   8.6660453179e+01   2.8882944686e+01    0.4492723    0.3492326   5.84  0.001628648    1.787    0.440
       126 -10.7049    223.9596     67.0207   7.1198603942e+01   2.0435769680e+01    0.3523493    0.2800882  81.41  0.001515885    1.217    0.179
       127  -8.6061    250.1687     65.9118   6.7572615444e+01   1.4734152431e+01    0.2104446    0.1551606 -67.33 0.0008069947    1.245    0.197
       128 -11.2774    213.7439     58.1121   7.0547710781e+01   2.4237917315e+01    0.6475221    0.4865551  39.63   0.00336579    1.684    0.406
       129  -9.4706    206.5979     59.7549   7.1988819782e+01   2.5714222005e+01    0.3012484    0.1616722 -45.72  0.001066227    1.829    0.453
       130  -9.5189    211.7124    245.5884   1.1145503067e+02  -8.5228309869e+00    0.2742775    0.1813844   8.83  0.001522111    1.683    0.406
       131  -9.6263    225.8572    241.1116   1.0801612496e+02  -1.0141498258e+01    0.3543471    0.2650378  -7.32  0.001756579    1.313    0.239
       132  -8.9485    232.0539    234.9827   1.0579069375e+02  -1.0250206043e+01    0.3301469    0.2104163  -1.93  0.001577516    1.784    0.440
       133  -9.4833    249.5114    232.6930   1.0218019004e+02  -1.2569006712e+01     0.385501    0.2154467 -14.73  0.002023374    2.010    0.503
       134  -8.4599    215.5013    231.6609   1.0835731428e+02  -7.1013196886e+00    0.2909286    0.1859992  -0.75  0.001473044    1.987    0.497
       135  -7.5616    153.2304    231.0114   1.2081502117e+02   4.0034077059e+00    0.1586347    0.1155678 -50.88 0.0004632307    1.590    0.371
       136  -9.0915    236.8591    226.7923   1.0343345892e+02  -9.8326622290e+00    0.3250006    0.1799374 -14.33  0.001554443    2.298    0.565
       137  -8.2679    164.2432    228.4536   1.1813150907e+02   2.4622691328e+00    0.1971469    0.1155647  49.06 0.0009206317    1.599    0.375
       138  -8.5070    229.2219    226.4315   1.0480032438e+02  -8.5668758806e+00    0.2347644    0.1615695 -27.97  0.001117801    1.469    0.319
       139  -7.6610     99.4802    226.5166   1.3134607311e+02   1.4265645024e+01    0.1366111    0.1097179  66.26  0.000809123    1.071    0.066
       140  -8.5203    243.5261    224.5317   1.0179243634e+02  -1.0540803186e+01    0.2443714    0.1150434 -35.50 0.0009059013    2.127    0.530
       141  -7.9287    223.4569    224.4747   1.0554464941e+02  -7.3318323015e+00    0.1329102    0.1092701  10.40 0.0008077545    1.063    0.059
       142  -9.1699    238.2468    217.8348   1.0153110244e+02  -8.7358956943e+00     0.398362    0.2092126 -21.17  0.001866339    2.252    0.556
       143  -8.1685    227.2566    218.9706   1.0381129155e+02  -7.1186385240e+00    0.2154303    0.1366665  -4.59 0.0007103645    1.948    0.487
       144  -8.3772    210.9001    219.6812   1.0711886659e+02  -4.4461010759e+00    0.2813585    0.1081981  34.81  0.001099846    2.567    0.610
       145  -7.7585    131.6916    219.6874   1.2363037504e+02   1.0076846513e+01    0.1310205    0.1097446   3.87 0.0003120978    1.624    0.384
       146  -9.7881    248.0608    215.1012   9.9220364985e+01  -9.8728206876e+00    0.4761402    0.2683174 -25.20  0.002495399    1.763    0.433
       147 -11.4731    214.6796     77.3720   7.5019493198e+01   2.0935629928e+01    0.6227787    0.4859362  26.30  0.003112173    1.780    0.438
       148 -10.4423    172.4038     59.2983   7.7628796906e+01   3.4265082411e+01    0.5987209     0.447398  23.97  0.002385922    1.763    0.433
       149  -8.2323    136.5516     62.7245   8.6293085222e+01   4.2465614432e+01    0.2705707     0.148215 -30.45  0.001136195    2.036    0.509
       150 -10.1232    175.5788     78.1500   8.2151916983e+01   3.0375523516e+01    0.4100187    0.2435764 -48.57  0.001751263    1.770    0.435
       151  -8.9725    148.9520     78.0248   8.7879808334e+01   3.6921779531e+01    0.4052155    0.2209917  54.88  0.001281298    1.805    0.446
       152  -7.4588     19.6926     57.6762   1.2289767900e+02   6.2129018854e+01    0.1252506   0.06868297 -30.55 0.0007035421    1.647    0.393
       153  -9.5961    244.7980     51.8205   6.5207485301e+01   1.8017779913e+01    0.4414297    0.2806144 -71.30  0.001813499    1.573    0.364
       154 -10.2124    229.0899     52.1651   6.7134350495e+01   2.1508776714e+01      0.66663    0.5155042 -82.31  0.003815459    1.198    0.165
       155  -8.9505    236.8749     54.0287   6.6598857250e+01   1.9457668833e+01    0.3117079    0.1910572  68.60  0.000990974    1.598    0.374
       156  -8.8539    221.6493     53.6690   6.8425963803e+01   2.3023297918e+01    0.3028715    0.1912218  53.67  0.001192247    1.685    0.406
       157  -9.2076    163.0161     52.6927   7.7576956659e+01   3.7594185225e+01    0.3167274    0.1899989 -43.84  0.001446937    1.782    0.439
       158  -8.5039    158.2339     62.1870   8.1254781031e+01   3.7332277523e+01     0.301537     0.198694 -45.20   0.00140322    1.618    0.382
       159  -9.1027    190.5059     34.5297   6.8076321258e+01   3.3224380830e+01    0.2480117    0.2256856 -89.53  0.001505829    1.064    0.060
       160 -10.6574    189.8204     43.4259   7.0442644735e+01   3.2220394878e+01    0.8288425    0.3702439 -31.57  0.003408511    2.524    0.604
       161  -7.9578    160.2500    218.5671   1.1735330297e+02   5.0151983828e+00     0.197072    0.1235959  32.51  0.000641796    1.588    0.370
       162  -9.2470    181.3374     32.9792   6.9025893219e+01   3.5690092061e+01    0.2762304    0.2208541 -41.39 0.0008416291    1.362    0.266
       163  -9.8154    159.5962     80.5425   8.6173169990e+01   3.3893202897e+01    0.4275836    0.2977359  34.12  0.001915965    1.651    0.394
       164  -8.1373    248.6877     48.4040   6.4065793293e+01   1.7662467947e+01    0.1702018    0.1124807  60.33 0.0008992982    1.620    0.383
       165  -7.9838    241.4789     54.5107   6.6160362035e+01   1.8356034356e+01    0.2232766    0.1234789  67.64  0.000932821    1.793    0.442
       166  -9.0649    221.7099     42.0219   6.5755454344e+01   2.4673136176e+01    0.5047909     0.235869 -55.02  0.002194769    2.233    0.552
       167  -9.7756    215.4315     42.0660   6.6545147533e+01   2.6154893229e+01    0.5170615    0.4179393  10.92  0.002276127    1.907    0.476
       168  -8.4945    218.0098     36.9584   6.5051720313e+01   2.6232945034e+01    0.1979129    0.1754522  52.97   0.00104312    1.344    0.256
       169  -8.3430    238.5237     44.7500   6.4402670916e+01   2.0425018606e+01    0.2306732    0.1626289  77.83 0.0006926847    1.333    0.250
       170  -8.2438    179.0141     43.6925   7.2226977867e+01   3.4874724321e+01    0.2988452    0.1505432 -58.64  0.001164953    2.669    0.625
       171  -7.8404     76.5973     43.7916   9.7113578341e+01   5.7604671135e+01     0.167653    0.1177633 -41.50 0.0009292016    1.600    0.375
       172 -11.7877    193.6739     96.5470   8.3422938209e+01   2.2595957890e+01    0.8047693    0.5125366  83.75  0.003180315    2.312    0.568
       173  -9.3166    238.0955     38.6846   6.3157076651e+01   2.1360898189e+01    0.3169711    0.2288025 -65.39  0.001221609    1.225    0.183
       174  -8.4349    165.3456     40.1303   7.3594241046e+01   3.8754472440e+01    0.3207959    0.1852712 -51.43 0.0009852411    2.000    0.500
       175  -7.5227     55.9957    217.0304   1.3911621579e+02   2.2761111757e+01    0.1485366     0.118031  78.20            0    1.011    0.011
       176  -7.9627     61.3041     37.6543   1.0021478835e+02   6.0916037408e+01    0.1093315    0.1019629 -68.69 0.0007040895    1.690    0.408
       177  -7.4942     96.5566     34.5577   8.7549092794e+01   5.5214229583e+01    0.1326517     0.114333  23.01 0.0002648855    1.003    0.003
       178  -8.1885    233.1362     38.3857   6.3629885895e+01   2.2523520610e+01    0.1886123    0.1100421  86.14 0.0009352421    1.744    0.427
       179  -7.7555    176.5000     31.5229   6.9382145090e+01   3.7069627114e+01    0.2057259    0.1240461  77.64 0.0005551611    1.674    0.402
       180  -8.2084    174.2987     27.9684   6.8773054121e+01   3.8040401840e+01    0.3171067    0.1388995 -46.53  0.001320966    2.547    0.607
       181  -7.7594    132.5037    213.4987   1.2250681780e+02   1.1179461740e+01    0.1430295    0.1251137  58.43 -0.0001861237    1.032    0.031
       182  -7.4519    170.2481     29.3648   6.9785642422e+01   3.8878549186e+01    0.1328706    0.1005089  30.52 0.0005283144    1.616    0.381
       183  -8.2338    173.7987     24.6146   6.7952875264e+01   3.8551248226e+01    0.2897804    0.1800119  76.02  0.001452244    1.526    0.345
       184  -8.7375    119.6630     26.6079   7.8764089227e+01   5.1269675005e+01    0.3166015    0.2122329  82.98  0.001526792    2.201    0.546
       185  -8.3327    234.4405    210.6851   1.0089772550e+02  -7.0245136011e+00     0.330329    0.1793158  22.03  0.001520305    2.160    0.537
       186  -7.6913    156.3444     23.2924   7.0385118335e+01   4.2989720874e+01    0.1421944   0.09095537  40.23 0.0007028483    1.660    0.398
       187  -7.7986     97.3497     22.7728   8.3068742750e+01   5.6446007895e+01    0.1573144    0.1152031  -7.84 0.0005149066    1.446    0.308
       188  -8.0491     78.3953     22.2219   8.8455335836e+01   6.0120144072e+01    0.1613762    0.1109523 -34.24 0.0007355033    1.659    0.397
       189  -7.8685    192.6178     21.2714   6.4487020694e+01   3.4303314718e+01    0.1608341    0.1321913 -16.49 0.0008755695    1.592    0.372
       190  -9.4140    176.3121     21.0583   6.6641545171e+01   3.8329015828e+01    0.2541169    0.1747084  78.26 0.0005633857    1.332    0.249
       191  -7.9350    102.7887     21.2333   8.1061529031e+01   5.5495762325e+01     0.199777    0.1389244 -74.21 0.0008994806    2.756    0.637
       192  -8.5646     88.2566     19.7609   8.4516389421e+01   5.8561113261e+01    0.1782859    0.1240748  22.34 0.0005959602    1.344    0.256
       193  -8.7281    168.6112     18.5998   6.7116204169e+01   4.0487510401e+01    0.2009353     0.140733  42.48  0.001018807    1.534    0.348
       194  -7.8161     68.2724     18.3351   9.0239832192e+01   6.2305006619e+01     0.125104   0.07928578  11.14   0.00028927    1.599    0.374
       195  -8.8060    187.0962     16.9713   6.4130901377e+01   3.6129140331e+01    0.2029765    0.1679941  85.33 0.0004792808    1.045    0.043
       196  -8.0375     73.4490     17.4892   8.8185026559e+01   6.1516160946e+01    0.1229437    0.1007948  17.50 0.0001531376    1.025    0.024
       197  -9.3425    162.5760     15.6506   6.7224497114e+01   4.2269317219e+01    0.3125328    0.2008831  85.12  0.001607801    1.635    0.388
       198  -7.7728     64.5564    203.4861   1.3589999293e+02   2.4543628061e+01    0.1313431    0.1093129  80.92  0.000119353    1.013    0.012
       199  -7.9054    134.3585     15.2987   7.1971942815e+01   4.9071161895e+01    0.1424573   0.08388094  38.29            0    1.708    0.415
       200  -7.9561    173.4748     14.4721   6.5313470821e+01   3.9724272541e+01    0.1338964    0.1124303  71.16 0.0002300676    1.029    0.028
       201  -8.0844    239.0233    193.4721   9.6693894783e+01  -5.0389105832e+00    0.1897818    0.1065075  17.93 0.0008087471    2.444    0.591
       202  -9.1278     66.9674     13.9155   8.8888174994e+01   6.3000244531e+01    0.1862886    0.1481721  16.26 0.0008014629    1.004    0.004
       203  -9.8257    120.4352    188.3831   1.2111423712e+02   1.8822149217e+01    0.3102837    0.2699584 -61.22  0.001372741    1.194    0.162
       204  -7.6513    193.4817    188.4624   1.0469742035e+02   4.3246440139e+00    0.1448318    0.1372035  26.61 2.093793e-05    1.040    0.038
       205  -8.1204    178.4053    183.8191   1.0699861037e+02   8.2781802805e+00    0.2161841    0.1407378 -32.43  0.000958103    1.751    0.429
       206 -11.2260    153.0473    177.7993   1.1150753025e+02   1.4762784605e+01    0.6169702    0.4461285 -11.95  0.002075699    2.095    0.523
       207 -10.2513    158.0408    178.9464   1.1058493043e+02   1.3486436188e+01    0.4417911    0.2893223 -25.15  0.001692043    2.151    0.535
       208  -8.4324    111.3270    182.3237   1.2222284971e+02   2.1875635953e+01     0.142932    0.1185039 -14.35 0.0007048976    1.692    0.409
       209  -7.8152     62.0032    179.0000   1.3341949215e+02   3.0506480595e+01    0.1985519   0.07461565  35.37 0.0004021593    2.828    0.646
       210  -9.2671    171.3385    177.3522   1.0724404336e+02   1.1066773367e+01      0.23373    0.1821436   1.45 0.0006561092    1.663    0.399
       211  -7.6811     84.7189    175.3659   1.2747638326e+02   2.8031655098e+01    0.1494876    0.1014603  79.59 0.0007014619    1.685    0.406
       212 -10.3482    159.0069    170.4531   1.0862339138e+02   1.5125109342e+01    0.3792218    0.2244346 -48.59  0.001574328    1.754    0.430
       213  -8.8452      9.5288    172.1969   1.4444889755e+02   3.7824632096e+01    0.2237419     0.143713  26.50  0.001393387    2.036    0.509
       214 -10.6349    179.9156    168.9829   1.0357542757e+02   1.1008495038e+01    0.5309545    0.3421009 -77.38  0.001937562    2.968    0.663
       215 -10.6573    147.5872    168.6074   1.1092196073e+02   1.7922933191e+01    0.3995682    0.3113254 -89.79  0.001154243    1.609    0.378
       216  -7.4296    242.6947    169.7244   9.1178508988e+01  -1.6712572314e+00    0.1361271    0.1011942   1.18 0.0001903507    1.546    0.353
       217 -10.0879    125.5269    168.8382   1.1630333741e+02   2.2328267460e+01    0.4186852    0.2639745  75.99  0.001618924    2.450    0.592
       218  -9.9267    143.9038    171.1945   1.1232802600e+02   1.8103363542e+01    0.3360946     0.202199  53.72  0.001076512    1.743    0.426
