#   1 NUMBER                 Running object number                                     
#   2 MAG_AUTO               Kron-like elliptical aperture magnitude                    [mag]
#   3 X_IMAGE                Object position along x                                    [pixel]
#   4 Y_IMAGE                Object position along y                                    [pixel]
#   5 X_WORLD                Barycenter position along world x axis                     [deg]
#   6 Y_WORLD                Barycenter position along world y axis                     [deg]
#   7 A_WORLD                Profile RMS along major axis (world units)                 [deg]
#   8 B_WORLD                Profile RMS along minor axis (world units)                 [deg]
#   9 THETA_WORLD            Position angle (CCW/world-x)                               [deg]
#  10 FWHM_WORLD             FWHM assuming a gaussian core                              [deg]
#  11 ELONGATION             A_IMAGE/B_IMAGE                                           
#  12 ELLIPTICITY            1 - B_IMAGE/A_IMAGE                                       
         1 -13.3496    172.5653     54.9950   5.8591363672e+01   3.4938953483e+01     1.910049     1.225269  27.93  0.005589019    2.125    0.529
         2 -13.4030    187.3575     41.1040   5.1937539591e+01   3.3177137218e+01     0.996887    0.9508275  73.72  0.003384377    1.051    0.049
         3 -12.3625    198.3268     22.8132   4.5250130269e+01   3.2713700313e+01    0.4936832    0.4076746 -26.75  0.002523159    1.324    0.245
         4 -13.9540    210.8766      9.8402   4.0444206662e+01   3.1049893218e+01     1.510814       1.0035  59.03  0.007935209    1.526    0.344
         5 -11.3899    244.4218      2.1929   3.5867877542e+01   2.4039699894e+01    0.7480368      0.20766  79.39  0.002711812    3.970    0.748
         6 -10.0850     66.7877      1.6152   6.4371918697e+01   6.5859968553e+01    0.1660371    0.1140776  55.88 0.0009581363    1.731    0.422
         7 -11.2664     67.4265    206.4239   1.1697153279e+02   2.3343011201e+01    0.2082538    0.1769199  74.61 0.0003332695    1.084    0.078
         8 -12.4749    247.3128    246.1896   8.8040926158e+01  -1.1076964527e+01    0.8205332    0.5487583  14.93   0.00568903    1.171    0.146
         9 -12.9130    248.3969    232.9971   8.5706209234e+01  -9.7689953626e+00    0.9272125     0.380155 -29.24  0.004805491    2.502    0.600
        10 -17.7468     38.2065    241.7122   1.2511749649e+02   2.0200100830e+01     6.830632     5.253963  33.68   0.04683798    1.738    0.425
        11 -11.8577    149.6247    188.2496   9.6937121241e+01   1.3690964429e+01    0.4474785    0.3094516  58.91  0.001543576    1.587    0.370
        12 -10.2650    159.9169    205.8461   9.7728148608e+01   8.5446841489e+00     0.212269     0.173635  20.59  0.001233117    1.277    0.217
        13 -11.3740     59.2660    202.9749   1.1828617774e+02   2.5130055877e+01    0.2689696    0.2136711 -45.18  0.001680391    1.785    0.440
        14 -11.3572    150.6534    179.3331   9.5116065674e+01   1.5262578776e+01    0.4396717    0.3012281 -74.88  0.001721091    2.096    0.523
        15 -11.6981    144.6735    180.0809   9.6576181553e+01   1.6243458423e+01    0.4100559    0.2785088  40.68  0.001140957    1.388    0.279
        16 -11.8584    141.1538    174.4604   9.6341507839e+01   1.8065408135e+01    0.6565055    0.4293046  78.85   0.00273828    2.482    0.597
        17 -10.4307    188.6552    176.7265   8.6501951396e+01   8.4157859130e+00    0.3952884    0.3571464 -55.53  0.002230757    1.298    0.230
        18 -11.5100    238.5689    174.1081   7.6445436448e+01  -3.7421170697e-01    0.4217073    0.1538315 -30.81  0.001628888    2.811    0.644
        19  -8.5811    194.4681    172.4642   8.4452516394e+01   8.0548888289e+00    0.1425172    0.1313769  12.65 0.0003365078    1.006    0.006
        20  -8.3396     72.6028    203.2687   1.1559400422e+02   2.3287639418e+01    0.3087049    0.1589887  65.91  0.001500114    2.097    0.523
        21  -9.4983    230.3173    166.3159   7.6291245039e+01   2.3109833876e+00     0.143017   0.09878182   3.93 0.0003359115    1.651    0.394
        22 -10.9858     92.4471    157.2736   1.0487517574e+02   3.0559678339e+01    0.2633359    0.2521544  59.18 0.0003035912    1.134    0.118
        23 -11.0325    134.0080    146.3758   9.2433310592e+01   2.5557033213e+01     1.247103    0.3220119 -55.05  0.002955324    5.805    0.828
        24 -11.9075     98.1002    150.8408   1.0232281893e+02   3.1144306757e+01     0.596669    0.4705042 -26.86  0.003037273    1.676    0.403
        25  -9.8944    187.3367    151.4513   8.1409808296e+01   1.3406453428e+01    0.3281096    0.2259393 -75.00  0.001326922    2.557    0.609
        26  -9.8483    113.2905    151.3781   9.8594818435e+01   2.8366599683e+01    0.4939895    0.2709745  71.28  0.001632308    3.623    0.724
        27 -10.4380    107.8183    146.1055   9.8944193657e+01   3.0578375620e+01    0.3124578    0.2083642 -79.31 0.0009012991    1.878    0.467
        28 -11.3317    108.8588    137.4271   9.6901027859e+01   3.2431901460e+01    0.6483595    0.3266155 -40.91  0.002498087    2.321    0.569
        29 -11.0319    105.9271    130.8971   9.6274680380e+01   3.4506511432e+01    0.4402082    0.3455829 -58.15  0.001417184    1.225    0.184
        30  -9.6646    174.6882    149.1075   8.3590135162e+01   1.6529997704e+01    0.2679072     0.208785  56.42 0.0007438301    1.394    0.283
        31  -9.2270     92.5091    147.0654   1.0306376443e+02   3.2961010420e+01    0.2245929    0.1351304 -60.21   0.00103187    1.588    0.370
        32  -9.9743    143.5584    145.2579   8.9873739476e+01   2.3871909030e+01    0.3021079    0.1488495 -52.69  0.001144436    2.159    0.537
        33 -11.7799     97.3611    136.8976   9.9832807733e+01   3.4580378541e+01    0.3428821    0.3032405 -88.96 0.0005867734    1.123    0.110
        34  -9.9858    136.0020    129.0569   8.8003327757e+01   2.9046489872e+01    0.3550853    0.1437563 -47.23  0.001150053    2.441    0.590
        35 -10.3955    115.6646    128.6325   9.3165847341e+01   3.3225495170e+01    0.3395587    0.2957929  -5.01 0.0006526139    1.397    0.284
        36 -11.0313    193.5391    196.1157   8.9244100433e+01   4.1510618693e+00     1.111044    0.6051241 -64.39  0.003451915    5.938    0.832
        37  -9.4913    160.9044    128.5663   8.1855460520e+01   2.3772382784e+01    0.3308908    0.2049662 -58.46  0.001326354    1.963    0.491
        38 -10.6014    103.4041    124.3672   9.5502347217e+01   3.6509163047e+01    0.2854079    0.2505639 -26.84 0.0007210265    1.283    0.220
        39  -9.8882    120.6609    122.9657   9.0503917563e+01   3.3566042719e+01    0.3360323    0.2210326 -15.81  0.001268483    2.634    0.620
        40 -19.1965     20.9690    102.7195   1.1561973588e+02   5.2307488358e+01     17.44232     1.212548 -68.03   0.03297471   12.009    0.917
        41  -9.4393    110.8066    118.1035   9.1988360797e+01   3.6612362601e+01     0.220826    0.2005729 -88.25 0.0005012148    1.161    0.139
        42  -8.9903    150.4385    117.2178   8.1468677114e+01   2.8529589639e+01    0.2217539    0.1483157 -55.48 0.0005273624    1.631    0.387
        43  -9.9528    231.2332    113.7104   6.4179807411e+01   1.0969894437e+01    0.2577133    0.2361337  -9.15  0.000743722    1.092    0.084
        44  -9.8876    167.3992    112.3494   7.6220257962e+01   2.5678585355e+01    0.3373262    0.2632425 -78.82  0.001236796    1.676    0.403
        45 -11.7060    119.0858    109.7463   8.7600032215e+01   3.6910566578e+01    0.5855211    0.5054829  83.06  0.002940727    1.333    0.250
        46  -9.8273    205.2523    110.3513   6.7905515018e+01   1.7281188173e+01    0.3660653    0.2399956  33.49  0.001101924    1.796    0.443
        47 -10.3214    134.6328    105.5670   8.2330760228e+01   3.4560892523e+01    0.4503154    0.1474302 -44.31  0.001374619    2.984    0.665
        48 -11.4708     75.3019    248.8503   1.1924939735e+02   1.4302596394e+01    0.3172646    0.1336886 -59.94  0.001724184    2.768    0.639
        49  -9.5297    183.1044     83.2085   6.4864821716e+01   2.7530972090e+01    0.2421357    0.2187147  16.08  0.001234002    1.225    0.184
        50  -8.7528    153.4703     82.4622   7.0990745469e+01   3.4951508422e+01    0.1556699    0.1533367 -10.33 0.0001518678    1.016    0.016
        51 -10.1427     71.8025    243.9958   1.1947869502e+02   1.5609682990e+01    0.2044768    0.1293604 -85.09  0.001334148    1.615    0.381
        52 -11.3013     62.8918    194.7440   1.1672039290e+02   2.6396106991e+01    0.3539538    0.2295171 -45.02  0.001367734    2.185    0.542
        53 -12.8411    192.1900     34.8305   4.9420114217e+01   3.2781964401e+01    0.6705978    0.5722145  81.16  0.001426098    1.127    0.112
        54  -9.6182     64.8783    223.4960   1.1904600291e+02   2.0290606398e+01    0.1983867    0.1217605  84.63 0.0007599402    1.583    0.368
        55  -9.0003     89.2993    242.1339   1.1618215699e+02   1.3521136481e+01    0.1428507   0.09508173 -87.00 0.0008345467    1.623    0.384
        56 -10.9198     58.9053    229.8856   1.2067843477e+02   1.9853094788e+01    0.1868662    0.1317988  83.33 0.0004049601    1.244    0.196
        57  -9.4127     82.1188    195.0324   1.1266764327e+02   2.3663595444e+01    0.2021988    0.1686257  76.50  0.001266692    1.039    0.038
