#   1 NUMBER                 Running object number                                     
#   2 MAG_AUTO               Kron-like elliptical aperture magnitude                    [mag]
#   3 X_IMAGE                Object position along x                                    [pixel]
#   4 Y_IMAGE                Object position along y                                    [pixel]
#   5 X_WORLD                Barycenter position along world x axis                     [deg]
#   6 Y_WORLD                Barycenter position along world y axis                     [deg]
#   7 A_WORLD                Profile RMS along major axis (world units)                 [deg]
#   8 B_WORLD                Profile RMS along minor axis (world units)                 [deg]
#   9 THETA_WORLD            Position angle (CCW/world-x)                               [deg]
#  10 FWHM_WORLD             FWHM assuming a gaussian core                              [deg]
#  11 ELONGATION             A_IMAGE/B_IMAGE                                           
#  12 ELLIPTICITY            1 - B_IMAGE/A_IMAGE                                       
         1 -10.5936     57.5207     47.8649   8.9751554038e+01   6.0706939476e+01      2.07875     1.430568  70.37  0.009316549    3.270    0.694
         2 -12.1439     31.9877     43.3946   9.8675103480e+01   6.4516343021e+01    0.9293813    0.5167883 -33.92  0.005088658    1.615    0.381
         3 -12.4663    161.3396     53.4771   6.1467688344e+01   3.8128383001e+01     4.301569     1.505057 -49.36   0.01214444    4.210    0.762
         4 -13.2524    114.6383     66.3887   7.7128000662e+01   4.7051640942e+01     2.379645     1.546173  53.92  0.002279047    1.686    0.407
         5 -12.5731     43.7527     14.3787   8.1391597665e+01   6.8141274594e+01     1.606846     1.037183 -52.82  0.008581067    2.537    0.606
         6 -12.4874     58.3785      6.4431   7.1264140110e+01   6.6973434489e+01     1.182375    0.7027843   9.52   0.00131681    1.843    0.457
         7 -12.3265    102.3840     57.9676   7.7848241039e+01   5.1175427877e+01     3.844008    0.9909381 -36.77   0.01104705    4.108    0.757
         8 -12.5706     87.4733     53.5218   8.1004033293e+01   5.4861804075e+01      2.21176     1.233491 -32.85  0.005952926    1.770    0.435
         9 -12.1156     98.7230      6.7538   5.8484723205e+01   5.9144458678e+01     1.212868    0.6518127  26.72  0.001037016    2.055    0.513
        10 -13.3466     70.4089     30.9661   7.8109379401e+01   6.1660208334e+01     2.887944     1.332064  37.15   0.01314541    2.224    0.550
        11 -11.9962     25.2709      6.2831   8.6235626457e+01   7.1528973918e+01    0.6214519     0.277545 -37.04  0.003408572    1.902    0.474
        12 -13.5958      6.5983      9.8264   9.8091263178e+01   7.2626528340e+01     1.352391    0.7525377 -29.57  0.006299021    1.427    0.299
        13 -11.6234     19.9709     13.7273   9.2637204140e+01   7.0921294849e+01    0.6009259    0.3251527  20.77   0.00361926    1.982    0.495
        14 -13.1305    146.9362     53.8813   6.4667145758e+01   4.1695184393e+01      2.45732     1.073623 -33.54  0.003748205    2.308    0.567
        15 -12.3057    107.6000     32.6660   6.6822887270e+01   5.4158171439e+01     1.251212    0.6632553  35.91  0.002323823    2.011    0.503
        16 -11.7702    113.2355     22.4652   6.1295464870e+01   5.4211509822e+01    0.8772427    0.4908111 -48.37  0.003845291    2.353    0.575
        17 -11.4369     12.2035     25.3071   1.0142479537e+02   6.9547184034e+01    0.4215288    0.1806518 -32.98 0.0006303076    2.099    0.524
        18 -11.5677    192.6293     32.3953   4.9744030042e+01   3.3046638242e+01    0.4721549    0.3915531  10.98 0.0001202727    1.506    0.336
        19 -12.5369    115.9381     12.1174   5.6532390197e+01   5.4724743803e+01     1.596425     1.052912  70.10   0.00807949    1.681    0.405
        20 -11.5398    235.3495     28.5310   4.3690332188e+01   2.3011013666e+01    0.7166051    0.3828676  47.75  0.001752406    2.354    0.575
        21 -10.4061    170.9093     30.3305   5.2395656924e+01   3.8922173583e+01     1.650577    0.6672296  81.12  0.004459585    5.170    0.807
        22 -11.0374    179.2197     26.8736   5.0045512655e+01   3.7194574460e+01    0.9617276    0.4130541  45.35  0.003611972    2.651    0.623
        23 -10.0528    185.2997     24.1472   4.8366251727e+01   3.5949886786e+01     0.612255    0.3786198 -14.95  0.001695864    2.007    0.502
        24 -10.2594    183.5479     15.4396   4.6044148157e+01   3.7386963557e+01     0.707785    0.4064603  32.76  0.002578808    2.393    0.582
        25 -11.3461    163.6375      5.1925   4.5567492075e+01   4.3534640390e+01     1.136053    0.6526583  55.28  0.004864555    1.577    0.366
        26 -11.0971    163.0233     16.2630   4.9186824904e+01   4.2594651354e+01    0.9511626    0.4475531  38.59  0.003711357    2.647    0.622
        27 -10.5981    176.4914     20.6377   4.8554469966e+01   3.8632625204e+01       0.5763    0.3216348 -31.83  0.001932645    1.835    0.455
        28 -10.3438    176.8475     15.0078   4.6800190514e+01   3.9159642797e+01    0.2885727    0.2009933  68.51 0.0003875904    1.318    0.241
        29 -11.0762    170.6150     12.8229   4.6989421426e+01   4.0996425795e+01    0.8708929    0.4876402  57.45  0.003511394    1.623    0.384
        30 -10.6090    154.0243     17.3422   5.0987219390e+01   4.4791778880e+01    0.5620269     0.351934   8.89 0.0005453558    2.209    0.547
        31 -10.5631    149.7839     15.7065   5.1155242434e+01   4.6047464933e+01    0.6415652     0.389699  15.38  0.002403689    2.276    0.561
        32  -9.9865    147.5214     11.4592   5.0087507970e+01   4.7053700977e+01    0.3340836    0.2488727 -24.95  0.001053889    1.454    0.312
        33 -12.1994     27.9683     23.4605   9.2938853498e+01   6.8553621061e+01      1.13542    0.7624716 -25.55  0.006101348    1.237    0.191
        34  -9.7933    125.5621     15.5540   5.5745540146e+01   5.2084826895e+01     0.372398    0.2063419  35.03 0.0004754746    1.926    0.481
        35 -10.3179    131.8759     13.5957   5.3711492199e+01   5.0750228474e+01    0.4445723    0.3331244  85.92  0.001393361    1.560    0.359
        36 -10.1766    124.3290     21.5972   5.8313480653e+01   5.1714111941e+01    0.6891574    0.3532242  18.09  0.002483897    3.330    0.700
        37 -11.0942    132.0675     20.1051   5.6074202396e+01   5.0008209631e+01    0.5469647    0.3077721  54.77  0.001414428    1.603    0.376
        38  -9.5122     81.6008     20.1593   6.9459415329e+01   6.1174277651e+01    0.3860885    0.3493611 -80.17  0.002361653    1.615    0.381
        39  -9.5582    243.0974     13.0310   3.9337979149e+01   2.3086150730e+01    0.2954515    0.2505099 -63.05  0.001154511    1.039    0.037
        40  -9.6619    244.4184      9.2453   3.8371331922e+01   2.3215026171e+01    0.3199061    0.1498372 -50.33  0.001564354    1.857    0.462
        41  -9.8075    244.2308      4.3769   3.7287956337e+01   2.3791115152e+01    0.2229394     0.193282 -49.21 0.0006414239    1.176    0.150
        42 -10.7292    232.9531     11.2074   3.9750280376e+01   2.5625795095e+01    0.3121062    0.2685488 -54.12 0.0007602628    1.110    0.099
        43  -9.5121    230.4852     20.0295   4.2094707565e+01   2.5190828138e+01    0.4258167    0.3012741 -54.77  0.002392319    1.271    0.213
        44  -9.4585    232.6854     17.3201   4.1235167259e+01   2.4991447859e+01    0.3978984     0.151386 -51.56  0.001048161    2.550    0.608
        45  -9.9297    211.3182     17.3279   4.3327795070e+01   3.0146563076e+01    0.4127236    0.2303123  62.94  0.001592038    1.715    0.417
        46  -9.9384    221.7167     12.3850   4.1034343066e+01   2.8161459617e+01    0.3974396    0.3083004 -81.07   0.00139203    1.171    0.146
        47  -9.5110    226.0986      8.4146   3.9665782027e+01   2.7547768542e+01    0.2838953    0.2074862  20.60   0.00152546    2.065    0.516
        48 -10.1115    205.5354     15.7147   4.3520738684e+01   3.1767848604e+01    0.5730458    0.3385878  30.67   0.00248763    2.615    0.618
        49  -9.9785    212.6907     11.5189   4.1678972495e+01   3.0454743892e+01    0.6616495     0.364958 -73.98   0.00306542    1.999    0.500
        50  -9.3516    211.4963      4.4853   3.9987832653e+01   3.1488513476e+01    0.3061363    0.2169194  18.69 0.0009694505    2.086    0.521
        51  -9.7458    208.2460      3.3770   4.0003649230e+01   3.2399576618e+01    0.2806251    0.2088803 -60.09 0.0006979957    1.254    0.203
        52  -9.8873     31.3720     12.0658   8.6070818912e+01   7.0011703541e+01    0.2504225    0.1433291 -34.56 0.0009354458    1.487    0.327
        53  -8.6353     83.3498      3.6776   6.1362260462e+01   6.2666931910e+01     0.337906    0.1616201 -48.50  0.001305531    4.000    0.750
        54  -9.0754     84.3761     10.6935   6.4299205050e+01   6.1748349649e+01     0.271293     0.226697 -71.05  0.001567375    1.831    0.454
        55 -10.1742     86.8532      7.4524   6.2072790933e+01   6.1586280031e+01    0.4243889    0.2376565  45.58  0.001857892    1.595    0.373
        56  -9.9203     77.5057      7.2699   6.4869106731e+01   6.3459939396e+01     0.544047    0.2432624 -19.41  0.002488335    2.343    0.573
        57  -9.3660    200.3622      7.3163   4.1816279577e+01   3.3962353632e+01    0.4734133    0.2524796 -41.18   0.00228704    1.808    0.447
        58 -10.3127    199.6920      4.3386   4.1084090271e+01   3.4429877354e+01    0.4385957    0.3708231  72.63  0.002526003    1.129    0.114
        59  -9.1498    250.1177      7.7669   3.7615954872e+01   2.2109411675e+01    0.2566808    0.1459129 -72.43  0.001363376    1.696    0.411
        60 -10.3541    139.0069      4.4817   4.9089998264e+01   4.9844415929e+01    0.4841237    0.3063222 -33.54  0.002099817    1.711    0.416
        61 -10.3519    139.0090      1.4388   4.8008189613e+01   5.0103692082e+01    0.2652602    0.1574693  85.53 0.0003372171    1.974    0.493
        62 -10.2793    217.5122      5.4421   3.9685834444e+01   2.9923793990e+01    0.3125167    0.2410002  42.06   0.00101488    1.607    0.378
        63  -8.9324    189.9556      6.2749   4.2644725762e+01   3.6695188390e+01    0.3932187    0.1462948 -35.31  0.001607787    2.535    0.606
        64 -10.4831    181.8217      5.2099   4.3268175291e+01   3.8872035169e+01    0.5610661    0.3322985  79.65  0.002319342    1.608    0.378
        65  -9.9616    133.1564      4.5700   5.0145925809e+01   5.1287470493e+01    0.4015104    0.3842982  25.91  0.002533226    1.094    0.086
        66  -9.4075     69.6612      4.3618   6.6076100952e+01   6.5235717324e+01     0.448409     0.313078  48.46  0.002675124    1.496    0.332
        67  -8.8702     29.7798      5.8090   8.3687680211e+01   7.1091521777e+01    0.1694484    0.1188487  -8.31 0.0007280876    1.190    0.159
        68  -9.2195    248.3507      1.5830   3.6378190985e+01   2.3172301155e+01    0.2077426    0.1409595  68.91 0.0007047412    1.520    0.342
        69  -9.5556    150.5365    249.4946   1.0655166374e+02   3.3496021077e+00    0.1197335   0.09369513  43.73 6.735076e-05    1.012    0.012
        70  -9.2719    210.7754    250.3906   9.5895637190e+01  -6.1060533712e+00    0.1743352   0.08504786  31.13 0.0009571631    1.705    0.414
        71  -9.0841    161.9806    250.0115   1.0454133520e+02   1.4757364494e+00    0.1507626    0.1158345  39.71 0.0002234496    1.016    0.016
        72  -9.3534    125.2328    249.8671   1.1117649426e+02   7.2253175480e+00    0.2258081    0.1420675  23.57  0.001252235    2.218    0.549
        73  -9.8296    107.8875    248.6012   1.1416653260e+02   1.0039001263e+01    0.2200087    0.1431298 -71.08  0.001413954    1.828    0.453
        74 -12.2107     41.6397     51.8642   9.7463777535e+01   6.1861571511e+01    0.6563365    0.5316894 -13.96   0.00116266    1.226    0.184
        75  -8.8792      3.4855    246.5073   1.3149722496e+02   2.3339763631e+01    0.1652138   0.06654204 -69.70  0.001028641    2.554    0.608
        76 -10.3454    141.8631    243.8226   1.0745836418e+02   5.5642178751e+00    0.3338492    0.2078763  23.38  0.001827418    2.077    0.519
        77 -11.7769     20.3500     83.6227   1.1350969401e+02   5.6799820847e+01     1.218604    0.9408128 -56.02  0.005052196    1.066    0.062
        78 -11.4623     30.9797     72.3243   1.0734485857e+02   5.8523481823e+01    0.7608838    0.4342481 -44.30  0.002393252    1.511    0.338
        79  -9.0206    188.6548    243.7147   9.8866072795e+01  -1.8798582520e+00    0.1215623   0.07929712  17.98  0.000701895    1.646    0.393
        80 -12.5612     55.9915     66.3720   9.6488776262e+01   5.7179615546e+01     1.143503    0.6946497 -50.51  0.005906105    1.448    0.309
        81 -10.2890     14.5662    237.7033   1.2940480863e+02   2.3778276348e+01    0.2844244     0.130497  87.15  0.001804303    1.851    0.460
        82  -8.9705     55.4515    237.7567   1.2255274327e+02   1.9127440699e+01    0.1405639   0.09377718 -66.68 0.0009510003    1.722    0.419
        83  -8.6980     21.0323    232.3255   1.2808854677e+02   2.4079747164e+01    0.1475078    0.1020668  65.19 0.0005327772    1.078    0.072
        84 -11.6273     36.6463     27.1840   9.0448104735e+01   6.7007795433e+01    0.2324466    0.1797098 -19.50 0.0003051858    1.065    0.061
        85  -9.1157     12.6442    231.8953   1.2944906052e+02   2.5018404252e+01    0.2249935   0.08222183  53.21  0.001323223    1.994    0.498
        86  -8.2405    226.7065    231.6646   9.0224476746e+01  -6.2566514460e+00    0.1227002    0.0775587   8.95 0.0004869543    1.642    0.391
        87  -9.0247    218.9729    230.7963   9.1449743091e+01  -4.9642757031e+00     0.219405    0.1481602  45.67   0.00132809    1.607    0.378
        88 -12.4677     48.4885     39.1252   9.0107787935e+01   6.3507409958e+01    0.5329943     0.395248  38.22 0.0006156311    1.626    0.385
        89 -11.7957     56.6142     37.6439   8.6205657885e+01   6.2690087935e+01    0.4370651    0.3207262  -0.36 0.0009999304    1.414    0.293
        90 -10.2523      3.8221    136.7069   1.2517795225e+02   4.5630685050e+01    0.3303809    0.2288487 -38.24  0.001548633    1.918    0.479
        91  -9.4085     55.4960    136.5324   1.1194611589e+02   4.0839354897e+01     0.255269    0.1957235 -45.29 0.0006733652    1.461    0.316
        92 -10.7837     52.5018    132.6761   1.1215322105e+02   4.2124018954e+01    0.4480724     0.277039  33.04  0.002354593    1.848    0.459
        93  -8.7689     41.4900    135.9015   1.1555712304e+02   4.2576553321e+01    0.1882812    0.1093342 -70.19  0.000425259    1.452    0.311
        94  -9.2278     31.4839    134.5912   1.1800177612e+02   4.3886553860e+01    0.1720091    0.1231497  33.02  0.001036564    1.656    0.396
        95  -8.3336      1.6542    133.2634   1.2540532167e+02   4.6559961221e+01    0.1166578   0.07049682  67.97 0.0006977381    1.604    0.377
        96 -10.6063     63.7869    113.6258   1.0558023551e+02   4.5324449113e+01    0.6477575    0.1828404  46.28  0.001996828    4.671    0.786
        97  -9.4796     73.0951    129.6142   1.0600207846e+02   4.0193471973e+01    0.2522314    0.1791205 -56.96 0.0004148154    1.296    0.229
        98 -10.4355     56.1054    125.7751   1.1004176406e+02   4.3358486497e+01    0.3697889    0.2063984 -62.30 0.0009290126    1.545    0.353
        99  -8.9635     81.2794    124.7220   1.0277792698e+02   4.0166991472e+01    0.1902611    0.1641399 -28.45  0.001040486    1.370    0.270
       100  -8.7631     74.5170    124.9113   1.0471401163e+02   4.1125350399e+01    0.2074605    0.1271843 -59.46  0.000423224    1.472    0.321
       101  -8.9491     88.6338    119.6905   9.9644172735e+01   4.0213952444e+01     0.284136    0.2017038 -26.52 0.0007663409    1.889    0.471
       102 -10.2164     91.1399    121.9932   9.9439785163e+01   3.9252562310e+01    0.4031886    0.3174098 -50.19  0.001139774    1.224    0.183
       103 -10.6496     93.2214    116.7362   9.7680282618e+01   4.0155886040e+01    0.7682489    0.4053144 -69.47  0.002893848    2.554    0.608
       104 -11.6654     75.5490    120.0674   1.0345656736e+02   4.2143873740e+01    0.2579729    0.2467921  73.32  0.001542189    1.110    0.099
       105 -11.1697     59.6515    120.4724   1.0810049048e+02   4.4202584564e+01    0.3987426    0.2526079  16.09  0.001924154    2.254    0.556
       106 -10.6844     19.5496    118.5906   1.1918216471e+02   4.8694304752e+01    0.4088714    0.2721987 -65.21  0.001664404    1.223    0.182
       107  -9.9678    105.2037    117.2551   9.4432231434e+01   3.7917486869e+01    0.4973417    0.3334666 -82.62  0.002082652    2.145    0.534
       108  -9.9744    116.1453    116.4933   9.1245510467e+01   3.6014272688e+01    0.2750194    0.2493592 -53.72 0.0002515796    1.066    0.062
       109  -9.6492    109.2239    114.8788   9.2744274412e+01   3.7721922790e+01    0.3200397    0.2533394  67.46  0.001563665    1.447    0.309
       110  -9.4633     99.1211    113.0422   9.5134721977e+01   4.0004735527e+01    0.3430029    0.2178728 -50.91  0.001263787    1.483    0.326
       111  -8.5105     82.3652    114.2779   1.0025264830e+02   4.2505866778e+01     0.143354    0.1111636 -20.25 0.0007010085    1.676    0.403
       112 -11.6583     66.8061    124.5825   1.0682291949e+02   4.2279265457e+01    0.8282493     0.527719 -49.46   0.00416844    1.530    0.346
       113 -10.3708     62.7838    108.0791   1.0474235952e+02   4.6786672932e+01    0.4246421    0.2127016 -43.39  0.001072407    2.102    0.524
       114  -8.5591    127.6882    111.6717   8.6934789197e+01   3.4764139052e+01    0.1577432      0.12485  -7.00 0.0005156104    1.667    0.400
       115  -9.2684    133.6349    110.2144   8.4998535708e+01   3.3822348210e+01    0.2254338    0.1439965 -36.08 0.0004766873    1.671    0.401
       116  -9.8695    149.1335    107.1998   8.0294040251e+01   3.1028382363e+01    0.5016022    0.2252919 -41.50  0.001786063    2.211    0.548
       117  -8.3289    104.2688    109.3001   9.2750338090e+01   3.9943947407e+01     0.146302    0.1166699 -20.95 0.0002928903    1.524    0.344
       118  -9.8690    113.1101    106.9716   8.9664449798e+01   3.8791134394e+01    0.4543954    0.3393185  79.71  0.001959774    1.805    0.446
       119 -10.6982     69.4324    104.9841   1.0204010113e+02   4.6631107812e+01    0.6028114    0.2889591 -35.77    0.0022497    2.980    0.664
       120 -10.1619    133.7521    102.6079   8.2916585085e+01   3.5459480841e+01    0.4665962     0.266843 -48.99   0.00128753    1.756    0.431
       121  -9.3340     74.7525    107.1211   1.0090402622e+02   4.5362853334e+01    0.2467078    0.2152838  18.35  0.001006042    1.341    0.255
       122 -11.1304    141.6366    101.8400   8.0684387712e+01   3.3868067267e+01    0.4115832    0.3283934  28.24 0.0008023955    1.407    0.289
       123  -9.6221    146.5621     99.5462   7.8817031685e+01   3.3226816301e+01    0.2859682    0.2483558  42.59 0.0007338646    1.174    0.148
       124  -8.4164     96.3322    103.2492   9.3509283471e+01   4.2782685331e+01    0.1429223    0.1160728  -8.44 0.0003659496    1.553    0.356
       125 -10.4533     77.5137    101.6943   9.8790916039e+01   4.6235670704e+01    0.4011288    0.2876545  25.01   0.00143573    1.658    0.397
       126 -10.1768     62.1496    102.8377   1.0381208151e+02   4.8119029816e+01    0.2341879    0.2000372 -49.57  0.001366761    1.098    0.089
       127  -9.5930     64.0261     98.5612   1.0225959154e+02   4.8885739827e+01    0.3969401    0.3195783  67.60   0.00220533    1.468    0.319
       128  -8.8827     39.8364    102.6575   1.1073279205e+02   5.0699861842e+01    0.1904235    0.1562191 -29.81 0.0005992122    1.399    0.285
       129  -8.2009    105.6643    102.6837   9.0645378791e+01   4.1204223872e+01    0.1544061    0.1196157 -11.66 0.0007047827    1.695    0.410
       130 -10.5437      4.6916     99.9030   1.2105607234e+02   5.4044961157e+01     0.448966    0.1674516 -61.67  0.002186014    1.926    0.481
       131  -9.3698      3.0013     94.2452   1.2082804371e+02   5.5435529473e+01     0.416977   0.06213336 -62.93  0.001561983    3.350    0.701
       132 -10.4644      4.2230     88.1810   1.1960033849e+02   5.6754637453e+01    0.4955129    0.3221714 -56.19  0.002431398    1.253    0.202
       133  -7.9667      4.5504     82.4953   1.1863603412e+02   5.8027269956e+01    0.2726993    0.1556335 -43.35  0.001361244    1.657    0.396
       134 -10.5294    110.8976    100.6351   8.8600692581e+01   4.0659533125e+01     0.266023    0.2221735 -44.64 0.0002658737    1.150    0.131
       135  -9.6388     87.8014     97.3764   9.4548056237e+01   4.5605239754e+01    0.2598104    0.2365967  80.37 0.0009999617    1.216    0.178
       136  -9.9751     39.0724     96.8180   1.0986078135e+02   5.2156099654e+01    0.3291236    0.2405816 -11.45  0.001236808    1.808    0.447
       137 -10.8522     44.3796     93.0370   1.0736663125e+02   5.2509549317e+01    0.3069508    0.2055993 -64.96 0.0004442514    1.313    0.239
       138 -10.9757     36.0642     91.6207   1.0980639717e+02   5.3660932905e+01    0.6613538    0.3128283  24.86  0.003174144    2.569    0.611
       139  -9.8287     42.8364     86.9637   1.0655337285e+02   5.4082565652e+01    0.3002482    0.2025789 -47.84 0.0008822642    1.291    0.226
       140 -10.2886    156.4726     95.4812   7.5286283601e+01   3.1738314699e+01    0.5077248    0.3993986  -6.04  0.001728696    1.601    0.376
       141 -10.8750    116.0246     95.2484   8.5657023815e+01   4.0828270689e+01    0.8023456    0.4454116  51.35  0.002410715    1.992    0.498
       142 -11.1114    123.9422     91.9394   8.2511503964e+01   3.9884169415e+01    0.6280119    0.4875549  50.44  0.002327113    1.343    0.255
       143  -9.8897     81.8639     97.1298   9.6312397491e+01   4.6627863335e+01    0.2448047    0.2089804  39.61 0.0002604139    1.278    0.217
       144 -10.6426     71.0646     94.9910   9.9167560815e+01   4.8752963752e+01    0.4449993    0.3125543 -67.40   0.00140185    1.477    0.323
       145  -9.2214    139.6247     95.0874   7.9288417355e+01   3.5746687372e+01    0.4524356    0.2452153  46.02  0.001782153    1.876    0.467
       146  -8.2711    188.7177     94.6757   6.8117227317e+01   2.4100289558e+01    0.1556546    0.1231276   7.47 0.0002610784    1.595    0.373
       147  -9.1261    151.6706     96.2692   7.6649027964e+01   3.2713872317e+01    0.2925363    0.2377425  53.09 0.0009896071    1.258    0.205
       148 -11.7837     33.7894     58.9584   1.0277994917e+02   6.1179397128e+01     1.048793    0.5096099 -16.32  0.004183822    3.742    0.733
       149  -9.4016    108.9852     83.9935   8.4385812262e+01   4.4682870483e+01    0.2996528    0.2261541 -28.67 0.0007995132    1.400    0.286
       150  -9.6033    104.4490     92.2732   8.8146039542e+01   4.3775832792e+01    0.4036488    0.2595878  22.85  0.001703004    2.089    0.521
       151  -9.7116    106.6982     87.1898   8.6011861090e+01   4.4451927800e+01     0.452435    0.2165382 -49.58  0.001200914    2.076    0.518
       152 -10.4426     74.7260     89.9273   9.6696270050e+01   4.9385337250e+01    0.7305153    0.3085013  45.06  0.002834325    2.788    0.641
       153  -9.3130     83.0476     84.9993   9.2664247977e+01   4.9194727094e+01    0.3446025    0.2042052 -38.46  0.001121346    1.688    0.408
       154 -10.8144     83.0779     90.0732   9.4067530110e+01   4.8050703598e+01     0.419066    0.2715209  22.98  0.001047619    1.937    0.484
       155 -10.4725     87.9179     89.9018   9.2499259857e+01   4.7287931596e+01    0.5516496    0.2411373 -51.95   0.00194499    2.172    0.540
       156 -10.2582     91.4558     87.7631   9.0795457450e+01   4.7157272660e+01    0.4224864    0.3245446 -88.70  0.001175488    1.808    0.447
       157  -9.2570    194.0763     89.3648   6.5637961928e+01   2.3767661991e+01    0.2418703    0.2085192 -24.41 0.0003182971    1.192    0.161
       158  -8.7652    187.8049     89.8227   6.6966287058e+01   2.5215824839e+01    0.2092501    0.1797349 -73.90 0.0004185567    1.294    0.227
       159 -11.6447    133.7612     81.4094   7.6734965932e+01   3.9879333375e+01     1.011955    0.6354417  23.15  0.003909248    2.340    0.573
       160  -9.9233    145.5633     87.5824   7.5613188845e+01   3.5906137431e+01    0.4151143    0.2861718  33.54  0.001047216    1.648    0.393
       161 -10.0846    146.6945     82.7912   7.3904104900e+01   3.6584814037e+01    0.5729986     0.257783 -26.79  0.001756107    3.346    0.701
       162 -10.2264    143.7430     77.4221   7.2983189026e+01   3.8324107175e+01    0.5193243     0.380925  81.18  0.002254051    1.855    0.461
       163  -9.8833    146.7722     75.0056   7.1499921102e+01   3.8053992452e+01    0.2488307    0.2165046  48.88  0.001245263    1.154    0.133
       164  -9.2472    155.4305     86.0597   7.2802770548e+01   3.3852086561e+01     0.333421    0.2372821  21.31  0.001404315    1.865    0.464
       165 -10.6044    118.5381     86.4993   8.2400913064e+01   4.2187453767e+01    0.3869601    0.2751876  44.17  0.001191917    1.451    0.311
       166  -9.3576     75.7861     83.9866   9.4736509910e+01   5.0568747064e+01     0.225994    0.2062099  38.79 0.0006858892    1.214    0.176
       167 -11.2300     37.9512     78.8089   1.0637014630e+02   5.6433361044e+01    0.5804496    0.4066915  87.73  0.003136149    1.909    0.476
       168 -10.2988     45.4471     77.5876   1.0341559502e+02   5.5949323214e+01    0.3581235    0.2613229 -49.70  0.001130668    1.150    0.130
       169 -10.3809    162.3542     81.1863   6.9788732589e+01   3.3091207396e+01     0.754642     0.303521  50.54  0.002587272    2.464    0.594
       170  -8.2842    123.3070     80.3322   7.9196131140e+01   4.2436686874e+01    0.1579755    0.1218014   0.41 0.0003348509    1.665    0.399
       171 -10.0198    188.1902     78.2237   6.3651851702e+01   2.7194364077e+01    0.4826822    0.2635833  47.52  0.001946135    1.904    0.475
       172  -9.8528    152.1407     76.5484   7.0708727577e+01   3.6463156457e+01    0.3750985    0.2559105 -10.41 0.0009901472    2.045    0.511
       173  -9.7552      5.1288     77.2992   1.1759835014e+02   5.9167202290e+01    0.2197981    0.1790089  77.58  0.001081357    1.405    0.288
       174  -9.7639      3.3855     73.4322   1.1754900708e+02   6.0118317591e+01    0.3961122    0.1136511 -49.81  0.001791384    2.551    0.608
       175  -9.5398    214.4278     75.9805   5.8515526403e+01   2.1132164296e+01    0.3246197    0.2828518 -54.71  0.001526448    1.108    0.098
       176  -9.5841    248.3681     76.2192   5.3738092001e+01   1.3345722005e+01    0.2095043    0.1095973 -42.50 0.0007595981    1.677    0.404
       177  -9.7246    131.8647     74.5219   7.5077549715e+01   4.1663121645e+01    0.3451859    0.2733048 -46.51  0.001049821    1.279    0.218
       178  -8.5876    204.2105     75.6272   6.0084986618e+01   2.3670323350e+01    0.2154653    0.1360607  48.11 0.0009460473    1.677    0.404
       179  -8.8757    180.0003     68.7593   6.2474486813e+01   3.0880116592e+01    0.3054356    0.1851388  54.12  0.001301446    1.643    0.391
       180  -9.2562    176.6324     68.3067   6.2988769730e+01   3.1810303921e+01    0.4688089    0.2797311 -61.65  0.001373247    2.265    0.559
       181  -8.9292    135.6837    230.6725   1.0700832227e+02   8.6552208120e+00    0.1174535   0.09372483  11.68 0.0004111375    1.676    0.403
       182  -9.2521    202.2272    228.9583   9.4181654111e+01  -2.0718992237e+00    0.2042293    0.1458453  33.19 0.0003643271    1.157    0.136
       183  -8.5077    238.4144     65.7868   5.2483656908e+01   1.7129143995e+01     0.196042    0.1305468 -21.38 0.0009387622    1.692    0.409
       184  -8.8920    137.1784    224.7669   1.0596075275e+02   9.4031851436e+00    0.1642949    0.1405549  22.15 0.0006472397    1.339    0.253
       185  -8.6230      7.3169     47.0369   1.1044385404e+02   6.5600206608e+01    0.1617976    0.1131172 -52.94  0.000523802    1.091    0.083
       186  -9.6819     10.8990     63.2458   1.1281559442e+02   6.1962750093e+01    0.3056765     0.169454 -57.91 0.0009944213    1.352    0.261
       187 -10.8068      4.1291     57.0731   1.1412234940e+02   6.3653864681e+01     0.502333    0.2415526  35.79  0.002761697    2.720    0.632
       188 -10.1110      4.3411     51.6608   1.1282622180e+02   6.4790536797e+01    0.2932762    0.1425249 -44.93 0.0009379347    1.607    0.378
       189  -9.2398    134.7078     62.8673   7.0561522800e+01   4.3152159445e+01    0.3893614    0.1907048  48.62  0.001050159    2.014    0.503
       190 -10.5617    133.0640     55.8710   6.8619261282e+01   4.4747225545e+01    0.8726397    0.4827502  -7.11  0.002782458    3.771    0.735
       191  -9.2415    207.0001     61.2029   5.5703795547e+01   2.5305233187e+01    0.2533265    0.2042521 -40.32 0.0005196102    1.188    0.158
       192 -10.0586    174.0230     57.5078   6.0246298417e+01   3.4247972381e+01    0.5979044    0.3394614  -5.94  0.002011398    3.358    0.702
       193 -10.5529    204.8383     46.8894   5.2097526132e+01   2.7976936169e+01     1.066755    0.2466057  49.61  0.002847384    5.116    0.805
       194 -10.6132    172.3871     46.9248   5.7304017198e+01   3.6283052888e+01    0.7682407    0.4851921 -66.21  0.003224011    2.074    0.518
       195  -9.7760    173.5994     39.1389   5.4686020427e+01   3.7070841508e+01    0.3477201    0.2983247 -86.76  0.001024576    1.201    0.167
       196  -9.3104    186.3741     61.3495   5.9138215568e+01   3.0477647149e+01    0.4506295    0.2229587 -58.59   0.00067625    2.991    0.666
       197  -9.7548    192.3198     44.3086   5.3215312858e+01   3.1521671852e+01    0.5262954     0.409689  -7.25  0.002629612    1.582    0.368
       198 -10.0772    194.0561     50.0740   5.4601627030e+01   3.0247228868e+01     0.365219    0.3055852 -53.85  0.001458296    1.172    0.147
       199  -9.9404    193.1297     54.6593   5.6061929356e+01   2.9798482829e+01    0.6358536    0.3052709 -41.05  0.002538515    2.000    0.500
       200  -9.6552    196.8026     53.1384   5.5043203930e+01   2.9094125721e+01    0.3071367    0.2612606 -32.04 0.0009031948    1.199    0.166
       201 -10.7202    185.4635     55.7590   5.7662514460e+01   3.1588293229e+01    0.4008902    0.3326421  47.15 0.0005881774    1.252    0.201
       202 -11.4945    183.5217     51.9171   5.6862595000e+01   3.2671918132e+01    0.6192819    0.3587547  58.73 0.0003496452    1.684    0.406
       203  -9.0652    201.0738     59.9001   5.6268147090e+01   2.6985566298e+01    0.2665082    0.2023927  72.76 0.0008234027    1.371    0.271
       204 -11.8425     67.8846     75.1657   9.4871655134e+01   5.3684908210e+01    0.8882313    0.3752191 -53.41  0.002098744    2.224    0.550
       205 -10.0343    222.9517     56.1836   5.2083158230e+01   2.2171273242e+01    0.3557882    0.3040283  83.09   0.00198209    1.194    0.162
       206  -9.4567    138.1611     59.0299   6.8431081150e+01   4.2992811359e+01    0.2587855    0.2110784  48.62 0.0004022745    1.212    0.175
       207 -12.7677     11.0487    109.0929   1.2036889612e+02   5.1528307371e+01     2.197377    0.7414491 -47.25  0.002073121    3.057    0.673
       208  -9.2435    244.1471     55.8167   4.9350089653e+01   1.7306512399e+01    0.3803084    0.1673317 -39.61  0.001636061    1.946    0.486
       209  -9.7119    118.0870     42.3395   6.7665032551e+01   5.0403067559e+01    0.5136289    0.2127098 -36.23  0.001962373    2.395    0.582
       210 -10.4093    116.0523     50.0139   7.1022632941e+01   4.9646455997e+01    0.5781446    0.5104561 -14.29  0.003161896    1.119    0.106
       211  -8.1125    203.3089     56.3101   5.4924384410e+01   2.6975515652e+01    0.1469267    0.1149807  24.69 0.0005246945    1.620    0.383
       212 -10.5357     71.0248     52.6701   8.6415597429e+01   5.7816332434e+01    0.4467471    0.2844414 -45.38  0.001695821    1.502    0.334
       213  -8.3033     12.6305     56.6454   1.1063058613e+02   6.3282155563e+01    0.2483448   0.09880674  25.80  0.001241373    2.959    0.662
       214 -10.0568    233.7936     54.7112   5.0317148605e+01   1.9827603808e+01    0.3032551    0.1712834 -43.13  0.001419502    1.587    0.370
       215  -9.1061    211.8029     51.4126   5.2347117067e+01   2.5588080508e+01    0.3470343    0.2480386  -6.69  0.001630635    1.884    0.469
       216  -9.4932     76.2372     51.9094   8.4271568801e+01   5.7117956950e+01    0.2363361    0.1849338  17.80  0.001306703    1.341    0.254
       217  -9.3359     10.1012     52.0381   1.1053628954e+02   6.4405115149e+01    0.1723916    0.1519985 -19.54 0.0004157667    1.261    0.207
       218  -8.5314    127.1619     51.2063   6.8495308946e+01   4.6910853838e+01    0.1968237    0.1740661 -79.08 0.0005020124    1.352    0.260
       219  -8.7098     16.3118     50.5975   1.0757239900e+02   6.4320933732e+01    0.1452141    0.1015021 -16.83  0.000465359    1.533    0.348
       220  -9.2295    212.1078     60.1374   5.4648034939e+01   2.4208847052e+01    0.2168006     0.201418  15.46 0.0005487749    1.245    0.197
       221  -9.6404     75.6677     46.1879   8.2337117244e+01   5.8251337168e+01    0.3716089    0.2261004  27.87  0.001814646    1.807    0.447
       222 -10.2175     76.6771     41.3867   8.0112724379e+01   5.8910783914e+01    0.3067161    0.2261194 -23.23  0.000637792    1.274    0.215
       223 -10.7840     66.6399     44.2200   8.4891042299e+01   6.0053837735e+01    0.4123951    0.3117072 -33.54  0.001494159    1.191    0.160
       224  -9.5295    179.0213     45.0490   5.5572948811e+01   3.4840917865e+01    0.2974725    0.2168295 -22.84 0.0004574797    1.502    0.334
       225  -9.2471    219.7499     43.7593   4.9267980126e+01   2.4725019988e+01    0.3909257    0.1176087 -39.75  0.001362469    2.843    0.648
       226 -10.5033    129.6808     40.5739   6.4086431834e+01   4.7952767051e+01    0.5205428    0.4271533 -86.68  0.002401123    1.534    0.348
       227  -9.5415     16.8986     44.6952   1.0565048626e+02   6.5490434050e+01    0.2109059    0.1218975 -44.81  0.000539502    1.330    0.248
       228  -8.9706    235.7995     39.2182   4.6249450391e+01   2.1520452080e+01    0.2070401    0.1850795 -17.80  0.000461811    1.308    0.236
       229 -10.0609    214.8856     40.1492   4.8930551407e+01   2.6411511934e+01    0.4315956    0.3213568 -11.12   0.00133709    1.691    0.408
       230  -9.9770    136.1746     41.7859   6.2987466440e+01   4.6204397750e+01    0.3861679    0.2754651 -72.61  0.001557017    1.976    0.494
       231 -10.7695     15.6209     30.9670   1.0180246471e+02   6.8258443293e+01    0.3246551    0.1860854  20.07 0.0009032316    2.001    0.500
       232  -9.2562     12.1662     34.3234   1.0457675875e+02   6.7856117441e+01    0.2225389    0.1676545  35.48 0.0009746178    1.782    0.439
       233 -10.1827      9.3326     42.1923   1.0825834370e+02   6.6475952306e+01    0.3319401    0.2394502  26.31  0.001600661    1.744    0.427
       234 -10.6986     17.2466     37.6165   1.0329754015e+02   6.6870225098e+01    0.5484865    0.3725508 -26.61  0.003569453    1.333    0.250
       235 -11.2199      5.0789     26.5980   1.0543720790e+02   6.9754442171e+01    0.4562412    0.2362546 -22.75  0.002684571    1.944    0.486
       236  -8.6336    112.3024    225.6339   1.1091252578e+02   1.3271374667e+01     0.130377   0.08227521  69.07 0.0007034916    1.737    0.424
       237  -8.6597    197.0271     41.9730   5.1847142037e+01   3.0645084149e+01    0.1690447    0.1581779 -78.95 0.0003144199    1.004    0.004
       238  -8.9314     22.8623     41.2687   1.0196038870e+02   6.5729216806e+01    0.1952491    0.1425456 -58.44 0.0007986836    1.379    0.275
       239  -8.4865    112.5168     41.5195   6.8867021442e+01   5.1781168960e+01    0.1420433    0.1367026   8.21 0.0008094496    1.058    0.055
       240  -8.6214    249.8236     40.3953   4.5074721387e+01   1.8179759330e+01    0.1795748    0.1168074  57.31 0.0009477275    1.718    0.418
       241  -9.2872    191.2498     39.8662   5.2094865170e+01   3.2412562391e+01    0.3260878    0.2276809  34.08 0.0009299999    1.770    0.435
       242  -9.2806     40.9090    221.4613   1.2399679658e+02   2.3914684551e+01    0.2092102    0.1254298 -61.37  0.001316802    1.963    0.491
       243 -10.9105    219.7188     34.6526   4.6905327314e+01   2.5957592664e+01    0.5431601    0.2666892 -38.78 0.0009578509    1.861    0.463
       244  -8.3876    110.4913     38.4683   6.8270422132e+01   5.2688156959e+01    0.1416989    0.1340985  12.59 0.0002860114    1.039    0.037
       245  -8.5876    203.8246     37.6225   4.9684195664e+01   2.9512203779e+01    0.2997573    0.1069436  56.42  0.001091143    2.655    0.623
       246 -10.1969    198.9246     34.5230   4.9482337231e+01   3.1163122132e+01    0.4732401    0.3183448 -24.73  0.001668196    1.624    0.384
       247  -8.8849    235.6743    219.3307   8.6586796086e+01  -6.0923445406e+00    0.1047263   0.09796459  61.99   0.00054623    1.706    0.414
       248 -10.7162    211.4209     31.4758   4.7053941705e+01   2.8411458406e+01    0.6544942    0.3800887 -37.76  0.003125924    1.635    0.388
       249  -9.6280    214.5286     29.5339   4.6173441201e+01   2.7887703106e+01    0.3192006    0.2636406  60.89  0.001472922    1.261    0.207
       250 -10.3725    215.1154     25.1827   4.4968387731e+01   2.8281966713e+01    0.3891021    0.2976003  47.72 0.0006072731    1.494    0.330
       251  -9.9366    214.7668     21.4003   4.4022281042e+01   2.8822008177e+01    0.3971947    0.2078131  59.92  0.001204639    1.873    0.466
       252  -9.6564    181.4837     34.2137   5.1911426321e+01   3.5685293380e+01    0.5228338    0.1972763  53.41  0.001919996    2.499    0.600
       253  -9.8749    134.8201     34.2273   6.0612325179e+01   4.7594000131e+01    0.3714453    0.2607916  25.65  0.001418875    1.622    0.384
       254  -9.1229    138.4634     30.9713   5.8655479277e+01   4.7122953609e+01    0.3015196    0.2079531 -50.43  0.001443826    1.673    0.402
       255  -8.7594      3.2390     34.5271   1.0883055835e+02   6.8330480777e+01    0.3175451    0.1017639 -34.03  0.001415229    3.093    0.677
       256 -10.2229    245.4228     33.2556   4.3833343023e+01   2.0099641580e+01    0.4684584    0.2339884  70.20  0.002224531    2.068    0.516
       257 -10.0705    234.8211     33.4090   4.4931222602e+01   2.2512551911e+01    0.3520882     0.211842  53.90  0.001043257    1.850    0.459
       258  -9.1937     26.5153    212.4848   1.2601181611e+02   2.7263360988e+01    0.1133178   0.08294629  74.69 0.0006061604    1.009    0.009
       259 -10.2536    121.0003     53.4262   7.0893413460e+01   4.7964773708e+01    0.5988973    0.4216568 -15.62  0.002794968    1.628    0.386
       260  -9.2884    228.0058     31.0273   4.5059320761e+01   2.4426764422e+01     0.242965       0.1821 -42.53 0.0006147397    1.243    0.196
       261  -9.8300    227.5348     27.1792   4.4148471221e+01   2.5023525712e+01    0.3824604    0.2481228  35.78   0.00087947    2.203    0.546
       262 -10.4893    168.6976     23.9860   5.0759435127e+01   4.0264679753e+01     1.303911    0.1726915  59.77  0.003481473    4.708    0.788
       263  -8.8802    233.9567    199.7097   8.3366586444e+01  -3.2271888209e+00    0.1827275    0.1500805  15.29  0.001163622    1.049    0.046
       264  -9.4711     27.5499    193.2823   1.2451793844e+02   3.1056947418e+01    0.2083951    0.1496234 -83.83  0.001425677    1.200    0.167
       265  -9.8442     11.5206    192.8192   1.2758435728e+02   3.2724210432e+01    0.2777739    0.1250309  41.11  0.001631398    2.089    0.521
       266  -8.3822    215.6886    189.6321   8.4794155270e+01   1.3658722639e+00    0.1422096   0.09531557   4.35 0.0007037011    1.766    0.434
       267 -10.0847     11.5969    184.8752   1.2707620870e+02   3.4375181222e+01    0.2187754    0.1783369 -75.69 0.0007090197    1.335    0.251
       268  -8.7747      7.7300    185.7046   1.2788187549e+02   3.4544664128e+01    0.1538036     0.107062 -85.51  0.000164166    1.169    0.145
       269  -8.1951    185.7278    183.6653   8.9506167914e+01   7.8840762566e+00    0.1393024    0.1047685   1.76 0.0002527946    1.598    0.374
       270  -8.4473     18.3006    182.6263   1.2559098895e+02   3.4233395454e+01    0.1273006   0.06487069  70.44 0.0007029076    1.752    0.429
       271  -9.6466      1.5731    178.3390   1.2864507623e+02   3.6614641135e+01    0.3108492   0.08649521 -85.90  0.001283799    3.384    0.704
       272  -8.8467     36.6475    179.3375   1.2152630795e+02   3.3083249101e+01    0.1345115   0.07178344  68.28 0.0007044237    1.796    0.443
       273 -10.7228     26.3909    177.0036   1.2349578638e+02   3.4664192564e+01    0.3901128    0.2511264 -61.82  0.002084952    1.609    0.379
       274 -10.6855     30.4521    172.2754   1.2222509471e+02   3.5297614187e+01    0.3463306    0.2267228 -65.90  0.001693966    1.458    0.314
       275  -9.1140    203.4678     29.0175   4.7365252014e+01   3.0714647861e+01    0.3017963    0.1473992 -18.54  0.001182816    2.712    0.631
       276  -9.5755    204.6521     23.7072   4.5773285244e+01   3.1065435242e+01    0.4520817      0.23006 -27.37  0.002000464    2.078    0.519
       277  -9.5880    146.1485     29.3688   5.6518120101e+01   4.5401161264e+01    0.4314666    0.2648017  60.21  0.002001981    1.538    0.350
       278 -10.0009    147.4700     23.9018   5.4378742637e+01   4.5727847690e+01    0.3364045    0.2238747  56.24  0.001090847    1.380    0.275
       279  -8.8193     79.8643    176.9438   1.1171301343e+02   2.8111937364e+01    0.2144948    0.1427426 -41.07  0.001080648    2.082    0.520
       280  -9.0194    139.9786     26.0283   5.6585557852e+01   4.7361225978e+01    0.3662905    0.1630648 -26.13  0.001457486    2.384    0.581
       281  -9.3216    153.2832     24.7329   5.3593808363e+01   4.4149444646e+01    0.4076523    0.2400203 -27.57  0.001875744    1.791    0.442
       282  -9.0235    136.5303     24.8494   5.6872706771e+01   4.8359985077e+01    0.3583565    0.1990567   1.46 0.0009408181    2.805    0.644
       283  -8.2958     65.4747    173.4270   1.1454139993e+02   3.0916827863e+01    0.1310386    0.1094879  80.21  0.000147891    1.016    0.016
       284  -9.0133      1.3416    170.3136   1.2820593946e+02   3.8345595869e+01    0.2156474     0.077833 -74.94 0.0007637192    2.135    0.532
       285  -9.8397     19.0285    165.5080   1.2412838831e+02   3.7906708542e+01    0.2198518    0.1436442 -83.20  0.001018252    1.216    0.178
       286 -10.2158    129.0692     23.4940   5.7970137794e+01   5.0350374064e+01    0.2749947    0.2135133  36.15 0.0004515263    1.248    0.199
       287  -8.4420     12.7051    165.3449   1.2548399070e+02   3.8500079075e+01    0.1248713   0.06759217  71.55 0.0003588409    1.667    0.400
       288 -10.3945      2.1657    159.2959   1.2730912326e+02   4.0681734158e+01     0.428203    0.1620879 -87.64  0.001863097    2.292    0.564
       289  -9.2272    239.8127     18.7730   4.0946205783e+01   2.3167783498e+01    0.3279467    0.2134754  32.97  0.001620694    2.426    0.588
       290  -9.0349    238.7169     15.3264   4.0232610677e+01   2.3822240888e+01    0.2665142    0.1530239 -59.38 0.0006336117    1.625    0.384
       291 -10.3961     22.4648    159.4764   1.2284487523e+02   3.8948055829e+01    0.3854997    0.1641936  73.43  0.001707959    2.788    0.641
       292  -9.9411     18.7893    158.6296   1.2359861421e+02   3.9471545410e+01    0.1929829    0.1609269  70.26  0.000917212    1.181    0.153
       293  -8.7171     39.3308    159.9530   1.1901725572e+02   3.7156909285e+01    0.1756857    0.1327786 -84.63 0.0004289287    1.091    0.083
       294  -8.9648     28.9313    158.3084   1.2125879063e+02   3.8601006984e+01    0.1620263      0.13521  74.97 0.0004010969    1.127    0.113
       295 -11.0491     14.3394    151.6661   1.2400338817e+02   4.1430004741e+01    0.3503636    0.2594776  77.64  0.002369446    1.157    0.136
       296 -10.1309     30.6046    151.4184   1.2016157710e+02   4.0024474037e+01    0.2501021    0.1678522 -69.37 0.0008099874    1.283    0.221
       297  -9.6930    245.5459     18.9339   4.0491522112e+01   2.1845840065e+01    0.2782108    0.1772014  72.36   0.00138187    1.572    0.364
       298  -8.5158     45.8268    150.3995   1.1634788280e+02   3.8666733123e+01    0.1470944    0.1274799  13.51 0.0004972163    1.576    0.365
       299 -10.9507     22.8460    146.4184   1.2150292442e+02   4.1905265132e+01    0.4288714    0.2621657  89.04  0.002496138    1.428    0.300
       300 -10.5318     17.9624    147.6908   1.2279486305e+02   4.2035118470e+01    0.3362696    0.1807686 -82.58 0.0009134447    1.534    0.348
       301  -9.8049     15.2115    143.1270   1.2301700462e+02   4.3311700490e+01    0.3475687      0.18037 -84.42  0.001334125    1.621    0.383
       302  -9.9456     46.4501    144.3211   1.1540962136e+02   4.0033072441e+01    0.3365117     0.262352 -11.60   0.00185991    1.965    0.491
       303 -10.2854     40.7811    146.9497   1.1716905499e+02   4.0031411337e+01    0.3179848    0.2703733  60.83  0.001148358    1.218    0.179
       304 -10.5423     38.1894    143.0050   1.1733135889e+02   4.1233830174e+01    0.3562394    0.2936134 -15.11 0.0007206773    1.761    0.432
       305  -8.9997    198.6871     15.9858   4.4358970808e+01   3.3461028466e+01    0.2330371    0.1757969  47.58 0.0009827324    1.457    0.313
       306  -9.2298     67.5721     13.2050   7.1125520282e+01   6.4609682192e+01    0.2479372    0.1552403  48.57 0.0009694578    1.758    0.431
       307 -10.6207      5.4609    147.4826   1.2569374805e+02   4.3070501840e+01     0.227602    0.1746708  52.96   0.00117771    1.391    0.281
       308 -10.8459      6.0277    143.0090   1.2519256747e+02   4.4041601054e+01    0.3398873    0.2988083  80.28 0.0005374417    1.209    0.173
       309 -10.5537     30.3546    143.0282   1.1929767637e+02   4.2005096806e+01    0.4227632    0.2299508 -49.56  0.002209445    2.032    0.508
       310 -10.6510     25.0351    137.6411   1.2001975400e+02   4.3756787174e+01    0.5323209    0.2416452  47.14  0.002141393    2.311    0.567
       311  -8.7095     70.4996    142.5668   1.0894967533e+02   3.7440407761e+01    0.1380996    0.1211287 -87.12 0.0002219255    1.021    0.020
       312  -8.6382     80.4676    141.0248   1.0607746427e+02   3.6371387071e+01    0.2105732      0.12818 -60.90 0.0005749806    1.519    0.342
       313  -9.5386     47.5551    139.2277   1.1443140109e+02   4.1121597374e+01    0.2826441    0.1987241 -71.80  0.001495807    1.213    0.176
       314 -11.7781     50.1354     99.3159   1.0683451299e+02   5.0406417743e+01     1.344085    0.7163666 -49.30  0.004701067    1.668    0.400
       315 -11.2603     56.1851     82.0291   1.0080249667e+02   5.3711606093e+01     2.148656     1.198151  -7.82  0.008078063    3.800    0.737
       316 -10.1260    235.7963    249.5132   9.1472963872e+01  -9.6259932719e+00    0.3594932    0.0882751  38.59  0.001499367    3.309    0.698
       317 -12.8086     12.2580    126.9302   1.2211653937e+02   4.7288772334e+01    0.7567331    0.3671113 -89.86  0.001012539    1.989    0.497
       318 -13.1720     37.8054    122.5458   1.1464768121e+02   4.6147329508e+01     1.742414     1.462575 -86.54  0.004308465    1.086    0.079
       319 -11.4818     82.3046     75.7615   9.0180874289e+01   5.1332454424e+01    0.8800014    0.6095542  76.93  0.003798918    2.591    0.614
       320 -11.2331     41.1294     66.0915   1.0195185059e+02   5.8939186242e+01     2.455478    0.9048463  19.25  0.009239304    4.144    0.759
       321 -11.8328     23.5356     51.7729   1.0488225368e+02   6.3555128662e+01      1.52996    0.3738539 -45.32  0.005692606    3.093    0.677
       322  -9.4441    183.4655    249.6800   1.0062733287e+02  -1.8483330048e+00    0.2256287   0.08696349  39.94  0.001092894    2.038    0.509
