#   1 NUMBER                 Running object number                                     
#   2 MAG_AUTO               Kron-like elliptical aperture magnitude                    [mag]
#   3 X_IMAGE                Object position along x                                    [pixel]
#   4 Y_IMAGE                Object position along y                                    [pixel]
#   5 X_WORLD                Barycenter position along world x axis                     [deg]
#   6 Y_WORLD                Barycenter position along world y axis                     [deg]
#   7 A_WORLD                Profile RMS along major axis (world units)                 [deg]
#   8 B_WORLD                Profile RMS along minor axis (world units)                 [deg]
#   9 THETA_WORLD            Position angle (CCW/world-x)                               [deg]
#  10 FWHM_WORLD             FWHM assuming a gaussian core                              [deg]
#  11 ELONGATION             A_IMAGE/B_IMAGE                                           
#  12 ELLIPTICITY            1 - B_IMAGE/A_IMAGE                                       
         1 -12.1599     52.3575     37.1386   1.0341954230e+02   6.2183731930e+01     1.359708    0.9545224 -39.65  0.008450437    1.493    0.330
         2 -12.0542     40.5974     47.3830   1.1151115591e+02   6.2002152120e+01     1.021101    0.7268639 -66.06  0.005726726    2.397    0.583
         3 -12.4177     18.0444     41.0556   1.1825794585e+02   6.5225924445e+01    0.8411604     0.724474 -47.00  0.004759372    1.389    0.280
         4 -11.7289     54.1682     16.9968   9.4723255117e+01   6.4588694117e+01    0.3701298    0.2377444 -11.43  0.002305472    1.450    0.311
         5 -10.5487     78.5364      7.5337   8.2901937967e+01   6.1524801898e+01    0.6549361    0.4560297  -1.53  0.004155272    1.416    0.294
         6 -10.8841     18.0967      3.1304   1.0321696703e+02   7.0668677626e+01    0.4943008    0.3181507  34.07    0.0035037    1.898    0.473
         7 -12.1799     19.0943     13.5390   1.0741905374e+02   6.9285284220e+01     1.020509    0.5189199  24.53     0.006446    1.958    0.489
         8 -11.9084     41.3790     17.5368   9.9774583884e+01   6.6280876285e+01      0.83782    0.5127013 -23.87  0.005358665    1.438    0.305
         9 -11.2465     50.3242     10.5588   9.3368800439e+01   6.5863908087e+01    0.4644511    0.2941942  22.69  0.001990862    1.384    0.277
        10 -11.6435      9.9125     25.8298   1.1641037087e+02   6.8312909079e+01     0.889303    0.4796789  -0.90  0.005507424    2.012    0.503
        11 -11.0119     68.8449      4.6035   8.4572921272e+01   6.3502169986e+01    0.6888326     0.285187  34.59  0.003407857    2.233    0.552
        12 -11.9172     58.4471      3.7470   8.7544000838e+01   6.5301833751e+01    0.7642692    0.3510924  51.61  0.003977703    2.479    0.597
        13 -11.2700     24.7002     35.4795   1.1361731467e+02   6.5568547098e+01    0.7197514    0.2389406 -52.21   0.00288399    4.060    0.754
        14 -11.1149      2.3065      3.0465   1.1068211596e+02   7.2093202721e+01    0.3627248    0.2012425  11.00  0.002563719    1.702    0.412
        15 -12.0088      3.2553     17.1697   1.1615052258e+02   7.0091269032e+01    0.4170764    0.2099667 -30.58  0.001456975    1.525    0.344
        16 -12.5868      4.2203     10.3580   1.1293713250e+02   7.0984107308e+01    0.7848414     0.411777 -16.07  0.005112061    1.733    0.423
        17 -12.1562     29.5086     24.0114   1.0727037115e+02   6.6813031364e+01    0.4414848    0.2715165 -25.05 0.0005955602    1.345    0.256
        18 -12.3004    135.4380      5.1718   6.9325598274e+01   4.9811450864e+01     1.516638    0.6456611  70.66  0.006583956    2.407    0.585
        19 -11.8928    130.0331     20.4150   7.5192098952e+01   4.9643245428e+01     1.251695    0.5183113  57.42  0.005482771    2.067    0.516
        20 -11.9315     91.9051     17.6953   8.3146023457e+01   5.8033227385e+01     0.954765    0.4103283  -6.27  0.002136559    4.680    0.786
        21 -12.3831    112.4023     21.7109   7.9453638282e+01   5.3419485570e+01    0.8137414    0.6180174 -37.79  0.003559723    1.516    0.340
        22 -11.5855    117.3347     15.4176   7.6172254759e+01   5.2978382885e+01    0.3177225    0.2662481  80.85 0.0002265282    1.399    0.285
        23 -12.0494    115.6463      7.5722   7.3842422255e+01   5.4051068568e+01    0.8640214    0.3241711  52.64  0.001251081    2.103    0.525
        24 -11.4746    127.3889     14.7720   7.3880073365e+01   5.0799633602e+01    0.9473208    0.2111315  50.28   0.00259861    3.364    0.703
        25 -11.3125    123.4529     10.0441   7.3099362017e+01   5.2115803459e+01    0.4475155    0.2832667  60.69  0.001307208    1.403    0.287
        26 -11.9446     66.9568     30.6738   9.5771488694e+01   6.0951991522e+01     1.191725      1.05805  36.64  0.008120584    1.356    0.263
        27 -11.4169     67.1162     22.0249   9.2302801334e+01   6.2002105303e+01    0.4231946     0.273017  30.76  0.001198934    1.399    0.285
        28 -11.4174     72.5762     17.5357   8.8728585033e+01   6.1594941284e+01     1.040454     0.317363  49.11  0.004073145    3.241    0.691
        29 -11.8233     93.1972      8.0501   7.9156012643e+01   5.8688623033e+01    0.5762161    0.2818438  40.57  0.002764441    1.758    0.431
        30 -11.4285     78.0876     29.3364   9.1626681845e+01   5.9270816261e+01    0.5977169    0.3638968 -24.96  0.001733732    1.623    0.384
        31 -12.1062     58.0509     68.8296   1.1215076903e+02   5.6050856949e+01     1.528677    0.8571894 -56.19  0.005641493    2.071    0.517
        32 -10.4832    182.2625     20.0363   6.6478194684e+01   3.7202282533e+01    0.4654922    0.4289226   6.90   0.00161719    1.356    0.263
        33  -9.5999    184.6779     14.0991   6.4634392576e+01   3.7252164169e+01    0.3407266    0.2548754  76.59  0.001290302    1.160    0.138
        34 -11.2286    183.4250     27.2097   6.8194645543e+01   3.6101065341e+01     0.764843    0.4374747  26.40  0.001837404    3.171    0.685
        35 -10.3122    167.4495     25.4021   7.0067701510e+01   4.0216715653e+01    0.7140819    0.4139194  42.44  0.003428807    1.894    0.472
        36 -10.3351    162.5594     17.0352   6.8472790853e+01   4.2304552759e+01    0.4333079    0.2703087  40.26  0.002127139    1.761    0.432
        37 -10.7937    157.0852     16.0394   6.9033863884e+01   4.3723473417e+01      0.50214    0.4339453 -12.62  0.003125003    1.369    0.270
        38 -11.0891    147.3892     26.3530   7.3729962614e+01   4.4955393613e+01    0.8249606    0.4689743  22.22  0.003525927    2.724    0.633
        39 -10.3726    169.9629     13.7425   6.6485282525e+01   4.0848219134e+01    0.2648691     0.218486 -66.73  0.000310569    1.265    0.209
        40 -11.6818    164.4684      6.7835   6.5346596886e+01   4.2835095936e+01    0.7753458    0.4464595 -30.46   0.00333929    1.957    0.489
        41 -11.1143    149.6300     16.7827   7.0460533624e+01   4.5431469314e+01    0.7369559    0.3842379  29.57  0.003073608    2.745    0.636
        42 -10.9818    147.7664     11.2182   6.9111216941e+01   4.6407194957e+01    0.4843001    0.3664958 -51.71 0.0006549205    1.515    0.340
        43 -10.2427    243.7671     12.1858   5.8199504192e+01   2.3746022304e+01    0.3449188    0.2708687 -52.27  0.001395651    1.250    0.200
        44  -9.5152    232.8812     19.7619   6.0725067299e+01   2.5261902683e+01    0.4972031    0.1820766 -40.35  0.001520769    2.457    0.593
        45 -10.7510    232.9222     11.3168   5.8938455614e+01   2.6240550711e+01    0.3979079    0.2962634 -48.98 0.0005744071    1.317    0.241
        46 -10.6548    244.6603     19.6893   5.9644200823e+01   2.2656443273e+01    0.5378492    0.2595066  79.29  0.002704864    1.986    0.496
        47 -10.2449    239.5292     17.3374   5.9610666744e+01   2.4068140422e+01    0.4959576    0.1851103 -49.97  0.001341456    2.396    0.583
        48 -10.9810    202.2715     19.6560   6.3893143114e+01   3.2408915677e+01     0.385693    0.2808239  73.40 0.0009501832    1.213    0.175
        49  -9.8501    211.9356     13.1364   6.1317552499e+01   3.0850478349e+01    0.4239449      0.20569 -30.76  0.001962067    2.314    0.568
        50 -13.4868     99.8223      6.0936   7.6809174802e+01   5.7520203850e+01    0.6421389    0.4438738 -32.51 0.0006517893    1.687    0.407
        51  -9.5495    218.2194     13.5956   6.0791389756e+01   2.9334618507e+01    0.2777389    0.2102634  82.38  0.001622053    1.139    0.122
        52 -10.0425    221.9119     11.4183   5.9957071092e+01   2.8726003123e+01     0.410513    0.2309647 -65.79  0.001357859    1.740    0.425
        53  -9.2102    224.9838      9.0000   5.9151784662e+01   2.8291284790e+01    0.3208205    0.1569046  74.12  0.001381798    1.800    0.444
        54  -9.9111    189.6082      8.5170   6.2641529371e+01   3.6635429904e+01      0.40503    0.1876186  53.70  0.001503866    2.085    0.520
        55 -10.0247    196.0664      4.8256   6.1033245909e+01   3.5461968299e+01    0.4677273    0.3338904  26.41  0.002633935    2.062    0.515
        56 -10.3808    200.4340      6.7391   6.1026248153e+01   3.4236904926e+01    0.4881896    0.2490325 -37.70  0.002516929    2.024    0.506
        57 -10.7242    204.1822      6.8363   6.0662121589e+01   3.3342543061e+01    0.2642669    0.2315977 -78.98 0.0003688012    1.101    0.092
        58 -11.1842    207.3828      3.2602   5.9526270720e+01   3.2954609049e+01    0.4355394    0.3063252 -53.30  0.001690802    1.393    0.282
        59 -10.1981    173.8293      8.6359   6.4597867618e+01   4.0414948889e+01    0.2576037    0.2031296 -68.96 0.0006655347    1.305    0.234
        60  -9.8731    180.7316      5.8027   6.3002483226e+01   3.9026232817e+01    0.3917729    0.3045491 -15.32  0.002385518    1.648    0.393
        61  -9.9675    175.3822      4.1574   6.3228319212e+01   4.0460350514e+01    0.3774422    0.2617744  89.31  0.001302291    1.373    0.271
        62  -9.4970    171.2095      1.2957   6.2994709822e+01   4.1712207263e+01    0.2208386   0.09722406  68.20            0    1.879    0.468
        63  -9.4184    242.0000      2.9712   5.6501213670e+01   2.5168755077e+01    0.2686973    0.1463901 -43.62  0.001201572    1.715    0.417
        64 -10.1712    248.9502      7.6783   5.6897067311e+01   2.3147452286e+01    0.3944304    0.2081669 -64.19     0.002181    1.692    0.409
        65 -10.2971    245.9305      3.4502   5.6299419117e+01   2.4268198417e+01    0.3530496    0.2009222  77.49  0.001448828    1.548    0.354
        66  -8.8613     37.6826      5.7276   9.6051236916e+01   6.8112500027e+01    0.1824276    0.1504424  69.69  0.001147911    2.920    0.658
        67  -9.4576     32.1606      4.1585   9.7577267991e+01   6.8975891267e+01    0.4099902    0.1393312  24.34  0.001613346    4.553    0.780
        68  -9.0631    157.7203      6.8931   6.6327567621e+01   4.4437011176e+01    0.2603143    0.1527154 -78.89  0.001242931    2.217    0.549
        69  -8.8663     44.9792      5.1737   9.2970459216e+01   6.7184890091e+01    0.2190997    0.1065709  34.87 0.0006871775    1.839    0.456
        70  -8.9678     42.0000      2.9972   9.3115031002e+01   6.7816257229e+01    0.3000678    0.1209688 -21.41   0.00106131    2.501    0.600
        71 -10.1336    223.7247      1.6339   5.7694486251e+01   2.9362768083e+01    0.3072564    0.1966577 -51.33 0.0006337731    1.469    0.319
        72 -10.2139    220.6770      1.6973   5.7968798923e+01   3.0047750704e+01    0.2736943    0.2309849  -1.92  0.001295957    1.779    0.438
        73 -11.1436     26.1604      4.4463   1.0025065323e+02   6.9651594367e+01    0.4811683    0.2197996 -18.23  0.002671663    2.239    0.553
        74  -8.9779    230.1984      3.0237   5.7444942870e+01   2.7761577882e+01    0.1720777     0.135515  31.36  0.001060039    1.984    0.496
        75  -9.8928    211.3717      4.2855   5.9376270531e+01   3.1922361299e+01    0.2427807    0.1750372  64.37 0.0007372846    1.344    0.256
        76  -8.8105     39.2879    115.6479   1.2957348786e+02   4.8184815377e+01      0.19823    0.1086323 -85.60 0.0008403903    2.737    0.635
        77  -9.5841     47.0327    137.0607   1.3123706228e+02   4.2345301023e+01    0.2838478    0.1827956  88.39 0.0008788163    1.817    0.450
        78  -9.2964     67.9539    115.4645   1.2121203298e+02   4.4800809689e+01    0.1936225    0.1383677  36.72 0.0004724332    1.563    0.360
        79  -9.4422     64.1291    114.1630   1.2203738080e+02   4.5620041452e+01    0.2476202    0.1856689  57.42 0.0008033439    1.604    0.377
        80  -9.9828    132.8571    111.9765   1.0235997057e+02   3.3932505465e+01     0.463526    0.3615344 -50.53  0.001650559    1.270    0.212
        81  -9.3138     93.1831    112.0065   1.1311436340e+02   4.1678183680e+01    0.3281527    0.2600164 -20.61  0.001663937    1.480    0.325
        82  -9.0729     15.9096    110.8559   1.3543987663e+02   5.1312795802e+01    0.3786746    0.1510732 -34.18  0.001526542    3.807    0.737
        83  -9.7987     35.9820    109.0836   1.2927977039e+02   5.0009720625e+01    0.3990387    0.2869318  29.88  0.002396353    1.660    0.398
        84  -9.5832    105.4063    109.7010   1.0908482216e+02   3.9995715656e+01    0.2891927    0.2846335 -16.08  0.001257824    1.049    0.046
        85 -10.2304     73.8939    107.9867   1.1773150372e+02   4.5663686324e+01    0.5028922    0.3698369  55.42  0.001727435    1.643    0.391
        86  -9.9964     66.3123    109.3301   1.2029962487e+02   4.6431988669e+01    0.2632722    0.2493935 -83.88   0.00110465    1.146    0.127
        87 -10.1419     68.3071    106.3471   1.1900227768e+02   4.6832115938e+01     0.353544    0.1894644 -36.67  0.001205988    2.074    0.518
        88  -9.7442    133.5465    103.1768   9.9815389733e+01   3.5659488608e+01    0.4532506     0.250118 -43.69  0.001599315    1.785    0.440
        89 -12.2333     27.5854     84.2817   1.2665748316e+02   5.6197038927e+01     1.121058     0.773692  -9.26  0.003675677    1.731    0.422
        90  -9.6268     75.5239    102.2763   1.1583292123e+02   4.6699017875e+01    0.3281758    0.2151023 -61.34   0.00104238    1.598    0.374
        91  -9.2403    105.9676    102.9122   1.0712684148e+02   4.1378364964e+01    0.2202116    0.2074534 -42.63 0.0005340176    1.017    0.017
        92  -8.6761     97.0056    103.4858   1.0982372438e+02   4.2904989457e+01    0.2036108    0.1260822  64.29 0.0008097421    2.514    0.602
        93  -8.7180    140.5363    101.9863   9.7736312699e+01   3.4354819379e+01    0.2410877    0.1515784 -41.67  0.001025744    1.580    0.367
        94  -9.1719     81.5778    102.1392   1.1398560469e+02   4.5798108584e+01    0.2298772     0.196671  49.15 0.0008963493    1.310    0.236
        95 -10.9615      5.3558     99.5716   1.3665168324e+02   5.4509485033e+01    0.4843326    0.4476435 -88.39  0.003563504    1.260    0.206
        96 -11.1424      5.1794     80.6751   1.3328971709e+02   5.8536859204e+01    0.5495797    0.1631664 -51.32  0.002416298    2.262    0.558
        97  -9.2159      3.1536     74.6475   1.3274384802e+02   5.9887000886e+01    0.2372254    0.1596451 -18.04  0.001590775    1.645    0.392
        98 -10.9157      3.2092     89.1188   1.3551078263e+02   5.6878436476e+01    0.5061587    0.2211203 -46.48  0.002771314    1.839    0.456
        99 -11.1485     13.5376     88.6611   1.3216522014e+02   5.6337672312e+01    0.3396531    0.3055243 -39.49  0.001040381    1.179    0.152
       100  -9.9674      9.0372     85.9618   1.3307599493e+02   5.7201410764e+01     0.220484    0.1934978 -84.01   0.00069534    1.314    0.239
       101 -10.9600    115.9397     98.3549   1.0311642930e+02   4.0390272890e+01    0.6510872    0.5058699 -52.34  0.003231309    1.306    0.235
       102 -10.5609     60.7452     53.3434   1.0621650131e+02   5.8468000126e+01    0.4938616    0.2439044 -42.60  0.001452313    1.904    0.475
       103  -9.4734    159.3779     97.0487   9.1929516208e+01   3.0985663261e+01    0.3018475    0.2692899  30.71  0.001132793    1.212    0.175
       104  -8.8308    188.2101     94.2132   8.5155725999e+01   2.4588182217e+01    0.2142626    0.1765106 -75.29  0.000553121    1.316    0.240
       105  -9.6344    103.9351     93.1621   1.0499881595e+02   4.3829497415e+01    0.3434246    0.2444445  58.12  0.001630534    1.697    0.411
       106 -10.6087    118.3907     42.2061   8.5020094646e+01   4.9672014923e+01    0.6045836    0.3110441 -38.20  0.002751206    2.071    0.517
       107  -9.5748    114.4988     36.7117   8.4126420963e+01   5.1232310489e+01    0.3194013    0.1698329  43.16  0.001500827    1.743    0.426
       108 -10.9894    121.8455     55.8952   8.8658695585e+01   4.6938502804e+01    0.5908443     0.522916  -2.39  0.002769999    1.161    0.139
       109 -10.4480    114.8684     51.4268   8.8986674695e+01   4.9121559436e+01    0.7963006    0.4136613 -16.65  0.003096903    2.890    0.654
       110 -12.2678    121.3350     67.4269   9.2462814904e+01   4.5173342327e+01     1.236501      1.04329 -85.79  0.004417514    1.529    0.346
       111  -9.8018    126.7773     63.8743   8.9957880272e+01   4.4577410892e+01    0.2534089    0.1883537  31.91 0.0009424543    1.411    0.291
       112 -11.0115    102.0680     70.6969   9.8790980388e+01   4.8547643510e+01    0.6032785    0.3634026 -47.45  0.002103825    1.774    0.436
       113 -11.3792    110.7459     65.0874   9.4554286636e+01   4.7802054581e+01     1.327467    0.7347959 -10.11  0.004518259    3.776    0.735
       114 -11.5704    106.6426     86.6907   1.0235848537e+02   4.4624403854e+01    0.6749843    0.6083477 -12.41  0.002920721    1.123    0.109
       115 -10.7426     98.2836     77.4706   1.0200427313e+02   4.8011671803e+01    0.4321457    0.3541093  48.12  0.001735942    1.325    0.246
       116  -8.7115    206.5180     92.0263   8.1258100992e+01   2.0597910367e+01    0.2316625    0.1124721 -57.13 0.0008102505    2.672    0.626
       117  -9.5334    121.2656     91.6973   9.9792036661e+01   4.0658299389e+01    0.2988549    0.2452518 -86.75 0.0007421278    1.567    0.362
       118 -11.0948    119.7238     86.6021   9.8723195970e+01   4.1994089266e+01    0.6511303    0.3195121  46.29  0.001773477    2.065    0.516
       119  -8.8388    194.4961     89.9640   8.2874049383e+01   2.3851013213e+01    0.2316323    0.1469459 -39.02  0.001021881    1.558    0.358
       120  -9.1646     74.4456     89.1412   1.1268998374e+02   4.9690880870e+01    0.2538746    0.2071632  20.49  0.001436234    1.333    0.250
       121  -9.8090     76.1813     83.4859   1.1055028296e+02   5.0592480897e+01    0.4103311    0.1997572 -53.93   0.00116882    2.207    0.547
       122  -9.6955    152.8606     87.3354   9.0706353052e+01   3.4404221542e+01    0.3128173    0.2496914  37.87 0.0008446226    1.321    0.243
       123  -9.4205    146.1516     85.2836   9.1677836586e+01   3.6367411149e+01    0.4375841    0.2562836 -38.80  0.001853667    1.725    0.420
       124  -9.5595    238.5832     86.2180   7.4862668533e+01   1.4259890453e+01    0.2001337    0.1305888 -29.43 0.0009548201    1.704    0.413
       125  -9.0289    186.9250     84.3338   8.2809735023e+01   2.6705081667e+01    0.2189161    0.1962794  65.83   0.00092576    1.105    0.095
       126  -9.1353    188.5104     80.0741   8.1392422167e+01   2.7069437670e+01    0.2821206    0.1506515 -33.44 0.0006393318    2.005    0.501
       127  -9.5592    160.5348     81.6883   8.7405034578e+01   3.3614016696e+01    0.3833176     0.303267  84.74  0.001842383    1.483    0.326
       128  -9.0033    140.4779     83.0223   9.2377185063e+01   3.8104811729e+01    0.2352797    0.1493865 -37.67  0.001032595    1.597    0.374
       129 -10.6281    134.5816     80.7111   9.3142388947e+01   3.9877492161e+01    0.6195536    0.3192372 -38.93  0.002512438    1.955    0.489
       130  -9.6881    217.8867     79.1423   7.6234118923e+01   2.0160576575e+01    0.7127885    0.3417395 -20.79  0.002159657    4.571    0.781
       131  -9.8338    123.2280     81.0408   9.6142094663e+01   4.2318283677e+01    0.3538341    0.2797461  21.93  0.000998914    1.422    0.297
       132 -10.1723     17.7661     81.8982   1.2938181768e+02   5.7467481722e+01    0.2166449    0.1917902  -7.96 0.0009530649    1.294    0.227
       133 -10.6919    144.5552     77.2987   8.9732642480e+01   3.8206755137e+01    0.3652879    0.3178354 -19.78  0.001907491    1.238    0.192
       134  -9.9075     90.2433     78.0182   1.0457364334e+02   4.9360237781e+01    0.4868613    0.2111712  41.64  0.001870522    2.409    0.585
       135  -9.8929    150.6911     74.3730   8.7472400733e+01   3.7275923077e+01    0.5182323    0.2726649 -39.02  0.002129517    1.926    0.481
       136 -10.8925    101.7075     81.8636   1.0233810134e+02   4.6523288341e+01    0.9079069    0.5166038 -17.12  0.002945922    3.102    0.678
       137  -9.9036     36.9411     75.8127   1.2140708202e+02   5.7090250827e+01    0.2507369    0.1439801 -42.09 0.0004824022    1.454    0.312
       138 -10.5826     18.7888     73.1632   1.2703257707e+02   5.9185254571e+01    0.5606139    0.2437284 -36.32  0.002797146    2.213    0.548
       139  -9.1399     25.8506     74.2720   1.2484781363e+02   5.8407016205e+01    0.2810352    0.1536828 -15.79  0.001427807    2.441    0.590
       140  -8.8666    192.8853     74.1176   7.9049019278e+01   2.7018678943e+01     0.236217    0.1924046 -66.64 0.0008382382    1.248    0.199
       141  -9.4557    215.1437     71.6816   7.4836292596e+01   2.2045885202e+01    0.2980669    0.2348559 -18.26  0.001023455    1.610    0.379
       142  -9.3178      8.3201     94.1602   1.3483071853e+02   5.5498837214e+01    0.2605519    0.1273988  43.88  0.001371758    2.785    0.641
       143 -10.9002    140.1930     68.0056   8.7983648318e+01   4.0838180461e+01    0.6957158    0.4707592  64.36  0.003222903    1.640    0.390
       144 -10.4235    132.5098     68.2873   8.9907824499e+01   4.2553542665e+01    0.4719706    0.3403869  80.98   0.00215249    1.954    0.488
       145  -8.9168      5.8479     71.1823   1.3107948778e+02   6.0435070328e+01    0.4758442    0.2753844 -44.94  0.002555069    1.331    0.249
       146  -8.2348      7.5407     49.5407   1.2505760631e+02   6.4481793256e+01    0.3417224    0.2953181  84.52  0.002412586    1.796    0.443
       147 -10.6002     10.9159     63.6509   1.2751227513e+02   6.1613534709e+01    0.5330482    0.2661791 -57.48  0.002579231    1.658    0.397
       148  -9.3703     21.5400     63.5436   1.2360425714e+02   6.0873643688e+01    0.2018783    0.1333923 -41.38 0.0005911674    1.186    0.157
       149 -11.5063     16.5220     61.7357   1.2496518653e+02   6.1599945696e+01    0.5465004     0.285717  13.94   0.00271941    2.285    0.562
       150  -8.2567      1.4553     70.4583   1.3244546066e+02   6.0822840173e+01    0.1166452   0.08308338 -47.28  0.000414153    1.063    0.059
       151 -10.3964    250.2771     67.2425   6.9118642730e+01   1.4796182522e+01    0.4988152    0.1844959 -33.83  0.001902846    2.896    0.655
       152 -10.1029     86.4644     67.0615   1.0230372402e+02   5.2057907023e+01    0.5989475    0.3573327  10.03  0.002480434    2.725    0.633
       153 -10.0528     71.1447     53.8851   1.0285078400e+02   5.6843739463e+01     0.451308    0.3053772 -51.04  0.002424512    1.800    0.444
       154 -10.0743     95.6826     47.4953   9.2937601529e+01   5.3583430723e+01    0.5368262    0.3020044  30.10  0.002171259    1.954    0.488
       155 -10.3276     99.2436     38.9775   8.8928020065e+01   5.4088450218e+01    0.6064081    0.3477333  -2.77  0.002622719    2.640    0.621
       156 -10.4400     87.1242     41.7635   9.3451935677e+01   5.6008501266e+01    0.5827829    0.4115987  21.83   0.00325807    1.417    0.294
       157 -11.2519    103.7218     54.1116   9.2902147053e+01   5.1009865565e+01     1.027486    0.5550284  31.79  0.002225713    2.106    0.525
       158 -10.5570     76.1354     51.6351   1.0042512930e+02   5.6416025978e+01    0.7332582    0.3307287 -45.29  0.003213934    2.444    0.591
       159 -11.2772     85.9754     52.0174   9.7428239413e+01   5.4680940686e+01     1.417796    0.7520942  -4.48  0.004605932    4.766    0.790
       160 -10.4510     93.6590     65.9702   9.9755304312e+01   5.0970245601e+01    0.5150068    0.3049759  11.13   0.00205087    2.869    0.651
       161 -10.8437     97.9637     62.1453   9.7229601725e+01   5.0826469942e+01    0.4630929    0.4038468 -16.17  0.001505075    1.096    0.088
       162 -11.1152     82.2344     58.3707   1.0076998221e+02   5.4293710416e+01    0.6589704    0.3303338  50.23  0.001885799    2.493    0.599
       163 -11.0505     89.4578     57.0734   9.8085567516e+01   5.3245703321e+01    0.4942649    0.3601292  52.42  0.001066948    1.612    0.380
       164 -11.3553    164.4660     63.0326   8.1288679187e+01   3.5832702248e+01     0.695488    0.6073852   4.89  0.003156127    1.361    0.265
       165 -10.6552    165.0379     56.6924   7.9366176612e+01   3.6676243538e+01    0.5009626    0.4186205  12.93  0.001926597    1.468    0.319
       166 -10.3438    151.7444     67.0854   8.5103598711e+01   3.8262583337e+01    0.5166147    0.2543048  46.14  0.001667323    2.026    0.506
       167 -11.1878     67.2276     62.2102   1.0695030215e+02   5.6000656331e+01    0.3530932    0.2606986 -26.13  0.000989962    1.245    0.197
       168  -9.4862    185.4672     60.9041   7.6835634472e+01   3.0985959732e+01    0.3689478    0.2072272  76.96            0    2.210    0.548
       169  -8.6696    178.2213     60.5866   7.8016819614e+01   3.2826876982e+01    0.6463528    0.4107797   5.74  0.002443723    3.165    0.684
       170 -10.8418    174.0471     57.7664   7.7990864421e+01   3.4292824257e+01     0.989345    0.6304718 -14.04 0.0009512996    2.277    0.561
       171 -10.5963    175.8410     53.3870   7.6459078514e+01   3.4505189511e+01    0.6758079     0.380367  30.52  0.002582598    2.916    0.657
       172 -11.5665    140.3725     51.5616   8.2906215893e+01   4.3379541373e+01     1.307594    0.3766437  52.26  0.004347251    3.080    0.675
       173  -9.7301    149.2226     58.6652   8.3147025860e+01   4.0214344787e+01    0.5196559    0.2105378 -41.12  0.001946951    2.549    0.608
       174  -9.7015    158.8173     50.9240   7.8897441912e+01   3.9051304110e+01    0.6445206    0.3569122  38.09  0.002709148    2.161    0.537
       175  -8.8141    152.5620     56.0769   8.1671274492e+01   3.9807973376e+01    0.3402287    0.2613893 -57.00  0.001155644    1.455    0.313
       176 -10.6801    150.8691     51.1891   8.0560917111e+01   4.0938722823e+01    0.4495819     0.284061  -9.84  0.001414788    2.295    0.564
       177  -9.2067    158.5118     58.7195   8.1233201165e+01   3.7962872991e+01    0.3268369     0.189346  36.67 0.0009633054    2.094    0.522
       178 -10.0451      2.7862     57.2837   1.2893207444e+02   6.3321823041e+01    0.3421172    0.2204774 -68.00   0.00220997    1.682    0.405
       179 -11.1886     68.8189     74.4909   1.1026564562e+02   5.3478467049e+01    0.9394516    0.4982721 -33.88  0.004240914    1.906    0.475
       180  -9.4779    192.9738     53.9603   7.3773180320e+01   3.0187916581e+01    0.2220166    0.1862241 -78.97 0.0004887472    1.167    0.143
       181  -9.2182    186.6099     53.1770   7.4583752242e+01   3.1872778544e+01     0.190996    0.1408089 -18.83  0.000758414    1.699    0.411
       182  -8.8019    238.3607     52.2978   6.7238174940e+01   1.9674688514e+01     0.126863    0.1037447  35.42 0.0007034008    1.711    0.416
       183  -8.7762     65.6206     50.7232   1.0362495379e+02   5.8200696353e+01    0.1642603    0.1124967 -42.51 0.0002910219    1.498    0.332
       184  -8.5650     16.3905     50.7390   1.2193878833e+02   6.3658707060e+01    0.1609746   0.07764331 -41.46 0.0006246672    1.595    0.373
       185  -9.0999    188.9711     49.2858   7.3177383769e+01   3.1854281014e+01     0.269082    0.1817956 -62.57 0.0008011315    1.612    0.380
       186 -10.2935    221.8444     58.0503   7.0611807101e+01   2.2610792698e+01    0.4325661     0.353274  49.09   0.00217643    1.422    0.297
       187  -9.1191    171.2611     49.2143   7.6104427589e+01   3.6240624197e+01    0.2807476    0.1717734 -28.53 0.0009644011    1.839    0.456
       188  -8.3262    126.6572     50.7433   8.5808545690e+01   4.6646934705e+01    0.1446808    0.1013934  27.60 0.0005556893    1.586    0.369
       189  -9.3742    129.7648     46.4403   8.3688473294e+01   4.6560366748e+01    0.2347687    0.1912065 -28.21 0.0005001575    1.295    0.228
       190  -8.4782    125.4954     47.5308   8.5047891702e+01   4.7369121420e+01       0.1392    0.1295829  34.83 3.578604e-05    1.008    0.008
       191  -9.9880    142.0143    243.6419   1.2592617476e+02   4.0286046651e+00     0.269289    0.1812226  28.37 0.0008772956    1.702    0.412
       192  -9.1967    211.0231    241.2604   1.1231908174e+02  -7.3795643967e+00    0.1756897    0.1465653  19.30 0.0006207845    1.021    0.020
       193  -9.5469     13.9002    237.4206   1.4865251008e+02   2.3737748136e+01    0.2731009    0.1272358 -56.53  0.001501241    2.929    0.659
       194  -9.1907     12.7998    232.6196   1.4853650750e+02   2.4789461090e+01    0.1946117    0.1065611  55.37  0.001000758    1.529    0.346
       195  -8.4666    244.4898    204.5335   9.9504434749e+01  -7.3639287660e+00    0.1320025    0.1096471  -0.82 -2.990503e-05    1.062    0.058
       196 -10.8578     18.5938     26.4105   1.1283974193e+02   6.7519947283e+01    0.2985475    0.2206306  14.89 0.0006388857    1.414    0.293
       197 -10.9516     37.7124     28.2489   1.0561113897e+02   6.5304252793e+01    0.5318317    0.3821431   3.88  0.002123406    1.247    0.198
       198 -10.7797     17.7199    185.9774   1.4414196065e+02   3.4063814613e+01    0.4993596    0.2707046 -44.44   0.00258466    2.794    0.642
       199 -10.8101      6.9838    186.2447   1.4629228961e+02   3.5005698062e+01    0.3254056    0.1591983  60.17  0.001245735    1.978    0.495
       200 -10.0517     11.8833    184.4713   1.4517821326e+02   3.4950016655e+01    0.2457743    0.1107047 -61.33  0.001319962    1.993    0.498
       201  -9.6043      1.6321    177.9937   1.4667977786e+02   3.7268166969e+01    0.1716922    0.1120897 -84.45 0.0007541252    1.142    0.124
       202  -8.3325     80.3035    176.3515   1.2927809427e+02   2.8518823571e+01    0.1359417    0.1055406 -36.17 0.0007040334    1.703    0.413
       203  -9.0115     38.2015    176.0396   1.3881106950e+02   3.4167822096e+01    0.1741499   0.08411174 -69.68 0.0004938463    1.736    0.424
       204  -8.9521     63.1346    167.8882   1.3203954805e+02   3.2994670367e+01    0.2139772     0.166458  84.34 0.0009705402    1.216    0.177
       205  -9.3124      9.0510    167.5195   1.4423184715e+02   3.8973927195e+01    0.1895592    0.1709066 -13.36 0.0008758887    1.657    0.397
       206 -10.0925     13.9844    165.4464   1.4296607267e+02   3.9016617099e+01    0.2623711     0.224445  60.17  0.001464594    1.310    0.237
       207 -11.5286     28.3051     29.1025   1.0976633017e+02   6.6201693918e+01    0.3275926    0.2382314  -4.92 0.0001959205    1.188    0.158
       208  -9.9407      2.5617    161.0473   1.4501243212e+02   4.0947850760e+01    0.2883715    0.1704905 -64.94  0.001777363    1.404    0.288
       209 -10.4018    231.9088     44.0428   6.6140912542e+01   2.2320348253e+01    0.3877021    0.2720924  39.08 0.0008837153    2.041    0.510
       210 -10.3311    221.3039     45.0118   6.7619687757e+01   2.4642592291e+01    0.4647161    0.2068133 -57.69  0.001858314    2.599    0.615
       211  -9.2523    208.0874     45.8273   6.9517774455e+01   2.7674999321e+01    0.3422472    0.1612559  71.90 0.0009283832    2.211    0.548
       212  -9.3990    214.9148     42.5322   6.7831934072e+01   2.6498135973e+01    0.4124981    0.2652918  28.12  0.001824254    2.781    0.640
       213 -10.0929    201.3061     57.9315   7.3507228829e+01   2.7550287147e+01    0.4230227    0.3333801   5.65  0.002133184    1.855    0.461
       214 -10.0195    105.8649     44.2571   8.8955207318e+01   5.2034991362e+01    0.4276002    0.3312136  32.95  0.002419203    1.213    0.176
       215 -10.3639     16.9541    158.8333   1.4161015146e+02   4.0261622578e+01    0.3789711    0.2623318 -34.97  0.002285186    2.029    0.507
       216  -9.1349     10.1541    157.5581   1.4300294553e+02   4.1131012081e+01    0.2422735    0.1096599 -58.89 0.0009193482    1.879    0.468
       217 -11.1217     88.7202     33.9685   9.0133054758e+01   5.6766757185e+01    0.8151817    0.5302094  42.09  0.004531079    1.442    0.307
       218 -12.0889     19.0791    147.9455   1.3985584528e+02   4.2578821434e+01    0.6879038    0.5524856 -56.29  0.003281071    1.276    0.216
       219 -11.6277    107.3781     29.9668   8.3573511899e+01   5.3565297853e+01    0.8936663    0.3643432  50.88  0.001471425    2.192    0.544
       220 -11.0324     38.9325    146.3051   1.3476912305e+02   4.1048012313e+01    0.5253822    0.3039391 -70.05  0.002392395    1.463    0.317
       221  -9.8899     66.8063    148.3686   1.2801320920e+02   3.7159469279e+01    0.2724262    0.2349094 -89.53  0.001236799    1.107    0.097
       222  -9.6966      5.3799    146.8562   1.4295829663e+02   4.3929064523e+01    0.2791016    0.1378493 -64.35   0.00157444    1.557    0.358
       223 -10.3314      6.6336    142.8868   1.4222619945e+02   4.4735562476e+01    0.3878939    0.2311142  64.45  0.002286734    1.866    0.464
       224  -8.9867     60.7515    147.4464   1.2940874911e+02   3.8192934295e+01    0.1659309    0.1371875  12.25 0.0006678947    1.609    0.379
       225 -10.4941     34.2252    150.1606   1.3647956757e+02   4.0631482067e+01    0.2727557    0.2187786 -83.54 0.0009859895    1.074    0.069
       226  -9.5709      1.4375    143.3848   1.4350338902e+02   4.4995432897e+01    0.6304106          nan -66.79   0.00187836    5.502    0.818
       227 -10.7170     11.9356    125.0172   1.3866260019e+02   4.8406967916e+01    0.4525875    0.3047273  83.47  0.001670686    1.580    0.367
       228 -10.3134      3.9654    135.3767   1.4200537597e+02   4.6625574184e+01    0.3850172    0.2737882  71.18  0.002546301    1.487    0.327
       229  -9.0937    125.7560     28.0917   7.8604269163e+01   4.9786591109e+01    0.2133999    0.1704839 -42.50  0.000581996    1.428    0.300
       230  -9.9485    130.2876     40.2895   8.1586504807e+01   4.7272131723e+01    0.3098917    0.2768908  35.13 0.0009061935    1.057    0.054
       231 -10.2760    134.3605     34.2462   7.8755496197e+01   4.7098779729e+01    0.6192596    0.3141469  36.11   0.00163072    2.291    0.563
       232 -10.9538    147.4322     35.0297   7.6359213628e+01   4.3927413991e+01    0.7938213    0.2374393  50.28  0.001638276    2.931    0.659
       233  -9.8964    136.1792     38.8211   7.9824482301e+01   4.6105196267e+01    0.3493419    0.2736721  41.66  0.001084763    1.209    0.173
       234 -10.7075    139.7663     42.3861   8.0182190236e+01   4.4801656259e+01    0.7805285    0.2772594  60.94  0.002741315    2.972    0.663
       235  -9.5324    142.4131     38.7507   7.8499151475e+01   4.4652963056e+01    0.2776577    0.2311063 -12.74 0.0007547149    1.348    0.258
       236 -10.2624    124.8207     37.3236   8.1863231117e+01   4.8889567167e+01    0.3258489    0.2952207  42.71   0.00122544    1.026    0.025
       237  -9.7804    125.4638     32.9706   8.0280452419e+01   4.9282801218e+01     0.284152    0.2242988  -4.10  0.001045432    1.409    0.290
       238 -10.2255      9.0099    134.9433   1.4071066948e+02   4.6365113348e+01    0.3499223    0.2351229 -42.25  0.000375253    1.666    0.400
       239 -10.7445     13.2568     56.4791   1.2477399975e+02   6.2826459011e+01    0.2543682    0.2301915  29.22  0.001714763    1.472    0.321
       240 -10.3426    162.0597     40.0001   7.5118458363e+01   3.9758640066e+01    0.4445978    0.2628986 -30.20  0.001059028    1.856    0.461
       241  -9.4495    196.9586     41.9842   7.0098449683e+01   3.0909484913e+01    0.2483847    0.1891225 -73.92 0.0003420517    1.318    0.241
       242  -9.0258    190.6738     41.6065   7.0910260546e+01   3.2501379037e+01    0.3190488    0.2214682 -10.42  0.001544092    2.078    0.519
       243  -9.5932    192.5611     36.5289   6.9327618714e+01   3.2709470806e+01     0.392787    0.2678329 -83.57  0.001995872    1.575    0.365
       244  -9.9519    194.4530     31.3264   6.7743433623e+01   3.2907752633e+01    0.3254742    0.2487474  -4.09  0.001099259    1.862    0.463
       245  -9.2799     77.2964     41.4790   9.6423318110e+01   5.7772012996e+01    0.2356413    0.1991693  72.26  0.001018925    1.837    0.456
       246  -8.5520      4.4225     41.2049   1.2388652159e+02   6.6156330357e+01    0.1094983   0.06179486 -21.87 0.0003026991    1.665    0.399
       247 -10.2680    210.4645     33.0294   6.6120830634e+01   2.8825386818e+01    0.3387204    0.2383896 -37.75 0.0007214597    1.495    0.331
       248  -9.9103    200.5021     32.0031   6.7118027346e+01   3.1353173342e+01    0.4489438    0.2493979 -84.91  0.001333433    2.220    0.549
       249 -10.2104    180.3466     38.1794   7.1565937627e+01   3.5498069773e+01    0.4426917    0.2795075 -59.29  0.001478888    1.779    0.438
       250  -9.4061    182.2601     34.4068   7.0265314811e+01   3.5509345934e+01    0.2916358    0.1997546  27.45  0.001085583    2.058    0.514
       251 -10.6801     15.4838    132.4659   1.3876090316e+02   4.6438708371e+01     0.347258    0.2745513 -70.87  0.001476469    1.020    0.020
       252  -8.6839    173.3340     38.7204   7.2829945430e+01   3.7156113745e+01    0.1917007    0.1260828 -54.54 0.0006583329    1.664    0.399
       253  -9.9261    169.1550     37.0190   7.3045704377e+01   3.8402985295e+01     0.416884    0.2959349 -81.20 0.0008363798    1.638    0.389
       254 -10.2219    109.8283     37.7374   8.5658566421e+01   5.2092450100e+01     0.357109    0.1791165 -35.71  0.000982658    2.097    0.523
       255 -10.1543    246.3553     33.2100   6.2280014255e+01   2.0564408708e+01    0.4474597    0.1848203  60.81  0.001088135    2.420    0.587
       256 -10.8633    236.7489     32.8370   6.3152231017e+01   2.2743740656e+01    0.5470595    0.3616961  57.41   0.00305568    1.661    0.398
       257  -9.2026    242.4935     31.4616   6.2286717501e+01   2.1643365848e+01     0.204783    0.1501093  64.27 0.0007250382    1.444    0.308
       258  -8.3045    221.6736     35.6895   6.5419291247e+01   2.5827554300e+01    0.1269061    0.1008319  40.11 0.0007040031    1.660    0.397
       259  -9.3322    155.0136     33.5236   7.4492210799e+01   4.2288794012e+01    0.2624881    0.1912172  -0.67   0.00105775    1.802    0.445
       260  -8.3737    218.2496     33.3599   6.5276789793e+01   2.6936415195e+01    0.1202082    0.1037644  26.78 0.0004880339    1.608    0.378
       261 -10.4966    226.8005     28.7241   6.3281926872e+01   2.5540082004e+01     0.529505    0.2654307 -53.48  0.001739037    1.903    0.474
       262 -10.0004     12.4916    129.9833   1.3919416926e+02   4.7236156029e+01    0.2647871    0.1893785 -63.32 0.0007791799    1.127    0.113
       263  -9.5508    178.0428     20.1478   6.7081612592e+01   3.8217101621e+01    0.2926129    0.2513377 -86.10  0.001419816    1.102    0.092
       264  -9.5036     32.0187    141.0816   1.3575348862e+02   4.2982541710e+01      0.19112    0.1560621 -77.01  0.001224428    1.036    0.035
       265  -9.1892     80.5239    139.9762   1.2286994697e+02   3.7178939182e+01    0.2112467    0.1057475 -39.54 0.0008099605    2.538    0.606
       266 -10.0722    177.4199     31.2579   7.0147150472e+01   3.7088445894e+01    0.3795208    0.2513222 -52.54  0.001953129    1.610    0.379
       267  -9.5434    179.1538     26.6187   6.8645860121e+01   3.7215663634e+01    0.4651778    0.1775497  56.41  0.001860599    2.287    0.563
       268 -10.3617     22.3029    137.9102   1.3776721594e+02   4.4619335322e+01    0.3471801    0.2065165 -41.26  0.001910769    1.944    0.486
       269  -8.7294     23.3224    134.2910   1.3700308320e+02   4.5368629263e+01     0.190423    0.1547644  -6.44   0.00123069    1.690    0.408
       270 -11.2136     24.9799    128.7528   1.3575843519e+02   4.6505310102e+01    0.5296196    0.4307294 -20.08  0.002048473    1.581    0.367
       271  -9.4065     28.1523    120.8375   1.3364399448e+02   4.8050572690e+01    0.4604726     0.217019 -83.95 0.0008897257    3.128    0.680
       272 -10.2951    159.2101     24.7335   7.1198576527e+01   4.2294344946e+01    0.3270904    0.2279731  58.20 0.0006033207    1.270    0.213
       273  -9.8515    153.9139     24.3156   7.1966707402e+01   4.3618615437e+01    0.4231206    0.2734654 -37.62   0.00222367    1.687    0.407
       274 -10.2136     54.6266    137.6263   1.2932190259e+02   4.1314630190e+01    0.3254313    0.1615015 -56.59  0.001516684    1.715    0.417
       275 -11.0456     72.0799    129.4372   1.2303212308e+02   4.0946387049e+01    0.6091221    0.3850461 -42.40  0.002567905    1.632    0.387
       276  -9.8706     74.6809    125.0622   1.2139185891e+02   4.1603071095e+01    0.5142813    0.2740396  56.79  0.002096139    2.634    0.620
       277  -9.3916     45.5042    132.4631   1.3086671389e+02   4.3604094309e+01    0.2842118    0.1131059 -63.27  0.001202321    2.137    0.532
       278  -8.5123    203.6494     28.0927   6.5765062243e+01   3.1079509532e+01    0.1657065    0.1285667 -14.89  0.000518011    1.725    0.420
       279  -9.9400     49.3802     25.6361   1.0004823296e+02   6.4195954150e+01    0.3952746    0.1642352  34.53  0.001889032    2.374    0.579
       280  -9.2470     54.0988     24.8182   9.7971761690e+01   6.3646741070e+01     0.179332     0.142462  32.63  0.001208732    1.374    0.272
       281  -8.3399    201.3223     25.7168   6.5472066623e+01   3.1927853037e+01    0.1384233   0.09036072 -73.21 0.0004298028    1.593    0.372
       282 -11.0151     56.0568    127.7230   1.2712594981e+02   4.3487367642e+01    0.6467282    0.2756508 -51.58  0.001979555    2.037    0.509
       283  -9.6018    241.3791     23.7630   6.0778052852e+01   2.2873939112e+01     0.256545    0.1673072 -68.80 0.0005195537    1.367    0.268
       284  -8.6032     95.4173    130.7610   1.1692965090e+02   3.6950146404e+01    0.2131027    0.1302467 -44.75  0.000624696    1.619    0.382
       285  -8.4746     35.3239    130.3024   1.3324142561e+02   4.5181038996e+01    0.1295863   0.08543864 -41.23 0.0007030001    1.636    0.389
       286 -11.0605     48.3789    126.5002   1.2902417709e+02   4.4684796888e+01    0.3575297    0.3145193 -64.18  0.002253428    1.040    0.039
       287 -10.6383     47.4719    120.9314   1.2823657998e+02   4.6089468310e+01    0.3866867    0.2587601  -5.98 8.395128e-05    2.287    0.563
       288  -8.6587    193.6245     24.1978   6.6057363242e+01   3.3968763024e+01    0.1577085    0.1308719 -14.62 0.0002788944    1.546    0.353
       289  -9.2798     98.0359     22.5005   8.3301530701e+01   5.6318460841e+01    0.2025185    0.1783178 -40.85 0.0006815074    1.389    0.280
       290  -9.3769    214.7951     21.6687   6.2967769677e+01   2.9202380944e+01    0.3648753    0.1886074  62.61  0.001814494    1.786    0.440
       291 -10.0899     38.7862    126.9179   1.3173993888e+02   4.5623125612e+01    0.2040749    0.1528634 -48.62  0.001215469    1.268    0.211
       292  -9.4207    197.7474     16.6409   6.3689677921e+01   3.3831016994e+01    0.3162157    0.1689287  72.79  0.001566137    1.667    0.400
       293 -10.1910     65.3242    125.3207   1.2406804012e+02   4.2858862130e+01    0.2783718    0.1978769  21.37  0.001051278    1.762    0.432
       294  -9.6309    209.9261     18.7588   6.2822996911e+01   3.0690397931e+01    0.2253806    0.1886272  86.46 0.0004299956    1.043    0.041
       295  -9.8593    213.6641     17.2926   6.2086448272e+01   2.9978089189e+01    0.2122759    0.1566243 -81.40 0.0007417914    1.207    0.171
       296 -11.0277    203.0684     37.5232   6.8146450075e+01   3.0019560582e+01    0.5435832    0.3322081  50.51  0.002687985    1.760    0.432
       297  -8.9802    178.6279     14.9288   6.5626469308e+01   3.8629911104e+01    0.2291827    0.1505714  59.79 0.0005231183    1.360    0.265
       298 -10.6462     67.6566    122.6808   1.2286279286e+02   4.3161709966e+01    0.5330662    0.2644766 -41.00  0.002245955    2.220    0.549
       299  -9.5616     13.2693    117.4354   1.3720955031e+02   5.0025952206e+01    0.2222769    0.2044046 -72.70 0.0008096918    1.179    0.152
       300  -9.0101     17.9903    116.5075   1.3576339338e+02   4.9882897564e+01    0.2450961    0.1413747 -33.70  0.001330385    2.084    0.520
       301  -9.8610     17.4370    122.2557   1.3679954715e+02   4.8619917954e+01    0.3613387    0.1771143 -73.87  0.001840155    1.817    0.450
       302  -9.3311     19.5572    119.5474   1.3580834080e+02   4.9070017848e+01     0.233604    0.1733625 -69.23 0.0006686075    1.094    0.086
       303  -9.5415     92.0256    120.7459   1.1556307031e+02   3.9872957904e+01    0.4173397    0.1552648 -39.82  0.001301838    3.521    0.716
       304 -10.7442     27.8404    101.8953   1.3031673953e+02   5.2363884076e+01    0.8578489    0.4581782 -46.32  0.004611299    1.613    0.380
       305 -11.1481     88.7782     93.7786   1.0959781583e+02   4.6424241554e+01     1.381057    0.5149769 -45.06  0.005105564    2.498    0.600
       306 -12.3463     81.7090     77.9669   1.0718763005e+02   5.0814309121e+01     1.570543    0.3993316 -47.07            0    3.851    0.740
       307 -11.9647     26.4820     52.1151   1.1844885809e+02   6.2588930359e+01    0.5994512    0.2614705 -26.94  0.002312581    2.770    0.639
       308 -12.1696     54.0418     86.7733   1.1856292674e+02   5.2955340884e+01     2.177397     1.056033 -38.55  0.009988531    2.016    0.504
       309  -9.0260    151.3176    249.6728   1.2496275197e+02   1.4133080922e+00    0.1280324   0.08969245  67.57            0    1.678    0.404
       310 -10.4467     32.7189     70.6197   1.2149475263e+02   5.8532420917e+01    0.5375767    0.3943506  13.93  0.003437324    1.538    0.350
       311 -11.0904      5.2511    118.1277   1.3948147956e+02   5.0419354549e+01    0.6604995    0.2990113 -67.73  0.003010277    1.665    0.399
       312 -11.0068     22.0004     96.2088   1.3099250071e+02   5.4094206223e+01    0.4128758    0.3021333 -27.56  0.002633363    1.472    0.320
       313 -11.6242     35.8102     91.5068   1.2562778684e+02   5.3917072231e+01    0.8877641    0.6977811 -51.22  0.005660089    1.054    0.051
       314 -11.8244     15.2750    105.6105   1.3474689876e+02   5.2528590604e+01     1.060768    0.5864655  -0.44  0.005609448    2.760    0.638
       315 -10.9393     16.1171     98.6226   1.3325895555e+02   5.4007905692e+01    0.3799076    0.2361382 -44.82 0.0009088102    1.407    0.289
       316  -9.4532    233.7510    247.9944   1.0928391897e+02  -1.1851046380e+01    0.1870428     0.130445  67.54 0.0007802888    3.584    0.721
       317 -10.8435     30.9661     42.9738   1.1372283007e+02   6.3750745727e+01    0.3290847     0.264824  50.90  0.001757284    2.001    0.500
       318 -11.3584     51.3201     71.2875   1.1519157486e+02   5.6421516224e+01    0.6505191    0.3422233  45.17   0.00215935    2.573    0.611
       319 -12.4766     35.0525     59.7517   1.1755675110e+02   6.0393163851e+01      1.13128      1.01835 -83.52  0.005139898    1.605    0.377
       320 -10.0755    104.0604    116.3917   1.1116398322e+02   3.8742662916e+01    0.6713059    0.4092948  66.65  0.002613012    2.600    0.615
       321  -9.7208     97.5319    114.7239   1.1256352747e+02   4.0302941024e+01    0.3203605    0.2813242  24.36  0.001409562    1.256    0.204
       322  -8.9613     41.9126    118.4739   1.2935265242e+02   4.7262620579e+01    0.1667335    0.1314964  29.48 0.0005027336    1.512    0.339
