#   1 NUMBER                 Running object number                                     
#   2 MAG_AUTO               Kron-like elliptical aperture magnitude                    [mag]
#   3 X_IMAGE                Object position along x                                    [pixel]
#   4 Y_IMAGE                Object position along y                                    [pixel]
#   5 X_WORLD                Barycenter position along world x axis                     [deg]
#   6 Y_WORLD                Barycenter position along world y axis                     [deg]
#   7 A_WORLD                Profile RMS along major axis (world units)                 [deg]
#   8 B_WORLD                Profile RMS along minor axis (world units)                 [deg]
#   9 THETA_WORLD            Position angle (CCW/world-x)                               [deg]
#  10 FWHM_WORLD             FWHM assuming a gaussian core                              [deg]
#  11 ELONGATION             A_IMAGE/B_IMAGE                                           
#  12 ELLIPTICITY            1 - B_IMAGE/A_IMAGE                                       
         1 -13.3553     12.1256     23.1349   8.4232885844e+01   6.9817095779e+01    0.6434914    0.2536696 -31.56  0.003208184    2.315    0.568
         2 -13.8305    245.7426      7.2495   2.4275133122e+01   2.5190360745e+01     1.083169    0.6329227 -62.14  0.006845208    1.413    0.292
         3 -11.9618     13.2506     12.7171   7.9209427912e+01   7.1331850056e+01    0.3089954    0.1763714 -21.56  0.001485938    1.490    0.329
         4 -12.1820     15.7374      6.6478   7.4993277345e+01   7.1944700990e+01    0.4331441    0.2357454 -10.39  0.002267366    1.826    0.452
         5 -13.2190      6.4530     10.8624   8.2190064362e+01   7.2174933327e+01    0.7807093    0.3747103 -28.84  0.004636605    1.737    0.424
         6 -12.0233     10.4343      1.9233   7.5641799826e+01   7.3083008830e+01    0.5966336    0.1664876  25.16  0.002654985    3.669    0.727
         7 -12.3317     19.5417     13.9946   7.6400381667e+01   7.0548770097e+01    0.3732193    0.1908101 -20.22  0.002086757    1.920    0.479
         8 -12.6468     24.8907      3.9643   6.8784367949e+01   7.1279083979e+01    0.5036952    0.2742361  13.29   0.00297105    1.797    0.443
         9 -10.5625     41.5041      2.4846   6.0154410304e+01   6.9204104627e+01    0.2146371   0.08316392  32.79  0.001033516    2.378    0.580
        10 -11.5884     29.5310    240.6536   1.1417340392e+02   1.9714177794e+01     0.417858    0.1952662  66.84  0.002235584    2.022    0.505
        11 -13.5332    234.3129    244.4246   7.3453558910e+01  -9.6762023726e+00    0.7192411    0.3836533 -22.13   0.00401229    1.867    0.465
        12 -12.4320    243.0019    245.6201   7.2094030549e+01  -1.0916426031e+01    0.6974699    0.3548582 -12.16   0.00359136    2.327    0.570
        13 -12.0948    247.4828    239.2634   7.0248476929e+01  -1.0621216807e+01    0.4714714    0.2472358 -19.46  0.002409484    1.876    0.467
        14 -11.7847    249.8689    233.0007   6.8770728732e+01  -1.0068753340e+01    0.3507666    0.1848546 -29.91  0.001915584    1.695    0.410
        15 -11.1111    249.0335    249.9249   7.1739026629e+01  -1.2192335157e+01    0.5079818    0.1821027  28.84  0.002487206    2.617    0.618
        16 -11.1362    248.9064    245.3355   7.1009789299e+01  -1.1590468323e+01      0.35304     0.210775 -18.25  0.001997663    1.485    0.327
        17 -11.0347     74.4886    250.5138   1.0623057562e+02   1.2322206618e+01     0.343662   0.08419137  39.07  0.001353263    3.082    0.676
        18 -11.6607     65.4921    249.1195   1.0787987166e+02   1.3765555886e+01    0.3888918    0.1922883  53.18  0.001809632    1.755    0.430
        19 -11.0816     50.9059    250.0841   1.1077461801e+02   1.5400765208e+01    0.3903199    0.1272136  39.76  0.001834095    2.428    0.588
        20 -11.6686     36.8135    248.7552   1.1333413743e+02   1.7309832121e+01    0.4297988    0.2106811  56.08  0.002465827    1.690    0.408
        21 -11.3752     20.2264    249.0967   1.1637907368e+02   1.9047169417e+01    0.3643683    0.1821462  51.96  0.001907929    1.574    0.365
        22 -11.3187     12.0813    248.9801   1.1781399374e+02   1.9898937634e+01    0.3623293    0.1761371  50.28    0.0018082    1.612    0.379
        23 -10.6980      3.2575    250.4081   1.1940438920e+02   2.0484664340e+01    0.2595745    0.1149598  36.46  0.001554966    2.119    0.528
        24 -11.8178     15.9520    240.3480   1.1667205311e+02   2.1195836816e+01    0.5382368    0.2129642  52.23  0.002685288    2.018    0.504
        25 -11.6954     72.8544    240.5757   1.0564642222e+02   1.4475606064e+01    0.3729166     0.183111  56.54  0.001854446    1.980    0.495
        26 -10.3896     27.2633    248.9097   1.1509989031e+02   1.8336944737e+01    0.2183116    0.1137601  58.59  0.001117932    1.558    0.358
        27 -10.5306     38.2176    240.5059   1.1251178969e+02   1.8777402848e+01     0.296857    0.1288416  55.14  0.001538945    1.995    0.499
        28 -10.7620    108.1931    240.4002   9.8281728207e+01   9.5100351567e+00    0.1974934   0.09858081  45.58 0.0009544963    1.756    0.430
        29 -10.4820     64.6731    240.1241   1.0726561109e+02   1.5639236557e+01    0.2278066    0.1386075  50.77  0.001318575    1.389    0.280
        30 -10.9310     45.0171    237.2483   1.1095161032e+02   1.8647978238e+01    0.2905569    0.1343643  57.80  0.001489302    1.981    0.495
        31 -11.2328      6.6136    236.2188   1.1815022012e+02   2.2929148529e+01    0.3397478    0.1768422  76.65  0.001498818    1.619    0.382
        32 -11.3853      4.7610    228.3826   1.1809052665e+02   2.4687286510e+01    0.4303689    0.2008734  71.92  0.002256488    1.880    0.468
        33 -11.2721      2.2346    220.6950   1.1816327000e+02   2.6506321773e+01    0.3491099    0.1706579  87.34  0.001654461    1.745    0.427
        34 -10.1224     32.7720    235.8901   1.1324176384e+02   2.0320603743e+01    0.2406365    0.1026501  57.00  0.001221949    2.084    0.520
        35 -10.6558     95.2080    235.3918   1.0045008290e+02   1.2397397515e+01    0.1959109   0.09916153  45.59 0.0009550469    1.720    0.419
        36 -11.1562     81.7201    236.1122   1.0337385456e+02   1.4165393272e+01    0.3060234     0.153766  57.67  0.001464223    2.071    0.517
        37 -11.0153     59.6748    232.3165   1.0758989310e+02   1.7869819385e+01    0.2941036    0.1633602  63.40  0.001556863    1.769    0.435
        38 -10.6951     11.0950    225.7564   1.1676102201e+02   2.4637697734e+01    0.3587275    0.1737635  62.06  0.001845486    1.770    0.435
        39 -10.7816     39.7960    230.9620   1.1151026056e+02   2.0547020632e+01    0.2926159    0.1803167  77.73  0.001733978    1.500    0.333
        40 -11.7525     25.3778    228.6743   1.1419168962e+02   2.2602720080e+01    0.5032478    0.2551199  75.05  0.002746959    1.883    0.469
        41 -10.4989     48.1628    230.2338   1.0976765129e+02   1.9720833790e+01    0.2471205    0.1279564  73.10  0.001243398    2.079    0.519
        42 -12.9375    241.3985    238.0340   7.1117123744e+01  -9.7017446934e+00    0.7919859    0.3817089  -5.61  0.003299211    3.553    0.719
        43 -12.0673    248.8812    225.0965   6.7576354366e+01  -8.8480709754e+00    0.3678561    0.1828523 -28.21  0.001951815    1.825    0.452
        44 -10.1862     73.3322    227.6534   1.0427747686e+02   1.7055582059e+01    0.1399402   0.08258073  64.89 0.0007049491    1.764    0.433
        45 -10.8264     18.6338    221.8112   1.1506561865e+02   2.4733751312e+01    0.3011431    0.1655587  74.26  0.001741351    1.620    0.383
        46 -10.9363     14.1573    231.8327   1.1652866144e+02   2.3089289823e+01    0.3411622    0.1723639  57.76  0.001798821    1.638    0.389
        47 -10.9502     34.7619    217.6681   1.1151159612e+02   2.3940625788e+01    0.3384812    0.1755913  76.37  0.001734507    1.976    0.494
        48 -10.0800     24.1963    217.0523   1.1363457865e+02   2.5193100254e+01    0.2113805    0.1039956  71.49   0.00108336    1.993    0.498
        49 -11.7772    248.7180    214.4851   6.5722974912e+01  -7.2948718122e+00    0.3799087     0.160043 -28.53  0.001766542    2.330    0.571
        50 -11.4433      2.4592    212.5312   1.1767933686e+02   2.8215787024e+01     0.336138    0.1642041  81.31  0.001802328    1.793    0.442
        51 -10.5751     21.4177    211.1993   1.1378903705e+02   2.6749102163e+01    0.2563958    0.1413772  70.73  0.001425545    1.668    0.400
        52 -11.4498     12.2052    217.1018   1.1603584356e+02   2.6358141270e+01    0.4098754     0.220191  59.71  0.002416215    1.599    0.375
        53 -11.9891     12.6898    205.2570   1.1518076450e+02   2.8892247332e+01    0.4710441     0.238135  62.14  0.002582208    1.806    0.446
        54 -10.5058     28.6507    211.1631   1.1228114153e+02   2.6021510747e+01    0.2430834   0.09939479 -85.66  0.001080104    2.553    0.608
        55 -11.9277      3.3485    196.9639   1.1657935783e+02   3.1550286112e+01    0.3892247    0.1935102  76.95  0.002102013    1.838    0.456
        56 -10.5319     17.1667    189.9846   1.1311102596e+02   3.1943209585e+01    0.2173421    0.1101189  73.67   0.00108382    1.992    0.498
        57 -12.0272      3.9495    188.5161   1.1590145657e+02   3.3408934107e+01    0.4570981    0.1881927  65.84   0.00213571    2.532    0.605
        58 -11.3765     11.5108    184.0013   1.1390921039e+02   3.3826947024e+01    0.2896481    0.1401177  83.83  0.001429715    2.020    0.505
        59 -11.4568      1.8894    177.7852   1.1561097618e+02   3.6037637645e+01    0.2838096    0.1412281 -85.13  0.001515465    1.682    0.405
        60 -11.1349      6.5593    171.2540   1.1404566106e+02   3.7214472172e+01    0.2455835    0.1014629 -82.30    0.0011405    2.119    0.528
        61 -10.7492     10.9967    166.9624   1.1262926895e+02   3.7891304476e+01    0.2108982    0.1229102  68.97  0.001139769    1.714    0.417
        62 -10.6086      5.4121    161.1757   1.1348781322e+02   3.9693988472e+01    0.1829906   0.09680048 -89.90 0.0009471236    1.706    0.414
        63 -11.4698     10.0053    155.4752   1.1182706795e+02   4.0730734672e+01    0.2608747    0.1503372  87.01    0.0013916    1.634    0.388
        64 -11.5995      3.9233    153.3890   1.1317757562e+02   4.1662782610e+01    0.2889663    0.1312514 -70.38  0.001459686    1.728    0.421
        65 -10.2206      2.0000    143.0125   1.1271693823e+02   4.4282964460e+01    0.2109176    0.0575425 -74.44 0.0007993053    2.921    0.658
        66 -10.1119    248.3291    129.6731   4.9129562641e+01   6.6868245633e+00    0.1335636   0.09703213 -64.41 0.0007050768    1.705    0.413
        67 -10.4712      3.1749    128.0515   1.1085422067e+02   4.7821269029e+01    0.3068229    0.1328357  82.21  0.001245938    3.116    0.679
        68 -11.3706    248.8433    118.5659   4.6730796391e+01   8.4964191577e+00    0.2819135    0.1474171 -50.97  0.001215906    1.894    0.472
        69 -10.1450    243.3090    105.6350   4.4778220988e+01   1.1700926252e+01    0.1412059   0.09298334 -63.28 0.0006756103    1.751    0.429
        70 -11.2964    249.4217     97.7572   4.2280631070e+01   1.1873353339e+01    0.2638178    0.1043409 -43.11  0.001131136    2.104    0.525
        71 -10.5656    242.6873     93.3256   4.2228071539e+01   1.3872582604e+01    0.1379379   0.09157278 -64.65 0.0005460034    1.663    0.399
        72 -11.1698    249.4926     87.9631   4.0217178504e+01   1.3446624558e+01    0.2065383    0.1100117 -41.37   0.00097536    1.589    0.371
        73 -11.2165    248.6081     73.7749   3.7358202286e+01   1.5837152844e+01    0.1939797   0.09709978 -47.81 0.0007980383    1.699    0.412
        74 -11.0650    249.1622     65.0052   3.5477661127e+01   1.7049858980e+01    0.2270399    0.1132947 -57.79  0.001045529    2.019    0.505
        75 -12.0946      3.0599     49.6138   9.7382941235e+01   6.5561697435e+01     0.471901     0.174031 -58.92  0.002299262    2.221    0.550
        76 -11.3963      3.1340     33.5538   9.2663089672e+01   6.8623355421e+01      0.25349   0.09727458 -41.39  0.001328526    1.926    0.481
        77 -11.9555    226.2502    247.9307   7.5497584206e+01  -9.1193999699e+00     0.285996    0.1845231 -11.66  0.001753589    1.478    0.323
        78 -11.5291      1.6981     25.0479   9.0522474614e+01   7.0212699539e+01    0.3701387     0.122332 -52.64  0.001808026    2.552    0.608
        79 -11.5884    212.7825    247.6140   7.7964416262e+01  -7.2892452238e+00    0.3536614    0.1636134  15.46   0.00150331    3.031    0.670
        80 -11.8535     98.1372    244.6599   1.0086435890e+02   1.0165250346e+01    0.3679368    0.1877744  58.72  0.001742748    2.231    0.552
        81 -11.1343     44.8452    244.9518   1.1155654514e+02   1.7125663795e+01    0.3515074     0.176838  58.87  0.001769186    1.751    0.429
        82 -11.8766      3.3716    243.2625   1.1906404091e+02   2.1845569070e+01    0.4122147    0.2087276  70.79  0.002378611    1.607    0.378
        83 -12.2380     84.9565    244.3651   1.0354321712e+02   1.2084148739e+01    0.3678703    0.1842941  46.63  0.001901131    1.689    0.408
        84 -11.3497     26.3777     15.8987   7.3744105609e+01   6.9552894888e+01    0.2388751    0.1192364 -24.94  0.001305547    1.906    0.475
        85 -10.5455    116.2308    244.4082   9.7074629890e+01   7.5557103415e+00     0.193934    0.0990528  45.04 0.0009546585    1.710    0.415
        86 -11.9707     57.0258    242.0141   1.0895628280e+02   1.6231584424e+01    0.4600176    0.2010448  53.97  0.002284749    2.061    0.515
