#   1 NUMBER                 Running object number                                     
#   2 MAG_AUTO               Kron-like elliptical aperture magnitude                    [mag]
#   3 X_IMAGE                Object position along x                                    [pixel]
#   4 Y_IMAGE                Object position along y                                    [pixel]
#   5 X_WORLD                Barycenter position along world x axis                     [deg]
#   6 Y_WORLD                Barycenter position along world y axis                     [deg]
#   7 A_WORLD                Profile RMS along major axis (world units)                 [deg]
#   8 B_WORLD                Profile RMS along minor axis (world units)                 [deg]
#   9 THETA_WORLD            Position angle (CCW/world-x)                               [deg]
#  10 FWHM_WORLD             FWHM assuming a gaussian core                              [deg]
#  11 ELONGATION             A_IMAGE/B_IMAGE                                           
#  12 ELLIPTICITY            1 - B_IMAGE/A_IMAGE                                       
         1 -14.6998      2.6055     93.5326   1.3486969260e+02   5.6236436949e+01      4.40164    0.4726411 -65.96   0.01205058    6.668    0.850
         2 -14.9406      3.8209    139.7877   1.4095299633e+02   4.5769285985e+01     5.310955     1.923905 -87.86   0.01925914    4.065    0.754
         3 -13.5380    201.9432     29.2274   6.3310524133e+01   3.1331234891e+01     1.356387     1.150218  47.12  0.007216194    1.431    0.301
         4 -13.4743    218.6818     11.3410   5.7575002637e+01   2.9534972346e+01    0.8756135    0.7517538  70.84  0.002350008    1.288    0.224
         5 -12.2056      3.4557      5.7379   1.0984416633e+02   7.1872948161e+01    0.5492415    0.2162979 -40.97  0.003234216    2.275    0.560
         6 -11.2754    198.5807    247.5459   1.1178637506e+02  -6.9849054107e+00     0.277822    0.1658759  21.26  0.001429519    1.752    0.429
         7 -13.2469    244.7045    247.2722   1.0296920052e+02  -1.3904053987e+01     1.092542    0.6449919  31.27  0.006508726    1.527    0.345
         8 -11.4563    123.4945    249.9879   1.2730264839e+02   5.2874184704e+00    0.3919657    0.1586715  41.60   0.00172512    2.062    0.515
         9 -12.6279     97.3940    249.1559   1.3241555219e+02   9.7023581775e+00     0.827327    0.3027315  35.12  0.003275771    3.020    0.669
        10 -12.7627      9.8337    207.0260   1.4571903741e+02   3.0022488017e+01    0.7380346    0.5218419  32.25  0.003270098    1.793    0.442
        11 -13.1608     42.2274    212.4751   1.3973812888e+02   2.5278857614e+01     1.047026    0.7735325 -81.10  0.004943151    1.193    0.162
        12 -12.9286     26.3906    229.7417   1.4426237699e+02   2.3442520812e+01     0.292507    0.2093279 -68.16 0.0007660125    1.492    0.330
        13 -14.0896     31.2378    223.8232   1.4289912416e+02   2.4129232690e+01    0.7305223     0.556538  80.93  0.002438588    1.023    0.023
        14 -11.9222     97.0058    245.2547   1.3205673355e+02   1.0518071998e+01    0.3878436    0.2009088  49.09  0.001320382    1.619    0.382
        15 -14.6771     13.6362    241.1426   1.4728934831e+02   2.2535956963e+01     2.768536     1.918889  47.40   0.01971373    1.467    0.318
        16 -11.7448    177.2036    249.5622   1.1636725540e+02  -3.7653676630e+00    0.5316807    0.1722468  35.32  0.001988317    2.934    0.659
        17 -11.6185    139.0081    249.3061   1.2407238194e+02   2.7877352354e+00    0.3265361    0.2752225 -74.02   0.00203821    1.402    0.287
        18 -12.9451    106.2435    230.5174   1.2837470245e+02   1.1965323886e+01     1.279412    0.1596229  43.67  0.003306261    5.745    0.826
        19 -10.0662     69.2078    219.0752   1.3481655487e+02   2.0207515940e+01    0.2693067    0.1318591  59.96  0.001228654    2.096    0.523
        20 -11.8463     58.8724    213.4095   1.3637364468e+02   2.2912788007e+01    0.5657645     0.228819  53.18  0.002458829    2.397    0.583
        21 -10.7272      6.9592    215.3070   1.4683635753e+02   2.8524335813e+01    0.1583667    0.1218111  72.82 0.0004463207    1.118    0.105
        22  -8.7663    152.5868    213.2046   1.1567046361e+02   7.2394720873e+00    0.1735525    0.1378552 -35.44 0.0002868492    1.443    0.307
        23 -11.8092     54.9535    197.1883   1.3541298939e+02   2.7129279434e+01    0.4020908     0.238687 -56.88  0.000650405    1.730    0.422
        24 -10.0235     34.6083    202.8020   1.4039619623e+02   2.8347980532e+01     0.180474    0.1632679  64.55 0.0007295735    1.258    0.205
        25 -11.4075    216.7560    248.3690   1.0838270842e+02  -9.9770480057e+00     0.253118    0.2052215  25.98   0.00165034    1.122    0.108
        26 -12.9574      9.3741    120.0610   1.3695088943e+02   4.9933363753e+01    0.7598212    0.4110765 -74.59 0.0003991202    1.620    0.383
        27 -11.9995     62.0204    188.5555   1.3274299181e+02   2.8204876428e+01    0.2761306    0.2382328 -73.75 0.0004345263    1.138    0.121
        28 -11.4045      4.7583    184.5693   1.4501659658e+02   3.5446302908e+01    0.5278938     0.209801  66.24    0.0023168    2.935    0.659
        29 -10.8596     73.2609    175.8369   1.2825095702e+02   2.9659536829e+01    0.2534623     0.228777  87.67 0.0003714703    1.025    0.025
        30 -13.1675     59.3861    173.8887   1.3139062360e+02   3.2077750902e+01    0.5534223    0.2824871 -47.12  0.001756734    2.258    0.557
        31 -11.8752     80.8854    167.3660   1.2497107672e+02   3.0571477544e+01    0.7097104    0.5009453 -51.52  0.003570573    1.431    0.301
        32 -10.1232     91.0859    168.8426   1.2260938771e+02   2.8571477268e+01    0.4322234    0.2299888  61.78  0.001651844    2.539    0.606
        33 -10.3537     94.7083    151.7023   1.1845347078e+02   3.2158199063e+01    0.3135943    0.2873422 -39.36 0.0007540275    1.178    0.151
        34 -11.9831     83.1346    150.5105   1.2135649907e+02   3.4360586229e+01     0.323792    0.2575033 -49.06 0.0005269165    1.255    0.203
        35  -9.2393     98.0386    147.4934   1.1669792325e+02   3.2608914389e+01    0.2207825     0.196716 -61.76 0.0003826835    1.078    0.072
        36 -11.9086     68.0142    143.0046   1.2410870188e+02   3.8461099604e+01    0.6089076    0.4444639  89.72  0.001912447    1.570    0.363
        37 -10.7740     64.6732    141.6879   1.2479884231e+02   3.9243870456e+01    0.3600025    0.2090424 -45.48 0.0009271574    1.752    0.429
        38  -9.8617    107.9608    136.6522   1.1162384351e+02   3.3423367181e+01    0.4344884    0.2886322 -16.25  0.001557834    2.539    0.606
        39 -10.3842     94.5313    134.0529   1.1479278643e+02   3.6482103900e+01    0.2449542    0.2340302   3.93 0.0004048222    1.144    0.126
        40  -9.3142    105.5055    123.5093   1.0922062200e+02   3.6994413965e+01    0.1517267    0.1475412 -47.34 3.984286e-05    1.012    0.012
        41 -10.2342    242.5143     92.9851   7.2250713471e+01   1.2446594427e+01    0.1884197    0.1219563 -16.99 0.0008105218    2.611    0.617
        42  -9.5358    159.5302     77.5423   8.2888291110e+01   3.4561523745e+01    0.1510014    0.1421699  75.25 4.038882e-05    1.026    0.026
        43  -9.3114     41.7902     66.8516   1.1481966314e+02   5.8675228430e+01    0.2058166    0.1558778  54.17 0.0008880686    1.991    0.498
        44 -11.8153    157.2970    249.5562   1.2039051912e+02  -3.8348619791e-01    0.5536804    0.1502136  41.54  0.001980571    3.054    0.673
        45 -11.1148     81.3675    249.1106   1.3553936297e+02   1.2183315767e+01    0.2621838    0.1548978  52.34   0.00147518    1.392    0.282
        46 -11.1818     63.3963    246.5615   1.3872724107e+02   1.5293530128e+01    0.3149358    0.1887745  77.06 0.0005939647    1.608    0.378
