#   1 NUMBER                 Running object number                                     
#   2 MAG_AUTO               Kron-like elliptical aperture magnitude                    [mag]
#   3 X_IMAGE                Object position along x                                    [pixel]
#   4 Y_IMAGE                Object position along y                                    [pixel]
#   5 X_WORLD                Barycenter position along world x axis                     [deg]
#   6 Y_WORLD                Barycenter position along world y axis                     [deg]
#   7 A_WORLD                Profile RMS along major axis (world units)                 [deg]
#   8 B_WORLD                Profile RMS along minor axis (world units)                 [deg]
#   9 THETA_WORLD            Position angle (CCW/world-x)                               [deg]
#  10 FWHM_WORLD             FWHM assuming a gaussian core                              [deg]
#  11 ELONGATION             A_IMAGE/B_IMAGE                                           
#  12 ELLIPTICITY            1 - B_IMAGE/A_IMAGE                                       
         1 -15.0013     12.2517    151.8728   1.4080710833e+02   4.1392265697e+01     9.787702     3.334049  74.36   0.04365724    3.513    0.715
         2 -11.8256      2.2988     61.5988   1.3495549202e+02   6.1472524486e+01     0.682191    0.1027417 -71.40  0.002294829    4.439    0.775
         3 -13.3075    196.9196     28.6598   6.7850718447e+01   3.2267008383e+01     1.744712     1.427271   0.88    0.0079929    1.256    0.204
         4 -13.3897    212.2339      8.4884   5.9761108265e+01   3.0388508533e+01     1.212706    0.9394398  30.55  0.006486113    1.394    0.283
         5 -12.0572      3.2567     12.4825   1.2329889623e+02   7.2033668087e+01    0.5899534    0.2393913 -66.49  0.002900757    2.365    0.577
         6 -10.7163    171.2180    247.4380   1.2029386241e+02   6.2883179448e+00    0.1870518    0.1194498  34.43  0.000740155    1.183    0.154
         7 -10.6541    249.2970    249.3495   1.0850808640e+02  -4.5830740549e+00    0.2464857    0.1396597  21.83  0.001812411    1.297    0.229
         8 -11.1806    123.9623    249.9731   1.2808094932e+02   1.2433002990e+01     0.389944    0.1004685  39.71  0.001865049    2.940    0.660
         9 -10.7747     98.4151    249.3577   1.3206702473e+02   1.5763888543e+01    0.1920505    0.1500965  31.35  0.001605046    1.493    0.330
        10 -10.2783     46.9976    249.5273   1.3995649736e+02   2.1575683973e+01    0.1356953    0.1091686  81.51  0.000658632    1.329    0.248
        11 -11.4166     50.9060    245.2381   1.3916211588e+02   2.1767377427e+01    0.2905067    0.2026059  58.68  0.002566376    1.018    0.018
        12 -12.2940     34.2310    246.3698   1.4170839533e+02   2.3298586998e+01    0.4671135    0.4009132  84.91   0.00465313    1.444    0.307
        13 -10.7418     28.9845    249.9961   1.4261658518e+02   2.3297389549e+01    0.1836704    0.1014231  45.45 0.0009655284    1.399    0.285
        14 -11.1256     22.1686    236.8706   1.4312731110e+02   2.5814952918e+01    0.2256381    0.1687252 -43.65  0.001852705    2.625    0.619
        15 -11.7839     20.3801    243.6013   1.4363319644e+02   2.5004266993e+01    0.3736295    0.1060508  55.96  0.001891492    2.377    0.579
        16 -12.8674     11.5011    237.8404   1.4473776988e+02   2.6634003036e+01     0.655027    0.3749458  50.87   0.00565678    1.277    0.217
        17 -10.9705    198.9583    245.7784   1.1570750180e+02   2.5626065711e+00     0.220513     0.113864  27.07  0.001395964    1.724    0.420
        18 -11.7723    129.9348    246.0685   1.2677915405e+02   1.2122435654e+01    0.3469161    0.1046393  42.75  0.001803191    2.370    0.578
        19 -11.5303    138.8312    250.1641   1.2573546227e+02   1.0435493055e+01    0.3589581       0.1498  40.72  0.002193131    1.741    0.425
        20 -11.6486     21.9098    126.6466   1.3672524202e+02   4.5837775363e+01    0.3777939    0.1956715  53.94    0.0010484    1.902    0.474
        21 -11.3329    238.3439    248.7677   1.1005097868e+02  -3.0996318911e+00    0.2446062    0.1545035  39.06  0.001834477    1.444    0.307
        22 -12.4367     48.0929    216.0699   1.3802152632e+02   2.6444583132e+01    0.5218197    0.4816907  87.34  0.003389795    1.415    0.293
        23 -12.6752    124.1535    231.9355   1.2639852919e+02   1.4722935142e+01    0.9145241    0.1587931  40.00  0.003380327    4.494    0.777
        24 -10.1714    173.9274    222.8461   1.1691964580e+02   8.6847953763e+00    0.3200154    0.1950233  54.63  0.001967568    1.864    0.464
        25 -12.8373     33.2173    233.8786   1.4132976828e+02   2.5207115264e+01     0.245193    0.1956913  84.95  0.000774853    1.321    0.243
        26 -12.5527      9.7286    207.1150   1.4395186527e+02   3.1558614816e+01    0.5712842    0.4018909  33.77  0.003022105    1.704    0.413
        27 -13.8676     38.0318    227.0728   1.4026052387e+02   2.5757859486e+01    0.6154426    0.4131524  64.09  0.002382639    1.076    0.071
        28  -8.0364    221.6888    213.6898   1.0764384422e+02   2.4398318111e+00    0.1176487   0.06958343  17.37 0.0003378243    1.625    0.385
        29  -8.8912    152.4952    213.0247   1.1939166487e+02   1.3185966900e+01    0.1330246    0.1148107 -44.05 0.0009877614    1.459    0.315
        30 -11.6444     60.0766    199.7108   1.3482667519e+02   2.7836086201e+01    0.2208405    0.1882448 -81.88 0.0004910357    1.301    0.232
        31  -9.6269    192.1089    193.5401   1.0952032344e+02   9.4492182174e+00    0.4960363    0.2485836 -58.76  0.001472765    9.077    0.890
        32 -10.3259     14.7352    197.1716   1.4270714698e+02   3.2799730662e+01    0.3064226     0.110919  49.23  0.001923975    2.043    0.510
        33 -10.1422     54.4311    229.4250   1.3775995763e+02   2.3693549046e+01    0.2086813    0.1193046  60.22 0.0009487313    1.347    0.258
        34 -11.8938     66.5420    191.2138   1.3294206800e+02   2.8560215614e+01    0.2153578    0.1987656  89.31 0.0004701978    1.272    0.214
        35 -10.9167      6.2195    189.0389   1.4383323652e+02   3.4920713189e+01    0.2419189    0.1350753  69.62  0.001807004    1.355    0.262
        36 -10.9782      2.6809    182.6381   1.4419633033e+02   3.6332534391e+01    0.2674124    0.1382324  75.11  0.001899068    1.507    0.336
        37 -13.1844     63.4665    176.3696   1.3221260870e+02   3.1615883421e+01    0.3992376    0.2410807 -47.77  0.001629212    2.255    0.557
        38 -10.7155     76.8471    178.1990   1.2970013677e+02   2.9644313448e+01    0.1978716    0.1666628  80.90 0.0002956203    1.088    0.081
        39  -9.9352     97.7310    174.7863   1.2505892799e+02   2.7469477580e+01    0.2221384    0.1652231  64.77 0.0007857024    1.276    0.216
        40 -11.7365     84.9153    168.9829   1.2701820946e+02   3.0314844629e+01    0.6523585     0.474101  27.69  0.004080581    1.644    0.392
        41 -12.0934     11.0972    248.5228   1.4511916460e+02   2.5141582476e+01    0.5465889    0.2685082  42.26  0.004474646    1.640    0.390
        42 -10.0576     97.1856    152.8456   1.2221843664e+02   3.1713511523e+01    0.2636847    0.2389124 -78.86 0.0007365764    1.108    0.097
        43  -9.2421    100.2015    148.7560   1.2092117967e+02   3.2073839692e+01    0.1806196    0.1677532   7.76 0.0003639948    1.313    0.238
        44 -12.0058     85.8024    152.0058   1.2465815825e+02   3.3502305633e+01    0.2446661    0.2200857 -50.06 0.0006055345    1.293    0.226
        45 -12.1643     67.3332    143.6082   1.2777685909e+02   3.7627523488e+01    0.6074271    0.3577186  61.80  0.003112081    1.788    0.441
        46 -11.2639      2.9129    248.0372   1.4625055496e+02   2.5914485990e+01    0.3871237    0.1792516 -89.78  0.003147202    1.937    0.484
        47  -9.8383    109.1026    137.8436   1.1705073252e+02   3.2869455237e+01    0.3578915    0.2495629 -14.58   0.00148323    2.462    0.594
        48  -8.2180    192.2843    144.2712   1.0036581865e+02   1.6350776703e+01     0.135897   0.09732897  14.08 0.0002815958    1.500    0.333
        49 -10.9529     31.2231    131.6122   1.3495692077e+02   4.3991207784e+01    0.2696264    0.1730282  53.23 0.0006730941    1.515    0.340
        50 -10.4095     96.2771    134.9739   1.1960705942e+02   3.5464679513e+01    0.2090514    0.2009141 -22.02 0.0004101745    1.218    0.179
        51  -8.3370     79.9618    132.2172   1.2312924219e+02   3.8390007932e+01    0.1524844   0.09948124  40.62            0    1.556    0.357
        52  -8.9395    106.3715    124.0874   1.1514440167e+02   3.6135726612e+01    0.1757492    0.1566863 -62.97 0.0003462376    1.106    0.096
        53  -9.4440    168.0160    113.2271   9.8214960477e+01   2.6423446947e+01    0.2884798     0.227114  87.39  0.001231007    1.896    0.473
        54  -9.0854    203.4504    111.5195   9.0675879191e+01   1.9067674397e+01     0.147571    0.1300301   7.25 4.256619e-05    1.030    0.029
        55  -9.7505    158.0398     76.5277   9.0347186856e+01   3.5132156108e+01    0.2322419    0.1500737  48.84 0.0007314482    1.564    0.360
        56 -10.7234    161.9217    248.7375   1.2191526052e+02   7.4416609075e+00    0.2433758     0.141144  63.34  0.001441756    2.769    0.639
        57 -11.6517     11.3686     53.8688   1.3030310180e+02   6.2738752751e+01    0.3440146    0.2098478  51.87 0.0007434034    2.114    0.527
        58  -8.7773     38.6408     65.3451   1.2264913915e+02   5.8130012551e+01    0.1804383    0.1355037  79.42 0.0008314516    1.633    0.388
        59 -10.9570    152.2778    248.8748   1.2346732055e+02   8.7568576745e+00    0.2510258    0.1086652  49.06  0.001483783    1.981    0.495
        60 -10.3870     80.9440    248.3781   1.3472797627e+02   1.7994506866e+01    0.2909875    0.1225317  67.46  0.001607701    3.184    0.686
        61 -10.8428      2.9853     38.7026   1.3063092365e+02   6.6507008062e+01    0.2043502    0.1771348 -70.32  0.001539671    1.178    0.151
