#   1 NUMBER                 Running object number                                     
#   2 MAG_AUTO               Kron-like elliptical aperture magnitude                    [mag]
#   3 X_IMAGE                Object position along x                                    [pixel]
#   4 Y_IMAGE                Object position along y                                    [pixel]
#   5 X_WORLD                Barycenter position along world x axis                     [deg]
#   6 Y_WORLD                Barycenter position along world y axis                     [deg]
#   7 A_WORLD                Profile RMS along major axis (world units)                 [deg]
#   8 B_WORLD                Profile RMS along minor axis (world units)                 [deg]
#   9 THETA_WORLD            Position angle (CCW/world-x)                               [deg]
#  10 FWHM_WORLD             FWHM assuming a gaussian core                              [deg]
#  11 ELONGATION             A_IMAGE/B_IMAGE                                           
#  12 ELLIPTICITY            1 - B_IMAGE/A_IMAGE                                       
         1 -13.9511     60.3801     61.0626   5.8867807051e+01   5.7678626208e+01     2.018782     1.184185  -7.64  0.007554587    3.443    0.710
         2 -14.8326      6.2452     70.7961   8.8043259055e+01   6.2638733205e+01     1.130925    0.8225307 -40.89  0.006451318    1.231    0.188
         3 -12.9298      7.8061      2.6103   6.2032074667e+01   7.4634588202e+01     0.630511    0.3607325  38.99  0.003774972    1.752    0.429
         4 -15.7396     11.1011     23.5806   6.9929344997e+01   7.1307734908e+01      1.87494     1.082321 -16.40   0.01001666    1.887    0.470
         5 -14.3966     27.2101     11.7267   5.4721881490e+01   7.0685814883e+01    0.8851038    0.5887949   7.52  0.005338431    1.617    0.382
         6 -14.2065    166.6554     29.4324   2.5297748025e+01   3.9352584558e+01    0.8748001     0.559239  72.89  0.004265954    1.371    0.270
         7 -14.1280    147.7940     29.4626   2.7633880675e+01   4.3344747724e+01     1.047457    0.6286018  74.72  0.004142597    1.450    0.310
         8 -12.3793    139.6834     21.4630   2.6776025671e+01   4.5992197803e+01    0.5421395    0.2050905  62.63  0.001355996    2.165    0.538
         9 -12.9344    187.6449     11.0927   1.9543344522e+01   3.7133359420e+01     0.457837    0.3439901 -34.04   0.00337034    1.713    0.416
        10 -12.4403    120.8392     25.6767   3.0777358477e+01   4.9725819266e+01    0.5324878    0.3732733  46.39   0.00301112    1.538    0.350
        11 -13.0974    225.5667      3.5025   1.5781987955e+01   3.1054068637e+01    0.5958594    0.3914611 -16.58   0.00380585    3.433    0.709
        12 -12.9528    214.7793     19.9002   1.9189332204e+01   3.1197911543e+01    0.4412104    0.3798716 -21.65  0.003502393    1.904    0.475
        13 -13.0129    219.0062     15.5061   1.8155513746e+01   3.0935503919e+01    0.3005502    0.2060022  66.54  0.002041558    1.704    0.413
        14 -13.7686    215.1477     10.0458   1.7462501733e+01   3.2178564601e+01    0.6471885    0.3333478  89.85  0.003251741    1.686    0.407
        15 -15.0245     99.1268     11.6075   3.0616778279e+01   5.6022939138e+01     1.331773    0.6920226  63.13  0.004468037    1.510    0.338
        16 -12.1058     85.6073     13.9138   3.4287814842e+01   5.8826114713e+01    0.3801302    0.3110581 -89.37  0.001823999    1.339    0.253
        17 -13.0325    224.0453     20.2251   1.8633026804e+01   2.9563884820e+01    0.2485977    0.2242937  89.83  0.001756883    1.469    0.319
        18 -12.2151     60.2768     15.1579   4.1972772809e+01   6.4142261551e+01    0.5145861    0.2533213  38.53  0.002141458    1.910    0.476
        19 -11.3586    175.9322     13.8184   2.1055642695e+01   3.9158338525e+01    0.1811893     0.128646 -69.25 0.0002575392    1.178    0.151
        20 -11.7095     46.8850     12.9246   4.6018728494e+01   6.7042316733e+01    0.2996083     0.218387  52.34  0.001222641    1.274    0.215
        21 -13.7334     41.9339      4.3476   4.4185081202e+01   6.8846283394e+01    0.6695981    0.4571939  33.10  0.003488619    1.253    0.202
        22 -11.0929    123.2252     10.7909   2.6316375092e+01   5.0692937534e+01    0.2259871    0.1497335 -80.40 0.0009107455    1.514    0.339
        23 -11.7718     75.3178      9.2957   3.5214032048e+01   6.1512491333e+01    0.3312711    0.2613758  -3.42  0.002145104    1.644    0.392
        24 -13.8234    189.4948     24.4907   2.1997945520e+01   3.5347237576e+01    0.9236762     0.556653 -61.86  0.005324207    1.420    0.296
        25 -10.8425    168.3038      9.6505   2.0868141748e+01   4.1119691286e+01    0.1202102     0.065645 -68.91 6.469327e-05    1.699    0.411
        26 -11.5640    152.7209      8.6597   2.2158983757e+01   4.4460344725e+01    0.2304084    0.1614329  52.79  0.001520243    1.669    0.401
        27 -10.7998     80.5276      7.1139   3.3124817545e+01   6.0563564326e+01    0.1527318    0.1245338 -21.31   0.00102482    1.572    0.364
        28 -10.1540     59.4892      6.4892   3.8710585865e+01   6.5137378522e+01     0.125778   0.09506558  46.85 0.0008099816    1.050    0.048
        29 -11.8569    118.4473      2.3930   2.4699099253e+01   5.2494401656e+01    0.3917154    0.1885073  85.83  0.001977651    2.108    0.526
        30 -11.1773     75.2306      2.7323   3.2818997786e+01   6.2089993063e+01    0.3412412    0.1314562  55.03  0.001663949    1.896    0.473
        31 -11.7570     80.0124      1.4936   3.1244448930e+01   6.1139347384e+01    0.5635716    0.1008096  60.47  0.002025822    3.488    0.713
        32 -11.0691     67.5788      2.7500   3.4810072155e+01   6.3745547392e+01    0.2675748    0.1476053  40.59  0.001335237    1.702    0.413
        33 -11.2303    232.6662      1.8654   1.5163276702e+01   3.0040475108e+01    0.1833196    0.1076099 -83.25 0.0009238989    1.347    0.258
        34 -10.3364    182.7828      1.3771   1.8017836349e+01   3.9025257528e+01    0.1451811    0.0792357  71.49 0.0006261762    1.623    0.384
        35 -11.1368     61.4627      1.4870   3.6052374841e+01   6.5149439769e+01    0.3597585    0.0979967  60.09  0.001296344    2.961    0.662
        36 -11.2452    103.5115    149.5949   6.6942848987e+01   3.0433111438e+01    0.3396382    0.2506474 -25.01  0.001038921    1.543    0.352
        37 -11.8730     50.8560    248.6693   9.6191823323e+01   1.3259000649e+01    0.4057172    0.3780903 -17.21  0.002592749    1.187    0.158
        38 -12.6190     28.7740    245.9600   1.0155258355e+02   1.6076088638e+01    0.5070637    0.3703831  77.25  0.002932239    1.471    0.320
        39 -12.1861      2.8517    249.6485   1.0805782497e+02   1.7550958489e+01    0.4166261    0.2819417  35.88  0.001680602    1.254    0.202
        40 -13.6650      9.8480    245.7196   1.0619780745e+02   1.7834092358e+01    0.9654647    0.4767435  43.80  0.003619637    1.707    0.414
        41 -11.1603     38.0284    145.6922   8.8219961093e+01   4.0916967790e+01    0.2179929    0.1958583  10.16  0.000564792    1.105    0.095
        42 -11.1050     54.0029    156.8530   8.4343770418e+01   3.6032065290e+01    0.3991603    0.1879129   5.51  0.001268391    3.219    0.689
        43 -12.5625     40.9364    137.5217   8.5802810290e+01   4.2803472531e+01    0.4153687    0.2930234  51.77  0.001907761    1.616    0.381
        44 -11.6229    246.6319    135.2218   3.5866163405e+01   1.0308013939e+01    0.2074318    0.1258386 -89.74  0.000960607    4.411    0.773
        45 -12.1518     43.8969    132.8640   8.3859663894e+01   4.3704344698e+01    0.2931583     0.212937  11.02 0.0009311754    1.407    0.289
        46 -11.6622    137.4093    132.6065   5.4156736114e+01   2.8216615673e+01    0.3634825    0.2486019  16.32  0.001618202    2.005    0.501
        47 -11.5961    111.9850    131.5440   6.0590798424e+01   3.3204360291e+01    0.3105975    0.2485126 -15.62  0.001500057    1.465    0.317
        48 -11.0914      5.3577    128.5018   9.8205764402e+01   4.8291347235e+01    0.3449516    0.1772538 -35.05  0.001477387    1.968    0.492
        49 -14.4376    106.1368    104.0065   5.5699780268e+01   4.0411680677e+01     1.116252     1.030254  28.48  0.004688242    1.084    0.077
        50 -13.4257    102.1829    119.5761   6.0688323477e+01   3.7775830577e+01     1.066288     0.739674  12.61  0.004625124    1.892    0.472
        51 -12.7522     28.7508    121.7824   8.7824113825e+01   4.8273322886e+01    0.5478079    0.3376914 -51.79  0.002508518    1.521    0.342
        52 -12.3572    181.0282    120.9523   4.2689692318e+01   2.2565520521e+01    0.2889849    0.1953121  40.01  0.000884153    1.722    0.419
        53 -12.8892     84.7062    114.8348   6.5102403585e+01   4.2091137526e+01    0.9250285    0.3600615  31.65  0.002510317    2.711    0.631
        54 -13.1789      5.6266    117.3238   9.6650158232e+01   5.1239124524e+01     1.174635    0.5376394 -53.91  0.004744563    1.877    0.467
        55 -12.3423     49.4359     98.9791   7.4399793420e+01   5.1546155301e+01    0.9441779    0.4942454  18.16  0.003781942    2.082    0.520
        56 -11.9449     48.9695     93.5562   7.3223437739e+01   5.2875561845e+01    0.5013821    0.3349368  50.81  0.002295146    1.826    0.452
        57 -12.4137     42.2649     90.4161   7.5304187304e+01   5.4523897071e+01    0.3128239    0.2906881 -84.26 0.0002390652    1.322    0.243
        58 -14.5606     24.5484     93.5210   8.4073294941e+01   5.5834019815e+01     1.743941     1.246577 -10.62  0.008881876    1.391    0.281
        59 -12.2063     36.9056     92.9110   7.8305978334e+01   5.4626087063e+01    0.4966079    0.2822103  15.50  0.001351477    1.787    0.440
        60 -13.3964      2.2927     96.9656   9.5084433929e+01   5.6644607709e+01    0.9421243    0.4757647 -75.90   0.00330841    2.165    0.538
        61 -14.0299     18.1839    111.7788   9.0488881059e+01   5.1821152295e+01    0.9114538    0.6279149 -23.31  0.003253499    1.453    0.312
        62 -13.8014     11.7485    102.6066   9.1722142659e+01   5.4649413971e+01    0.8898487    0.7042254 -74.54  0.004035993    1.372    0.271
        63 -11.9216     32.4885    110.4780   8.4139774327e+01   5.0820113799e+01    0.3655248    0.2902546  55.25  0.001851589    1.501    0.334
        64 -11.6082     63.0029    110.8144   7.1890671643e+01   4.6700311303e+01    0.5823039    0.2745744  47.44  0.002087241    2.577    0.612
        65 -12.2418     78.8699    110.4944   6.6034624419e+01   4.4136538478e+01    0.4241504    0.3375775 -82.18  0.002024243    1.641    0.391
        66 -11.2137     42.3275    106.8993   7.9234519729e+01   5.0578128612e+01    0.2991168    0.2093636  10.23  0.001414282    1.449    0.310
        67 -11.9928    121.4985    112.0723   5.3463072046e+01   3.5651790771e+01    0.3353937    0.2816992  76.86  0.001136819    1.370    0.270
        68 -12.7133    136.2216    103.1020   4.7714358649e+01   3.4487308038e+01    0.6174437      0.29785  51.60  0.001894952    2.113    0.527
        69 -12.5663    120.6469    102.2055   5.1283442471e+01   3.7844122741e+01    0.3526487    0.2689698 -28.66  0.001758421    1.540    0.351
        70 -13.4379    107.3129    124.2751   6.0273808999e+01   3.5740305096e+01    0.9539155    0.6216811  25.14  0.004152945    1.738    0.425
        71 -10.6900     64.6720    101.6859   6.9001726285e+01   4.8588680045e+01    0.2237831    0.1543368 -46.28 0.0004362416    1.492    0.330
        72 -11.9589     61.6865     97.9330   6.9188992340e+01   4.9933961177e+01    0.5128931     0.403363  70.35  0.001694562    1.720    0.419
        73 -12.2184    163.2990     97.7058   4.0946816640e+01   3.0055431996e+01     0.365585    0.3042966  82.96 0.0008234057    1.247    0.198
        74 -13.0274    137.1490     94.9149   4.5549901353e+01   3.5846457959e+01    0.4837162     0.400438  77.99  0.001958796    1.283    0.220
        75 -13.1397    111.9478    116.5991   5.7137108974e+01   3.6565525532e+01    0.4948198    0.3396307  31.48  0.001723866    1.531    0.347
        76 -13.6978    188.2130     84.0293   3.4076080189e+01   2.7567609402e+01    0.5645972    0.4169863  42.83  0.002555259    1.750    0.429
        77 -12.2585    237.2573     80.0966   2.7687691719e+01   1.9875059007e+01    0.2732947    0.1662118 -82.58  0.001739144    1.948    0.487
        78 -13.9564    164.1832     71.6136   3.5004452811e+01   3.4195212543e+01     1.035722    0.7221779 -75.93  0.005817658    1.540    0.351
        79 -14.5056    169.1537     77.1967   3.5456111942e+01   3.2321434155e+01     1.308323    0.5184366  54.03  0.004518367    2.541    0.606
        80 -12.3289    158.4539     83.4962   3.8642563206e+01   3.3462016414e+01    0.3961438    0.2549741  66.66  0.001121368    1.621    0.383
        81 -12.9359    161.0712     80.3438   3.7475312027e+01   3.3447676661e+01    0.3967025    0.3494053  39.82  0.001453776    1.376    0.273
        82 -10.5085    125.3446     84.3144   4.5616849813e+01   4.0258023724e+01    0.1407985    0.1113617  16.94 0.0003187621    1.712    0.416
        83 -10.6814     97.9753     84.3028   5.2887534365e+01   4.6025462964e+01    0.2170697     0.178638  39.07  0.001150311    1.153    0.133
        84 -13.0621    100.1517    238.8902   8.2487316205e+01   9.7453871361e+00     1.074708    0.4254364  31.13  0.004389674    2.148    0.534
        85 -13.1577     65.7105     49.3898   5.2849444709e+01   5.8621820494e+01     0.731581    0.6863672 -88.20  0.004558409    1.335    0.251
        86 -13.2501     92.4301     57.4160   4.6676395624e+01   5.1871244816e+01    0.4853674     0.451537  -6.60  0.001564279    1.234    0.190
        87 -12.8295     54.5346     81.1780   6.7497159229e+01   5.4762859941e+01    0.5825512    0.5018542 -24.16  0.002472917    1.180    0.153
        88 -13.9469     61.4361     75.6051   6.3028199173e+01   5.4752592350e+01    0.7390171    0.5905526 -18.33  0.002607679    1.365    0.268
        89 -13.5234     87.4361     65.1628   5.0553113414e+01   5.1664286894e+01    0.9644293    0.5690208  23.09  0.003392281    2.596    0.615
        90 -13.0889     70.9182     75.3286   5.9295128759e+01   5.3095669216e+01    0.5504315    0.3874368  11.24  0.001110899    1.759    0.431
        91 -12.3584     77.1600     73.1038   5.6375719155e+01   5.2325694257e+01    0.5521518    0.3754802 -11.48  0.002490783    2.169    0.539
        92 -13.1845    216.4013     80.7537   2.9940912512e+01   2.3098197744e+01    0.6037277    0.4393553 -39.38  0.003925578    1.434    0.303
        93 -11.7492    114.0833     79.9989   4.7253330722e+01   4.3432395798e+01    0.4016116    0.3313963 -59.51   0.00179095    1.309    0.236
        94 -12.4363    135.5118     79.2885   4.2078851970e+01   3.8965709262e+01    0.6773233     0.308754  58.04  0.002758066    2.230    0.552
        95 -10.7487     42.5246     79.4806   7.2240962416e+01   5.6926110771e+01     0.276959    0.1891305 -26.60 0.0009637043    1.566    0.361
        96 -10.9399     41.5465     75.9633   7.1680841746e+01   5.7814545462e+01    0.2756788    0.2250164 -44.73 0.0006155264    1.302    0.232
        97 -11.6978     60.4427    245.8833   9.3493965988e+01   1.2840438328e+01    0.2863458    0.1711579   2.34  0.001337637    1.961    0.490
        98 -14.1640      4.9093     63.1868   8.6951095086e+01   6.4406619829e+01    0.9273084    0.6384323  -6.48  0.005222667    1.304    0.233
        99 -10.2704     97.3215     78.6849   5.1511359365e+01   4.7214081116e+01    0.1445555    0.1123187  81.79 0.0004821896    1.659    0.397
       100 -11.4125     27.0450     75.8368   7.8562039022e+01   5.9662808727e+01    0.3360776    0.2479207  57.01  0.001706583    1.885    0.469
       101 -10.0238     98.2668     75.3025   5.0273669553e+01   4.7630155423e+01    0.1359277    0.1103954  11.14 0.0006932975    1.525    0.344
       102 -13.6387    199.0718     70.0503   2.9908377465e+01   2.7680739027e+01    0.6068392    0.4167884  48.15  0.002575647    1.894    0.472
       103 -12.7280    210.0993     76.4368   2.9850545291e+01   2.4798847806e+01    0.3534366    0.2255394 -53.47  0.002239005    1.311    0.237
       104 -10.2892    117.6068     72.2307   4.4289492175e+01   4.4016946142e+01    0.1767533    0.1356744 -30.24 0.0007457874    1.553    0.356
       105 -12.4816    134.8076     66.2378   3.8942482032e+01   4.1239854557e+01    0.5110399    0.3882151  40.74   0.00285245    1.501    0.334
       106 -11.9210     38.8975     67.7608   7.0469363674e+01   5.9881104404e+01    0.5731314     0.209372  32.31    0.0022048    2.446    0.591
       107 -11.4072     99.7348     65.0400   4.6890245555e+01   4.9080090645e+01    0.2898363    0.2356182 -85.18  0.001329082    1.494    0.331
       108 -12.9313     79.0529     60.2009   5.1721717776e+01   5.4221642285e+01    0.6372366      0.45556 -47.72  0.003288921    1.620    0.383
       109 -11.5686    199.8530     61.8164   2.8226471378e+01   2.8705378083e+01    0.2033475    0.1716555 -71.85  0.001115827    1.068    0.064
       110 -13.3919    177.8100     57.5807   3.0001921455e+01   3.3501764754e+01    0.6916798    0.4405208 -57.64  0.002345637    1.451    0.311
       111 -12.0841     38.4990     59.4939   6.8028935693e+01   6.1556484484e+01    0.3227069    0.2559509  60.35  0.001747556    1.787    0.441
       112 -12.0508     36.6135     54.1882   6.7168190023e+01   6.2818481036e+01    0.4871437     0.383312  13.80  0.002834013    1.111    0.100
       113 -10.9244     35.6909     57.6585   6.8796135964e+01   6.2305133030e+01     0.219342    0.1777876  -7.70 0.0009116522    1.174    0.148
       114 -11.5989     24.8569     59.0147   7.4798816957e+01   6.3437498907e+01     0.431505    0.2758347 -45.94  0.001975491    1.604    0.377
       115 -12.2605    135.8922     50.6235   3.4756841474e+01   4.3289683657e+01    0.4856076    0.3652392  59.69  0.001894721    1.231    0.187
       116 -13.8413    100.7605     49.4549   4.1978165639e+01   5.1246776351e+01     1.158564    0.6536459  66.27  0.005406461    1.914    0.477
       117 -11.5342    111.1623     58.8000   4.2130343335e+01   4.7576094666e+01    0.2287291    0.1774121  55.66 0.0003931873    1.152    0.132
       118 -14.3072    120.2716     54.8404   3.8949251996e+01   4.6149456059e+01    0.8276925      0.50292  46.62  0.004204029    1.637    0.389
       119 -11.6527    248.3214     54.6946   2.2594119932e+01   2.1596848957e+01    0.2900279    0.1190658 -58.24   0.00170682    2.076    0.518
       120 -11.0716     34.6413     60.6927   7.0309486500e+01   6.1869135824e+01    0.2437652    0.1797375   6.55  0.001159408    1.283    0.221
       121 -11.3298     17.7032     55.4415   7.7578528677e+01   6.4931913374e+01    0.2992255    0.2056087 -52.14  0.001657525    1.591    0.371
       122 -10.4675     23.5313     49.9674   7.2555403036e+01   6.5337272061e+01    0.1771091    0.1248427 -41.81 0.0004464367    1.483    0.326
       123 -10.9657    249.2401     48.5677   2.1558340634e+01   2.2222625551e+01    0.1200355   0.08711054  68.18 0.0009549005    1.686    0.407
       124 -12.4552    152.7722     46.6935   3.1031406977e+01   4.0152570144e+01     0.560922    0.1894343  54.94  0.002219698    2.791    0.642
       125 -12.5517    158.7021     42.9246   2.9310293842e+01   3.9380779388e+01    0.4642355    0.3291016  73.00  0.002260143    1.255    0.203
       126 -11.0878     29.8519     46.7209   6.8000930983e+01   6.5113048183e+01    0.2445957    0.1630276 -23.19 0.0007692194    1.591    0.371
       127 -10.5469     38.7231     45.9682   6.3208960631e+01   6.3944339444e+01    0.1803199    0.1575046   2.51  0.000458924    1.096    0.088
       128 -13.2396    205.2420     40.2327   2.3599222641e+01   3.0545634478e+01    0.9727875    0.3900215 -89.21  0.003955264    4.322    0.769
       129 -12.7325    212.9656     43.0047   2.3427741514e+01   2.8821450486e+01    0.3734353    0.2426461  63.85  0.001996192    1.707    0.414
       130 -13.5814    219.5504     41.4777   2.2605774798e+01   2.7865841683e+01    0.5051697     0.324581 -84.67   0.00207406    1.407    0.289
       131 -13.5214    172.0606    242.5005   6.6129578532e+01   6.2980085436e-01    0.6836666    0.4425997   7.04  0.003962738    1.400    0.286
       132 -12.1706    147.3553    239.0026   7.1028669925e+01   4.0376362868e+00    0.2281408    0.1768542  38.01 0.0009793241    1.529    0.346
       133 -11.7357     16.4670    235.6502   1.0398348467e+02   1.9548255685e+01    0.2754875    0.1673281  68.40  0.001420354    1.714    0.417
       134 -13.2031      6.2748     42.9244   8.0344280992e+01   6.8429453256e+01     1.006236    0.3788144  19.65  0.004462146    2.343    0.573
       135 -10.6340     25.4942     44.6456   6.9601014043e+01   6.6058707926e+01    0.2335503    0.1080248  28.11  0.001078604    1.889    0.471
       136 -10.8941    178.9359     42.7245   2.6745362303e+01   3.5249622079e+01    0.1635236    0.1284388 -88.10 0.0003426042    1.079    0.073
       137 -11.8197    135.0499     39.3479   3.2011073013e+01   4.4954737775e+01    0.3890191    0.2265307  73.25  0.001227973    1.609    0.379
       138 -12.5515    131.6748     33.2284   3.0982845273e+01   4.6446310067e+01    0.3745649    0.3449071  66.51   0.00142558    1.196    0.164
       139 -12.3678    109.8514     41.9525   3.7580502981e+01   5.0248020148e+01     0.462955    0.1959192  59.79 0.0006561501    2.078    0.519
       140 -13.7958    122.2054     36.9024   3.3630047409e+01   4.8117764255e+01    0.8432457    0.4282981  46.57  0.002996574    2.097    0.523
       141 -12.7474    113.6314     37.8877   3.5593462601e+01   4.9918875046e+01    0.3944446    0.2778859  65.16  0.001329595    1.220    0.180
       142 -12.9410     43.5309     33.2983   5.6048169381e+01   6.5124479334e+01      1.00097    0.4733034  38.05  0.004796367    1.775    0.437
       143 -12.1469     40.8262     40.4529   6.0121009482e+01   6.4506101130e+01    0.5307325    0.2847852  33.59   0.00264433    1.599    0.374
       144 -12.5407     32.8885     40.1288   6.3954863871e+01   6.5798357927e+01    0.3625937    0.2357561  23.32  0.000559083    1.337    0.252
       145 -12.4846     75.8945     37.0491   4.5028161693e+01   5.8323942915e+01    0.4847613    0.2663651  50.26  0.001407013    1.523    0.343
       146 -11.7809     71.1333     36.3583   4.6334586921e+01   5.9408899037e+01    0.2947463     0.234393  64.34  0.001228172    1.340    0.253
       147 -12.8626    242.0378     35.9644   2.0044933248e+01   2.4842273395e+01    0.4225211    0.2327501  83.19  0.001986971    1.798    0.444
       148 -10.7838    104.4458     36.7286   3.7241766029e+01   5.2122257844e+01    0.2235741    0.1235913 -41.37  0.001131472    2.060    0.515
       149 -13.4982     92.4822    230.0214   8.3346325110e+01   1.2621670914e+01    0.6642378    0.5698512   8.25  0.003794858    1.058    0.055
       150 -12.5881     23.3837    216.3573   1.0081524650e+02   2.3557523730e+01    0.9037068    0.4322771  41.09  0.004023411    1.888    0.470
       151 -13.4558     26.5557    225.9544   1.0068959457e+02   2.0922921750e+01    0.9127221    0.4238636 -50.76  0.003961679    2.391    0.582
       152 -13.7379     20.6397    224.0167   1.0212697662e+02   2.1931028650e+01    0.7735466    0.6757786  11.71  0.003688941    1.190    0.160
       153 -13.1158     65.2846    223.1920   8.9861936800e+01   1.7493475287e+01    0.9804688    0.7985238  31.04  0.005391194    1.118    0.106
       154 -13.2834    218.1353     28.7426   2.0491156443e+01   2.9622001892e+01     0.432726    0.2464338 -73.36  0.002930488    1.511    0.338
       155 -11.9658     30.7606     25.5239   5.9120249512e+01   6.8336812364e+01    0.3654661    0.1957763  28.28  0.001750736    1.636    0.389
       156 -12.0741     35.6866     23.4470   5.5693694464e+01   6.7818782263e+01    0.3326203     0.243496  28.23  0.001482705    1.101    0.091
       157 -12.7535     59.6583    212.4796   9.0215031066e+01   2.0753803290e+01    0.4870642    0.2648755 -44.67  0.001392295    2.011    0.503
       158 -10.6347      5.8029    219.3070   1.0575871983e+02   2.4317691188e+01    0.1888594    0.1558857  69.34 0.0008110052    1.145    0.127
       159 -13.5967     64.4261    214.0850   8.9048059280e+01   1.9797305081e+01    0.5595682    0.4465704  52.55  0.002950091    1.315    0.240
       160 -12.5578      4.5104    212.1618   1.0567991978e+02   2.6171563232e+01    0.5480625    0.2920444 -63.51  0.002645036    1.875    0.467
       161 -12.3047     72.4595    207.0341   8.5874711124e+01   2.0557093415e+01    0.3768411    0.2963299 -76.83  0.001917249    1.466    0.318
       162 -12.0857     57.6194    203.4639   8.9739764284e+01   2.3255896577e+01    0.5899962     0.322187  84.29  0.002213246    2.861    0.651
       163 -13.1997     16.1875    197.8715   1.0139850152e+02   2.8875673563e+01     1.169142    0.2255874 -55.57   0.00346672    4.387    0.772
       164 -11.7458     48.9035     20.1324   4.8284177187e+01   6.5854573442e+01     0.647876    0.1850906  49.90  0.002454186    3.034    0.670
       165 -11.5479     71.0901     16.5282   3.9076805867e+01   6.1734003083e+01    0.2474146     0.196356  56.79 0.0007561925    1.074    0.069
       166 -13.5815     29.8456    169.3530   9.4319856655e+01   3.5283510307e+01     1.425716    0.6795747 -33.72  0.005253335    2.635    0.620
       167 -13.1566     21.6261    166.1191   9.6694293712e+01   3.6901789017e+01    0.6143588    0.3499288 -12.31  0.001851195    2.190    0.543
       168 -15.5484      7.8996    181.9843   1.0260883334e+02   3.3693361796e+01     2.509845     1.741795 -79.59   0.01291826    1.404    0.288
       169 -13.5682     39.6797    195.4138   9.4165661236e+01   2.7324249690e+01    0.9035609    0.4298527  39.36  0.003697142    1.984    0.496
       170 -11.4353    200.9925    191.3331   5.2195401172e+01   6.4998226390e+00    0.2685999    0.2137556   3.41  0.001347606    1.283    0.220
       171 -10.7781     80.6007    192.5814   8.1469297772e+01   2.3119470745e+01    0.2975602    0.1127708  37.07  0.001031074    2.454    0.593
       172 -14.3767     15.3059    174.7467   9.9652481973e+01   3.5076091080e+01     1.459052    0.7294298  61.88  0.005801302    2.420    0.587
       173 -11.5089     48.7638    181.5151   8.9686911041e+01   3.0016195066e+01    0.4369183    0.2241159 -44.23  0.001735862    2.081    0.519
       174 -11.4300    198.6683    181.6122   5.0942577863e+01   8.5610364302e+00    0.2283815    0.2034549  50.58   0.00141357    1.489    0.328
       175 -12.1236    124.2147    167.2664   6.4676228694e+01   2.2728761198e+01    0.5154228    0.3329309 -84.15  0.001922342    2.998    0.666
       176 -11.8024    112.0839    156.9538   6.5962274061e+01   2.7194109694e+01    0.4282384    0.3209433  81.52  0.001893147    1.958    0.489
       177 -12.2938     76.8891    156.7781   7.6652965263e+01   3.2900326392e+01    0.8966641     0.575819  31.01   0.00371923    1.499    0.333
       178 -13.1396     73.5104    153.4813   7.7151318636e+01   3.4262052903e+01    0.8022382    0.5868329  19.77  0.002687232    1.371    0.271
       179 -11.3861     85.5934    153.4418   7.3218876225e+01   3.2425033405e+01    0.5093541    0.2176735 -42.22  0.001728481    2.612    0.617
       180 -11.7164     60.9761    152.0764   8.1132836359e+01   3.6405830911e+01    0.2428923     0.222211 -52.62            0    1.110    0.099
       181 -12.0297     60.6054    147.5459   8.0449777804e+01   3.7661763813e+01    0.4777183    0.3406929  -5.48  0.002122923    1.623    0.384
       182 -12.1743      9.6794    149.5934   9.9012939970e+01   4.2319960342e+01    0.6936379    0.3337758  -2.35   0.00273155    2.511    0.602
       183 -13.4640     57.5376     26.8176   4.7596238697e+01   6.3377782436e+01      1.08044    0.3377716  47.24  0.004306387    2.564    0.610
