#   1 NUMBER                 Running object number                                     
#   2 MAG_AUTO               Kron-like elliptical aperture magnitude                    [mag]
#   3 X_IMAGE                Object position along x                                    [pixel]
#   4 Y_IMAGE                Object position along y                                    [pixel]
#   5 X_WORLD                Barycenter position along world x axis                     [deg]
#   6 Y_WORLD                Barycenter position along world y axis                     [deg]
#   7 A_WORLD                Profile RMS along major axis (world units)                 [deg]
#   8 B_WORLD                Profile RMS along minor axis (world units)                 [deg]
#   9 THETA_WORLD            Position angle (CCW/world-x)                               [deg]
#  10 FWHM_WORLD             FWHM assuming a gaussian core                              [deg]
#  11 ELONGATION             A_IMAGE/B_IMAGE                                           
#  12 ELLIPTICITY            1 - B_IMAGE/A_IMAGE                                       
         1 -13.5065    157.0286     51.4247   8.6105187561e+01   3.9160069260e+01     1.738724     1.289247  19.59  0.005603683    1.576    0.366
         2 -13.4841    167.8437     35.2632   7.8805292774e+01   3.8642450603e+01    0.9850609    0.9238169   6.30  0.003375459    1.094    0.086
         3 -12.9291    182.8968      4.1138   6.6839899070e+01   3.8106038591e+01     1.024292    0.5230525  67.17  0.004106951    1.774    0.436
         4 -10.5442     20.1101    238.3809   1.5019141262e+02   2.4832608790e+01    0.1231621   0.07752803  63.13 0.0001749854    1.140    0.123
         5 -19.7789     62.5158    164.3394   1.3642074901e+02   3.4011666189e+01     18.25221     3.995236 -65.84   0.06015141    4.615    0.783
         6  -9.4768    170.0926    205.2651   1.2044146411e+02   8.9139054087e+00    0.1730268     0.145918  45.30 0.0003674103    1.074    0.069
         7 -13.1889    193.8652    193.9017   1.1408536880e+02   6.3589345285e+00     1.028349    0.7009066 -61.84  0.004036499    2.360    0.576
         8 -10.3542    178.0373    197.0057   1.1759026758e+02   8.7703026574e+00    0.2721767    0.2301186  80.27  0.001376232    1.553    0.356
         9 -11.1160    180.2548    193.5278   1.1657330475e+02   8.9085729394e+00     0.430755    0.2696317 -57.86  0.002060227    2.283    0.562
        10 -10.5338    177.5493    189.5109   1.1638629191e+02   1.0044968755e+01    0.2310262    0.1971442  24.12 0.0007819368    1.130    0.115
        11  -9.8429    123.3820    197.0116   1.2819019606e+02   1.8396850023e+01    0.2205059    0.1676908  35.42  0.001178746    1.375    0.273
        12  -9.5373    169.6236    195.2665   1.1889829940e+02   1.0575411740e+01    0.1627301    0.1243261 -30.69 0.0009114867    1.524    0.344
        13 -10.0147    158.2811    193.7841   1.2084489929e+02   1.2877301283e+01    0.2229725    0.1845609  83.58 0.0007438542    1.487    0.328
        14 -11.1131    135.9445    196.8806   1.2570197692e+02   1.6293044627e+01    0.3695215    0.2569417  86.19  0.001969087    1.978    0.494
        15 -11.4987    207.5074    183.5117   1.0965018853e+02   5.3860970901e+00    0.3616953    0.2965164  26.83  0.001192659    1.076    0.071
        16 -11.7057    210.4954    181.5284   1.0872343643e+02   5.1224673380e+00    0.4249813     0.300292 -15.19  0.001782545    1.545    0.353
        17 -10.0910    124.0461    185.4789   1.2636533966e+02   2.0412308447e+01    0.1984757    0.1166369  45.33  0.000645305    1.544    0.352
        18  -9.4628    220.3890    228.9086   1.1526907873e+02  -2.7744345505e+00    0.2726335   0.09211686 -46.31 0.0009413403    6.555    0.847
        19  -8.9203    157.3091    184.6594   1.1950230812e+02   1.4616137216e+01    0.1334015    0.1024662  78.55 0.0007044186    1.690    0.408
        20  -9.2681    184.6766    228.3209   1.2130980454e+02   3.1172599460e+00    0.1140209   0.08757961  64.77 0.0005047264    1.677    0.404
        21 -10.5799    197.8464    176.4009   1.1007352418e+02   8.2914270725e+00    0.3549096    0.2754166 -54.14  0.001611209    1.647    0.393
        22  -9.7953    145.5190    178.4971   1.2082463869e+02   1.7897552583e+01    0.1341747     0.122965  47.69   2.3366e-05    1.024    0.023
        23  -9.4014    211.5855    201.7909   1.1226871618e+02   2.0712747594e+00    0.1553207    0.1194661 -43.05 0.0006181453    1.622    0.383
        24 -11.2497    139.5087    173.5265   1.2120683295e+02   1.9930761715e+01    0.2689825    0.2243725  76.69  0.001001662    1.305    0.234
        25 -11.2465    137.4877    170.5139   1.2110211549e+02   2.0876951405e+01    0.2707433    0.2471759  13.19  0.001035353    1.264    0.209
        26 -10.3488    205.2855    170.6756   1.0754031336e+02   7.7512892451e+00    0.2206465    0.2048011  79.34  0.001070755    1.397    0.284
        27 -10.5347    226.4716    168.7012   1.0329642746e+02   4.0030749055e+00    0.4452158    0.2084214 -52.10   0.00150826    4.624    0.784
        28 -10.8714    145.5225    168.4872   1.1903928461e+02   1.9765403946e+01    0.2826781    0.2758741 -47.37 0.0009728926    1.106    0.096
        29  -9.7566    142.6749    167.6835   1.1949356289e+02   2.0454754789e+01    0.2088659    0.1777846 -27.08 0.0006625591    1.380    0.275
        30 -10.6704      6.1731    221.2449   1.5149783532e+02   2.9088060730e+01    0.1750951   0.09765395 -62.93  0.001241542    2.154    0.536
        31 -10.2333     25.5099    165.6865   1.4438972517e+02   3.7857603028e+01    0.2464121    0.1837132  12.71  0.001080406    2.166    0.538
        32  -9.7647    200.3360    164.3174   1.0717168555e+02   9.7277363085e+00    0.2415671    0.2335394  71.43  0.001409277    1.246    0.197
        33 -10.7674      6.4583    250.7254   1.5272231462e+02   2.4205107474e+01   0.09406948   0.05399973  62.35 0.0007583754    1.188    0.158
        34 -10.7538     15.4299    150.4685   1.4513030553e+02   4.1962166405e+01    0.2855939    0.1866365 -38.49  0.001642633    2.288    0.563
        35 -11.5355     14.7355    146.5786   1.4492186630e+02   4.2846291592e+01    0.2089745     0.146632 -78.32 0.0006016057    1.128    0.113
        36 -11.9539    133.9168    145.0828   1.1702083787e+02   2.6609165849e+01     1.032528    0.2921137 -54.15  0.002880403    4.829    0.793
        37  -9.8935    174.6382    148.5201   1.0890205490e+02   1.7691675225e+01    0.3141824    0.2218507 -59.01  0.001158509    1.770    0.435
        38  -9.3223    122.0101    218.9707   1.3132695362e+02   1.4821027747e+01    0.1806901      0.13648  66.72 0.0003759615    1.264    0.209
        39 -11.9037     10.5266    110.9920   1.4207894850e+02   5.0891292637e+01    0.4933886     0.245436   4.83  0.002421444    3.727    0.732
        40 -12.5793      5.0271    140.1865   1.4647682982e+02   4.4967329955e+01    0.6988856    0.5157329 -68.47  0.001687105    1.246    0.197
        41 -12.6378      2.7789    127.2343   1.4579345371e+02   4.7894821545e+01     1.261623     0.479488 -82.15  0.006249151    2.324    0.570
        42 -12.7806      2.8547    114.1792   1.4442684592e+02   5.0710962598e+01    0.9244526    0.3400707 -81.57  0.004343652    2.551    0.608
        43 -11.3860    143.8193    145.6718   1.1491392631e+02   2.4548573949e+01    0.4434876    0.3023594 -83.70  0.001906188    2.347    0.574
        44 -11.8838    115.7163    139.4423   1.2009530910e+02   3.1197027139e+01    0.5046588    0.3281536 -43.03   0.00244811    1.634    0.388
        45 -11.9039     20.1795    141.1317   1.4316819830e+02   4.3552624637e+01    0.2354529    0.1968698 -88.66 0.0009873282    1.095    0.087
        46 -12.2213    106.0073    139.4270   1.2241001839e+02   3.2912738536e+01    0.4197834     0.288644  53.50  0.002145881    1.496    0.331
        47 -11.0610    119.4040    215.6029   1.3139573156e+02   1.5795216013e+01    0.3539332    0.2214086  82.01  0.001903892    2.204    0.546
        48  -9.8388     25.8444    232.3240   1.4899678933e+02   2.5247627493e+01   0.09652589   0.07578319  61.07 -0.000275831    1.272    0.214
        49 -11.0234    108.8070    125.8803   1.1892432366e+02   3.5362282573e+01    0.2973326    0.2732574 -36.98 0.0006592134    1.159    0.137
        50 -11.5676    119.7685    129.8049   1.1708810049e+02   3.2507196073e+01    0.3823327     0.350017  89.18  0.001317301    1.118    0.106
        51 -11.2548    135.5554    122.9383   1.1171915765e+02   3.0855404217e+01    0.6110559    0.1739066 -48.87  0.001810248    3.742    0.733
        52 -12.1038    105.8599    130.6824   1.2068053455e+02   3.4837061685e+01    0.5656075    0.4041756  83.70  0.001992226    1.833    0.454
        53 -10.5981    160.7190    128.1428   1.0721121652e+02   2.4501313374e+01    0.3418092    0.2679707 -66.04  0.001459604    1.540    0.351
        54 -10.4877    113.9714    118.9574   1.1606604059e+02   3.5918681554e+01    0.2151943    0.2077901 -68.14 0.0003518922    1.007    0.007
        55 -10.7727    171.6285    117.2666   1.0216823264e+02   2.4168397303e+01    0.4490311    0.3164155  86.97  0.001680803    2.322    0.569
        56 -11.6051    125.4186    126.8989   1.1507147746e+02   3.2045372471e+01    0.6006492    0.3848225  82.44  0.002324167    2.852    0.649
        57  -7.0305     33.2059    211.3915   1.4651388604e+02   2.8134451626e+01   0.09449103   0.06775591 -65.93 0.0006805668    1.608    0.378
        58 -10.0282    205.6461    110.1126   9.3601440173e+01   1.7663033154e+01    0.2838178     0.215433  41.13 0.0006617368    1.336    0.251
        59 -10.0831    165.7130    207.3538   1.2158862549e+02   9.3619899300e+00    0.2551132    0.1983949  61.47  0.000783961    1.399    0.285
        60  -9.9596    134.5201    102.9667   1.0690944694e+02   3.5173592452e+01    0.2362998    0.1458267 -43.13 0.0008259082    1.585    0.369
        61  -9.1140    124.4277     94.7821   1.0719786883e+02   3.8949803709e+01    0.2015576    0.1394643 -31.10 0.0002947239    1.536    0.349
        62 -10.5520    164.7099    204.3656   1.2131074809e+02   1.0005803309e+01    0.3242819    0.2199201 -77.93  0.001326544    2.564    0.610
        63  -9.4153     13.5087     59.9029   1.3239315959e+02   6.1742174210e+01    0.1761832   0.09134298 -60.38 0.0004035604    1.499    0.333
        64 -12.0375     13.7021    248.3356   1.5159548193e+02   2.3873371692e+01    0.1558676    0.1103825  73.19  0.001371766    1.105    0.095
        65  -9.4998    163.5411    239.9676   1.2657522797e+02   5.0144709759e+00    0.1406612    0.1167172 -44.03 0.0004320004    1.532    0.347
        66 -12.4557    171.7711     27.5783   7.5681553088e+01   3.8566221021e+01    0.5468985    0.4198863  -1.21  0.001398631    1.481    0.325
        67 -10.5099    129.6058    206.0934   1.2824420074e+02   1.5761821166e+01    0.2547212    0.1566275  30.09  0.001336138    1.941    0.485
        68 -10.7724    189.5302     14.9861   6.9276802869e+01   3.5360466471e+01     0.223607     0.183717  71.24 0.0007317228    1.156    0.135
