#   1 NUMBER                 Running object number                                     
#   2 MAG_AUTO               Kron-like elliptical aperture magnitude                    [mag]
#   3 X_IMAGE                Object position along x                                    [pixel]
#   4 Y_IMAGE                Object position along y                                    [pixel]
#   5 X_WORLD                Barycenter position along world x axis                     [deg]
#   6 Y_WORLD                Barycenter position along world y axis                     [deg]
#   7 A_WORLD                Profile RMS along major axis (world units)                 [deg]
#   8 B_WORLD                Profile RMS along minor axis (world units)                 [deg]
#   9 THETA_WORLD            Position angle (CCW/world-x)                               [deg]
#  10 FWHM_WORLD             FWHM assuming a gaussian core                              [deg]
#  11 ELONGATION             A_IMAGE/B_IMAGE                                           
#  12 ELLIPTICITY            1 - B_IMAGE/A_IMAGE                                       
         1 -10.5400     41.0535     13.8220   3.5233858277e+01   7.2187049273e+01    0.2475213    0.2025764  23.19 0.0002360522    1.157    0.136
         2  -9.4774     97.7956     12.0379   1.3523190185e+01   5.9038825464e+01    0.3001384    0.2000232  -5.42  0.001353651    1.813    0.449
         3  -8.1590     65.0128      5.0111   1.8543612868e+01   6.8027212998e+01    0.1607585    0.1479369  36.72 0.0003218931    1.023    0.022
         4  -9.4751     67.5297      1.3676   1.5473343491e+01   6.7757497632e+01    0.2414154    0.1207876  64.27 0.0005891112    1.848    0.459
         5  -9.7406    107.4859    247.4791   6.8948355250e+01   1.0952763609e+01    0.2621459    0.2032245  84.80  0.001294349    1.901    0.474
         6  -8.8418    214.1601    250.1296   4.9292501909e+01  -1.4011315673e+00    0.1681749    0.1031001   4.36  0.001168202    1.256    0.204
         7  -8.5169    205.6798    250.3240   5.0722004251e+01  -5.5950421973e-01   0.09038249   0.07417846  27.24 0.0007045857    1.676    0.404
         8 -10.1224    161.5121    248.9969   5.8416452210e+01   4.4206281274e+00    0.6987497    0.2977462 -55.35   0.00320053    4.871    0.795
         9  -9.9223    169.6394    224.9050   5.3728540369e+01   6.6822881597e+00    0.3652656    0.2129789  46.99  0.001862583    2.453    0.592
        10 -11.0528    173.8862    245.1565   5.5637551106e+01   3.4959537590e+00    0.5306231    0.3870874 -34.92  0.003881658    1.644    0.392
        11 -10.4992    168.8384    233.6780   5.5083268744e+01   5.5769428180e+00    0.4992943    0.3491936  13.29  0.003008008    1.141    0.123
        12  -9.5889    161.0699    231.5531   5.6294892237e+01   6.8115747212e+00     0.446238    0.1967636  33.24  0.001967193    1.887    0.470
        13 -11.1091    162.3490    225.6576   5.5249536796e+01   7.4864430258e+00    0.4011873    0.2662936  13.91  0.002472085    1.301    0.231
        14 -10.8526    166.7241    248.2143   5.7345997017e+01   3.9256249802e+00    0.4468224    0.2235284  27.16  0.002464497    1.550    0.355
        15 -10.9947    167.3528    242.1703   5.6471916684e+01   4.6288224292e+00    0.4828739    0.2831598  24.05  0.001968801    1.332    0.249
        16  -9.9061     37.4417    249.1292   8.3667423676e+01   1.8289879724e+01     0.210243    0.1506733  48.62 0.0005383855    1.100    0.091
        17 -11.0403     19.0800    247.8799   8.7379132377e+01   2.0210740167e+01    0.4997704    0.2070419  54.28  0.002909473    1.897    0.473
        18 -10.0012     13.0021    250.1840   8.8671356654e+01   2.0346462366e+01    0.2986934    0.1216287  28.89  0.001614728    1.900    0.474
        19  -9.6425      3.9684    249.1862   9.0442434990e+01   2.1277384021e+01     0.231139      0.12351  51.77 0.0006243664    1.355    0.262
        20  -9.6355      1.7397    245.1120   9.0802271598e+01   2.2165760909e+01    0.2049858    0.1322717  73.70  0.001138114    1.452    0.311
        21 -10.8944     73.5113    244.5401   7.5824268054e+01   1.5311510961e+01    0.2721359    0.1982029  25.88 0.0007460575    1.191    0.160
        22 -10.7392      7.9737    240.6724   8.9440053996e+01   2.2438440257e+01    0.2674679    0.2108801  80.09  0.001157369    1.340    0.254
        23  -9.3363    250.4889    241.5319   4.2481048631e+01  -4.0100783549e+00    0.2009906   0.07826518 -31.95 0.0007282199    2.393    0.582
        24  -9.2076    248.9831    237.5187   4.2129956452e+01  -3.4787607177e+00    0.1570587    0.1013497 -11.14  0.001249612    1.162    0.140
        25 -10.4415    237.6840    240.3325   4.4221645302e+01  -2.6950005171e+00     0.332725    0.1992499  30.26  0.002439281    1.818    0.450
        26 -10.3487     98.0244    241.4832   7.0363589481e+01   1.3005051356e+01    0.3283149    0.1869187  25.54  0.000992423    1.451    0.311
        27  -8.5879    221.0280    240.0054   4.6788908317e+01  -1.0120565062e+00    0.1360233    0.1152171  16.37 0.0005214175    1.615    0.381
        28 -10.5149    107.7383    238.2597   6.7993576149e+01   1.2363811176e+01    0.3448272    0.2670483 -59.84  0.002376973    1.673    0.402
        29  -9.0658     16.2784    237.8578   8.7635585639e+01   2.2232990164e+01    0.3179358   0.08887715  48.21  0.001553083    2.401    0.583
        30  -8.6673    154.3046    238.3510   5.8489808331e+01   6.6873483868e+00    0.1183888   0.07507669  -1.60 0.0007041211    1.704    0.413
        31 -10.9398     90.7619    231.1045   7.0963917355e+01   1.5602038425e+01    0.5468814    0.2528207 -53.60  0.002869282    2.592    0.614
        32 -11.3079     87.8732    227.6357   7.1278109925e+01   1.6555996483e+01    0.6229538    0.3473637 -55.20  0.003533431    2.155    0.536
        33 -11.9368     98.5296    225.5238   6.8692304387e+01   1.5621030651e+01     0.634961    0.4891813  57.85  0.001576084    1.444    0.307
        34 -11.7018     95.8837    218.0181   6.8499888674e+01   1.7290525456e+01    0.6478213    0.3332635  36.59  0.001948688    1.576    0.365
        35 -10.1877     99.9779    217.4615   6.7504329702e+01   1.6869473716e+01    0.2778437    0.1947708  51.23 0.0006261386    1.471    0.320
        36  -9.9642    231.2441    234.3829   4.4364770595e+01  -1.4425116879e+00    0.2298698    0.1579652  -0.44 0.0007614778    1.016    0.016
        37  -9.5409    242.8529    223.8759   4.1034171055e+01  -1.4852325512e+00    0.2160775    0.1093418 -20.38  0.000541225    1.653    0.395
        38 -10.7349    238.1768    230.2715   4.2694249138e+01  -1.6986149124e+00    0.3248972    0.2000364   4.79  0.001689636    1.244    0.196
        39  -9.8017    131.0000    227.9702   6.1929642942e+01   1.1112223519e+01     0.193713    0.1786589  52.38 0.0005312821    1.375    0.272
        40 -11.8243    126.1729    221.4798   6.2159554919e+01   1.2778582769e+01    0.4971522    0.4479886  11.49 0.0009095973    1.129    0.114
        41 -10.3299    114.6275    221.1152   6.4634719501e+01   1.4338950347e+01    0.2703522    0.2648951  85.31  0.001111311    1.282    0.220
        42  -9.5571    104.8446    225.8712   6.7329111565e+01   1.4771901222e+01    0.1913919    0.1519547  32.79 0.0004612566    1.048    0.046
        43 -10.0565    108.4556    222.8308   6.6196491597e+01   1.4837454190e+01    0.3199533    0.2106593  -3.76  0.001509848    2.010    0.502
        44  -9.9010    181.6117    226.1151   5.1638305260e+01   5.0497020524e+00    0.2489927    0.1478692  33.20  0.001183903    1.573    0.364
        45  -8.8368     65.6635    227.3254   7.6245086484e+01   1.9209359491e+01    0.1307575   0.07096994  52.00 0.0007051413    1.720    0.419
        46  -9.6131    174.2153    222.6630   5.2534408967e+01   6.4251883795e+00    0.1559455    0.1294755   6.31  0.001113364    1.121    0.108
        47  -8.5882     60.3178    223.6266   7.7180233258e+01   2.0498112568e+01    0.1332474   0.07117876  54.57 0.0002243774    1.799    0.444
        48  -8.8214    144.9282    227.5285   5.8987783279e+01   9.4108823231e+00    0.1804934   0.09707279  27.93 0.0004167641    1.516    0.341
        49  -9.3199    157.5814    221.3516   5.5599721314e+01   8.7187428417e+00    0.2295973    0.1648334  11.55 0.0008285024    1.203    0.169
        50  -9.7179    213.8243    220.7178   4.5157141766e+01   1.9622714515e+00    0.2585804    0.1122848  34.84  0.001441536    2.277    0.561
        51  -9.1492    128.3380    211.7220   6.0431944931e+01   1.4130069355e+01    0.1840405     0.137053  26.43 0.0004017547    1.124    0.110
        52  -8.7372    149.0630    219.7349   5.7105249641e+01   1.0066376242e+01    0.1782661    0.1638288 -26.65 0.0008654124    1.321    0.243
        53  -9.3362    152.0161    215.9685   5.5975104951e+01   1.0260309324e+01     0.320768    0.1667894  15.99  0.001576486    2.128    0.530
        54  -9.9838     75.2513    219.4002   7.3391655109e+01   1.9575136838e+01     0.272453     0.166312  40.33  0.001154216    1.335    0.251
        55 -10.6118    131.0810    215.0470   6.0273555307e+01   1.3198400323e+01    0.5316539    0.3189069 -69.66  0.002625063    2.978    0.664
        56 -10.0427    190.6467    216.1235   4.8505133421e+01   5.2811630238e+00      0.40674    0.2554587 -26.10  0.002587656    1.537    0.349
        57  -9.2333    176.2506    216.3177   5.1219865949e+01   7.0578833533e+00    0.2380365    0.1218282 -28.67  0.001281838    2.099    0.524
        58  -8.7590    143.5680    216.7079   5.7832026359e+01   1.1263087631e+01    0.2046255    0.1137366 -40.65 0.0009637596    2.013    0.503
        59  -9.2609    112.6746    212.6671   6.4055619294e+01   1.6071291365e+01    0.2634918     0.148847  -5.29  0.001084976    3.359    0.702
        60  -9.0463    115.8051    210.5942   6.3086648681e+01   1.6022314023e+01    0.2624861    0.1596402  32.33 0.0008853209    1.376    0.273
        61  -9.8991     84.5015    215.0506   7.0824857412e+01   1.9271204898e+01    0.2894051    0.1972421 -40.23  0.001670668    1.843    0.457
        62  -9.8893    202.5403    213.2991   4.5947375760e+01   4.2036240552e+00    0.2861353    0.1570854 -48.25  0.001170089    2.905    0.656
        63 -10.1457    117.7593    227.5344   6.4696745710e+01   1.2863294311e+01    0.3385386    0.2073101  38.53   0.00101611    1.414    0.293
        64  -8.5517    119.3245    215.2856   6.2887384383e+01   1.4725987022e+01    0.1244189   0.08849435   0.40 0.0005946188    1.602    0.376
        65 -10.4906     77.4989    211.6666   7.2142410210e+01   2.0785433832e+01    0.4056659    0.2874401 -35.15  0.002345711    1.834    0.455
        66  -8.6999    228.2930    214.0128   4.1765706466e+01   1.1451394727e+00    0.1563915    0.1102564  -7.82 0.0007599166    1.078    0.072
        67  -9.3569     63.2317    213.1684   7.5675459625e+01   2.2188925278e+01    0.2146794    0.1537877  23.19 0.0007815433    1.338    0.253
        68 -10.4645     17.0682    213.1832   8.6579752577e+01   2.6898751116e+01    0.2883503    0.1476991  28.75  0.001616403    1.681    0.405
        69 -10.5808    211.8573    207.8301   4.3480317560e+01   3.7868779613e+00    0.4489206    0.3127089  -4.30   0.00308711    1.170    0.145
        70  -9.5966    212.5161    203.4728   4.2665182856e+01   4.2662002990e+00    0.2762566    0.1644721  30.94  0.001569709    1.636    0.389
        71  -8.8389    236.9949    210.1936   3.9807656918e+01   6.3842601330e-01    0.1436933    0.1247068  38.84  0.001081874    2.054    0.513
        72 -10.2356    170.6385    215.2977   5.2150777923e+01   7.9237349525e+00    0.2515081    0.1914502  13.98 0.0007002931    1.060    0.056
        73 -11.0038     11.2655    207.3099   8.7712328398e+01   2.8601683627e+01    0.3260184    0.2979676  77.30  0.002189256    1.223    0.182
        74 -11.7146     14.7683    195.7712   8.6410820071e+01   3.0758836672e+01    0.7017725    0.3271308 -44.79  0.001709361    3.361    0.702
        75  -8.5005     99.2407    206.6333   6.6435960670e+01   1.8973950115e+01    0.2535912    0.1380614  73.07 0.0009555077    4.160    0.760
        76  -7.9979    224.4609    205.4890   4.1022322509e+01   2.5966634733e+00    0.1131267   0.08412194  -3.18 5.746108e-05    1.019    0.018
        77 -10.4137    162.2995    194.2896   5.0557131512e+01   1.2293733361e+01    0.3145639    0.2565676  55.75  0.001344195    1.737    0.424
        78 -11.2569    167.0694    198.5106   5.0268515343e+01   1.0942395456e+01    0.6733728    0.3045212 -38.99  0.003273418    2.301    0.565
        79 -12.0009    175.8848    185.0900   4.6256470902e+01   1.1810045258e+01    0.6013864    0.5066662 -51.97  0.002760959    1.607    0.378
        80 -10.3675    171.4787    201.0290   4.9791446741e+01   9.9407080172e+00    0.2801084    0.2354563 -39.64  0.001184658    1.449    0.310
        81 -12.2096    178.1050    196.8934   4.7821910491e+01   9.6598301077e+00    0.7894712    0.4840683 -19.52  0.002974717    1.714    0.417
        82 -11.5371    172.9616    195.5112   4.8602453037e+01   1.0586942964e+01    0.5877517     0.285733 -40.61  0.002335016    2.141    0.533
        83  -9.6878    130.3375    201.9546   5.8637638602e+01   1.5556159650e+01    0.3926726    0.2805561  84.79  0.001981016    2.622    0.619
        84 -10.5920    125.9916    196.1622   5.8787635691e+01   1.7223858462e+01    0.5124319    0.3971193 -59.92  0.001242084    1.594    0.373
        85  -9.3356    128.8527    188.3750   5.6950642797e+01   1.8254890854e+01    0.2729538    0.2619584  38.29  0.001379608    1.174    0.148
        86  -8.3793    140.6131    201.2823   5.6263055523e+01   1.4220068011e+01    0.1279901    0.0920096  51.87 0.0007005448    1.739    0.425
        87  -9.3458     61.1303    200.5682   7.5097709215e+01   2.5000643761e+01    0.3106172    0.1581141  49.10  0.001472155    1.789    0.441
        88  -8.9031    148.4915    198.4428   5.4125158021e+01   1.3582800776e+01    0.2553396    0.1923384  76.54  0.001126095    2.530    0.605
        89  -8.8695    144.6935    197.6520   5.4823558135e+01   1.4261697405e+01    0.2162793    0.1483843  14.17  0.001204084    1.428    0.300
        90  -9.3728    112.7259    198.0140   6.2146774790e+01   1.8769577272e+01     0.401109    0.1952365  55.37  0.001569479    3.271    0.694
        91  -8.9492    113.0214    194.2849   6.1561780931e+01   1.9443397362e+01    0.1945051    0.1599372  41.03  0.000342045    1.160    0.138
        92  -9.5278    105.1681    197.5069   6.3882278505e+01   1.9926355941e+01    0.2362798    0.2120937 -27.10  0.001010226    1.244    0.196
        93 -11.7052     97.9215    188.3038   6.4440130677e+01   2.2790902662e+01    0.6311772    0.4131151  65.14  0.001770095    2.009    0.502
        94  -9.7652    104.0214    189.2124   6.3043376169e+01   2.1736556643e+01    0.3198057    0.1825095  24.95 0.0008757799    1.705    0.414
        95 -10.9032     93.8044    181.8611   6.4611636117e+01   2.4729557275e+01    0.4667706    0.3152709 -29.74  0.001784692    1.914    0.478
        96  -9.3774      1.3654    197.4469   8.9753673330e+01   3.1473268468e+01    0.2755394   0.09641252  85.82  0.001229642    2.831    0.647
        97  -9.3253     37.9924    196.1597   8.0588155056e+01   2.8494177670e+01    0.3702303    0.2042438 -59.58  0.001665944    2.049    0.512
        98  -8.4378    212.5689    198.9967   4.1919844191e+01   4.8420368604e+00    0.1639117   0.09695352 -28.41 0.0004925897    1.531    0.347
        99  -9.5540    131.9514    194.9660   5.7247013122e+01   1.6579558909e+01    0.2023055    0.1679824  44.63  0.001225164    1.290    0.225
       100  -8.7901     66.4522    194.7252   7.3198544997e+01   2.5600701525e+01    0.2926192     0.143169  63.03  0.001238669    2.662    0.624
       101  -8.5286     77.2933    192.9220   7.0239982032e+01   2.4620742869e+01    0.2046496    0.1004168  83.74 0.0007025944    4.297    0.767
       102 -10.9015    183.3309    185.4409   4.4868691589e+01   1.0678484050e+01    0.3109353    0.2321481 -61.75  0.001402825    2.319    0.569
       103  -9.3314    154.7782    187.9208   5.1084650469e+01   1.4458065011e+01    0.3900917    0.2042107 -20.85  0.001633655    2.896    0.655
       104 -10.3389    138.9171    187.9048   5.4568750228e+01   1.6834603453e+01    0.4959322    0.1800615 -44.63   0.00199658    2.938    0.660
       105  -8.1808    116.9721    190.7754   6.0115847645e+01   1.9551683036e+01     0.176341   0.09910769  31.32 0.0003723725    1.577    0.366
       106  -9.7386    196.9984    182.0314   4.1720709608e+01   9.2560733687e+00    0.2057995    0.1650953 -57.98  0.001131715    2.029    0.507
       107 -10.3029    203.9628    187.8957   4.1514396187e+01   7.4581062646e+00    0.3553911    0.3128558  89.38  0.002235899    2.334    0.572
       108 -11.0091     20.2852    181.9018   8.4307915946e+01   3.3386952278e+01      0.46911    0.4339615 -46.52  0.003147571    1.337    0.252
       109 -11.1617     11.1085    186.9901   8.6959830701e+01   3.3006990674e+01    0.4793553    0.2631024  39.37    0.0017416    1.503    0.335
       110 -11.9006     12.5822    179.9878   8.6261870209e+01   3.4482256133e+01    0.6231114     0.536768 -20.65  0.003484895    1.514    0.340
       111 -11.4571      4.8407    176.9008   8.8192603624e+01   3.5799382416e+01    0.5691648    0.4010904 -75.23   0.00233896    1.456    0.313
       112 -11.0203      3.8483    169.5282   8.8173471417e+01   3.7601413704e+01    0.4016806    0.2860903 -74.56 0.0005958814    1.425    0.298
       113  -9.8988    148.7429    186.5530   5.2162377792e+01   1.5599594406e+01    0.2517222    0.1649539 -59.39   0.00127889    2.141    0.533
       114  -9.3741    165.1973    186.2166   4.8608725162e+01   1.3198175078e+01    0.1614613    0.1539854  41.01 0.0006239372    1.362    0.266
       115 -10.3483    109.5472    184.8717   6.1055739812e+01   2.1812186444e+01    0.4313807    0.3048285  28.93  0.002102648    1.282    0.220
       116 -10.3025    209.9516    185.2271   4.0011669519e+01   7.0339418482e+00    0.2447006    0.1607437  21.73  0.001518765    1.423    0.297
       117  -9.4197    212.6803    182.6471   3.9093344631e+01   7.0289518618e+00     0.197426    0.1265406   8.06 0.0009191751    1.540    0.351
       118  -8.3244    120.0000    184.5163   5.8448716351e+01   2.0324742731e+01    0.2659473   0.07821118 -53.41 0.0009155413    3.781    0.736
       119  -8.7051    228.5450    184.2281   3.6793892414e+01   4.7806214894e+00    0.1656443   0.08903871 -21.40 0.0009509321    1.656    0.396
       120  -8.9123    217.7584    183.1846   3.8343040637e+01   6.2887785201e+00    0.1695403    0.1140148  -1.11 0.0008828102    1.362    0.266
       121  -8.2036     74.3229    183.6637   6.9950133735e+01   2.7009413102e+01    0.1460258   0.09137001  58.33  0.000705075    1.713    0.416
       122  -9.8378     45.7555    181.8562   7.7441686482e+01   3.0870835507e+01    0.3828703    0.2117081 -67.38  0.001346973    1.888    0.470
       123  -8.9367     46.5008    176.4823   7.6755386021e+01   3.2034729990e+01    0.2437613     0.130169 -79.26  0.001147201    2.005    0.501
       124 -10.3662    138.7556    179.8202   5.3270685295e+01   1.8352995161e+01    0.3643936    0.2551463  62.27  0.001794794    2.149    0.535
       125 -12.0402    150.2601    163.8470   4.7777453986e+01   1.9502979304e+01    0.8273209    0.4206378 -36.05  0.003427644    2.102    0.524
       126 -10.7652    159.5492    164.5418   4.5867879800e+01   1.7837695432e+01     0.672761    0.3414984 -59.94  0.002411284    3.986    0.749
       127 -10.2948    148.1612    179.9075   5.1163908402e+01   1.6875853299e+01    0.2772227    0.2165312  30.04  0.001605636    1.185    0.156
       128 -11.4925    150.5548    174.6090   4.9701254712e+01   1.7462628606e+01    0.5896903    0.3812104  27.79  0.002032077    1.463    0.316
       129 -10.2297    105.6144    175.0061   6.0556946486e+01   2.4448588090e+01    0.3415974    0.2367457  75.15  0.001288226    2.108    0.526
       130  -9.9071    103.9821    180.0280   6.1736687800e+01   2.3634351086e+01    0.2672391    0.2040344 -58.45  0.001113869    1.462    0.316
       131  -8.8933    112.7830    179.4107   5.9426066929e+01   2.2440479976e+01    0.2001452    0.1238265  21.10 0.0009470472    1.701    0.412
       132  -8.5494    218.8509    177.8260   3.7207828109e+01   6.8727422419e+00    0.1480646    0.1285502 -21.73  0.000414466    1.325    0.245
       133  -9.9650    158.2276    176.5933   4.8386387400e+01   1.5900527066e+01    0.3851818    0.2352602 -25.90  0.001535907    1.817    0.450
       134 -10.5690    204.3765    175.5609   3.9239215581e+01   9.1687597346e+00    0.3537686    0.2385298  14.26  0.002118512    1.439    0.305
       135  -9.2486     88.9665    176.8107   6.5180481157e+01   2.6516539503e+01     0.267614    0.1728398  72.22  0.001234297    2.122    0.529
       136  -9.5626     90.4535    172.3712   6.4151171562e+01   2.7284927761e+01    0.5685618    0.2426018  22.93  0.002070372    2.876    0.652
       137  -9.6918     77.4603    175.7395   6.8131766306e+01   2.8362118605e+01    0.3418413    0.1890403  53.06  0.001314976    1.918    0.479
       138 -10.1693     29.2739    175.2208   8.1439593841e+01   3.4117958574e+01    0.3421489    0.2204346  82.13  0.001293182    1.527    0.345
       139  -9.7377     28.9309    170.0241   8.1158680626e+01   3.5389513150e+01    0.2325464    0.1829331 -89.98 0.0009614114    1.229    0.186
       140 -10.5041     23.7275    173.5459   8.2867650519e+01   3.5032275110e+01    0.4977529    0.2070494  68.42  0.002062161    2.629    0.620
       141 -11.2393    207.7207    169.4794   3.7533937236e+01   9.5814865457e+00    0.5085123    0.3479966 -54.74  0.002751149    2.390    0.582
       142  -8.3825    223.6601    172.2922   3.5428281342e+01   6.9875585866e+00    0.1010564   0.09402876 -45.41 0.0002499085    1.649    0.394
       143  -8.3308    193.2187    172.5639   4.0683936446e+01   1.1226177600e+01    0.1721506    0.1073716  19.84 0.0007603543    1.636    0.389
       144 -10.6793    178.3325    170.5020   4.3131156878e+01   1.3806910406e+01     0.363649    0.2441213  -4.68  0.001931417    1.668    0.400
       145  -9.7644    176.7731    167.9694   4.2960945166e+01   1.4469863636e+01    0.2967834    0.1695048 -24.28 0.0009658826    1.914    0.477
       146  -9.6628    135.0332    171.3232   5.2665910207e+01   2.0567988210e+01    0.2346017    0.2011624  82.62  0.001307579    1.593    0.372
       147  -8.9811    183.6325    171.6901   4.2322596873e+01   1.2800334563e+01    0.1381135   0.08991875   0.51 0.0007036997    1.761    0.432
       148 -10.3050    121.8678    169.5403   5.5544688199e+01   2.3046909431e+01    0.4184771    0.3029361  61.10  0.001312295    1.774    0.436
       149  -8.9965    121.7716    163.8036   5.4558713608e+01   2.4251231504e+01    0.3036887    0.1685907 -19.41  0.001057874    3.563    0.719
       150  -8.8296    167.9848    169.0065   4.4937623502e+01   1.5684129921e+01    0.1948096    0.1706349  84.25  0.001032734    1.773    0.436
       151  -8.5389     54.8833    169.2708   7.3665098051e+01   3.2771098577e+01    0.2541988    0.1095167  57.93  0.000947188    2.837    0.648
       152 -10.0036    184.1245    175.9485   4.3016379167e+01   1.2047244936e+01    0.3249713    0.1512269  50.13  0.001294489    3.581    0.721
       153 -11.4395    217.6210    165.5386   3.5141797849e+01   8.7469988884e+00    0.5613024    0.3351906  29.69  0.002822723    1.720    0.419
       154  -9.4572    200.0598    166.8809   3.8378148791e+01   1.1082388660e+01    0.1910585    0.1540355  -4.52 0.0004267847    1.058    0.055
       155 -10.5766    139.4704    165.3711   5.0541334399e+01   2.1004293092e+01      0.44202    0.3179692  70.04  0.001559213    2.264    0.558
       156  -9.7724     99.8711    159.8344   5.9618757379e+01   2.8667211847e+01    0.3102788    0.2878644 -29.81  0.001159787    1.152    0.132
       157  -9.8058     97.7749    164.9681   6.1038548593e+01   2.7840131580e+01    0.5230026    0.2964451  64.17  0.001268852    2.783    0.641
       158  -9.0904     92.7970    160.0173   6.1603942728e+01   2.9732029856e+01    0.2643733    0.1985962  83.69   0.00111014    1.669    0.401
       159  -8.3812     31.3182    166.3273   8.0187664728e+01   3.6053506879e+01    0.1317884   0.09839002 -38.16 0.0007046281    1.680    0.405
       160  -8.9055     80.7095    164.7448   6.5726994360e+01   3.0434830175e+01    0.2810579    0.1683028  83.78  0.001161316    2.514    0.602
       161  -9.4890     36.8238    163.6815   7.8352752373e+01   3.6147057480e+01    0.3252969    0.2301522  76.90  0.001757064    1.384    0.277
       162 -10.1282     15.2548    163.4755   8.4650165142e+01   3.8188283719e+01    0.3219161    0.1988454  35.59  0.001666261    1.475    0.322
       163 -10.1374      8.8122    160.7568   8.6371405356e+01   3.9354688500e+01    0.4984215    0.1403969  75.56  0.001540361    4.651    0.785
       164  -9.3371    177.4756    160.5191   4.1379023372e+01   1.5609664082e+01    0.2082758    0.1847618 -74.41 0.0006582973    1.667    0.400
       165  -9.8588     21.0768    161.1482   8.2798581528e+01   3.8269994407e+01    0.3079597    0.2367206 -27.89   0.00138652    1.684    0.406
       166  -9.8214     25.7383    160.1190   8.1340640726e+01   3.8108199459e+01     0.436322    0.2113277  -1.91   0.00162278    3.732    0.732
       167  -8.9258     61.1000    159.1180   7.0643206612e+01   3.4454051373e+01    0.5279374     0.219923  68.60  0.001338213    6.405    0.844
       168 -11.0473    142.8145    158.4216   4.8435445706e+01   2.1800833834e+01    0.7364008     0.251907  43.55  0.002582521    3.044    0.672
       169  -9.4666    105.3122    157.5473   5.7740943685e+01   2.8306872326e+01    0.2924864    0.2373604  77.24 0.0009409484    1.506    0.336
       170 -12.5107    206.8293    152.3969   3.4374064521e+01   1.2257046492e+01    0.8856329    0.6043618 -48.43   0.00495318    1.811    0.448
       171 -10.6211    207.4494    142.5641   3.2265813308e+01   1.3658703514e+01     0.367465    0.2887125 -60.47  0.002121518    1.870    0.465
       172 -11.9459    189.5023    148.6003   3.6663582258e+01   1.5625461610e+01    0.7468974    0.3782087 -48.70  0.003309854    2.420    0.587
       173 -10.3636    157.7781    155.4447   4.4463515494e+01   1.9802274415e+01    0.3547295    0.1906242 -49.38  0.001315348    2.082    0.520
       174  -9.2464     49.7722    155.0688   7.3565514363e+01   3.6853673609e+01    0.4243605    0.1986103  56.58  0.001688184    2.399    0.583
       175 -10.4015    134.1860    153.4631   4.9519511698e+01   2.4285639995e+01    0.5477756    0.3650855  65.56  0.002053068    2.378    0.580
       176  -9.7750    107.4134    145.1045   5.4841761805e+01   3.0769024419e+01    0.6256034    0.4005546  79.49  0.002389641    2.876    0.652
       177  -9.6407    119.2317    154.6396   5.3514291731e+01   2.6622273958e+01     0.387332    0.2400565 -64.12  0.001487138    2.056    0.514
       178  -9.1159    120.4989    149.4887   5.2185282050e+01   2.7517197667e+01     0.274068     0.216726 -21.12 0.0008397537    1.433    0.302
       179  -9.8725    116.1937    144.4503   5.2313896934e+01   2.9380429083e+01     1.060125    0.3529725  51.90  0.002362937    7.213    0.861
       180  -9.2187    106.7591    138.8869   5.3774339999e+01   3.2310737669e+01    0.3135812    0.2815058 -70.15  0.001199023    1.200    0.167
       181  -9.9241     81.4138    153.8955   6.3870498266e+01   3.2899666770e+01     0.433437    0.2596738  74.90  0.001736669    2.532    0.605
       182 -10.5054    166.9926    157.4096   4.2891675198e+01   1.7880097992e+01    0.4029221    0.2974533  48.94  0.002168455    1.599    0.374
       183  -9.1485     99.4975    152.2093   5.8389668056e+01   3.0467628600e+01    0.4031321    0.2545399 -83.28  0.001655001    2.461    0.594
       184 -10.5084    157.3478    146.3091   4.2670842089e+01   2.1589449242e+01    0.9091101    0.4568426 -15.67  0.002318975    6.778    0.852
       185  -9.5541    246.6203    150.7742   2.8020712704e+01   6.7994402100e+00    0.1667954   0.08715585 -36.55  0.000953112    1.676    0.403
       186 -10.0856    223.4129    148.0571   3.0837945010e+01   1.0397523990e+01     0.383488    0.2810141  28.30   0.00176429    1.456    0.313
       187 -10.0909    182.6284    149.5182   3.8148954101e+01   1.6619377881e+01    0.4265254    0.1478017 -43.66  0.001602979    2.952    0.661
       188  -9.3498     27.9855    148.7292   7.9701967050e+01   4.0771005119e+01    0.4525716     0.181331  75.82  0.001575789    3.358    0.702
       189  -9.4473     39.9434    147.7211   7.5796876198e+01   3.9826344528e+01    0.4459724    0.1658266  54.89  0.001535606    3.187    0.686
       190  -9.1857     38.3307    143.6699   7.5862954833e+01   4.1042817116e+01    0.2332047    0.1847583  76.87   0.00124304    1.212    0.175
       191  -9.1010    142.3635    147.5652   4.6352516844e+01   2.4033023736e+01    0.2843032    0.1794037 -40.25   0.00124994    1.598    0.374
       192 -11.3220    148.8315    143.1931   4.3918608757e+01   2.3729555854e+01    0.8980484    0.3922639 -50.30  0.003425037    2.588    0.614
       193  -9.2611    133.7638    146.7336   4.8258463752e+01   2.5747947818e+01    0.2721322    0.1795232 -41.62  0.001292047    1.542    0.352
       194 -10.3846     68.3293    153.5478   6.7713402875e+01   3.4860412022e+01    0.5068889    0.3374599  84.23  0.002101548    1.817    0.450
       195 -10.1561     57.0851    145.5578   7.0055033697e+01   3.8357087507e+01    0.7693407    0.2871797  39.38  0.002887968    2.403    0.584
       196 -10.5799    195.1310    144.9960   3.4891694310e+01   1.5280466987e+01    0.3230311    0.1619784 -44.74  0.001171515    2.112    0.527
       197  -8.8708     13.2112    146.0158   8.4173681611e+01   4.2716805401e+01    0.2365692    0.1164176  63.39 0.0006549838    1.971    0.493
       198 -10.6541    165.6328    142.9687   4.0177987197e+01   2.0726651356e+01    0.5157557    0.2380079 -39.59  0.002168241    2.102    0.524
       199  -9.5897    138.1332    143.9339   4.6602414593e+01   2.5534360929e+01    0.2668834    0.1789983 -53.77  0.001256592    1.656    0.396
       200 -10.1376    125.0854    142.6574   4.9601103067e+01   2.8178315635e+01    0.5496403    0.3520263 -80.53  0.002066395    3.076    0.675
       201  -9.2416     88.1752    143.6968   6.0121693556e+01   3.4311540579e+01     0.317511     0.223682  75.95  0.001418696    1.850    0.459
       202  -9.2101      3.0310    142.5011   8.7197076813e+01   4.4321853109e+01    0.2581293    0.1339082  55.70  0.001123638    1.746    0.427
       203  -9.1977     89.7575    151.1282   6.0975683994e+01   3.2281747000e+01    0.4482554    0.1308378  38.56  0.001451042    3.038    0.671
       204 -10.6161     69.6114    140.7335   6.5329771082e+01   3.7876754058e+01    0.5412645    0.3010125  81.10  0.001969595    2.940    0.660
       205  -9.7402    192.5096    133.5600   3.2913016241e+01   1.7588099785e+01    0.2154182     0.191204 -10.63  0.000717089    1.031    0.030
       206 -11.5966    197.3233    136.2823   3.2657363306e+01   1.6315757471e+01    0.5592378    0.3955943  -5.28  0.002347989    1.564    0.361
       207 -10.5548    202.6228    136.1622   3.1724771357e+01   1.5441664499e+01    0.2912793    0.2285379  35.42 0.0007414924    1.383    0.277
       208  -9.9008     81.6233    137.5848   6.0994828188e+01   3.6850610348e+01    0.4525604     0.163665 -55.22  0.001574507    2.696    0.629
       209  -8.9873     47.0172    139.4864   7.2492235668e+01   4.1158687501e+01     0.252814     0.243457  23.18  0.001019338    1.135    0.119
       210 -10.3326     40.7781    135.5312   7.4069523410e+01   4.2903482196e+01    0.4599123    0.3993789 -31.17  0.001437087    1.336    0.251
       211  -9.6403     45.5487    135.0363   7.2383547149e+01   4.2493613577e+01    0.3732213    0.2091432  79.99   0.00129972    2.206    0.547
       212 -10.5763     42.4079    129.7116   7.2730412100e+01   4.4259431936e+01    0.4316253    0.2906469  39.69  0.001172521    1.439    0.305
       213  -9.9504     23.0982    135.6996   8.0102722962e+01   4.4594724129e+01    0.9467519    0.3784249 -84.93  0.003625467    2.612    0.617
       214 -10.1718    245.8913    138.0970   2.5672712091e+01   8.5509917083e+00    0.1756644    0.1340174 -34.96 0.0004504921    1.282    0.220
       215 -10.1102    234.4086    136.7913   2.6970643884e+01   1.0361686220e+01    0.3026296    0.2089173 -14.51  0.001878641    1.314    0.239
       216  -9.4342    138.4128    136.7747   4.4981418461e+01   2.6954929028e+01    0.3559047    0.1861477 -51.37  0.001456248    2.082    0.520
       217  -9.2714    161.6340    136.3668   3.9579307748e+01   2.2680305862e+01    0.2962494    0.2149412  21.74  0.001493203    1.508    0.337
       218 -10.8648    187.8854    134.8301   3.4027045365e+01   1.8188386910e+01     0.408887    0.1833998 -41.48  0.001697274    2.119    0.528
       219  -9.4588    179.7339    133.8221   3.5335095664e+01   1.9816347771e+01     0.260229    0.1819159 -51.69  0.001118146    1.665    0.399
       220 -10.8068    132.1882    130.5326   4.5117409941e+01   2.9446825585e+01    0.7687479    0.3409902 -52.37  0.002584762    2.534    0.605
       221 -10.3453    105.3552    123.7915   5.0887529606e+01   3.6081833405e+01    0.4104314      0.29796  14.48  0.001080382    1.732    0.423
       222  -9.8334    109.0130    120.9549   4.9154111531e+01   3.6048907575e+01    0.3087169    0.2194238 -47.71 0.0008111429    1.414    0.293
       223 -11.2067    117.0164    122.7813   4.7320230558e+01   3.4085017390e+01    0.9789993     0.565884 -45.50  0.003395568    1.739    0.425
       224 -10.8132    110.9477    130.7205   5.0844423610e+01   3.3433010970e+01     0.662289    0.5716525  40.01  0.003133942    1.139    0.122
       225  -9.7133    110.7507    125.6930   4.9763799401e+01   3.4624879963e+01     0.423527     0.248738  25.25  0.001285109    2.101    0.524
       226 -10.3143     83.7771    131.8856   5.9227541076e+01   3.7918539683e+01    0.4784082    0.3162363  67.65   0.00122243    1.974    0.493
       227  -9.2802    208.7596    131.9931   2.9821762791e+01   1.5067684889e+01    0.2750502    0.1854522  64.87  0.001400808    2.444    0.591
       228  -9.2523    142.9910    131.4344   4.2673219136e+01   2.7176851861e+01    0.2712226    0.2098417 -62.51 0.0007993573    1.563    0.360
       229  -9.8977    168.5252    128.5768   3.6369236230e+01   2.2828682412e+01    0.4964964    0.2280766 -44.94  0.002019551    2.188    0.543
       230  -9.7822    153.0427    128.2345   3.9607411487e+01   2.5868681878e+01     0.582065    0.2418577 -49.76  0.002089515    2.752    0.637
       231 -10.4020     99.2154    127.7715   5.3608779317e+01   3.6267614994e+01    0.6363063     0.409958 -86.62  0.002103726    2.595    0.615
       232  -9.4352     98.8582    120.1655   5.1994694352e+01   3.8150891397e+01    0.4314047    0.2983727  -9.09  0.001685814    2.259    0.557
       233  -9.3543     73.3786    129.3009   6.2080168368e+01   4.0219098620e+01    0.3773779    0.2232409  72.62  0.001290798    2.579    0.612
       234  -9.6474     12.8472    128.9678   8.3045213808e+01   4.7182386283e+01    0.4741786    0.1947973  64.89  0.001829991    2.678    0.627
       235  -9.2457    192.5234    129.0722   3.1919201582e+01   1.8324501082e+01    0.2159582     0.120904 -35.97   0.00103927    1.613    0.380
       236 -10.0461    172.2787    137.0435   3.7517377203e+01   2.0600128351e+01    0.4475208    0.1895079 -49.43  0.001665998    2.900    0.655
       237 -10.3907     60.0334    124.4888   6.5718717847e+01   4.3419421655e+01    0.6694061     0.335008  68.73  0.002159238    3.565    0.719
       238 -10.4989     44.3418    122.8700   7.1037592214e+01   4.5859013530e+01    0.7798288    0.3665498  67.36  0.002638129    3.280    0.695
       239  -8.3539    208.5083    125.4657   2.8447052394e+01   1.6114424946e+01     0.131457     0.112088 -22.39 0.0001567229    1.018    0.018
       240 -10.5667    180.9564    120.4338   3.2042694017e+01   2.1912743518e+01    0.4663897    0.2715927 -22.57  0.001538653    1.978    0.494
       241 -10.3693     27.9649    123.1471   7.7049763793e+01   4.7499639485e+01    0.6542846    0.5670354 -72.14  0.003732726    1.109    0.098
       242  -9.1188    225.2143    124.3835   2.5704376611e+01   1.3517438436e+01    0.1513278      0.12314  60.87 0.0009485326    1.698    0.411
       243 -10.3818    188.9143    121.8009   3.0911704117e+01   2.0186603297e+01    0.3460627    0.1801533 -27.30  0.001118701    2.011    0.503
       244  -9.7508    158.5453    120.6758   3.6599499139e+01   2.6243200824e+01    0.4760701    0.2279797 -46.82    0.0019007    2.149    0.535
       245 -11.2690     14.7745    113.3489   8.0919574897e+01   5.1223838285e+01    0.7613397    0.3092552 -72.33 0.0009323903    2.156    0.536
       246 -10.8526     16.4747    105.3192   7.9359559183e+01   5.3276439710e+01    0.5362805    0.3722706 -41.95  0.002750324    1.548    0.354
       247  -9.4224    172.7812    120.2825   3.3572591238e+01   2.3512145404e+01     0.395752    0.1799763 -36.57  0.001609325    2.090    0.522
       248 -10.1812    141.4536    118.6479   3.9993260716e+01   3.0088276157e+01    0.5546634    0.2660264 -55.03  0.001738913    2.711    0.631
       249  -9.7179     70.8638    118.5551   6.0794427548e+01   4.3364478931e+01    0.5492794    0.2330808 -63.19  0.001952016    2.487    0.598
       250 -10.2855    130.7614    117.5263   4.2368377891e+01   3.2497629013e+01    0.6025597    0.2951722 -54.58  0.002221652    2.428    0.588
       251 -11.2384    108.0519    113.2702   4.7553101068e+01   3.8013535593e+01     1.041008    0.5766039 -42.72  0.004117631    1.864    0.464
       252 -10.1059      2.4692    115.9076   8.5816588403e+01   5.1303920346e+01    0.7447947    0.2614358  87.91  0.002751281    2.849    0.649
       253 -10.3232    247.6276    116.5048   2.1125327821e+01   1.1152038301e+01    0.3098727    0.2223632  89.17  0.001768272    2.786    0.641
       254 -10.5160    185.8067    114.2618   2.9699540253e+01   2.2039843506e+01    0.3802515    0.2272459 -40.40 0.0009954058    1.545    0.353
       255  -9.4571    182.0000    113.0313   3.0089947822e+01   2.2986273570e+01    0.2539781    0.1697556 -36.63 0.0007093952    1.367    0.268
       256 -10.3809     22.6154    111.0062   7.7590404283e+01   5.1251040323e+01    0.5912321    0.2261132 -76.84  0.002206846    2.503    0.601
       257  -9.6380    192.2032    113.9221   2.8505484780e+01   2.0878805061e+01    0.2707177    0.1833576 -17.27  0.001364704    1.607    0.378
       258  -9.5070    174.5564    110.3136   3.0811692374e+01   2.4933308484e+01    0.4523536    0.1560387 -42.30  0.001598289    2.737    0.635
       259 -10.1572     79.5209    112.8940   5.6564558062e+01   4.3394081032e+01    0.5979418    0.3869224  75.38  0.002255451    2.327    0.570
       260  -9.2132     77.9319    106.0487   5.5486145239e+01   4.5393764130e+01    0.3763529    0.2596962 -19.67  0.001562801    2.076    0.518
       261  -9.7345    122.0233    112.3465   4.3361690212e+01   3.5403535101e+01     0.356536    0.2701635 -80.64  0.001144841    1.808    0.447
       262  -9.1548    121.3258    108.3441   4.2508073595e+01   3.6424247526e+01    0.4481486    0.2669531  15.29  0.001494263    3.314    0.698
       263  -9.3458    159.2213    110.5152   3.3938977273e+01   2.8029343783e+01    0.4902776    0.1662639 -41.17   0.00166386    2.795    0.642
       264 -10.4589     66.3531    108.9639   6.0339652470e+01   4.6550211730e+01    0.6769665    0.3756541 -72.85  0.002638087    2.175    0.540
       265 -10.1387     61.3691    106.0846   6.1556655582e+01   4.8060239194e+01    0.3579182    0.2689658  -7.26  0.001503219    1.740    0.425
       266  -9.6424    133.6351    108.1488   3.9231572119e+01   3.3877550241e+01    0.5298805    0.2436537 -46.75  0.001980306    2.182    0.542
       267  -9.8809    188.8811    106.2165   2.7229098055e+01   2.2786959304e+01    0.4874897    0.0624585 -38.82  0.001162762    6.144    0.837
       268 -10.2693    198.8471    106.2908   2.5609782009e+01   2.0855521290e+01    0.3238482    0.2131089  43.38  0.001143686    1.698    0.411
       269 -10.7094     45.8841    102.3256   6.6827284077e+01   5.1184854321e+01     0.932576    0.4282797  63.00   0.00286525    3.942    0.746
       270 -10.5468    249.5866    103.1898   1.8150180063e+01   1.2603885759e+01    0.2908341    0.1482124 -33.38  0.001624405    1.509    0.337
       271  -9.2841     93.3238    104.0444   4.9742828783e+01   4.3066824457e+01     0.394751    0.2669061   3.90   0.00152527    2.435    0.589
       272 -10.7145     22.8955    101.7481   7.6235779058e+01   5.3744191551e+01    0.8041165    0.3300327  61.37  0.002709287    3.444    0.710
       273 -10.5235     29.8003    101.9630   7.3381325153e+01   5.3063567733e+01    0.8351021     0.196885  41.63  0.002204963    4.191    0.761
       274  -8.4159    166.6469    103.8215   3.0707984555e+01   2.7714860706e+01    0.3169042     0.163504 -57.34  0.001141095    2.947    0.661
       275  -9.5005    150.2464    102.8482   3.3891176920e+01   3.1385531155e+01    0.4732124    0.2312647 -52.60  0.001747862    2.474    0.596
       276  -9.3445      6.9587    103.1486   8.3027296074e+01   5.4481616329e+01    0.2392629    0.1218625  49.72 0.0008827384    2.007    0.502
       277 -10.2455    128.6228    101.4503   3.8704144563e+01   3.6350507668e+01    0.3587406    0.3365414 -48.54   0.00116389    1.059    0.056
       278  -9.4005    129.3203     97.3111   3.7369448655e+01   3.7060440977e+01    0.2565702    0.1900235 -16.50 0.0007331051    1.708    0.414
       279 -10.6307    108.6035     98.8718   4.3552972538e+01   4.1190934696e+01    0.6263653    0.5118192  69.19  0.002312663    1.410    0.291
       280  -9.0934    108.0335     92.1332   4.1780429119e+01   4.2816226249e+01    0.4903711    0.3054606  13.09  0.001668012    3.157    0.683
       281 -10.2622    243.2025    100.7980   1.8368515832e+01   1.3914403245e+01    0.1683054    0.1276826 -10.67  0.001082625    1.342    0.255
       282 -10.0829     92.8034    112.3977   5.2035904384e+01   4.1147313048e+01    0.5366489    0.3618405 -84.36   0.00164928    2.206    0.547
       283  -9.1045     82.1867     99.6622   5.2355094997e+01   4.6228457811e+01    0.3338115    0.2424165  89.09  0.001210866    1.872    0.466
       284 -10.3566     63.9074     95.8714   5.8158456200e+01   5.0323100510e+01    0.5708923      0.34861  80.25   0.00182724    2.788    0.641
       285  -9.6086     94.9420     96.7141   4.7213430642e+01   4.4491239610e+01     0.395113    0.2304917 -57.12  0.001138437    1.846    0.458
       286  -9.1210     96.0666     91.1245   4.5230186177e+01   4.5564467145e+01    0.4360477     0.279527  -7.34   0.00147569    3.235    0.691
       287  -9.7511     21.4220     92.2377   7.5443426283e+01   5.6451329553e+01    0.5669023    0.2453223 -36.20  0.002072674    2.978    0.664
       288  -8.8746    177.0000     92.4816   2.5822739664e+01   2.7506565425e+01    0.3179956   0.07593936 -36.01 0.0009233119    3.843    0.740
       289  -8.7396     83.2523     93.5626   5.0306805171e+01   4.7521867910e+01    0.2198442    0.1524484  24.70 0.0009471513    1.680    0.405
       290  -9.8632     44.1918     91.9634   6.5335749325e+01   5.4165024419e+01    0.3825726    0.2522329   2.21  0.001292945    2.000    0.500
       291  -9.3844    138.7194     90.9138   3.3223108342e+01   3.6249298865e+01     0.578729     0.199206 -43.08  0.001884639    2.815    0.645
       292 -10.1280    125.1844     88.8139   3.5976029064e+01   3.9731846776e+01     1.006939    0.4441485 -36.95  0.003536236    2.418    0.586
       293 -10.1382      5.0686     90.9241   8.2614341182e+01   5.7885465017e+01    0.5531272     0.235458  83.27  0.002154584    2.575    0.612
       294  -9.5178    139.8828    103.5789   3.6478630251e+01   3.3477602908e+01    0.5558315    0.2762648 -51.59  0.002094057    2.264    0.558
       295  -9.8709     35.6188     82.2722   6.6979753610e+01   5.7761264212e+01    0.6245287    0.2897558 -27.65  0.001994462    3.847    0.740
       296  -9.9943     86.6298     86.3093   4.6983292492e+01   4.8596114122e+01    0.5623887    0.3775327  81.59  0.001752205    2.506    0.601
       297  -9.7159     86.5198     80.4903   4.5201671765e+01   4.9967099171e+01    0.4955987    0.2633908  26.77   0.00172575    2.733    0.634
       298  -9.8541     34.7434     89.2261   6.8903740512e+01   5.6003060738e+01    0.4869273    0.2792644  86.56   0.00196285    2.285    0.562
       299  -9.4893     65.0210     86.8217   5.5298304130e+01   5.2444786942e+01    0.3620922     0.213698   6.33  0.001244993    3.148    0.682
       300 -10.1969     48.4987     84.1110   6.1555178417e+01   5.5663465110e+01    0.5546889    0.3332908  70.82  0.001828054    2.575    0.612
       301  -9.4963     49.3206     76.9839   5.9240012194e+01   5.7380981659e+01    0.3562831    0.2298163  -6.72  0.001454606    2.321    0.569
       302  -9.0648     12.1867     83.0012   7.8310446933e+01   5.9620207502e+01    0.2962107    0.1787631 -50.34  0.001439364    1.560    0.359
       303  -9.7146      7.7908     84.2117   8.0575419045e+01   5.9553019536e+01    0.3009593    0.1718085 -70.31  0.001422266    1.522    0.343
       304  -9.0640    116.9087     83.4167   3.6562838947e+01   4.2718360816e+01    0.2858154     0.211893 -25.49 0.0005259915    1.552    0.356
       305  -9.5544    104.5147     82.7356   3.9972844739e+01   4.5639228997e+01    0.5108975    0.3035575 -64.02   0.00154534    2.363    0.577
       306  -9.1051    104.8018     76.9691   3.8019086667e+01   4.6804961818e+01    0.2553205    0.2042877 -18.26  0.001191021    1.484    0.326
       307  -9.7866    140.7249     81.2707   2.9915573388e+01   3.7630248405e+01    0.4810838    0.1815554 -34.64  0.001586207    2.819    0.645
       308  -8.7367    184.3847     77.2211   2.0560359722e+01   2.8394156623e+01    0.2098449    0.1147876 -42.77 0.0009465159    1.663    0.399
       309  -9.7026     24.6100     80.5687   7.1872501996e+01   5.9327361500e+01    0.4319425    0.2500742  70.09  0.001347254    2.237    0.553
       310  -9.0587     74.6687     80.0717   4.9461911530e+01   5.2388353860e+01    0.3339457    0.2393141 -75.08  0.001119378    1.779    0.438
       311  -9.1377    119.6086     78.4287   3.4247608634e+01   4.3111611536e+01    0.5526411    0.2114299 -36.66  0.001792599    2.831    0.647
       312 -11.1109    186.8992     80.6603   2.1083464558e+01   2.7317073879e+01    0.5113646    0.3639625  23.55  0.001754873    1.892    0.471
       313  -9.0139    127.5181     74.5156   3.0944827125e+01   4.2013588487e+01    0.3904226    0.2037807 -51.43  0.001481895    2.143    0.533
       314  -9.9081     10.6968     74.2447   7.7691836023e+01   6.2061273898e+01    0.3615924    0.2037123  18.08   0.00121988    1.934    0.483
       315  -9.6445     82.4395     72.3812   4.3980426529e+01   5.2638279129e+01    0.4470356    0.2985694 -73.96  0.001419759    2.225    0.551
       316 -10.1725     28.6666     70.2965   6.7522459864e+01   6.1655316873e+01    0.8513345    0.3473888 -26.96  0.002298605    5.575    0.821
       317  -9.4259     95.1758     70.9164   3.9020978779e+01   5.0232017118e+01    0.4565032    0.2377924 -57.30  0.001638248    2.475    0.596
       318  -8.7482    105.5414     71.5113   3.5958382370e+01   4.7764505230e+01    0.1543444    0.1515696 -74.66 8.779125e-05    1.017    0.017
       319  -8.6635     62.3187     71.3392   5.1685379384e+01   5.6710096934e+01    0.1591989    0.1174941 -18.63 0.0007049412    1.710    0.415
       320 -10.0867     51.4483     69.0113   5.5821719994e+01   5.9057224327e+01    0.6072604    0.3077564 -72.58   0.00205358    3.209    0.688
       321  -8.5312    162.7385     70.2714   2.2199872135e+01   3.4386392859e+01    0.2347701    0.1252557 -21.61 0.0008992271    2.414    0.586
       322  -8.7947     16.4157     69.2435   7.3761717086e+01   6.3007234137e+01     0.333654    0.1328478 -83.13  0.001143117    3.208    0.688
       323  -8.9383      1.4627     68.9733   8.1761801029e+01   6.3924561149e+01    0.2143089     0.118143 -74.86  0.001026443    1.583    0.368
       324  -8.6244    188.3684     67.8124   1.7452327293e+01   2.8952191077e+01    0.2055192      0.12504 -21.53   0.00095021    1.818    0.450
       325  -8.3007    146.6113     67.7880   2.4510133167e+01   3.8635156180e+01    0.2221693    0.1294676 -46.08 0.0006245039    1.691    0.409
       326  -9.0637    106.2574     66.9518   3.4159185150e+01   4.8509939794e+01    0.2514452    0.1844448  -5.50 0.0009910916    1.945    0.486
       327  -8.4009    138.6787     66.3157   2.5704688626e+01   4.0811403909e+01    0.1581028    0.1155115 -70.75 0.0007041089    1.660    0.397
       328  -9.1710    128.5114     69.9762   2.9227065818e+01   4.2623919877e+01    0.3873017    0.2488301  -8.63  0.001461029    2.613    0.617
       329  -9.9394     83.6235     64.4492   4.0711229444e+01   5.4118536007e+01    0.5423791    0.3364368  -3.73  0.001719228    3.858    0.741
       330  -8.8619    110.2411     63.1123   3.1644185003e+01   4.8305057353e+01    0.3120906    0.1714824 -57.03  0.001070025    2.372    0.578
       331  -8.8677    111.0441     58.5155   2.9755924369e+01   4.8960870839e+01    0.3787632    0.2498976   0.09  0.001429904    2.660    0.624
       332  -9.3230     37.4843     63.8554   6.1107974632e+01   6.2296294051e+01    0.2856317    0.2048218  84.22  0.001330739    1.861    0.463
       333 -10.2069     18.4876     61.5341   7.0887793346e+01   6.4860968713e+01    0.3777204    0.2229764 -35.18  0.001198071    1.768    0.434
       334  -8.5090    170.2690     60.3740   1.8046822547e+01   3.4167670588e+01    0.1419884     0.111248   8.70 0.0006994185    1.676    0.404
       335 -10.0926    100.0664     55.1843   3.1673538141e+01   5.2219235672e+01    0.4162937    0.2188093 -21.07  0.001394721    3.122    0.680
       336  -9.4904     73.3314     59.0931   4.2628895281e+01   5.7407282345e+01    0.4909262    0.2598923 -56.02  0.001504352    2.257    0.557
       337 -10.2151     74.3275     51.5999   3.9203371625e+01   5.8747902922e+01    0.6571823     0.399561   4.10  0.002085514    4.012    0.751
       338  -9.5662     38.8610     57.9227   5.8435724661e+01   6.3578090299e+01    0.2385597    0.1869859 -26.88  0.001228698    1.338    0.253
       339 -10.8467      7.3592     55.1372   7.6018802494e+01   6.7265080411e+01     0.762453    0.2175437 -72.03  0.002649006    3.143    0.682
       340  -9.6906      2.0929     56.2358   7.9447177681e+01   6.7233159303e+01    0.2973632    0.2014788  84.21  0.001568269    1.560    0.359
       341  -8.6515    119.4712     55.9520   2.6621341351e+01   4.7338788056e+01    0.2238035    0.1191692 -56.50 0.0008086227    2.459    0.593
       342  -9.4748     62.9094     54.3162   4.5156069894e+01   6.0483281458e+01    0.3299096    0.2127067 -62.19 0.0009567766    1.935    0.483
       343  -9.2774     54.1446     53.8289   4.9050932939e+01   6.2181345694e+01    0.3646855    0.1974857 -66.72  0.001313703    2.936    0.659
       344  -8.9021     44.0157     55.0104   5.4643196452e+01   6.3542713704e+01    0.3150094    0.2003655 -72.48  0.001133426    2.104    0.525
       345 -11.4112     45.5549     48.9830   5.1455337966e+01   6.4686598747e+01    0.3318635     0.268986 -43.55 0.0005851606    1.186    0.157
       346 -10.5612      6.0485     69.4381   7.9369387873e+01   6.3595465224e+01    0.4798965    0.1915451 -65.84  0.002007682    2.049    0.512
       347  -9.2883     31.0273     51.5019   6.0591452298e+01   6.6122906692e+01     0.271842     0.198134 -82.21 0.0009180735    1.718    0.418
       348  -8.6359     20.3485     52.6801   6.7394580170e+01   6.6952661256e+01    0.1427263    0.1025303  61.03 0.0007048726    1.736    0.424
       349  -9.1600     92.7438     50.9393   3.2293274322e+01   5.4735657685e+01    0.2904572    0.2040557 -54.78 0.0008218191    1.595    0.373
       350  -8.9817     64.0245     47.0384   4.1578969716e+01   6.1783071883e+01    0.3580273    0.2259633  10.14  0.001363538    2.732    0.634
       351  -9.2457     22.4444     47.0561   6.4287240327e+01   6.8137662978e+01    0.3332341    0.1986808 -15.67  0.001502664    2.098    0.523
       352  -8.4676    164.5087     59.4863   1.8702503952e+01   3.5664621848e+01    0.1453491    0.1339376 -55.01 0.0008104458    1.012    0.012
       353  -9.3354     54.1868     46.7963   4.6086301678e+01   6.3700361759e+01    0.3075302    0.2011556   5.29  0.001268247    2.352    0.575
       354  -8.8695    130.5179     45.9716   2.0511398118e+01   4.6160813581e+01    0.2027066    0.1336093   3.58 0.0008085734    2.416    0.586
       355  -8.7179      1.6228     46.0061   7.7770468039e+01   6.9865066829e+01    0.1864722    0.1483999 -62.92 0.0004559508    1.102    0.093
       356  -9.1153    149.7278     44.2155   1.6342890663e+01   4.1534451558e+01    0.3098841    0.1020791 -37.16  0.001073807    2.690    0.628
       357  -9.8657     16.5740     42.7786   6.6687710962e+01   6.9717268759e+01    0.5338376    0.1721204 -55.45  0.002049798    2.489    0.598
       358 -10.0994      4.8950     40.7296   7.4227904629e+01   7.1027741782e+01    0.4881414    0.2250696 -88.43  0.001927676    2.984    0.665
       359 -10.0072      6.4580     33.6408   7.0952887141e+01   7.2658894177e+01     0.304696    0.1990284 -40.68  0.001185816    1.363    0.266
       360  -9.1784    113.8352     41.5149   2.2562236805e+01   5.1103355464e+01    0.2836545    0.2193336  13.89 0.0002839357    1.651    0.394
       361  -9.1559    123.4915     40.1665   1.9851946233e+01   4.8824598740e+01    0.2678725     0.217989  33.01  0.000284681    1.393    0.282
       362  -8.7027     69.1879     41.0152   3.6622747827e+01   6.1877876779e+01    0.2398314    0.1680185 -65.94 0.0009515544    2.003    0.501
       363  -8.9900     36.9389     40.7642   5.2789051617e+01   6.7815210274e+01    0.2548051    0.1899659 -88.84 0.0009232826    2.068    0.516
       364  -9.4656    105.8659     37.7548   2.3031182057e+01   5.3701772487e+01    0.4296319    0.2269069 -20.91  0.001658191    2.404    0.584
       365  -8.8245     84.0568     39.7577   3.0413364754e+01   5.8748745263e+01     0.247268    0.1596219  29.67 0.0007559091    1.904    0.475
       366  -9.1457     26.1785     36.2822   5.7624884193e+01   7.0240855723e+01    0.2419519    0.1803132  87.75 0.0008829206    2.000    0.500
       367  -8.8195     38.0520     35.4534   4.9636550381e+01   6.8781960861e+01    0.1951813    0.1195199   5.55 0.0005699517    2.427    0.588
       368  -8.3597    111.6879     34.3334   2.0194049783e+01   5.2706329931e+01    0.1567269     0.110373 -66.37  0.000704455    1.680    0.405
       369  -8.5947    119.3878     33.2051   1.8038271894e+01   5.0864948331e+01    0.2091026    0.1292244 -42.32 0.0005522511    1.624    0.384
       370  -9.1673     58.1650     42.2778   4.2118032714e+01   6.3883283813e+01    0.2809983    0.1959215 -70.78  0.001228823    2.182    0.542
       371  -8.5415     60.4132     32.2444   3.6139236515e+01   6.5304495599e+01     0.205367     0.133765 -48.55 0.0009515747    1.707    0.414
       372  -9.2834     12.7389     30.8940   6.5060889826e+01   7.2844554675e+01     0.239309    0.1827186 -81.95 0.0009177226    1.594    0.373
       373  -9.3944     27.8878     27.7660   5.2323927868e+01   7.1851141436e+01    0.3714228    0.1401332 -37.45   0.00133476    3.088    0.676
       374  -9.7734      2.4344     27.1554   7.2011777642e+01   7.4421639934e+01    0.3544796    0.1998389 -45.91  0.001530437    1.504    0.335
       375  -8.4843     81.6355     27.3303   2.5356207642e+01   6.1270535921e+01    0.1531064    0.1128329 -73.21 0.0007037208    1.810    0.448
       376  -9.6431     44.3072     25.2549   4.0506022223e+01   6.9692729393e+01    0.2413247    0.2105958  16.41 0.0004056219    1.098    0.089
       377  -8.8251    110.6557     24.4106   1.6297577816e+01   5.4280764001e+01    0.2251442    0.1733753  13.29 0.0004271941    1.597    0.374
       378  -8.0413    118.5293     24.4803   1.4732076332e+01   5.2204999001e+01    0.1444101    0.1367572  70.26 9.476652e-05    1.038    0.037
       379  -8.8637     66.9905     23.9713   2.8913293196e+01   6.5205008720e+01     0.172499     0.158219 -17.05 0.0004673145    1.112    0.101
       380  -7.9913    137.3351     22.3275   1.0722524590e+01   4.7513400899e+01    0.1488836    0.1037836  36.46 0.0007051778    1.722    0.419
       381 -10.1729     13.1325     20.9490   6.0142642604e+01   7.5013634070e+01     0.278571    0.2405665   6.61 0.0006233995    1.159    0.137
       382  -8.5170     84.8749     21.4712   2.1427384177e+01   6.1269865364e+01    0.2111716    0.1369682  61.20  0.000399005    1.481    0.325
       383  -8.7897     40.7717     21.0455   4.0057962552e+01   7.1070924092e+01    0.1902971    0.1664333 -13.11 0.0002972994    1.092    0.084
       384  -9.3539     30.7772     18.9656   4.5204932781e+01   7.3133370286e+01    0.1953806    0.1384588   8.03 0.0002853666    1.584    0.369
       385  -9.3576    188.5131     20.9178   4.5072364525e+00   3.4947917668e+01    0.1982431    0.1185746 -30.02 0.0007815127    1.563    0.360
       386  -8.8854     50.4239     15.2878   3.1154936133e+01   7.0088883818e+01    0.2556697    0.1480376  38.90 0.0006332925    1.687    0.407
       387 -10.2103    247.0193    248.1400   4.3912711399e+01  -4.3317755027e+00    0.2537043    0.1573666  10.85    0.0012391    1.195    0.163
       388  -9.3472    196.4090    248.5165   5.2059693432e+01   6.1291551053e-01    0.1975834    0.1407233   8.77  0.001230335    1.015    0.015
       389 -10.6525     53.9236    249.0343   8.0243548992e+01   1.6656754042e+01    0.3904289    0.2551446   4.28  0.001915012    2.047    0.511
