#   1 NUMBER                 Running object number                                     
#   2 MAG_AUTO               Kron-like elliptical aperture magnitude                    [mag]
#   3 X_IMAGE                Object position along x                                    [pixel]
#   4 Y_IMAGE                Object position along y                                    [pixel]
#   5 X_WORLD                Barycenter position along world x axis                     [deg]
#   6 Y_WORLD                Barycenter position along world y axis                     [deg]
#   7 A_WORLD                Profile RMS along major axis (world units)                 [deg]
#   8 B_WORLD                Profile RMS along minor axis (world units)                 [deg]
#   9 THETA_WORLD            Position angle (CCW/world-x)                               [deg]
#  10 FWHM_WORLD             FWHM assuming a gaussian core                              [deg]
#  11 ELONGATION             A_IMAGE/B_IMAGE                                           
#  12 ELLIPTICITY            1 - B_IMAGE/A_IMAGE                                       
         1 -10.2925      4.6858     86.7083   1.1593741099e+02   5.7324200374e+01     1.447111    0.3352225 -66.90  0.004298209    3.037    0.671
         2 -11.0961     23.7534     31.9592   9.3751788388e+01   6.7585092873e+01     1.474207    0.4270125 -38.95  0.006034613    2.956    0.662
         3 -10.0918      5.0111     42.7611   1.0638251527e+02   6.6851169269e+01     1.084087    0.3924944 -67.36  0.004499523    3.409    0.707
         4 -10.0301      7.3343     28.3053   1.0061797917e+02   6.9502268478e+01    0.2732264    0.2611862 -70.35   0.00102405    1.517    0.341
         5 -10.8799    134.0682     30.9653   5.4849355734e+01   4.7809897800e+01    0.3775707    0.2790321   1.54 -0.001320134    1.592    0.372
         6 -10.0006     35.8928     37.9937   9.0388801256e+01   6.5290535264e+01    0.3764328    0.1945348 -33.53 0.0003524434    1.707    0.414
         7  -8.8061    112.2939     15.4643   5.4007627008e+01   5.4741256431e+01    0.3237591    0.2224563 -34.68 0.0005402869    1.625    0.385
         8  -9.1415    114.2662      9.8932   5.1402101699e+01   5.4812235955e+01    0.3789182    0.1928073  35.53 0.0005169454    2.013    0.503
         9 -10.1251     62.9556      3.4238   6.3031897286e+01   6.6185832654e+01    0.5151648    0.3836574   7.17  0.002166937    1.172    0.147
        10  -9.4913     63.2928     21.4519   7.1564756288e+01   6.4060770451e+01    0.4015169    0.2695856 -51.01  0.000677796    2.354    0.575
        11 -10.2013     64.3782     13.0350   6.7210606420e+01   6.4913718103e+01    0.4545506    0.2930059 -16.00  0.001712814    1.489    0.328
        12 -10.1680     46.3094     29.6272   8.2279601168e+01   6.5447527941e+01    0.5331814    0.3070403 -53.61  0.002449847    2.718    0.632
        13  -8.8238     46.7001     20.5317   7.8004915111e+01   6.6768662684e+01    0.3894042    0.2027112 -24.60  0.001700717    1.847    0.458
        14 -10.1846     52.5258     14.0189   7.2371285478e+01   6.6772711067e+01    0.7772437    0.3096141  30.46  0.003367323    2.744    0.636
        15  -9.7296     91.7125     25.7949   6.3706892477e+01   5.8131533963e+01    0.7625444    0.2399239 -32.57  0.002579128    3.156    0.683
        16  -9.7070    119.1879     19.9788   5.4146077260e+01   5.2658028249e+01    0.7256021    0.2971834 -17.51  0.001284078    3.069    0.674
        17  -8.9583    115.2739      3.9239   4.8892823833e+01   5.5087391247e+01     0.309514     0.221694 -41.84  0.000949355    1.664    0.399
        18  -9.2660    110.2774      5.3305   5.0496497761e+01   5.6139484453e+01    0.5245667    0.2462075 -22.09  0.002435302    2.306    0.566
        19  -9.1340    101.8370      7.8421   5.3459419906e+01   5.7849361179e+01    0.4011194     0.265863 -61.22  0.001724367    2.388    0.581
        20  -8.5419    104.3340      2.3206   5.0614610861e+01   5.7749529197e+01    0.4203703    0.1945354  35.66  0.001896926    2.147    0.534
        21  -8.5606    104.4595     14.9536   5.5706718425e+01   5.6584691931e+01    0.3979611    0.2011224   2.89  0.001587824    3.009    0.668
        22  -8.2311     97.7950      6.1505   5.3757859605e+01   5.8898348566e+01    0.2311344    0.1587675  16.36 0.0003796194    1.488    0.328
        23  -8.0908     95.8370      3.1515   5.2981026418e+01   5.9583554091e+01    0.1793209    0.1726799  48.46 0.0004747086    1.209    0.173
        24 -10.7162     37.1891      9.4915   7.6947430640e+01   6.9579708940e+01    0.8196589    0.3176537 -38.34  0.002790743    2.640    0.621
        25 -10.1761     18.3070      5.3819   8.4540851217e+01   7.2360168473e+01    0.5961401    0.3994786 -46.87  0.003548476    2.032    0.508
        26  -9.4561     31.0820     11.9608   8.1187825222e+01   7.0022901622e+01     0.489991    0.3746363 -66.57  0.002631765    3.335    0.700
        27  -9.5063     24.4307     11.4255   8.4328029051e+01   7.0857923517e+01    0.4097956    0.2463392   7.60  0.001243984    1.637    0.389
        28  -9.3778      2.2126     14.2736   9.7945397853e+01   7.2294790207e+01    0.4304086    0.1964525 -60.37   0.00183762    3.089    0.676
        29 -10.3711      5.5721      4.7999   9.1613494518e+01   7.3581861339e+01     0.466099    0.3320139 -12.06  0.001922259    1.115    0.103
        30  -9.7712     10.2979     18.9236   9.5393401918e+01   7.0959625896e+01    0.6319102    0.2528473 -16.12  0.002520867    4.157    0.759
        31  -9.8419    133.4867     11.0950   4.7994640082e+01   5.0078871479e+01    0.8380759    0.2683434 -19.62  0.002970017    3.760    0.734
        32  -8.8710    131.3712      5.7812   4.6508147409e+01   5.1065526063e+01    0.4938897    0.2204184  24.91  0.001813255    3.558    0.719
        33  -8.7702    136.4648      1.4816   4.4154960166e+01   5.0164757898e+01     0.375978    0.1696991  48.62  0.001182967    1.955    0.488
        34  -9.1828    130.9007     20.8039   5.1927097636e+01   4.9749132156e+01    0.4227354    0.2652281 -35.24  0.001325415    1.729    0.422
        35  -8.2241     72.0237      8.6655   6.2417598019e+01   6.3984426308e+01    0.2367954    0.1610015 -30.99 0.0004915075    1.632    0.387
        36  -9.2934     73.6988     19.5243   6.6860683414e+01   6.2454604200e+01    0.3248482    0.2340256 -38.00 0.0009902035    1.633    0.387
        37  -8.8114     73.8412     13.1518   6.3900474670e+01   6.3164993634e+01    0.4840419    0.2283905  -5.63  0.001938709    3.192    0.687
        38  -9.1755     96.3374     14.4018   5.7605919682e+01   5.8438279237e+01    0.6254928    0.2669161 -13.18  0.002475755    3.069    0.674
        39  -8.4471     88.9862      2.7977   5.4603312325e+01   6.1095890044e+01    0.2355292    0.1718054   1.45 0.0008112837    1.386    0.278
        40  -9.5909     85.4315     13.3583   6.0283298692e+01   6.0850403696e+01    0.4269859    0.2524375 -48.03  0.001598794    2.545    0.607
        41  -8.3498     85.0090      6.4964   5.7357101645e+01   6.1608947789e+01    0.3786637    0.1723506  24.56  0.001562193    2.801    0.643
        42  -8.2735    141.4324     12.2263   4.6974682954e+01   4.8007003631e+01    0.2939038    0.1896301 -47.41 0.0009164065    1.785    0.440
        43  -8.5178    137.7860      9.5932   4.6708593429e+01   4.9154871214e+01    0.3110503    0.1969616  65.40  0.001208944    1.418    0.295
        44  -8.6901    125.4779     13.0197   5.0221708392e+01   5.1852232844e+01    0.2467907    0.2331939 -33.78 0.0006271463    1.196    0.164
        45  -8.8820    126.2787      9.5299   4.8793196934e+01   5.1980155102e+01    0.3371758    0.1420979  45.05  0.001417986    2.173    0.540
        46  -8.1729     80.5423     12.3485   6.1341206636e+01   6.1945003721e+01    0.2328712    0.1139534 -30.82  0.001115434    2.139    0.532
        47  -8.7978    236.7700      8.1226   3.4895134303e+01   2.5230874786e+01    0.2076111    0.1748372  83.48 0.0004956951    1.184    0.155
        48  -9.6264    124.3236      5.8238   4.7817983229e+01   5.2773736346e+01    0.6335901    0.2951155  57.86  0.002914688    1.783    0.439
        49  -8.3068     76.7338      6.3582   5.9795998104e+01   6.3297961462e+01    0.2352779    0.1920635 -47.34  0.001121172    1.702    0.412
        50  -8.7889     78.5748      2.8780   5.7606065884e+01   6.3247760831e+01    0.3199192     0.253585  40.16  0.001137946    1.136    0.120
        51  -8.5797    154.1224      5.4854   4.2791965899e+01   4.5440263653e+01    0.2465591    0.1308898 -50.05  0.001128814    2.197    0.545
        52  -8.2425    248.7926      2.6256   3.2881818424e+01   2.3220145522e+01    0.1812691    0.1502757 -35.55 0.0005182764    1.362    0.266
        53  -7.9076    143.0150      4.5159   4.4136354324e+01   4.8298098981e+01    0.1800851    0.1061204 -80.24 0.0003801535    2.258    0.557
        54  -8.1481    243.7703    125.9856   6.1248666555e+01   6.7138045108e+00    0.1968582    0.1034477 -34.84 0.0008872562    1.678    0.404
        55  -9.3520    183.8199    248.9657   9.6270325991e+01  -2.4111640581e+00    0.2188573    0.1466816  32.71 0.0005888754    1.190    0.159
        56  -9.7087    197.1739    248.9291   9.3762961463e+01  -4.4346460311e+00    0.4076777    0.2552875 -11.93   0.00234127    1.985    0.496
        57  -9.9741    188.3323    249.7898   9.5540546801e+01  -3.2124823937e+00    0.3517252    0.2146745  39.99  0.001855743    1.416    0.294
        58  -9.9012    191.8497    246.1558   9.4346499431e+01  -3.2581917161e+00    0.3550626    0.2652689 -57.81  0.002183227    2.131    0.531
        59  -9.9835    170.1842    247.6062   9.8669316385e+01  -1.0721660728e-01      0.26275    0.1946832  52.43  0.001645116    1.495    0.331
        60 -10.3368    128.0819    101.2932   7.9155875075e+01   3.7015837222e+01     1.101698    0.5302634 -29.10  0.002542077    3.066    0.674
        61  -8.0177    157.9774    121.9537   7.7113921087e+01   2.5931216551e+01    0.2514392    0.1988267 -85.72 0.0009665043    1.711    0.416
        62  -7.7374    204.3307    121.4209   6.7032696893e+01   1.5625291379e+01    0.2719789    0.1439884  44.60   0.00110811    1.980    0.495
        63  -8.5268     98.6809    119.9714   9.2419087519e+01   3.8581219920e+01    0.3857568    0.2360884 -15.18  0.001100883    3.269    0.694
        64  -9.6886    199.3875    124.7288   6.8806233382e+01   1.6089172925e+01    0.2725995    0.2548546 -10.76  0.000274028    1.041    0.039
        65 -10.0187    140.7904    118.4984   8.0467897514e+01   3.0490261085e+01    0.4818247    0.3532485  88.17  0.001214454    2.073    0.518
        66 -10.2969     91.9372    113.2709   9.2794475524e+01   4.1350492187e+01    0.6412234    0.4708436 -78.70  0.002223157    1.726    0.421
        67  -9.0303     92.9655    103.6533   9.0033163822e+01   4.3428177259e+01    0.7419131    0.4533447  12.86  0.002859459    2.657    0.624
        68  -8.1105      1.3890    116.2394   1.2090633287e+02   5.0620221114e+01    0.2844512   0.09608132 -76.26 0.0008853572    2.436    0.589
        69  -9.5692     81.4622     99.4278   9.2538444156e+01   4.6341528394e+01    0.7417744    0.2825256 -51.14  0.001140923    2.417    0.586
        70 -10.2767     78.2734    112.9557   9.6887580080e+01   4.3639028915e+01       0.5819    0.3579559 -79.54  0.001737519    2.419    0.587
        71  -8.1550     78.0630    105.5977   9.5193383258e+01   4.5428399614e+01    0.3598603    0.2246237 -19.86  0.001468458    2.443    0.591
        72  -9.9358     14.4099    111.5243   1.1650334350e+02   5.0934518721e+01    0.5004007    0.2586507  83.20   0.00210463    2.432    0.589
        73  -8.0131     14.3282    105.3179   1.1564105817e+02   5.2414443832e+01    0.1866753    0.1358732 -33.55 0.0006069728    1.520    0.342
        74  -8.6737    153.0491    115.3744   7.6586424075e+01   2.8435961546e+01     0.219849    0.2036542  51.18 0.0005214305    1.107    0.097
        75 -10.5118     66.0718    108.6668   9.9730893344e+01   4.6433339861e+01     1.300382     0.587108 -64.38  0.002761236    2.419    0.587
        76 -10.2293     59.5003    109.8493   1.0208276547e+02   4.7010523572e+01    0.6898003    0.6433465 -33.01  0.002456554    1.122    0.109
        77 -10.4141     63.1045     95.8545   9.7663145678e+01   4.9877282058e+01    0.6067032     0.400674  82.00  0.001566036    2.629    0.620
        78  -9.2235     64.3724     86.8015   9.4871402269e+01   5.1791934666e+01    0.8391845    0.4737314 -30.32  0.003645639    2.113    0.527
        79  -8.0941    203.1604    113.9171   6.5391160900e+01   1.7273454614e+01    0.2774926    0.1679407 -44.68  0.000764302    1.624    0.384
        80  -7.3367    167.2077    114.2346   7.2952518120e+01   2.5435452065e+01    0.2506108    0.1159689 -49.59 0.0005464681    2.419    0.587
        81  -8.8536    159.1428    112.1926   7.4279923823e+01   2.7712518587e+01    0.3155532    0.2461154 -69.74 0.0008248955    1.602    0.376
        82  -9.1486     35.9764    110.7886   1.0972716177e+02   4.9372095046e+01    0.4808549    0.2688281  78.02  0.001965892    2.777    0.640
        83 -11.3315    120.2695    108.9625   8.3429399609e+01   3.6981757777e+01     1.605952    0.7696727 -54.08  0.004645293    2.356    0.575
        84 -10.9827     21.6737    101.6350   1.1271996190e+02   5.2772331668e+01     1.413032    0.6817617  85.37  0.004044227    3.568    0.720
        85 -10.0227     19.9142     85.7975   1.1045154823e+02   5.6613629474e+01     1.064456   0.08262856 -53.63  0.003343651    4.276    0.766
        86 -10.5585     25.6430     77.9855   1.0671456031e+02   5.7975295473e+01    0.7982621    0.5137364  89.69  0.003132896    2.221    0.550
        87  -8.6172    149.8352    110.0048   7.5936288999e+01   3.0300896697e+01     0.249006     0.197652 -78.85 0.0005157556    1.641    0.391
        88  -9.7290    149.2897    103.0883   7.4169367996e+01   3.1871154613e+01    0.5785484    0.3213395 -52.56 0.0009036902    2.059    0.514
        89 -10.8642     44.6587    102.3072   1.0530324363e+02   5.0549437208e+01    0.8482403    0.4688391  70.95  0.003141263    3.535    0.717
        90  -8.8723     40.1176    107.1629   1.0774654620e+02   4.9847396618e+01    0.2445718    0.1575503  88.29 0.0007192223    1.962    0.490
        91  -7.3241    188.9800    105.2431   6.5922741583e+01   2.2135017383e+01    0.2033124    0.1321474  51.77   0.00088189    1.595    0.373
        92  -8.0890    166.0683    103.9769   7.0457240637e+01   2.7769737469e+01    0.2376172    0.2245007 -37.97  0.000442703    1.044    0.043
        93  -9.5978      6.0873    103.6097   1.1796696659e+02   5.3322506682e+01    0.4377356    0.2690305  57.46  0.001634394    1.973    0.493
        94  -8.2126     74.2074    102.3120   9.5612623652e+01   4.6789331527e+01    0.3333338    0.1841444 -49.65  0.001281492    1.637    0.389
        95  -9.0727    159.0086    101.1732   7.1305100908e+01   2.9993864069e+01    0.3750962    0.2075259 -44.89  0.001238597    1.817    0.450
        96  -8.8245    122.9931     97.3105   7.9419427265e+01   3.8969833081e+01    0.2996477    0.2700151 -24.59 0.0009248877    1.114    0.102
        97 -10.3698    122.8641     91.5546   7.7770993528e+01   4.0217972564e+01    0.6759013    0.5535311  14.80  0.001262087    1.383    0.277
        98  -9.1168    126.5861     83.5213   7.4310747536e+01   4.1040822450e+01    0.7520894     0.360599  27.43  0.002180848    4.056    0.753
        99  -9.4725     94.4117     97.1818   8.7831047923e+01   4.4652688604e+01    0.3654409    0.2711849 -59.30 0.0007251717    1.438    0.305
       100  -8.8157     96.2296     90.8573   8.5461827466e+01   4.5732327431e+01    0.4836424    0.3115708 -13.68  0.001847738    2.381    0.580
       101  -9.0329    239.3583     96.7524   5.5156596444e+01   1.2406754501e+01    0.2299703    0.1654091  31.54 0.0005780549    1.742    0.426
       102  -7.3837    171.2658     96.3037   6.7193139330e+01   2.8033659797e+01    0.1534662    0.1233692   5.27            0    1.526    0.345
       103  -8.2795    150.5843     96.2992   7.1934806682e+01   3.2954999494e+01    0.2669156    0.2237592  19.36 0.0007952029    1.333    0.250
       104  -9.0753    150.3057     90.3249   7.0274099878e+01   3.4207276469e+01    0.7723714    0.3051732 -28.70  0.002162027    3.940    0.746
       105 -10.1328     27.5478    123.0351   1.1423258800e+02   4.7161250112e+01    0.6000379    0.2960741  68.95  0.002054502    3.044    0.672
       106  -9.9624    153.2986    249.3759   1.0214395253e+02   2.2714523659e+00    0.3448295    0.1305847  41.65  0.001591414    2.117    0.528
       107 -10.9273     21.6352     53.3338   1.0197126737e+02   6.3629928316e+01    0.7554498    0.4917492  89.25  0.003031789    3.032    0.670
       108  -9.6802     15.9587     70.6265   1.0874889926e+02   6.0318193104e+01    0.5568851    0.2325438 -46.67  0.001375037    1.883    0.469
       109  -9.5263     17.1425     61.4189   1.0608025451e+02   6.2250818331e+01    0.6636358    0.3562611 -45.58  0.003353657    1.461    0.315
       110 -10.0977     12.9536     45.7356   1.0358752766e+02   6.5789376267e+01    0.6059226    0.2951774 -14.49  0.002382599    2.526    0.604
       111  -7.7568    223.4311    247.4455   8.8734670102e+01  -8.0825819253e+00    0.1178204   0.09042443  15.98 1.301179e-05    1.036    0.035
       112  -9.4983      6.9010     32.5174   1.0230069821e+02   6.8743194419e+01    0.2401748    0.1744183 -23.77 0.0008058833    1.182    0.154
       113  -9.1874    247.9495    241.4479   8.3456569731e+01  -1.0735070435e+01    0.1692557    0.1260195  -2.21 0.0005501859    1.120    0.107
       114  -9.8942     34.5573     90.5434   1.0625819171e+02   5.4328399036e+01     0.577835    0.2752565 -77.04  0.002014356    2.965    0.663
       115  -9.8557     36.5280     81.3766   1.0346733254e+02   5.6262128242e+01    0.7282768    0.3432748 -21.01  0.002711015    3.806    0.737
       116  -9.2763    140.4733     82.5177   7.0362925332e+01   3.8047949082e+01    0.6105052    0.3105397 -39.30 0.0009909745    1.957    0.489
       117  -8.6324    139.9812     75.5543   6.8335683807e+01   3.9476515518e+01    0.5069467    0.2867893 -37.68  0.001345362    1.770    0.435
       118  -9.0639    138.8080     92.6690   7.3825588109e+01   3.6425554060e+01    0.3833602    0.3534564 -76.89 0.0008963888    1.209    0.173
       119  -8.0280    139.2950     87.7272   7.2235747746e+01   3.7305618684e+01    0.3841477     0.203627  35.36  0.001415547    2.243    0.554
       120  -8.6547    157.5282     91.0726   6.8786145484e+01   3.2338676519e+01    0.4280203    0.2225864 -30.78  0.001586693    2.155    0.536
       121  -9.7780    110.5468     90.0811   8.0870666529e+01   4.3118796521e+01    0.8347974    0.4046373  29.04  0.002831978    2.964    0.663
       122 -10.3046     47.7738     84.3432   1.0010565506e+02   5.4423532638e+01    0.6933397    0.3836331 -71.28  0.001494719    2.340    0.573
       123  -9.2856     48.2028     77.7824   9.8227224623e+01   5.5855358721e+01    0.7178184    0.3920806 -23.78  0.003126394    2.459    0.593
       124  -7.6801    174.5933     88.7642   6.4381368981e+01   2.8647959955e+01    0.2266313    0.1409755 -47.09 0.0008262767    1.650    0.394
       125  -9.8469     81.6047     72.4897   8.4609759537e+01   5.2240977693e+01    0.4005969    0.3209101 -78.52 0.0008542025    1.810    0.447
       126  -9.2735     83.4077     64.8717   8.1451831371e+01   5.3450003817e+01     0.631251    0.3795328 -10.08  0.002504397    2.648    0.622
       127 -10.1703     85.3469     86.6417   8.7719249246e+01   4.8592287350e+01    0.4731573    0.3727014  87.82 0.0008602281    1.850    0.459
       128  -8.5533    163.4389     86.9081   6.6245368446e+01   3.1705036241e+01    0.4174694    0.2274722 -39.46  0.001134417    1.810    0.448
       129  -9.6280     87.3043     78.8496   8.4712637855e+01   4.9930353836e+01    0.5641092    0.3761602   9.80  0.001713516    2.045    0.511
       130  -8.5383    241.6848     85.3473   5.2148030160e+01   1.3747995181e+01    0.1468728    0.0966686 -61.00  0.000704758    1.721    0.419
       131  -9.3987    246.0806     91.1168   5.2896543959e+01   1.1928070857e+01    0.2113618    0.1872468 -10.44  0.001253068    1.243    0.196
       132  -9.2268    118.6054     80.0975   7.5465190708e+01   4.3481260503e+01    0.4288311    0.3267083 -70.84  0.001212396    1.795    0.443
       133  -8.1974    120.0188     75.9681   7.3752614039e+01   4.3981018016e+01    0.2823198    0.2250303 -16.10 0.0005090552    1.364    0.267
       134 -10.3620    103.8937     82.6210   8.0602208540e+01   4.6027718984e+01    0.5653129    0.3390836 -54.57  0.000886958    1.927    0.481
       135  -9.7766    104.9110     71.9771   7.6879749266e+01   4.7965473744e+01    0.8077431     0.557304  -7.77  0.003549757    1.925    0.480
       136  -9.4157    109.7020     63.8542   7.2703668835e+01   4.8487643849e+01     0.397861    0.2968822 -59.93 0.0006426857    1.732    0.423
       137  -9.1716    110.6119     58.3274   7.0518828610e+01   4.9266807318e+01    0.4268858    0.2881722  18.71  0.001222645    1.831    0.454
       138  -8.2759    170.5496     83.2980   6.3673649772e+01   3.0634423433e+01    0.2905562    0.1446861 -41.43 0.0006934932    1.978    0.494
       139  -8.7119    157.7255     83.0894   6.6410266521e+01   3.3806483811e+01    0.4071889    0.1996115 -37.74  0.001202336    2.028    0.507
       140  -9.1250     74.2229     80.2693   8.9580952962e+01   5.1799170794e+01    0.4754054     0.269886 -62.60 0.0009746749    2.329    0.571
       141  -7.6577     74.4815     75.0049   8.7880670022e+01   5.2886668957e+01    0.2582916    0.1670695 -19.33  0.001168104    1.913    0.477
       142  -8.7103    149.9361     80.2364   6.7361528446e+01   3.6224195011e+01    0.4381612    0.2244309 -36.46  0.001346661    1.966    0.491
       143  -8.9894    201.5321     77.1662   5.6150610593e+01   2.4141402612e+01    0.3882348    0.2586898 -25.44   0.00122408    1.632    0.387
       144  -8.1617    184.3215     78.2416   5.9501809071e+01   2.8143277199e+01    0.2577205    0.2299519   5.48 0.0006907207    1.268    0.211
       145  -6.8788    174.2848     78.6436   6.1570342116e+01   3.0545889753e+01    0.1606801    0.1176224 -66.55 0.0004740584    1.671    0.402
       146  -7.9936    166.7219     78.5893   6.3115198848e+01   3.2421693293e+01    0.2079691     0.150375  67.25 0.0004942538    1.537    0.349
       147  -8.7094    156.9751     76.4248   6.4592348134e+01   3.5207072581e+01    0.3429426    0.2053362 -51.66 0.0009102207    1.907    0.476
       148  -9.3688    127.3673     75.2119   7.1490435042e+01   4.2478457153e+01    0.3641992    0.2920046 -67.34 0.0008323472    1.563    0.360
       149  -9.3016    129.1248     69.2289   6.9092329315e+01   4.3180438083e+01    0.7299839    0.3993566  24.85  0.002502786    3.021    0.669
       150  -8.5431    130.4522     64.9853   6.7355112187e+01   4.3623991378e+01     0.297506    0.2526123 -30.22 0.0009519699    1.188    0.158
       151  -9.2347    115.1100     72.2422   7.3940558258e+01   4.5767332653e+01    0.5709541    0.3149128 -29.30  0.001598272    2.029    0.507
       152  -9.8607     63.3230     60.7437   8.7289445829e+01   5.7499559787e+01    0.6359573    0.2846224  33.51   0.00214531    2.387    0.581
       153  -8.1191     23.2588     69.0093   1.0551055979e+02   6.0163018923e+01     0.197746    0.1757101  -1.54 0.0004031629    1.274    0.215
       154 -10.3148     31.9862     64.3474   1.0079700270e+02   6.0450127024e+01    0.9423451    0.3527066 -40.34   0.00267566    2.448    0.591
       155  -9.4091     39.1641     56.0650   9.5352613253e+01   6.1474713469e+01    0.9020342    0.2783705 -48.07  0.003603129    2.602    0.616
       156  -8.7812     43.8228     54.1111   9.2770783859e+01   6.1353050847e+01    0.3030164    0.1842166 -28.04 0.0008114408    1.596    0.373
       157 -10.2008     49.9208     54.4548   9.0385303871e+01   6.0553389852e+01     0.657245     0.383016 -56.77  0.002771114    2.015    0.504
       158  -9.8640     55.9847     43.6279   8.3932952108e+01   6.1761353362e+01      1.06358    0.5383139   1.34   0.00332601    5.315    0.812
       159 -10.6096     55.2126     70.9072   9.3631967692e+01   5.6511275678e+01    0.6966113    0.4710489  64.68   0.00132701    2.625    0.619
       160  -9.1375     54.7492     63.3318   9.1440060665e+01   5.8158087096e+01    0.4565965    0.3129224  -1.71  0.001361319    1.715    0.417
       161  -8.0529    162.5280     72.9923   6.2349813242e+01   3.4443091822e+01    0.2314279    0.1494412 -38.62 0.0008024463    1.544    0.352
       162  -7.2956    175.3312     72.6800   5.9645659435e+01   3.1315250740e+01    0.1599349    0.1177844 -71.84 0.0007048686    1.693    0.409
       163  -8.4752    169.4748     70.6160   6.0204747579e+01   3.3122704410e+01    0.3608225    0.1512872 -33.98  0.001073967    2.421    0.587
       164  -9.1863    146.9629     69.2113   6.4663310656e+01   3.8932953466e+01    0.3958226    0.2654527 -55.99  0.001054487    1.793    0.442
       165  -8.5599    147.2509     63.8576   6.2906115275e+01   3.9776668314e+01    0.4378801     0.200559  38.65  0.001398134    2.665    0.625
       166  -8.5657    157.7609     63.3713   6.0439665305e+01   3.7253060056e+01    0.2862098    0.2228101 -60.75 0.0007261537    1.464    0.317
       167  -9.6976     94.8472     68.3877   7.8840682308e+01   5.0657634957e+01    0.4418347      0.26943 -47.65 0.0007751607    1.721    0.419
       168  -9.5067     96.9577     58.0303   7.4563924261e+01   5.2168811225e+01    0.7071141    0.4547667 -22.68  0.003266222    1.700    0.412
       169  -8.8164    138.9181     56.9429   6.2604010559e+01   4.2946361136e+01    0.3933029    0.2718131 -27.55  0.001266237    1.522    0.343
       170  -8.8750    137.9736     66.1526   6.5842612229e+01   4.1638097416e+01    0.3362397     0.229432 -47.57 0.0006422045    1.584    0.369
       171  -8.4032    138.4918     62.0326   6.4377588593e+01   4.2215486337e+01    0.3201002    0.2261201  15.12  0.001274021    1.853    0.460
       172  -8.9621    121.1498     66.1549   7.0221979212e+01   4.5557326033e+01    0.3674218    0.2402749 -48.89 0.0005714026    1.708    0.414
       173  -8.3115    122.3661     60.9371   6.8131054572e+01   4.6196521964e+01    0.3490979    0.1958705  36.25  0.001171444    1.940    0.484
       174  -8.0546    170.8537     65.1224   5.8309538478e+01   3.3688331878e+01    0.2355796    0.1996995 -67.23 0.0005279724    1.277    0.217
       175 -10.2824     74.0017     56.2454   8.1737967243e+01   5.6700799682e+01     1.275938    0.4960442 -33.24  0.004290655    2.929    0.659
       176  -8.7969     87.4251     57.4693   7.7480991140e+01   5.4110939361e+01    0.5061305    0.2412534 -45.38  0.001466492    2.213    0.548
       177 -10.3791     85.4630     48.3090   7.4749788388e+01   5.6076048146e+01    0.5482836    0.4169416 -85.54  0.001215762    2.539    0.606
       178  -7.6639    229.3088     61.2920   4.8024868766e+01   2.0131217681e+01    0.1302355    0.1079168  21.44 0.0002542404    1.583    0.368
       179  -8.4154    164.6760     59.5999   5.7867513914e+01   3.6124871837e+01    0.4334595    0.1935464 -22.34  0.001435403    3.179    0.685
       180  -8.6082    156.6880     69.5061   6.2556139251e+01   3.6491417314e+01    0.4660703    0.2503328 -20.19  0.001583873    2.603    0.616
       181  -8.7392    147.1531     56.6838   6.0631720638e+01   4.0966769546e+01     0.881984    0.2641185 -28.30  0.002439503    4.418    0.774
       182  -9.2075    149.6185     46.5894   5.6834558813e+01   4.1871677040e+01    0.6054483    0.2002244 -37.94  0.001746524    2.993    0.666
       183  -9.0676    130.0715     56.8472   6.4732214272e+01   4.5085536528e+01    0.5620171    0.2472515 -29.79  0.001448498    2.497    0.599
       184  -8.2394    122.1578     41.6480   6.1421530450e+01   4.9267702766e+01    0.5419105    0.2793692  20.44  0.001760889    3.817    0.738
       185  -9.3388    118.0385     55.0003   6.7256437334e+01   4.8177648596e+01     0.489562    0.3053689 -35.98  0.001429344    1.624    0.384
       186  -9.2358    121.0407     47.0208   6.3632452747e+01   4.8744022866e+01    0.4314809    0.2161211 -35.19 0.0004610419    2.035    0.509
       187  -7.5436    168.8315     56.1286   5.6015149104e+01   3.5614779980e+01    0.2048872    0.1739037  25.30 0.0004189473    1.324    0.245
       188  -8.8120    162.8660     53.2141   5.6270693660e+01   3.7563236581e+01     0.423227    0.1993525 -35.72  0.001340513    2.122    0.529
       189  -8.2865    152.6934     53.1747   5.8310789845e+01   4.0129918314e+01    0.3444129    0.1732252 -35.41  0.001390364    2.011    0.503
       190  -9.1891    105.3737     52.1165   6.9838506986e+01   5.1440004784e+01    0.5281386    0.2704427 -37.04  0.001509806    1.959    0.490
       191  -9.2932    141.6980     48.2133   5.9069439491e+01   4.3606468465e+01    0.6650947    0.3484415 -17.61  0.001781625    2.584    0.613
       192  -8.8535    139.4752     40.4456   5.6947667052e+01   4.5254374752e+01    0.4676057    0.2204646 -41.79  0.001473318    2.305    0.566
       193  -7.7347    172.4539     50.0814   5.3542744592e+01   3.5596477217e+01    0.2153818     0.145076 -31.94 0.0004361212    1.533    0.347
       194  -8.3801    157.3624     48.5075   5.5882527256e+01   3.9647134917e+01    0.3580569    0.1237032 -36.47  0.001167372    2.827    0.646
       195  -9.6929    130.6044     46.1903   6.0947759753e+01   4.6606772094e+01    0.8626781    0.3699411 -20.89  0.001755702    3.330    0.700
       196  -8.5842    132.7413     35.9950   5.6898595301e+01   4.7499765604e+01    0.2641206    0.2192313 -11.14 0.0004669181    1.293    0.227
       197  -7.9136    231.2933    243.3259   8.6673900063e+01  -8.6911899860e+00    0.1214543   0.07396481   6.14 0.0002017572    1.621    0.383
       198  -8.5927    112.2849     45.1992   6.5322342764e+01   5.1016290624e+01    0.7735622    0.3640112 -16.67  0.002579388    3.453    0.710
       199  -8.1587    162.2125     46.2146   5.4233993791e+01   3.8747142753e+01    0.2033874    0.1656487 -62.63 0.0004803839    1.344    0.256
       200  -8.6915     70.6885     31.8825   7.3374479319e+01   6.1335383706e+01    0.3274576     0.186412  19.98  0.001522103    2.084    0.520
       201  -9.3551     71.4189     26.2727   7.0679919590e+01   6.2000447929e+01    0.5570969    0.2683635  44.95  0.002568797    2.070    0.517
       202  -9.8882     76.2317     32.2780   7.1532348905e+01   6.0288416675e+01    0.3913042    0.2854878  49.89  0.001148431    1.586    0.370
       203  -9.6179     69.5053     42.5181   7.8197735810e+01   5.9868525622e+01    0.4506646    0.2948746 -56.64  0.001248105    2.349    0.574
       204  -8.8100     69.6970     36.5272   7.5694580229e+01   6.0802403620e+01    0.4779187     0.254445  20.44  0.001835304    2.451    0.592
       205  -9.5614     79.5433     23.9417   6.6812758952e+01   6.0798829821e+01    0.4334019    0.2431387  27.20   0.00139082    1.879    0.468
       206  -9.0717     84.7024     21.9230   6.4247874405e+01   6.0035846851e+01    0.2703973    0.2371677  14.89 0.0006891775    1.043    0.041
       207  -8.6519     40.4738     35.0000   8.7133393553e+01   6.5294770864e+01    0.3850674    0.2727375  32.86  0.001716346    1.616    0.381
       208  -9.9611     38.0581     42.2101   9.1018424991e+01   6.4283083542e+01     0.344044    0.3285685  76.27  0.001718728    1.563    0.360
       209  -8.5943    107.9476    238.3811   1.0965557445e+02   1.1111843390e+01    0.1932316    0.1551136  77.62 0.0005718026    1.300    0.231
       210  -8.8062    153.4737     41.0150   5.4260248214e+01   4.1676984362e+01    0.3147809    0.2456282 -38.59  0.001185144    1.339    0.253
       211  -8.7253    153.7007     35.0855   5.2310538546e+01   4.2395340918e+01    0.2754761    0.1919622 -58.12 0.0008106673    1.687    0.407
       212  -8.3764    109.8811     26.3213   5.8824717950e+01   5.4106569737e+01    0.3027636      0.25418  11.33  0.001734976    1.177    0.150
       213  -8.4705    111.4999     21.0474   5.6368728000e+01   5.4339238874e+01    0.3594046    0.1992612 -25.84  0.001706939    1.907    0.476
       214  -9.5863    188.7547    234.5096   9.3161495150e+01  -1.1400540869e+00    0.4246775    0.2768072 -64.32  0.002086999    3.099    0.677
       215  -8.3771    218.7006    231.1792   8.6955295013e+01  -5.3276694432e+00    0.1875239    0.1402273  30.38 0.0003256099    1.228    0.186
       216  -9.0340    110.2280     33.1440   6.1362019100e+01   5.3175242278e+01     0.400031    0.2252718 -41.90  0.001121119    2.034    0.508
       217  -8.9175    104.9400     41.0916   6.5864574641e+01   5.3247326658e+01    0.3817565    0.2242763 -43.75  0.001032915    1.953    0.488
       218  -8.1125    106.5394     36.4417   6.3634209039e+01   5.3556984726e+01    0.3136223    0.2005943  42.46  0.001533944    1.457    0.314
       219 -10.3268     90.2867     38.1921   6.9206091933e+01   5.6734578308e+01    0.8494796    0.3081267  35.63  0.002895536    3.378    0.704
       220  -7.5489    160.4747     39.5406   5.2476925346e+01   4.0100736830e+01    0.1446851    0.1361549  60.86 8.142844e-05    1.015    0.014
       221  -8.2926     53.6524     39.1240   8.3108247477e+01   6.2872399042e+01    0.1952068    0.1738309  19.03  0.000605824    1.255    0.203
       222  -8.9857    144.3100     36.5584   5.4622583006e+01   4.4568788570e+01    0.3120588    0.2235152 -57.63 0.0006914074    1.674    0.403
       223  -8.8631    118.9226     34.7085   5.9703374274e+01   5.0971286261e+01    0.2889908     0.199599 -26.86 0.0007237538    1.513    0.339
       224  -9.2955    101.1547     32.6550   6.3690783170e+01   5.5246730798e+01    0.4400837    0.2306132 -28.33  0.001384746    1.962    0.490
       225  -7.4764    110.3731    223.8273   1.0746914584e+02   1.3398180022e+01    0.1684796     0.117237 -48.93 0.0009557913    1.729    0.422
       226  -9.3594     60.3772     33.9769   7.8237569199e+01   6.2719509950e+01    0.3377395    0.2716506 -57.29 0.0009792177    1.854    0.460
       227  -9.1653     62.5093     27.0052   7.4373241697e+01   6.3426549938e+01    0.5116393    0.2467837  23.98  0.002200912    2.595    0.615
       228  -7.2232     56.0000    215.8374   1.1776252014e+02   2.2729688573e+01      0.18746   0.06302441 -69.92 0.0005496133    2.954    0.661
       229  -9.1631    217.3196    213.5566   8.4156606246e+01  -2.6562590683e+00    0.2765112    0.2466872 -80.80  0.001081551    1.942    0.485
       230 -10.1189     10.1850    207.7055   1.2611084904e+02   2.9407155227e+01    0.3818694    0.2932741  25.33  0.002272471    1.794    0.443
       231  -8.4846     42.1919     27.8635   8.3349341336e+01   6.6267476945e+01    0.1987184    0.1476119 -10.26 0.0002652037    1.157    0.136
       232  -8.9759    205.4650    208.1890   8.5460174867e+01   9.0913177144e-02    0.2665059    0.1806059  40.20 -6.530622e-05    1.444    0.307
       233 -10.4075    236.9337    206.8113   7.9307684999e+01  -4.7634547777e+00    0.2351994    0.1916624  -1.07 0.0004074131    1.046    0.044
       234  -8.9206    164.4293     94.3111   6.8139747212e+01   3.0056972666e+01    0.3937193    0.2551955 -44.86  0.001690384    1.550    0.355
       235  -9.7973    123.9992    206.0060   1.0216229159e+02   1.4634154640e+01    0.1923605    0.1713455  49.57  0.001162498    1.004    0.004
       236  -8.4546      1.3410     28.5653   1.0380070652e+02   6.9795408630e+01    0.2716748   0.06819172 -53.34  0.001210688    2.673    0.626
       237 -10.1490    153.1845     26.9538   4.9785485679e+01   4.3510349003e+01    0.5942421    0.3706031  79.92  0.002738154    1.818    0.450
       238  -9.2525    144.0460     26.3513   5.1256572092e+01   4.5880480401e+01    0.3392379    0.2056219 -20.57  0.001422083    1.862    0.463
       239  -8.5131    128.4344     25.8710   5.4259187832e+01   4.9788470019e+01    0.2474633    0.2090059 -76.84 0.0005644673    1.431    0.301
       240  -7.4442    171.5814     25.2616   4.6287002660e+01   3.9033623716e+01    0.1768903    0.1382883  -6.51   0.00093547    1.556    0.357
       241  -7.7581    162.8011     24.8089   4.7499521671e+01   4.1315779318e+01    0.2564564    0.1267412  33.69 0.0009630278    2.920    0.658
       242  -8.9664    206.6029    203.4598   8.4370740724e+01   6.3923136260e-01    0.2355643    0.1917211   6.71 0.0008150233    1.106    0.096
       243  -9.2310    192.2503    194.5703   8.5569569668e+01   4.6104828154e+00    0.8444742     0.432376 -61.37  0.002496962    6.076    0.835
       244  -7.1206    216.7359    199.2769   8.1628871775e+01  -4.1556024894e-01    0.1102257     0.107521  73.83 0.0002135013    1.476    0.323
       245  -8.3960    207.1667    198.8117   8.3390314258e+01   1.2822388348e+00    0.2162245    0.1886408  11.50 0.0003004833    1.042    0.040
       246  -7.3489    233.7133    195.0072   7.7647320644e+01  -2.5564356386e+00    0.1495403    0.1052949 -26.11 0.0004119832    1.333    0.250
       247  -9.1266    103.0393     21.0893   5.8550063497e+01   5.6250026080e+01    0.3057342    0.2980734  25.74 0.0006680239    1.165    0.142
       248 -10.2567    174.7675    194.0957   8.9122773868e+01   7.8716643598e+00    0.2497597    0.2444652  11.70 0.0003940721    1.136    0.120
       249  -8.4693    126.9761    193.0516   9.9495330339e+01   1.6750429510e+01    0.2002523    0.1843781  53.59            0    1.016    0.016
       250  -9.3390     59.5651    186.5350   1.1407566046e+02   2.8575529495e+01    0.2338285    0.2009727 -72.12  0.001487901    1.196    0.164
       251  -8.8035     40.8144     20.5939   8.0692714127e+01   6.7561568946e+01    0.2848466    0.1520537 -38.57 0.0009608326    1.807    0.447
       252  -8.8571    196.0019    178.5672   8.1651589895e+01   6.7256921572e+00    0.2405476    0.1949015 -26.32 0.0003375904    1.223    0.182
       253  -8.1381    181.4319    176.3828   8.4257923058e+01   9.9041922983e+00    0.3353316    0.1783587 -52.46  0.001366116    2.363    0.577
       254  -7.0249    228.2826    172.6224   7.4140267779e+01   1.8419406916e+00    0.1292069    0.1081878 -60.65 0.0007012153    1.716    0.417
       255  -8.7645     60.4121    171.0134   1.1201224695e+02   3.2038595405e+01    0.2122577    0.1795245  50.07 0.0004960425    1.207    0.171
       256  -7.5166    123.9817    169.9678   9.6196683567e+01   2.2260438561e+01    0.1687446    0.1632881 -81.09 0.0003346455    1.052    0.049
       257  -7.7463    248.3354    169.6666   6.9985201388e+01  -1.1081653934e+00    0.1224186    0.1046844 -60.39 0.0007052162    1.738    0.425
       258  -7.6005    229.6542    167.8238   7.2882714116e+01   2.3826660622e+00    0.1959234    0.1176118 -41.55  0.000944824    1.711    0.415
       259  -7.5476    154.2711    150.0366   8.4757311463e+01   2.0707487677e+01    0.1997188    0.1921793 -34.21  0.001064498    1.051    0.049
       260  -8.8112    133.9229    146.7812   8.9022334359e+01   2.5582885506e+01    0.7623701      0.20186 -54.12  0.001858977    5.273    0.810
       261  -8.9545     68.0051    145.5042   1.0632076836e+02   3.7163515217e+01    0.3389518    0.2529314  22.13  0.001785504    1.629    0.386
       262  -9.1264     65.4800    143.4839   1.0667470714e+02   3.7997699386e+01    0.2928931    0.2603346 -46.05 0.0009958524    1.213    0.175
       263  -8.9580    132.6683     17.3101   5.0335653840e+01   4.9679403474e+01    0.3159813    0.2168636 -76.38 0.0007851636    1.982    0.496
       264  -8.7604    112.4911    133.9867   9.1786128961e+01   3.2722822607e+01    0.3833832    0.2698496  78.98  0.001230263    2.052    0.513
       265  -9.1198    135.6845    132.6703   8.5325379289e+01   2.8418151799e+01    0.4027616    0.2233264 -46.94  0.001612133    1.795    0.443
       266  -9.7223    131.7710    131.1992   8.5985398438e+01   2.9561914457e+01    0.5405344    0.4076408  27.27  0.002495065    1.478    0.323
       267  -7.4639    151.1707     20.3897   4.8012074003e+01   4.4746738778e+01    0.1951749    0.1259978  79.10 0.0005290599    1.651    0.394
       268  -7.8742    139.6309     17.7919   4.9183979384e+01   4.7909549999e+01     0.182627    0.1237861 -37.72 0.0002708905    1.613    0.380
       269  -7.8672    155.3517     17.7101   4.6465977829e+01   4.3971025962e+01    0.1428378    0.1005164 -72.39  0.000702674    1.671    0.402
       270  -8.0929    143.4868    132.4764   8.3296817077e+01   2.6819413878e+01    0.3582466    0.2476997  85.29  0.001374463    2.470    0.595
       271  -8.8838     83.3229    131.5284   9.9434749800e+01   3.8350973704e+01    0.6680175    0.3850041  73.28  0.002396397    3.224    0.690
       272 -10.9035     70.2273    126.4811   1.0222787608e+02   4.1523990349e+01    0.8503893    0.6220272 -40.88  0.001607076    1.432    0.301
       273 -10.2103     58.3701    124.5643   1.0537514620e+02   4.3561194738e+01     0.674863    0.3905174  77.08  0.002115736    2.785    0.641
       274  -9.8609     98.6278    128.6421   9.4440291836e+01   3.6516930874e+01    0.6707976    0.4146486  74.05  0.002328569    2.838    0.648
       275  -7.9202    160.4099    128.2520   7.8131917581e+01   2.4054700774e+01    0.3153393    0.1515128 -39.23  0.001149844    2.118    0.528
       276  -8.9551    126.1054    128.7869   8.6896714780e+01   3.1271809761e+01    0.3142249    0.2264707 -44.74  0.001436748    1.374    0.272
       277  -9.3072    142.7482    125.8400   8.1845485523e+01   2.8447269344e+01    0.3750859    0.3070732  89.93  0.001744576    1.557    0.358
       278 -10.2629    139.5777    103.7955   7.6814124772e+01   3.3937726781e+01    0.7235957    0.3459397 -42.91  0.001761057    2.066    0.516
       279 -10.2289    117.0670    125.3315   8.8505661014e+01   3.3874826279e+01    0.9174814    0.6037929 -84.70  0.002035383    2.645    0.622
       280 -10.4624    132.1789    119.9460   8.3082210450e+01   3.2022016642e+01    0.9360115    0.5862787  71.36   0.00308581    2.763    0.638
       281 -11.1306    133.3483    109.5260   8.0022360540e+01   3.4081841293e+01     1.127635    0.5418876 -44.20  0.002575215    2.052    0.513
       282 -10.4410    108.8773    112.8193   8.7683265720e+01   3.8374059349e+01     1.187328    0.5005487 -51.25  0.002180818    2.368    0.578
       283 -10.3448    107.9988     99.4859   8.4348799288e+01   4.1576593060e+01    0.7618694    0.5408447  79.33  0.002373318    2.280    0.561
       284  -9.8363     41.9534    122.7695   1.0994936005e+02   4.5867751033e+01    0.6634638    0.3254729 -88.17  0.002529183    3.142    0.682
