#   1 NUMBER                 Running object number                                     
#   2 MAG_AUTO               Kron-like elliptical aperture magnitude                    [mag]
#   3 X_IMAGE                Object position along x                                    [pixel]
#   4 Y_IMAGE                Object position along y                                    [pixel]
#   5 X_WORLD                Barycenter position along world x axis                     [deg]
#   6 Y_WORLD                Barycenter position along world y axis                     [deg]
#   7 A_WORLD                Profile RMS along major axis (world units)                 [deg]
#   8 B_WORLD                Profile RMS along minor axis (world units)                 [deg]
#   9 THETA_WORLD            Position angle (CCW/world-x)                               [deg]
#  10 FWHM_WORLD             FWHM assuming a gaussian core                              [deg]
#  11 ELONGATION             A_IMAGE/B_IMAGE                                           
#  12 ELLIPTICITY            1 - B_IMAGE/A_IMAGE                                       
         1 -12.5870    239.7350     44.3760   8.3625760675e+00   2.1304803092e+01     2.370562      1.03806 -78.06   0.00825647    4.152    0.759
         2 -14.0888    242.9300     83.9281   1.6926482901e+01   1.5777166908e+01     1.552477    0.6042199 -39.50   0.00173147    2.029    0.507
         3 -12.8849    247.9614     66.0841   1.2525822471e+01   1.7187384218e+01     1.092679    0.4631261 -26.50  0.004491059    2.166    0.538
         4 -12.0221    249.1248     32.5757   5.0695279141e+00   2.0916910309e+01     1.060185    0.6838263 -40.80  0.003722916    1.171    0.146
         5 -13.7471    211.9106    101.2666   2.4693633094e+01   1.8889103238e+01     3.318809     1.290457 -34.11   0.01394572    2.228    0.551
         6 -13.2817    228.3608     53.1839   1.1369395249e+01   2.2408357514e+01     2.444762     1.471306 -22.60   0.00857064    1.681    0.405
         7  -8.7445    230.4652     18.4969   3.0062749472e+00   2.6001713613e+01    0.3583161    0.2217592   2.87  0.001805402    2.762    0.638
         8  -7.8902    249.4196     16.7496   1.5937317862e+00   2.2543827641e+01    0.1526132    0.0977219 -20.55 0.0009333321    1.648    0.393
         9  -8.1686    180.9116    249.7919   5.6834221061e+01   2.0977816708e+00    0.1722037    0.1108422   8.98 0.0008727048    1.302    0.232
        10  -8.3793    248.5186    205.9900   3.9471322346e+01  -4.1991519250e-01    0.1569193   0.08286266 -26.09 0.0006336714    1.592    0.372
        11  -8.6867    197.5809    203.8650   4.7366325039e+01   5.8878304575e+00    0.1970461     0.171258  37.01 0.0007861799    1.550    0.355
        12  -8.6645    250.2940    201.2713   3.8462545466e+01  -9.2566236401e-02    0.1845263    0.1175927 -29.96 0.0008828726    1.534    0.348
        13  -7.3460    211.6737    202.3412   4.4673799113e+01   4.2908124121e+00   0.09550864   0.09353198  35.22 0.0007051285    1.734    0.423
        14  -7.8919    245.1828    201.3949   3.9226770305e+01   4.5279876246e-01    0.1350339   0.09136222  34.23 0.0009535635    1.784    0.439
        15 -10.1251    218.7409    198.8515   4.2928868767e+01   3.8544890109e+00    0.2106505    0.1642193   1.98 0.0003125666    1.051    0.048
        16  -7.7682    209.4207    196.2111   4.4055916584e+01   5.3743905291e+00    0.1528804    0.1024172 -37.93 0.0009233942    1.673    0.402
        17  -8.4860    237.4424    195.4137   3.9408828745e+01   2.0228864340e+00    0.2408841   0.09613647  39.01  0.001268986    2.814    0.645
        18  -8.7669    199.3952    192.2407   4.5143266286e+01   7.2416194439e+00    0.2161712    0.1904721  43.07 0.0008346866    1.596    0.373
        19  -8.0500     11.6557    193.3128   8.8780031580e+01   3.1798607174e+01    0.1381431   0.06407566  53.14 0.0007046741    1.708    0.414
        20  -8.0185    173.2246    190.8943   4.9837667603e+01   1.1129130691e+01    0.2324836    0.1580985 -65.15  0.001152369    2.864    0.651
        21  -8.7708    232.5673    186.8833   3.8722942480e+01   3.6415824096e+00    0.2411222    0.1512237  41.47  0.001517079    2.035    0.509
        22  -8.2642    227.9868    185.7089   3.9235045444e+01   4.3602446721e+00    0.1584559    0.1212306   8.39 0.0003820646    1.133    0.118
        23  -9.3465    249.2309    185.4673   3.6009496207e+01   1.8205712678e+00    0.2403734    0.2048587  -6.54  0.001060727    1.336    0.252
        24  -8.2502    224.0287    184.2058   3.9603526638e+01   5.0576538573e+00    0.1609354    0.1244775   3.94 0.0004146832    1.081    0.075
        25  -8.1114    201.8948    183.5893   4.3218468401e+01   8.1163078235e+00    0.1950833    0.1659217 -79.66   0.00117565    2.345    0.574
        26  -8.0068    211.6977    182.7691   4.1381261842e+01   6.8805803785e+00    0.2167476    0.1347613 -50.47  0.001160831    2.524    0.604
        27  -8.5255    192.8271    178.8671   4.4019338966e+01   1.0103217572e+01    0.2147927      0.17304 -49.61  0.001193632    1.669    0.401
        28  -9.0109    231.6380    175.8655   3.6947498076e+01   5.1503323460e+00    0.2143938    0.1729814  10.51 0.0006240309    1.185    0.156
        29  -7.7295    183.7781    176.6306   4.5317140321e+01   1.1794560139e+01    0.1709051    0.1111182  42.15 0.0009361763    1.666    0.400
        30  -9.5962    250.1908    174.0569   3.3908122983e+01   3.0567610027e+00    0.2104931     0.125914 -28.87 0.0003957643    1.402    0.287
        31  -7.5576    219.6897    174.3472   3.8560633309e+01   6.9397645156e+00    0.1048261   0.09375326 -51.00 0.0007045234    1.709    0.415
        32  -9.3363    241.6716    172.3054   3.4814688450e+01   4.3197582144e+00    0.3082903    0.1749836 -16.73  0.000840812    1.595    0.373
        33  -7.6352    207.2318    170.9827   4.0027357893e+01   9.1629295293e+00    0.1598591   0.09139605 -33.26 0.0008748563    1.623    0.384
        34  -8.3580    236.2716    168.9990   3.5015810561e+01   5.4301354716e+00    0.1670187    0.1650738 -21.34 0.0006845068    1.623    0.384
        35  -9.0797    192.0102    167.6193   4.2113049983e+01   1.1942653102e+01    0.2310443    0.1718927 -34.17 0.0006129927    1.334    0.250
        36  -9.4262    226.5216    161.0497   3.5027958169e+01   7.8015254874e+00    0.3430368    0.2102216  20.09 0.0003453104    1.749    0.428
        37  -8.9971    237.6967    159.0931   3.2985536941e+01   6.5238293316e+00    0.2254293    0.1985966 -10.72 0.0008372865    1.235    0.190
        38  -8.9788    229.6718    165.7463   3.5417661311e+01   6.7344067171e+00    0.3390954    0.1246494 -33.48  0.001602806    2.378    0.580
        39  -9.9558    234.5215    163.7425   3.4315656244e+01   6.3434150316e+00    0.3437679    0.2695782  21.67  0.001195125    1.314    0.239
        40  -8.5828    238.3062    162.6684   3.3559659209e+01   5.9778651176e+00    0.1828685    0.1552424  47.34 0.0005537476    1.734    0.423
        41  -7.7477    152.2681    165.6713   4.9805225948e+01   1.8705730800e+01    0.1256721    0.1097293  81.14 0.0001956479    1.578    0.366
        42  -8.7074    205.8845    161.9899   3.8572802733e+01   1.0677735588e+01    0.3561396    0.2888879 -74.71  0.002032855    2.319    0.569
        43  -7.8110    159.5030    161.4902   4.7436596902e+01   1.8250880411e+01    0.3032473    0.1063843 -31.18 0.0008106672    5.860    0.829
        44  -7.4348    212.2559    159.7037   3.7058393334e+01   1.0056210043e+01    0.1076598   0.09371346 -45.96 0.0002201835    1.497    0.332
        45  -9.4151    247.2130    158.4621   3.1519059675e+01   5.3455429865e+00    0.2268926    0.1409998  48.18  0.001391791    2.283    0.562
        46  -7.6577    179.5188    158.5474   4.2748626140e+01   1.5403897133e+01    0.1308184    0.1191784  -0.50  0.000101432    1.065    0.061
        47 -12.9766    224.5137    141.1107   3.1453248687e+01   1.0874354330e+01     1.935806     1.394318 -54.20   0.00307467    1.939    0.484
        48  -8.6004    139.7576    246.0168   6.4088862029e+01   7.4088945721e+00    0.1710653    0.1044533  11.92 0.0007958488    1.645    0.392
        49 -13.7623    249.5466    132.6756   2.6294882476e+01   8.3290343044e+00     1.645483    0.6248431 -25.74  0.001677953    2.569    0.611
        50 -13.1469    249.2801    109.8960   2.1738681220e+01   1.1340840297e+01    0.9364985    0.2812495 -30.71  0.001116405    2.802    0.643
        51 -12.2281    230.0755    119.0913   2.6096077780e+01   1.3120871090e+01    0.6814938     0.463901  37.71 0.0003930769    1.685    0.406
        52 -12.1326    228.3455    111.4827   2.4699645361e+01   1.4483760229e+01    0.5841721    0.4435028 -73.03   0.00339736    1.997    0.499
        53  -7.5187    214.3114    210.9847   4.5598708129e+01   2.8852300003e+00    0.1506461   0.08733157 -52.97 0.0007041048    4.204    0.762
        54 -12.5775    237.5628     89.0117   1.8630930272e+01   1.6022938069e+01    0.3832651    0.2791615 -33.33 0.0003524144    1.109    0.098
        55  -8.0042    196.0546    244.1313   5.3460666016e+01   1.0599137621e+00    0.1867921   0.09506299   8.90 0.0008065893    2.076    0.518
        56 -12.8509    244.3483     60.2853   1.1565054601e+01   1.8539660016e+01    0.6924917    0.5337706  -5.52  0.003221994    1.577    0.366
        57 -11.9755    248.2358     98.8967   1.9564724762e+01   1.2943357470e+01    0.4601283    0.3034737 -18.46 0.0005546404    1.452    0.311
        58 -12.6783    241.1115    112.6688   2.3300570754e+01   1.2241118589e+01    0.5596536    0.3927073 -45.38  0.002118687    1.448    0.309
        59 -12.0906    241.6664    107.5012   2.2145242493e+01   1.2849890417e+01    0.3082908    0.2439138 -39.07 0.0004074819    1.182    0.154
        60 -12.0988    232.5023    128.9724   2.7823121386e+01   1.1350697829e+01    0.3513304    0.2733393 -44.55 0.0003466545    1.412    0.292
        61 -13.4488    237.7613    126.3740   2.6571930090e+01   1.0899418414e+01    0.5648357    0.5322816 -65.98  0.004075918    1.448    0.309
        62 -11.9531    244.0049    102.9030   2.0893982243e+01   1.3090856713e+01    0.2497711     0.178275 -34.57 0.0003785332    1.141    0.124
        63 -12.3007    242.0393     98.9942   2.0289953032e+01   1.3931287700e+01    0.2940191    0.2754667  25.34 0.0003339966    1.280    0.219
        64 -12.4390    233.7721     73.3192   1.5520013762e+01   1.8787986469e+01    0.9980345     0.732704 -13.21   0.00600741    1.501    0.334
        65  -8.9163    212.9400    148.7567   3.4803669976e+01   1.1554733682e+01    0.3087093    0.2070479 -62.50  0.001486639    2.936    0.659
        66  -8.3027    163.1681    149.9596   4.4368081692e+01   1.9714549526e+01    0.2013401    0.1940712 -68.13  0.001213814    1.255    0.203
        67  -9.6910    191.6813    148.4006   3.8408367555e+01   1.5048537057e+01    0.3963139     0.229348  37.10  0.002015981    1.769    0.435
        68  -8.5130    186.6793    145.9776   3.8837309731e+01   1.6294674376e+01    0.1954248    0.1848059  42.59 0.0004046637    1.264    0.209
        69  -8.1701    133.5962    148.2982   5.0810019021e+01   2.5363985720e+01    0.2620301    0.1417303 -51.96  0.001117843    2.008    0.502
        70  -7.6183    191.3017    244.3233   5.4309689190e+01   1.5680205185e+00    0.1107951   0.06557444   2.02 0.0005883792    1.633    0.388
        71  -8.6177    202.1313    144.8888   3.5832618465e+01   1.3871046362e+01    0.1883403    0.1700763 -40.38  0.001184646    1.286    0.222
        72  -8.7435    183.1527    142.5210   3.8782178303e+01   1.7488059603e+01    0.2103933     0.186107 -54.35 0.0008084645    1.363    0.266
        73  -7.5161    141.6565    143.3082   4.7834251510e+01   2.4907123876e+01    0.1443538    0.1156513  76.15 0.0007043857    1.695    0.410
        74  -9.4299    210.4362    138.5999   3.3143678457e+01   1.3473579350e+01    0.4121129    0.1938085 -41.46  0.001939566    2.057    0.514
        75  -9.1481    174.4486    139.4458   3.9827628096e+01   1.9578314669e+01    0.3666746    0.2598864 -58.52 0.0006786211    1.859    0.462
        76 -10.3517    199.4856    133.2497   3.3841494700e+01   1.6153593962e+01    0.4190966     0.356847 -48.97  0.001964799    1.347    0.258
        77  -9.5935    205.3523    129.9179   3.2137382165e+01   1.5662338111e+01    0.3355283    0.2560318 -55.90  0.001898621    1.662    0.398
        78  -8.8963    200.1629    128.1486   3.2618383370e+01   1.6848573515e+01    0.2747537     0.220349 -20.45  0.001008008    1.137    0.120
        79  -8.1916    200.4951    124.4852   3.1754922999e+01   1.7373798462e+01    0.1927911    0.1155951 -42.72 0.0009613181    1.618    0.382
        80 -10.0372    196.3453    121.5062   3.1789462965e+01   1.8607283364e+01    0.3855829    0.2575929 -60.27  0.001335229    2.135    0.532
        81 -11.2142    192.1358    129.7130   3.4356162879e+01   1.8030682468e+01    0.4615928    0.2324511 -40.58 0.0007383738    1.871    0.465
        82  -8.8882    152.9841    130.2870   4.2355203140e+01   2.5339988165e+01    0.2059848    0.1887819  28.81 0.0006242184    1.083    0.076
        83  -7.9958      5.4751    129.1044   8.7594730368e+01   4.7712812228e+01    0.1956254    0.1175971 -85.94 0.0003540631    1.486    0.327
        84  -9.2177    166.2589    126.1030   3.8521244143e+01   2.3539668030e+01    0.2639031    0.1972339  78.90  0.001241183    2.070    0.517
        85  -8.6397    115.6202    122.8447   5.0024323458e+01   3.4295295073e+01    0.2225343    0.1453993 -62.00   0.00068359    1.762    0.432
        86  -8.2769    174.4789    124.9937   3.6601899019e+01   2.2143970081e+01    0.2073348    0.1321261 -36.47 -7.603415e-05    1.494    0.331
        87  -9.1975    151.7718    121.0652   4.0475479113e+01   2.7391219286e+01    0.2674587    0.2132197  42.07  0.001086482    1.270    0.212
        88  -9.2203    189.0049    118.2463   3.2321091981e+01   2.0520676361e+01    0.2151916    0.1875174 -57.19  0.001044105    1.310    0.237
        89  -9.2133    185.9883    116.0000   3.2336325996e+01   2.1479893926e+01    0.2490126    0.1873927  65.01  0.001298956    1.699    0.411
        90  -8.9128    170.3448    117.1694   3.5584306956e+01   2.4367825316e+01    0.2926871    0.1714175  70.27  0.001075568    3.307    0.698
        91  -9.1720    194.6098    112.7472   3.0071388073e+01   2.0359809323e+01    0.3501502    0.1834498 -42.28  0.001503313    1.795    0.443
        92  -9.7634    140.8947    116.6365   4.1941666048e+01   3.0517383095e+01    0.2762674    0.2049682 -32.91  0.001322302    1.409    0.290
        93  -7.6796    176.3879    111.8260   3.3115094144e+01   2.4105206636e+01    0.2097247     0.128233 -26.33 0.0009432764    1.764    0.433
        94 -10.0355    134.2519    108.7669   4.1589942913e+01   3.3551156897e+01    0.3560823    0.2568717 -65.48    0.0016032    1.695    0.410
        95 -11.4766    155.3379    105.4372   3.5787747994e+01   2.9682903427e+01      0.88499    0.3634128 -34.34  0.003090549    2.706    0.630
        96  -9.4427    188.4905    102.4335   2.8638602256e+01   2.3261162069e+01    0.3921795    0.2600148 -34.67  0.001646202    1.379    0.275
        97  -8.4839    179.1639    107.1817   3.1459091226e+01   2.4352873718e+01    0.2004395    0.1622067 -57.32  0.001044631    1.366    0.268
        98  -8.5288    174.4119    101.6929   3.0970541626e+01   2.6297212775e+01    0.2748922    0.1287168 -40.99 0.0009730601    1.994    0.498
        99  -9.3723    189.9986    107.1791   2.9534172139e+01   2.2172938819e+01    0.3497608     0.253162 -39.11  0.001721537    1.270    0.212
       100  -9.7119    179.8749     98.2789   2.9102844200e+01   2.5737228783e+01    0.4200465    0.1922833 -30.25  0.001637248    2.323    0.570
       101 -10.6293    128.2697     98.0913   4.0258400349e+01   3.7097942420e+01    0.4730534    0.2874565 -37.43  0.001986069    1.725    0.420
       102 -10.4079    164.7073     94.6668   3.1009634649e+01   2.9640646723e+01    0.5076348    0.2752758 -48.64  0.002022205    1.911    0.477
       103  -9.8488    160.0274     95.8215   3.2260958501e+01   3.0464534244e+01    0.3387319    0.2151492 -49.88  0.001523727    1.621    0.383
       104  -9.3759    154.6238     95.3381   3.3261627840e+01   3.1756261136e+01    0.2742246    0.1881002 -40.28  0.001072492    1.404    0.288
       105  -9.5650    196.9724     93.6301   2.5094819166e+01   2.2968897897e+01    0.3611473    0.2133619 -55.28   0.00165812    2.021    0.505
       106  -8.9791    182.7158     93.5334   2.7394185997e+01   2.5938074581e+01    0.2750181    0.1178558 -36.08  0.001083732    2.144    0.534
       107  -8.0924    176.6058     92.2578   2.8134932789e+01   2.7461829038e+01    0.2811252    0.1259961 -39.93  0.001119604    2.046    0.511
       108  -9.2741    168.8000     90.8979   2.9210198546e+01   2.9406032859e+01    0.4120498    0.2121575 -60.82  0.001408028    3.311    0.698
       109  -9.4059    142.2682     90.1720   3.4571790599e+01   3.5544113867e+01    0.3666466    0.1281438 -42.10  0.001195576    2.768    0.639
       110 -10.1375    135.2692     90.6183   3.6369388565e+01   3.7059238450e+01    0.3441043    0.2599109 -80.92  0.001546749    1.738    0.425
       111 -12.8718    226.2955     92.6129   2.0776666374e+01   1.7512506799e+01    0.6790273    0.4013836 -28.55  0.000372316    1.483    0.326
       112  -9.5200    150.8893     88.1112   3.2057218685e+01   3.3957622049e+01    0.3308854    0.2202075 -73.92  0.001349151    2.252    0.556
       113 -12.6168    230.2830    101.5168   2.2266533822e+01   1.5560506090e+01      1.00303    0.6093669 -48.74  0.005260786    1.715    0.417
       114  -8.7931    172.1573     87.1851   2.7589997239e+01   2.9304455067e+01     0.234281    0.2109014  86.07 0.0003338114    1.220    0.181
       115  -9.5267    134.3626     82.9115   3.4320458965e+01   3.8797602205e+01    0.3606384    0.1787999 -50.04  0.001343744    2.166    0.538
       116  -8.4529    189.4042     77.2162   2.2069900144e+01   2.7131006489e+01    0.2833011     0.173316 -29.51  0.001349835    1.579    0.367
       117  -9.1783    186.4575     82.5158   2.3917993784e+01   2.6936211443e+01    0.2752707    0.1928323 -37.78  0.001227285    1.292    0.226
       118  -9.2508    186.0233     78.9356   2.3042957313e+01   2.7599421350e+01    0.2599761    0.2238938 -68.05 0.0003314241    1.226    0.185
       119  -9.3895    175.7871     75.5641   2.3783345272e+01   3.0424632528e+01    0.3263861    0.1823207 -36.25  0.001132688    1.653    0.395
       120  -9.3128    118.9780     77.8010   3.6704244897e+01   4.3433552463e+01    0.2924353    0.2301947 -43.15  0.001058457    1.266    0.210
       121  -9.2254    157.9578     74.7076   2.6739984057e+01   3.4715663660e+01    0.3540567     0.217155 -31.01 0.0008696694    1.674    0.403
       122  -7.8812    163.3084     75.6606   2.6004907920e+01   3.3291821421e+01    0.1561362    0.1098434 -65.89 0.0006020745    1.685    0.407
       123  -7.2606    179.6625     73.2956   2.2526153006e+01   2.9908027294e+01    0.1484201    0.1046487 -66.32 0.0007030017    1.652    0.395
       124  -8.6878    128.5376     73.0447   3.2683526075e+01   4.2095215334e+01    0.2455239    0.1511713 -39.75  0.001037398    1.612    0.380
       125  -8.7077    170.4737     70.9579   2.3384911251e+01   3.2395266380e+01    0.3741173    0.1348609 -34.93  0.001322197    2.581    0.613
       126  -8.3171    196.5611     68.3812   1.8729806275e+01   2.6909145054e+01    0.3405451    0.2215784 -78.45  0.001622176    2.062    0.515
       127 -10.2767    203.2350     65.5690   1.7135966038e+01   2.5882574076e+01    0.4215522    0.2915115 -62.98 0.0008005938    1.569    0.363
       128  -7.9646    164.4829     69.0075   2.3860729486e+01   3.4123905258e+01    0.2275471    0.1409679 -32.81 0.0008366098    1.581    0.367
       129  -8.2854    197.4966     62.5958   1.7088408554e+01   2.7541120362e+01    0.2918754    0.1212155 -32.89  0.001094166    2.131    0.531
       130  -8.3012    197.0000     57.9988   1.5935136772e+01   2.8298294746e+01    0.7989665    0.2955678 -18.50  0.001910116    7.563    0.868
       131  -9.2347    209.9069     59.5759   1.4817836975e+01   2.5306170645e+01    0.4412504    0.2322932 -18.10  0.001490919    2.405    0.584
       132 -10.2039    146.6015     68.8928   2.7256253005e+01   3.8458224233e+01    0.5351827    0.2896432 -60.49  0.001962848    2.576    0.612
       133  -9.0657    202.3359     55.6656   1.4680975564e+01   2.7451043482e+01    0.7519183    0.2302749 -25.20  0.002332126    4.236    0.764
       134  -8.6144    164.7892     80.4054   2.7080083157e+01   3.2136884878e+01      0.20584     0.136147  44.51 0.0009464353    1.654    0.395
       135  -8.3104    208.6773     53.5573   1.3426369771e+01   2.6371278722e+01    0.2545129    0.1198723 -46.18  0.001115611    1.877    0.467
       136  -8.5228    213.0774     52.8065   1.2770701311e+01   2.5542915995e+01    0.2603807    0.1438759 -46.01 0.0005747221    1.565    0.361
       137  -9.1351    210.2267     48.4438   1.1960210132e+01   2.6708534267e+01    0.3377699    0.1998719 -35.71  0.001767174    1.435    0.303
       138  -7.9616    183.5462     52.7508   1.6224353471e+01   3.2091047978e+01    0.2134667    0.1124487 -43.39 0.0009524114    1.701    0.412
       139  -8.4618    152.9807     51.7291   2.0591766268e+01   3.9682842212e+01    0.2075723    0.1942224 -66.95 0.0008164549    1.001    0.001
       140  -7.3209    179.0000     50.0372   1.6059126932e+01   3.3543429064e+01     0.234663   0.07548725 -30.87  0.000659731    2.916    0.657
       141  -8.9185    132.4059     58.7091   2.7015233504e+01   4.3746976259e+01    0.2907202    0.1378082 -41.11  0.001104347    2.047    0.511
       142  -7.5354    150.3156     45.3189   1.8965223720e+01   4.1315178543e+01    0.1482085    0.1143104  27.52 0.0007039347    1.654    0.395
       143  -7.6521    200.9874     41.0199   1.0968278030e+01   2.9666692796e+01     0.166035    0.1324268 -42.05 0.0006079548    1.098    0.089
       144  -8.9817    208.7852     36.7322   9.0973595638e+00   2.8479020832e+01    0.4802945    0.1274384 -33.83  0.001809967    2.820    0.645
       145  -7.7512    201.7942    240.3616   5.1976726248e+01   8.5291280731e-01    0.1545515   0.07658231  20.23 0.0009387188    1.690    0.408
       146  -8.9183    223.6729     23.2554   4.5650405195e+00   2.6872690781e+01    0.2570412    0.2040052 -27.43  0.001259445    1.279    0.218
       147  -7.2806    202.0000     23.9304   6.3304579179e+00   3.1471493438e+01    0.2090818   0.06685259 -27.44  0.000790533    2.861    0.650
       148  -7.8921      1.4941    233.0267   9.2163424457e+01   2.4712299856e+01    0.1465631   0.09173065  78.18 0.0005798679    1.514    0.340
       149 -11.4567    250.4369    141.9525   2.7980148896e+01   7.0118135140e+00    0.2601459    0.1323485 -28.42   0.00148483    1.583    0.368
       150  -7.6666    168.0000     21.9868   8.9671066226e+00   3.9819130524e+01    0.2223194    0.0758109 -26.28 0.0007960559    2.898    0.655
       151  -9.2418      5.8877    212.3120   9.0744477901e+01   2.8317505423e+01    0.2111269    0.1252822  68.61  0.001321672    1.438    0.305
       152  -8.1482    218.3570     19.0685   3.8930941320e+00   2.8432504266e+01    0.2322957    0.1138833 -17.75  0.001073497    2.445    0.591
