#   1 NUMBER                 Running object number                                     
#   2 MAG_AUTO               Kron-like elliptical aperture magnitude                    [mag]
#   3 X_IMAGE                Object position along x                                    [pixel]
#   4 Y_IMAGE                Object position along y                                    [pixel]
#   5 X_WORLD                Barycenter position along world x axis                     [deg]
#   6 Y_WORLD                Barycenter position along world y axis                     [deg]
#   7 A_WORLD                Profile RMS along major axis (world units)                 [deg]
#   8 B_WORLD                Profile RMS along minor axis (world units)                 [deg]
#   9 THETA_WORLD            Position angle (CCW/world-x)                               [deg]
#  10 FWHM_WORLD             FWHM assuming a gaussian core                              [deg]
#  11 ELONGATION             A_IMAGE/B_IMAGE                                           
#  12 ELLIPTICITY            1 - B_IMAGE/A_IMAGE                                       
         1 -10.9663     31.9668     64.5571   9.7690168763e+01   6.0738220347e+01     2.399666    0.6593983 -36.56  0.006755941    5.764    0.827
         2 -10.1762      4.9037     42.3706   1.0322663639e+02   6.7323345744e+01    0.9448125    0.3759856 -65.22  0.004286467    2.851    0.649
         3  -8.0100     72.0303      8.6489   5.9144105362e+01   6.3862624323e+01    0.1842588    0.1503921   2.41 0.0006288171    1.155    0.134
         4 -10.1277     69.5495     40.7737   7.4044663121e+01   6.0194714325e+01    0.9043083    0.4100338 -36.87  0.003095576    2.149    0.535
         5  -9.9449     73.5002     18.6231   6.3189385667e+01   6.2519297838e+01    0.8104276    0.2159826 -35.36  0.002932859    3.892    0.743
         6  -9.6542     77.6398      5.1842   5.5807437374e+01   6.3074896083e+01    0.7423142    0.3570274  -0.96  0.003282224    2.849    0.649
         7  -9.7408     26.2204     24.6902   8.6016706355e+01   6.8811499626e+01    0.8081709    0.3265016 -22.59  0.003039555    4.029    0.752
         8  -8.9994    128.5388     25.3888   5.1208095002e+01   4.9681673903e+01    0.4719678    0.2706539 -29.35  0.001548761    1.870    0.465
         9 -10.9167    134.0902     30.8693   5.1947004564e+01   4.7695548072e+01    0.3884129    0.2890536   3.05  0.002007417    1.636    0.389
        10  -9.2364    101.0281     32.3965   6.0449287158e+01   5.5201897809e+01    0.5183064    0.2279706 -30.46   0.00178247    2.358    0.576
        11  -9.2601    102.8703     21.5893   5.5736735375e+01   5.6086188878e+01     0.428944    0.2583317 -30.61  0.001564121    1.776    0.437
        12  -9.7259     60.5799     31.6290   7.3675946138e+01   6.3097530475e+01    0.7592533     0.360019 -27.71  0.002984288    2.172    0.540
        13 -10.3604     51.2209     15.2401   6.9995383415e+01   6.6823774478e+01    0.9593245    0.4874138  11.17  0.004091043    2.986    0.665
        14 -10.2703     46.2907     29.5407   7.8717861252e+01   6.5577651260e+01     0.561789    0.3171205 -46.96  0.002155281    2.157    0.536
        15 -10.7487     22.9230     34.4570   9.1689335379e+01   6.7481543009e+01    0.6464968    0.4215472 -15.16  0.003317406    1.442    0.307
        16  -9.4899     91.5879     27.0319   6.1037561267e+01   5.7897746858e+01     0.588405     0.227866 -37.51  0.002377433    2.808    0.644
        17  -8.6940    120.3158     16.0538   4.9597927057e+01   5.2634988285e+01    0.4340861    0.2063777  33.40  0.001790568    2.571    0.611
        18  -8.4680    120.5069      5.9440   4.5903935967e+01   5.3505972935e+01    0.4053596    0.1449425  62.90  0.001312304    2.366    0.577
        19  -8.5878    125.1471     12.9278   4.7511645807e+01   5.1781959162e+01    0.2313479     0.207072 -69.17 0.0007049018    1.272    0.214
        20  -8.4947    126.9742      8.9957   4.5787723243e+01   5.1699539468e+01    0.2776611    0.2050294  61.26 0.0005413136    1.185    0.156
        21  -9.0775    125.6337      5.2070   4.4703847165e+01   5.2343765974e+01    0.2779488    0.2136862  14.33   0.00117055    1.474    0.322
        22  -9.8631     63.1701     21.0462   6.7983567757e+01   6.4110581142e+01     0.476279    0.2954762 -47.57   0.00168431    2.360    0.576
        23 -10.0919     64.4973     12.6453   6.3596996525e+01   6.4862866683e+01    0.4233119    0.2507706 -25.29  0.001372629    1.699    0.411
        24  -9.8894     10.3406     18.8572   9.1839099487e+01   7.1235526192e+01    0.6513691    0.2812982 -12.28  0.002803167    3.587    0.721
        25  -8.8500     40.7920     20.2023   7.6940921347e+01   6.7714520652e+01    0.3986098    0.1491418 -36.01 0.0009944421    2.505    0.601
        26 -10.7621     37.2814      9.8835   7.3488666516e+01   6.9566649811e+01    0.8796387    0.3029642 -36.80  0.003500897    2.931    0.659
        27 -10.4856     27.2334     11.2278   7.9119466248e+01   7.0695922999e+01    0.8536375     0.356965  34.81  0.004407396    2.442    0.590
        28 -10.2399     18.1867      4.9412   8.0669141633e+01   7.2570788890e+01    0.5241234    0.4034984 -46.93  0.003246586    2.004    0.501
        29  -9.3340      2.5952     14.7434   9.4447177415e+01   7.2481576419e+01    0.3784212    0.2091988 -59.68   0.00211162    2.542    0.607
        30 -10.5237      5.4584      4.6629   8.7947613294e+01   7.3827472150e+01    0.5077575    0.3520131 -13.35   0.00205381    1.096    0.088
        31  -8.7139    132.6248     10.2149   4.5200264743e+01   5.0224407078e+01    0.2480525    0.1342189 -16.33  0.001176102    2.211    0.548
        32  -9.8868    132.9940     16.5816   4.7299272479e+01   4.9532070497e+01    0.4691127     0.261516  -8.09  0.001661629    2.397    0.583
        33  -8.4516     96.5035     13.0006   5.3940298494e+01   5.8380300652e+01    0.3120867      0.17486  23.85  0.001481163    2.067    0.516
        34  -9.1939    115.4217      4.1930   4.6240415182e+01   5.4848536875e+01    0.3321995    0.2448932 -74.79  0.001669703    1.740    0.425
        35  -9.3332    114.0270     10.0143   4.8687703098e+01   5.4682030768e+01    0.5918459    0.1864433  45.26            0    2.880    0.653
        36  -7.8956    110.3074      7.6620   4.8586540622e+01   5.5751995123e+01    0.1751264     0.128256  77.09 0.0002322257    1.507    0.336
        37  -8.9091    110.2761      3.7658   4.7110061282e+01   5.6081082376e+01     0.311996     0.248425 -66.75  0.001850791    1.587    0.370
        38  -8.5592    104.6187     15.0790   5.2746648028e+01   5.6371230933e+01     0.438024    0.1866852  25.47  0.001452426    4.275    0.766
        39  -9.3954     85.3684     13.1141   5.7037961313e+01   6.0746553116e+01    0.3733186     0.262125 -57.05  0.001663337    2.218    0.549
        40  -8.1628     80.6587     12.6944   5.8255465225e+01   6.1753956461e+01    0.2674277    0.1592256 -36.94 0.0007429802    1.968    0.492
        41  -8.9309    140.9430     11.9710   4.4378222812e+01   4.8029506243e+01    0.3308341    0.2130724 -49.10  0.001268556    1.768    0.434
        42  -8.1530    246.0007     10.9806   3.2822019218e+01   2.3367359340e+01    0.1568231    0.1380823  49.10   0.00108601    1.566    0.362
        43  -7.8635    156.1597      8.7151   4.1070690653e+01   4.4573488027e+01    0.2812581   0.06990309 -30.92  0.001001483    3.718    0.731
        44  -8.8754    101.9665      7.9973   5.0578746514e+01   5.7625659820e+01    0.2682081    0.1953841 -40.91 0.0007747961    1.646    0.393
        45  -8.5473    104.2022      2.4134   4.7866324474e+01   5.7579859886e+01    0.3701499    0.1817776  29.81   0.00138581    2.305    0.566
        46  -8.6040     97.5345      6.4196   5.0995548221e+01   5.8750315186e+01    0.3109564    0.1855316  11.46 0.0008759572    1.993    0.498
        47  -8.4117     95.8498      3.1558   5.0062360946e+01   5.9391565753e+01    0.3593621    0.2167474   7.54  0.001399849    1.936    0.483
        48  -8.2263     85.0746      6.2869   5.4162128171e+01   6.1448568371e+01    0.3102559    0.1314451  31.20  0.001291693    2.715    0.632
        49 -10.1365     62.6614      3.4198   5.9811679142e+01   6.6126409139e+01    0.4575329    0.3357256  33.71  0.002005438    1.149    0.130
        50  -9.6060    132.7273      5.0724   4.3442517229e+01   5.0644061679e+01    0.4097046    0.1719654  51.61  0.001821983    2.026    0.506
        51  -7.9944    142.9775      4.7367   4.1724062847e+01   4.8171611253e+01    0.2315874    0.1016741 -56.85  0.000871047    3.445    0.710
        52  -8.9625     88.1308      2.2619   5.1602157194e+01   6.1138890108e+01     0.395483    0.2060732  59.09  0.001507072    1.770    0.435
        53  -7.1619    194.5183      2.5457   3.5043425241e+01   3.5792019775e+01    0.1260706     0.108214  82.70 0.0001820065    1.089    0.082
        54  -7.1454    150.6797      1.6965   3.9686371274e+01   4.6533618915e+01    0.1354323   0.08546943  43.82 0.0007028324    1.631    0.387
        55 -10.5187    108.1536     99.7132   8.1085605661e+01   4.1539819946e+01     1.057162    0.6597535  67.91  0.002549069    2.676    0.626
        56  -8.5213    223.8113    249.7763   8.5970869437e+01  -8.9084524556e+00    0.2093673    0.1179577  27.78 0.0005147826    1.473    0.321
        57 -10.1671    202.3101    249.8414   8.9922994167e+01  -5.9010451011e+00    0.4754252    0.1805613  33.31  0.002229601    2.244    0.554
        58  -9.7995     41.8857    122.8194   1.0720610117e+02   4.6102485236e+01    0.6648304    0.3340828 -87.20   0.00247628    2.985    0.665
        59 -10.0672     27.3038    122.8242   1.1165469530e+02   4.7504019639e+01    0.6101124    0.3104315  72.38  0.002071189    2.988    0.665
        60  -9.8055    127.7987    102.5118   7.6318815273e+01   3.6806619832e+01      0.45476    0.4112469 -51.95  0.001108717    1.114    0.103
        61  -7.9952    198.3055    128.5855   6.6889922588e+01   1.5617588295e+01    0.2616896    0.1896531  35.67 0.0008202259    1.503    0.334
        62  -8.1090    152.4705    121.5124   7.5120439679e+01   2.7206873815e+01    0.1573833    0.1542465 -30.99 0.0002827856    1.004    0.004
        63  -8.4079     99.1783    119.4971   8.8967451468e+01   3.8663050721e+01    0.4164329    0.2567588  -3.99  0.001355744    3.706    0.730
        64  -8.5524      1.5285    116.6816   1.1855251048e+02   5.0834198014e+01    0.3572051    0.1249993 -81.76  0.001350442    2.865    0.651
        65  -7.2014    222.2615    117.6490   5.9935327189e+01   1.2606282897e+01    0.1461124    0.1051188 -59.86 0.0002649376    1.611    0.379
        66 -10.2482     92.1824    113.0770   8.9473062494e+01   4.1448554775e+01    0.6445575    0.4702461  81.17  0.001736411    1.966    0.491
        67  -8.9221     92.0674    104.1605   8.7200389445e+01   4.3570593497e+01    0.6007462    0.3948054 -12.50  0.002174328    2.416    0.586
        68 -10.3811     62.9028     95.5973   9.4508124668e+01   5.0192154250e+01    0.5925141    0.3850192 -84.05  0.001655839    2.476    0.596
        69  -8.8544     65.4617     85.9226   9.1009364951e+01   5.2052229421e+01    0.6596369    0.3745898  -1.42  0.002376595    3.513    0.715
        70  -9.7124     65.6837    103.2167   9.5473598411e+01   4.8002528287e+01       0.6276    0.4646162  25.89  0.003248464    1.505    0.336
        71 -10.3385     65.6397    110.7940   9.7274373558e+01   4.6179362175e+01    0.6004102    0.4352905  61.77  0.001025409    1.722    0.419
        72  -9.5936     59.0252    109.4666   9.9124282760e+01   4.7390574125e+01    0.4235346    0.2443034 -68.34  0.001247346    1.845    0.458
        73  -7.4492    167.4063    114.1333   6.9727134163e+01   2.5385508871e+01     0.220109    0.1436532 -52.57 0.0004037414    1.635    0.389
        74  -9.9514     14.2392    111.3587   1.1398358528e+02   5.1321590312e+01    0.4677107    0.2371245  86.58  0.001834344    2.501    0.600
        75  -8.1853     14.9764    104.8173   1.1275900604e+02   5.2846694253e+01    0.2033078    0.1406902 -34.49  0.001187509    1.550    0.355
        76  -8.4783    158.7997    112.0656   7.1147098074e+01   2.7786039833e+01    0.2396285    0.2078158 -62.63 0.0005530684    1.233    0.189
        77 -10.1197    117.1478    125.4099   8.5288175718e+01   3.3830491033e+01     0.954888     0.557474 -73.01   0.00222797    3.008    0.668
        78  -9.0377     35.7617    110.8810   1.0701410251e+02   4.9666622812e+01    0.3305297    0.2015641  72.08  0.001529975    2.314    0.568
        79  -8.9869     31.4847    108.2552   1.0793138545e+02   5.0707081190e+01    0.2403766    0.2122425  88.24  0.001502374    1.199    0.166
        80 -10.8270     21.6329    102.4113   1.1015924629e+02   5.2942839445e+01     1.236124    0.5799985  76.70   0.00317943    5.301    0.811
        81  -8.6015     20.9254     92.2193   1.0853772505e+02   5.5422406118e+01    0.2767116    0.1131079 -45.55  0.001239924    2.148    0.534
        82  -8.2217    149.7023    109.8567   7.2722985214e+01   3.0329784843e+01    0.3088791    0.1407029 -35.89  0.001054764    2.411    0.585
        83 -10.8530     44.6703    102.3142   1.0234505185e+02   5.0837276680e+01    0.8450153    0.4735132  71.58  0.002951546    3.574    0.720
        84  -8.3272     40.1783    106.7414   1.0477133861e+02   5.0238686764e+01    0.2366104    0.1629554 -74.54 0.0005697705    1.452    0.311
        85  -7.3794     77.5360    105.9558   9.2273030074e+01   4.5584914785e+01     0.255492    0.1535285 -19.38  0.000755262    2.762    0.638
        86  -9.6190     81.5668    100.4245   8.9539088436e+01   4.6240292360e+01    0.4749936    0.3085232 -64.87  0.001061069    1.783    0.439
        87  -8.2912     81.9807     94.3995   8.7761151932e+01   4.7559555166e+01    0.4615546    0.2812383  -8.63   0.00168137    3.096    0.677
        88  -9.5119    149.4122    103.2384   7.0984700473e+01   3.1784234477e+01    0.4581718    0.2681809 -50.19 0.0009334786    1.797    0.444
        89  -8.8299    150.8703     96.4140   6.8724209923e+01   3.2839532106e+01    0.3490605    0.2373558   2.84  0.001069987    2.471    0.595
        90  -9.5220      6.4581    103.7554   1.1536553330e+02   5.3637724567e+01      0.34107    0.2194765 -87.88  0.001161551    1.540    0.351
        91  -8.4161    166.0272    103.9073   6.7317310160e+01   2.7779270665e+01    0.2738442     0.216595 -45.46 0.0005637652    1.243    0.195
        92  -8.6700    158.8818    101.6485   6.8312434265e+01   2.9906539698e+01    0.3258452    0.2257358 -40.43 0.0005018758    1.419    0.295
        93  -8.0341     73.8547    102.5376   9.2605180423e+01   4.6967165301e+01    0.2883702    0.1868622 -70.35  0.000672158    1.894    0.472
        94 -10.2534     78.3167    113.0696   9.3765368501e+01   4.3752481212e+01    0.5385512    0.3520912 -82.49  0.001761383    2.239    0.553
        95  -9.2624    246.3055     99.9464   5.2212987655e+01   1.0798711172e+01    0.3738744    0.1667509  52.08  0.001540944    2.555    0.609
        96  -9.3773     94.3211     97.1752   8.4579232120e+01   4.4764734414e+01     0.370933    0.2592483 -56.64 0.0007414133    1.498    0.333
        97  -9.0109     95.7168     91.2438   8.2434207023e+01   4.5826348901e+01    0.5711783    0.3545707  -8.25  0.002053236    3.032    0.670
        98  -9.7293    240.6256     96.0251   5.2107139503e+01   1.2565372053e+01    0.4331312    0.2826925  27.51  0.002033977    2.351    0.575
        99  -8.3868    164.3834     94.5159   6.5105070731e+01   3.0017567655e+01    0.2840627     0.234226 -47.12 0.0008110018    1.201    0.167
       100  -9.4474    138.7580     92.9273   7.0698181397e+01   3.6360851928e+01    0.3948409    0.3327318 -83.43 0.0008211435    1.435    0.303
       101  -9.0089    150.2363     89.1605   6.6796352205e+01   3.4424875388e+01    0.2980879    0.2581725 -18.16 0.0008294669    1.251    0.201
       102 -10.0376     34.3291     90.2324   1.0331891916e+02   5.4761096006e+01    0.5608371    0.2921969 -78.76  0.001852435    2.759    0.638
       103  -9.9214     36.9708     80.9957   1.0014821364e+02   5.6638042995e+01    0.6756392    0.3322194 -21.72  0.002662686    3.226    0.690
       104  -9.0331    157.5473     91.2818   6.5717595584e+01   3.2273535910e+01    0.4147016    0.2875296 -39.57   0.00152798    1.426    0.299
       105  -9.5375    108.9524     90.9713   7.8311210216e+01   4.3287177145e+01    0.6494647    0.3243063  29.78  0.002214771    2.730    0.634
       106  -9.6070      5.8749     79.1392   1.1154245173e+02   5.9410215087e+01    0.6647164    0.1827507 -40.40  0.002551036    3.530    0.717
       107  -8.1671     46.7686     90.3625   9.8863585593e+01   5.3441057449e+01    0.2646162     0.263501 -77.56  0.001448336    1.161    0.139
       108 -10.1662     47.9362     84.4722   9.6945336458e+01   5.4664970918e+01    0.5276293    0.3629418  81.24  0.001668604    2.439    0.590
       109  -9.4143     48.5152     77.6369   9.4874452861e+01   5.6132286556e+01    0.6659292    0.3840223 -21.02  0.002981439    2.287    0.563
       110  -9.8388     81.6867     72.4872   8.1224866622e+01   5.2337673554e+01    0.4372801    0.3386751 -76.89 0.0009780144    1.932    0.482
       111  -9.2210     83.3630     64.6838   7.8028148619e+01   5.3572892520e+01    0.5386533    0.3607427 -12.77  0.002485069    1.871    0.466
       112 -10.1289     85.3605     86.5664   8.4386291914e+01   4.8729129278e+01     0.451659    0.3566086 -88.91 0.0008264575    1.826    0.452
       113  -9.6194     87.2578     78.8926   8.1405143899e+01   5.0030020221e+01    0.6458536    0.3914632  15.09  0.001912642    2.469    0.595
       114  -9.5396     43.9244     54.2755   8.9418692060e+01   6.1552368795e+01    0.3582165    0.2540862 -38.44  0.000597848    1.224    0.183
       115 -10.6941     25.6284     77.9092   1.0373421796e+02   5.8364283282e+01    0.8231981    0.4789749 -72.53  0.003049978    1.920    0.479
       116  -8.9729    240.3804    248.5941   8.2851369159e+01  -1.0952962295e+01    0.1933975    0.1434856  17.77 0.0004774514    1.147    0.128
       117  -9.7823     16.0644     70.4259   1.0573948945e+02   6.0753429079e+01    0.4270912    0.2023048 -57.63  0.001333068    1.665    0.399
       118  -9.5736     17.2515     62.1837   1.0320079126e+02   6.2464361370e+01     0.623774    0.2286535 -53.45  0.002891285    2.040    0.510
       119 -10.2723     49.9057     53.9161   8.6808832164e+01   6.0870758484e+01    0.8151713    0.3253209 -48.27  0.002072313    2.382    0.580
       120  -9.6483     56.3206     43.1492   8.0142245171e+01   6.1925329591e+01    0.7565449    0.3992337  -0.16  0.002682119    4.082    0.755
       121 -10.8962     21.9065     53.3197   9.8662911629e+01   6.3960432819e+01    0.8131153    0.5404705  87.32  0.002966543    3.169    0.684
       122 -10.0756     13.2544     45.3746   1.0016672869e+02   6.6205564518e+01    0.6250938    0.2960256 -19.04  0.002419406    2.532    0.605
       123 -10.8910    187.8633    246.8276   9.2199894198e+01  -3.3531358615e+00    0.7688343    0.3602845  51.86  0.003199976    3.489    0.713
       124  -9.5890      6.8067     32.6689   9.9139859776e+01   6.9068853742e+01    0.2716293    0.1826384 -19.99 0.0008827313    1.309    0.236
       125 -10.1192      7.2979     28.4081   9.7345854359e+01   6.9814968230e+01    0.4161508     0.249071  26.69  0.002600204    1.972    0.493
       126  -8.9336    197.0267     84.5984   5.6051347887e+01   2.4063562588e+01    0.3943268    0.2165655 -30.10 0.0009789825    1.960    0.490
       127  -9.9894      4.4520     89.6319   1.1389035952e+02   5.7071944680e+01    0.5352818    0.2777359  88.67  0.001775015    2.455    0.593
       128  -9.8404    104.7289     71.8066   7.3564992896e+01   4.8050309302e+01      1.85728    0.5898986 -34.32  0.005356954    4.026    0.752
       129 -10.4216    100.9509     84.6993   7.8833649171e+01   4.6224051681e+01    0.2922148    0.2597569  24.12 0.0002914011    1.147    0.128
       130 -10.0639    104.0000     83.0151   7.7378050351e+01   4.5966313532e+01    0.4115855    0.2522154 -52.04  0.001022179    1.773    0.436
       131  -8.0824    163.5909     86.5295   6.3032305019e+01   3.1727818463e+01     0.378769    0.1538332 -33.31  0.001255884    2.729    0.634
       132  -8.6843    157.8798     82.9736   6.3256299227e+01   3.3769049645e+01    0.4574997    0.2505098 -29.62   0.00165644    2.073    0.518
       133  -8.7802    156.9139     76.1609   6.1473033226e+01   3.5242819013e+01    0.3320978    0.1993532 -45.82  0.000864959    1.703    0.413
       134  -9.2223    140.4561     82.3671   6.7143265484e+01   3.8048629974e+01    0.6033032    0.2709159 -36.59  0.001603945    2.290    0.563
       135  -8.4301    139.9234     75.5132   6.5184260234e+01   3.9457553815e+01    0.2806459    0.2066363 -54.38 0.0005482032    1.503    0.335
       136  -9.1417     74.4446     79.3395   8.5907492900e+01   5.2126674178e+01    0.6912693    0.2757642 -50.37  0.001758414    2.456    0.593
       137  -8.5690    149.9457     80.2143   6.4235633895e+01   3.6194107726e+01     0.437533    0.2171263 -36.79  0.001392706    2.038    0.509
       138  -8.6486    119.0178     80.5241   7.2211445355e+01   4.3299987806e+01    0.3412301    0.2334658 -56.71 0.0007074776    1.729    0.422
       139  -8.5436    119.8281     76.1430   7.0602668327e+01   4.3972477794e+01    0.3316655    0.2503905  20.62 0.0008794289    1.550    0.355
       140  -8.0524     68.7096     79.6270   8.8018985575e+01   5.2961408424e+01    0.2582767    0.1200695 -50.18  0.001056353    2.025    0.506
       141  -8.2003    166.6900     78.0364   5.9956343549e+01   3.2522084168e+01    0.4178182    0.1442733 -33.76  0.001309373    3.135    0.681
       142  -8.0602    184.1818     78.1256   5.6600824500e+01   2.8247377845e+01    0.2189662    0.2066816  12.32 0.0005797924    1.189    0.159
       143  -7.4248    174.3154     78.6917   5.8617681938e+01   3.0545320851e+01    0.1567103    0.1165406 -72.81 0.0004257766    1.630    0.387
       144  -9.3992    127.4424     75.3180   6.8283391503e+01   4.2409780890e+01    0.3692034    0.2722209 -65.76 0.0008373006    1.759    0.432
       145  -8.8706    129.0679     69.1690   6.5899435610e+01   4.3159423436e+01    0.5693043    0.3187804  22.82  0.001928119    3.229    0.690
       146  -8.3806    130.3190     64.8214   6.4175513023e+01   4.3629007369e+01    0.4411361    0.1626224 -34.69  0.001488553    2.840    0.648
       147 -10.1056     62.7124     60.7702   8.4141606567e+01   5.7750407332e+01    0.7077882    0.2657376  34.90  0.001395391    2.811    0.644
       148 -10.5831     54.8566     70.7878   9.0435942453e+01   5.6819665563e+01    0.6709998    0.4118474  56.22  0.001032413    2.696    0.629
       149  -8.3859    169.3822     71.1401   5.7436976958e+01   3.3056610966e+01    0.2469215    0.1915574 -60.20 0.0005996919    1.384    0.278
       150  -8.2857    162.8168     72.6295   5.9185920683e+01   3.4417270348e+01     0.351722    0.1934716 -42.19  0.001085992    1.807    0.447
       151  -8.0561    175.4586     72.4966   5.6657074337e+01   3.1333672478e+01    0.1520362    0.1410453 -71.84 0.0001336749    1.069    0.064
       152  -8.2996    146.4067     59.2556   5.8613009327e+01   4.0681174748e+01    0.4022541    0.1994647 -47.14  0.000904341    2.247    0.555
       153  -9.2482    146.9820     69.1867   6.1575274570e+01   3.8886918414e+01    0.4207932    0.2628518 -56.88 0.0009884394    1.975    0.494
       154  -8.0451    147.4963     63.6443   5.9745245307e+01   3.9699749420e+01    0.3450644    0.2027806  28.03  0.001313446    2.508    0.601
       155  -8.3846    147.6356     53.6136   5.6571647322e+01   4.1259089138e+01    0.4992316    0.2155189 -24.07  0.001711929    3.128    0.680
       156  -9.3358    149.7402     47.0858   5.4079463846e+01   4.1699948399e+01     0.619122    0.1921095 -33.71  0.001381707    3.207    0.688
       157  -8.0364    156.5220     70.0780   5.9748813641e+01   3.6402376427e+01    0.2234162    0.1496075 -35.69 0.0004138605    1.514    0.339
       158  -9.7995     94.8480     68.2703   7.5455945942e+01   5.0720903128e+01    0.4890675    0.2590527 -45.70 0.0008250486    1.942    0.485
       159  -8.3152     95.4734     61.0249   7.2760691372e+01   5.1938176923e+01    0.3464281    0.2266609  -1.03  0.001278875    2.218    0.549
       160  -8.9634     98.2641     56.8753   7.0416765932e+01   5.2100469358e+01    0.5516728    0.4566267 -88.79  0.002828496    1.744    0.427
       161  -9.1261    138.1367     66.2892   6.2729757643e+01   4.1521075449e+01    0.3557079    0.3044506  86.03  0.001058851    1.348    0.258
       162  -8.2146    138.9075     61.8669   6.1138159020e+01   4.2081187715e+01    0.3461686    0.2141754  32.20  0.001450582    1.973    0.493
       163  -8.0475    139.0284     51.7097   5.7828276434e+01   4.3658920833e+01    0.2441159    0.2079456 -62.98  0.001111492    1.313    0.238
       164  -9.0355    141.9850     47.6387   5.5858448165e+01   4.3536862659e+01    0.5453656    0.2601631 -25.51  0.001789571    2.469    0.595
       165  -9.0801    121.0904     66.0309   6.6974628159e+01   4.5551626779e+01    0.3992625    0.2632901 -48.44  0.001331988    1.663    0.399
       166  -8.2262    122.0202     61.4702   6.5209159636e+01   4.6130076756e+01    0.3110422    0.2069567  29.61 0.0007166457    1.727    0.421
       167  -9.2868    109.7378     63.9766   6.9456810095e+01   4.8435842613e+01    0.3709708    0.2817282 -53.22 0.0007210753    1.519    0.342
       168  -8.7780    111.0122     58.0404   6.7051145885e+01   4.9186359686e+01    0.3688562    0.2841538  18.38  0.001178781    1.438    0.305
       169  -9.2603    115.2617     72.3658   7.0665385365e+01   4.5696531555e+01    0.5266549     0.264781 -40.24  0.001621668    1.984    0.496
       170  -8.2328    170.6784     65.0517   5.5435410961e+01   3.3745308797e+01    0.2072888     0.186181 -39.33 0.0003817626    1.128    0.113
       171  -8.3018    157.5104     63.3832   5.7530959105e+01   3.7277926648e+01    0.2784113    0.1992409 -45.41 0.0007248662    1.426    0.299
       172  -8.4997    164.5931     61.2657   5.5489525138e+01   3.5862491136e+01     0.418486    0.1526835 -30.33  0.001135024    3.133    0.681
       173  -8.3629     10.6496     60.6467   1.0561403257e+02   6.3228060602e+01    0.2867408    0.1832792 -85.99  0.001536629    2.249    0.555
       174  -9.8230     73.1132     59.2843   7.9745454175e+01   5.6382159520e+01    0.4719562    0.2586088 -50.28 0.0008627668    2.055    0.513
       175  -9.6165     74.7395     51.3088   7.6240493828e+01   5.7544282639e+01    0.6128324    0.3704947   4.54  0.002594953    2.521    0.603
       176  -8.4356     87.5365     58.3694   7.4397687510e+01   5.3964066404e+01    0.2692438    0.2277318 -63.28 0.0006828977    1.528    0.346
       177  -8.3517     87.6102     54.2207   7.2869562947e+01   5.4678109790e+01    0.2807964    0.2643263  65.84  0.001638158    1.310    0.237
       178  -8.5456    129.9080     58.0218   6.2046433759e+01   4.4863001063e+01    0.2784072    0.2098327 -43.73 0.0005171717    1.395    0.283
       179  -7.9162    130.5259     53.5111   6.0395128544e+01   4.5433041685e+01    0.2979152    0.2147264 -41.10 0.0009544638    1.451    0.311
       180  -9.0101    130.3121     48.0289   5.8603633924e+01   4.6313898723e+01    0.3610314    0.2830093 -17.45 0.0004837378    1.399    0.285
       181  -8.6196    130.9776     43.0550   5.6763827563e+01   4.6867104989e+01    0.6242222     0.339924  12.81  0.002004308    4.214    0.763
       182  -9.2293    118.1415     55.4593   6.4197278932e+01   4.8014904082e+01    0.3719335    0.2971995 -78.09 0.0006664153    1.696    0.410
       183  -8.3594    119.4140     50.9187   6.2290513241e+01   4.8441571326e+01    0.3689413    0.1667051  40.23  0.001393123    2.379    0.580
       184  -9.0623    120.9951     46.6979   6.0414083716e+01   4.8712024751e+01    0.3885367    0.2194042 -34.17  0.000509561    1.829    0.453
       185  -8.1444    123.2312     40.5507   5.7709723894e+01   4.9061324860e+01    0.4673314    0.2454003  19.38  0.001540501    3.907    0.744
       186  -8.8186    162.1274     53.6451   5.3692286284e+01   3.7653463438e+01    0.2806667      0.19258 -53.24   0.00114375    1.574    0.365
       187  -8.7226    105.5322     52.0817   6.6518018039e+01   5.1363744785e+01    0.4941012    0.2383287 -33.42  0.001934509    2.129    0.530
       188  -9.0856     55.3190     63.2419   8.7838867790e+01   5.8316743913e+01    0.4114128    0.2845288   0.26  0.001453047    1.680    0.405
       189  -8.8307    138.8801     56.8339   5.9525566149e+01   4.2902572220e+01    0.3957528    0.2179535 -42.21 0.0007403089    1.890    0.471
       190  -8.0780    172.6133     49.8499   5.0699084260e+01   3.5593113493e+01    0.2630124    0.1881874  -6.85  0.000858583    1.899    0.473
       191 -10.2787     85.0790     48.0996   7.1429509926e+01   5.6190400049e+01    0.3799498    0.3008613 -57.21 0.0009642572    1.670    0.401
       192  -8.8167    157.4656     48.8228   5.3113976887e+01   3.9526441197e+01    0.4211131    0.1682971 -44.27  0.001514512    2.678    0.627
       193  -8.9082    111.9589     45.9226   6.2497539579e+01   5.0897834423e+01    0.4976061    0.2093785 -31.82  0.001168071    2.487    0.598
       194  -7.2550    162.4312     46.4672   5.1482039802e+01   3.8620571403e+01    0.1432127    0.1354543  85.90 0.0001067241    1.020    0.020
       195 -10.7391    163.6287    247.8444   9.7046744571e+01   2.0393826124e-01    0.5095479    0.3612536  60.55  0.002949173    1.877    0.467
       196  -9.3478     70.7506     26.7630   6.7735246566e+01   6.2022573905e+01    0.4244705    0.2964358 -11.17  0.001979895    1.430    0.301
       197  -8.5869     99.4327    243.1592   1.0922803531e+02   1.0866700864e+01    0.2454315    0.1443548  46.47 0.0006149783    1.395    0.283
       198  -9.7598     76.1326     32.1520   6.8130455787e+01   6.0297681572e+01    0.4478289    0.2741634  48.23 0.0009992894    1.702    0.412
       199  -8.4259    211.0657    238.0452   8.6428138842e+01  -5.5722339855e+00    0.1798581    0.1442906  15.62            0    1.038    0.037
       200  -9.4732    187.6770    234.1371   9.0278759542e+01  -1.4568814616e+00    0.2604416    0.2079644 -10.66  0.001390962    1.286    0.222
       201  -9.5716     79.4233     23.9194   6.3530664139e+01   6.0745839303e+01    0.5087811    0.2455286  31.66   0.00147896    2.249    0.555
       202  -8.8972     84.5277     21.8849   6.1039088913e+01   5.9970561313e+01    0.2416789    0.2055676 -17.40 0.0007604006    1.222    0.182
       203  -8.6931     40.0135     35.0000   8.3839030235e+01   6.5529400364e+01    0.2944595    0.2278824  15.06  0.001168029    1.259    0.205
       204 -10.0021     37.7817     41.9724   8.7613644613e+01   6.4584019761e+01    0.3768826    0.3145213 -72.18  0.001506126    1.881    0.469
       205 -10.1194     35.8959     38.0079   8.6928626831e+01   6.5506219526e+01    0.3875065    0.2246218 -29.80 0.0003772076    1.551    0.355
       206  -8.7759    153.4403     41.1995   5.1517989894e+01   4.1593500599e+01    0.2651289    0.2245464 -89.36 0.0006395353    1.241    0.194
       207  -8.6223    110.1878     27.2665   5.6066618724e+01   5.3787345909e+01    0.3277107    0.1797548 -16.43  0.001476365    2.174    0.540
       208  -9.0667    110.4340     33.2857   5.8262865289e+01   5.2991303730e+01    0.3721225    0.2433495 -38.11 0.0008307432    1.663    0.399
       209  -8.8416    104.9718     41.0019   6.2617081207e+01   5.3168729015e+01    0.3249262    0.2260066 -45.93  0.000794456    1.670    0.401
       210  -8.6339    106.4603     36.1562   6.0389667896e+01   5.3509639509e+01     0.331467    0.2177341  34.80  0.001249652    1.508    0.337
       211 -10.3125     89.8971     38.3243   6.6076678322e+01   5.6740141151e+01     0.925934    0.3094209  36.59  0.002966773    3.864    0.741
       212  -7.6242    249.6465    232.2691   7.8532633292e+01  -1.0157690535e+01   0.09898929   0.08941649  29.34 0.0006993404    1.631    0.387
       213  -7.0813    209.3246     40.7411   4.2981990963e+01   2.7899265019e+01    0.1391891   0.09281035 -70.75            0    1.554    0.356
       214  -7.5237    160.0150     39.0394   4.9666765511e+01   4.0235569766e+01    0.1676848    0.1627814 -75.34 0.0007748153    1.062    0.058
       215  -8.8618    139.4912     39.7265   5.3794792128e+01   4.5248826201e+01     0.449019    0.2221556 -40.93  0.001417958    2.144    0.534
       216  -8.1485     53.4955     39.0561   7.9660269658e+01   6.3029188610e+01    0.1938565    0.1161697 -36.09 0.0008123914    1.549    0.354
       217  -8.6540    144.1714     36.5054   5.1796872415e+01   4.4515439058e+01    0.2494784    0.2006904 -67.97 0.0005134676    1.415    0.293
       218  -9.0547    210.0368    220.5183   8.3667484084e+01  -2.8898542882e+00    0.2676391    0.2197903  64.37  0.001136421    1.989    0.497
       219  -8.5972    132.8810     35.8428   5.3890240262e+01   4.7371622627e+01     0.212338    0.2050979  54.49 0.0004263953    1.044    0.042
       220  -7.3941     55.7948    215.7702   1.1539994747e+02   2.2360987147e+01    0.1967053   0.08970989 -82.81  0.000890577    2.489    0.598
       221 -10.3529    229.7089    214.0127   7.8834696998e+01  -4.9231596817e+00    0.2285206    0.1943727   5.46 0.0003664402    1.109    0.098
       222  -6.9614    100.7537    215.2863   1.0571264500e+02   1.6067278689e+01    0.1279744   0.09163155  69.23 0.0006834216    1.466    0.318
       223  -8.7858    118.8643     34.5985   5.6642926463e+01   5.0877797095e+01    0.2784863     0.193573 -30.98 0.0006777167    1.522    0.343
       224  -8.9948    198.1119    215.0070   8.5016268583e+01  -1.3495772792e-01    0.2169055    0.1728385  35.30 0.0003575823    1.239    0.193
       225  -7.7837     45.4818     15.4746   7.2563268312e+01   6.7678857617e+01    0.1653806    0.1011172  25.46 -1.447484e-05    1.514    0.340
       226  -7.6601    121.3429    211.7454   1.0070746429e+02   1.3470121713e+01    0.1742537    0.1247422 -47.17 0.0004964824    1.584    0.369
       227  -8.8182    199.2468    210.2669   8.3947260917e+01   4.4545091214e-01    0.2165707    0.1941947  16.29   0.00023746    1.107    0.097
       228  -8.4656     42.1806     27.8771   7.9815124157e+01   6.6395387753e+01    0.2425419    0.1531555 -20.89  0.001379107    1.468    0.319
       229  -8.2605    153.5656     34.5324   4.9416216662e+01   4.2427275149e+01    0.1400025    0.1306875  68.66 5.235153e-05    1.007    0.007
       230 -10.0484      9.6471    207.3868   1.2412095249e+02   2.9245096376e+01    0.5207635    0.3060775  29.08   0.00319453    2.050    0.512
       231  -8.3481    199.9356    205.7499   8.2989106383e+01   1.0734194120e+00    0.2082663    0.1747021 -15.26 0.0006691829    1.147    0.128
       232  -8.7950     92.4368     20.6157   5.8166606945e+01   5.8469116744e+01    0.2948082    0.2103633  19.25 0.0006810802    1.423    0.297
       233  -8.9536    155.7143     26.8465   4.6666163317e+01   4.2813003822e+01    0.2852033    0.1657643  78.45  0.001291962    1.871    0.466
       234  -7.9258    149.4348     25.3137   4.7241458447e+01   4.4553618318e+01     0.243445    0.1414701 -20.11 0.0008137127    2.034    0.508
       235  -8.7608    144.1967     25.7336   4.8296661120e+01   4.5807288888e+01    0.2269394    0.1812115 -45.45 0.0006123223    1.354    0.262
       236  -9.2602    118.7002     21.6134   5.1967080866e+01   5.2445540760e+01    0.3013984    0.2346326 -36.68 0.0006202437    1.426    0.299
       237  -7.6220    226.5027    201.9762   7.7194564667e+01  -2.6362026044e+00    0.1789891    0.1175591 -32.58 -0.000153686    1.466    0.318
       238 -10.2966    167.2646    200.4194   8.8780695793e+01   7.6939785652e+00    0.2404731    0.2361682  26.86  0.000233179    1.127    0.113
       239  -7.1761     57.7281    201.3129   1.1357158242e+02   2.5254050872e+01    0.1327286   0.08357078  70.02 0.0003202188    1.553    0.356
       240  -9.1717    192.2172    194.9835   8.2528502953e+01   4.2447065720e+00    0.6834701    0.3674045 -62.76  0.002215683    4.953    0.798
       241  -8.3158    119.2958    198.2487   9.9138441814e+01   1.6613318647e+01    0.2151801    0.1744994  33.44 0.0004402607    1.227    0.185
       242  -9.3495     51.8213    190.0896   1.1371955257e+02   2.8542874245e+01    0.2134617    0.1824808 -83.70 0.0002365565    1.110    0.099
       243  -6.8208    223.2301    188.0069   7.5100228046e+01   1.0671059087e-01    0.1566826    0.1025171 -32.53 -0.000430966    1.439    0.305
       244  -8.8084    139.5663     18.0145   4.6595353996e+01   4.7778762177e+01    0.2724243    0.1914694  11.82 0.0009836146    1.804    0.446
       245  -8.4466    111.7303     21.2373   5.3417884788e+01   5.4112583326e+01    0.3394604    0.1654388 -11.64  0.001392934    2.797    0.642
       246  -8.7687    189.0657    185.3639   8.1307763353e+01   6.5504376184e+00    0.2255794    0.1958873 -37.13 0.0001805744    1.208    0.172
       247  -7.4779    101.0416    175.9915   9.9917300836e+01   2.4691435489e+01    0.1663413    0.1510485  56.19 0.0009264301    1.060    0.057
       248  -7.2615    116.7373    175.0147   9.5859767731e+01   2.2206006850e+01    0.1729486    0.1273256 -57.52 0.0002287394    1.391    0.281
       249  -8.6903     53.0967    174.4898   1.1163117516e+02   3.2052007529e+01    0.2274044    0.1654661 -64.96 0.0003192146    1.303    0.232
       250  -7.5371    230.4815    167.5246   6.9602445472e+01   2.2821668035e+00    0.1368864    0.1202055 -16.24 -1.087512e-05    1.042    0.040
       251  -7.1186    208.7591    162.3051   7.2540133054e+01   7.1306057523e+00     0.131203       0.1111 -61.58 0.0001908806    1.491    0.329
       252  -8.8256    133.7803    147.0475   8.5943579762e+01   2.5437662361e+01    0.6830052    0.2087282 -52.39  0.001964618    3.617    0.724
       253  -9.4992     66.9043    144.0897   1.0353095470e+02   3.7731551941e+01    0.5895923    0.3541338  66.25  0.002399087    2.164    0.538
       254  -8.1112    241.3244    136.3433   6.1054034219e+01   5.6485736737e+00    0.1419816    0.1012232  -3.43 0.0003981425    1.735    0.423
       255  -8.8102    234.0693     16.5748   3.4894003541e+01   2.5272327317e+01    0.2011963    0.1695044 -36.47 0.0005727831    1.339    0.253
       256  -8.3075    155.3825     17.2170   4.3762642138e+01   4.3941676279e+01    0.1899176    0.1172367 -41.05 0.0009518049    1.719    0.418
       257  -8.5231     95.9816     16.9637   5.5694361042e+01   5.8097901700e+01    0.2384603    0.1818406 -31.66  0.000427006    1.460    0.315
       258  -8.7361    112.2751    134.0009   8.8677905378e+01   3.2738495361e+01     0.355043     0.268164 -88.23  0.001080583    1.724    0.420
       259  -8.3722     28.6175     16.6055   8.1079304311e+01   6.9778184615e+01    0.2114607    0.1335537 -28.49  0.001294099    1.364    0.267
       260  -9.5336     64.3060    131.3345   1.0196760776e+02   4.1277834208e+01    0.6953011     0.365745 -85.66  0.002451389    3.271    0.694
       261  -8.4788    112.3337     15.5188   5.1122215633e+01   5.4560849119e+01    0.2482797    0.1964881 -63.55 0.0009302117    1.614    0.380
       262 -10.0604     58.1096    124.2779   1.0248653381e+02   4.3852410025e+01    0.6106334    0.3580562  86.37  0.002094266    2.663    0.624
       263  -9.2344     67.8520    128.7540   1.0040721877e+02   4.1434976781e+01    0.4931148    0.3154072 -73.89  0.001490761    1.685    0.407
       264 -10.0824     71.1428    125.7259   9.8800302664e+01   4.1720985633e+01    0.5892267     0.362649 -81.13  0.001429124    2.149    0.535
       265  -9.6813    193.4423    131.7817   6.8622354440e+01   1.6037115068e+01    0.3083102    0.2503906 -40.78 0.0004143484    1.179    0.152
       266  -9.1323     83.4784    131.6872   9.6371515340e+01   3.8365022694e+01    0.6829913    0.4011229  76.57   0.00236516    3.251    0.692
       267  -8.1385    237.5099    133.4810   6.1036569946e+01   6.8397616760e+00    0.1400817    0.1221652 -28.69 0.0004070679    1.001    0.001
       268  -8.6515    135.8650    130.8894   8.1632541594e+01   2.8721418926e+01     0.612163    0.1628083 -46.32  0.001684934    3.701    0.730
       269  -9.3013    131.7925    131.0053   8.2718138797e+01   2.9546232296e+01    0.3975474    0.2798304 -82.82  0.001602557    2.152    0.535
       270  -8.1576    142.0749    131.8650   8.0288590686e+01   2.7185085429e+01     0.390033    0.2154163  65.27  0.001261121    3.218    0.689
       271  -9.8411     98.4649    128.4760   9.1302745105e+01   3.6622700040e+01    0.6153018    0.3998314  76.56  0.002089893    2.506    0.601
       272  -8.0776    160.6863    129.7798   7.5253151759e+01   2.3604464090e+01    0.2899434    0.2118984 -53.29  0.001308713    1.436    0.304
       273  -8.8315    126.0023    129.0576   8.3774324363e+01   3.1190801813e+01    0.2459617    0.2376298 -59.79 0.0008795389    1.028    0.027
       274  -9.9992    140.6208    118.5243   7.7288547786e+01   3.0482110227e+01    0.5127792    0.3761676 -69.32  0.001194593    1.725    0.420
       275  -9.9963    139.4653    103.9627   7.3660020147e+01   3.3903685365e+01     0.704209    0.3549068 -49.39  0.001627455    2.082    0.520
       276 -10.3091    131.7912    119.7766   7.9904483447e+01   3.2111866457e+01    0.9235608    0.5947018  83.07   0.00247075    3.163    0.684
       277 -10.6014    124.1146     89.8803   7.3660183556e+01   4.0289315650e+01     1.483043    0.7025994 -29.38  0.003182344    2.936    0.659
       278 -11.0215    133.4214    109.6885   7.6802286434e+01   3.4010311522e+01     1.622379    0.6161893 -52.00  0.004962917    3.138    0.681
       279 -11.3257    121.6052    111.1712   8.0394429014e+01   3.6211382917e+01     1.387802    0.7911325 -46.03  0.003096219    1.715    0.417
       280 -10.3059    108.8452    112.7994   8.4443607476e+01   3.8420788981e+01     1.207649    0.5130424 -49.69  0.002526272    2.300    0.565
