#   1 NUMBER                 Running object number                                     
#   2 MAG_AUTO               Kron-like elliptical aperture magnitude                    [mag]
#   3 X_IMAGE                Object position along x                                    [pixel]
#   4 Y_IMAGE                Object position along y                                    [pixel]
#   5 X_WORLD                Barycenter position along world x axis                     [deg]
#   6 Y_WORLD                Barycenter position along world y axis                     [deg]
#   7 A_WORLD                Profile RMS along major axis (world units)                 [deg]
#   8 B_WORLD                Profile RMS along minor axis (world units)                 [deg]
#   9 THETA_WORLD            Position angle (CCW/world-x)                               [deg]
#  10 FWHM_WORLD             FWHM assuming a gaussian core                              [deg]
#  11 ELONGATION             A_IMAGE/B_IMAGE                                           
#  12 ELLIPTICITY            1 - B_IMAGE/A_IMAGE                                       
         1 -12.2850    195.1671     39.6835   4.8044766594e+01   3.1511345831e+01      1.08104    0.9387717 -52.40  0.003708084    1.120    0.107
         2 -12.4982    204.2412     29.9180   4.4252891112e+01   3.0527828743e+01     0.821358    0.8036439 -43.54  0.001378945    1.175    0.149
         3 -11.4926     41.5714     14.5136   7.8571142847e+01   6.8489273894e+01    0.4654379    0.2330171 -20.85  0.002352742    2.088    0.521
         4 -11.6823    227.8397      4.4365   3.5711035619e+01   2.7839162153e+01    0.8513621      0.49516  80.46  0.004505839    1.582    0.368
         5 -10.6098     56.6475      3.8195   6.6722332782e+01   6.7475053970e+01    0.3609357    0.1473547  36.59  0.001708791    2.258    0.557
         6  -8.0893    169.0352    236.2992   9.8066909837e+01   1.6763694501e+00    0.1723402    0.1395303  32.13 0.0004220305    1.021    0.021
         7 -14.6403     70.0275    148.9945   1.0712127636e+02   3.6039929916e+01     14.14334     6.737895  81.38   0.01051588    6.600    0.848
         8  -9.4233     30.5062    195.1930   1.2184428047e+02   3.0058706407e+01    0.3704568    0.1693301  55.08  0.001481546    1.963    0.491
         9 -10.4388     74.1426    188.7882   1.1170539014e+02   2.6092206390e+01    0.4556729    0.2491248  69.71  0.001666294    2.181    0.542
        10 -14.7686     50.3605    201.6938   1.1826849592e+02   2.6386090029e+01     8.487649     3.158897  61.65   0.03364556    3.311    0.698
        11  -7.5280    150.3149    178.6400   9.2486446599e+01   1.5397760523e+01     0.149569    0.1143595  79.91 0.0007042863    1.754    0.430
        12 -10.4748     72.5242    174.5453   1.1025786361e+02   2.9576854423e+01    0.3607454    0.2871855 -33.87  0.001435739    1.698    0.411
        13 -10.6510     77.0185    169.2229   1.0842387616e+02   3.0181920733e+01    0.4142447    0.3127705 -28.51   0.00214531    1.907    0.476
        14 -10.8362     47.3299    172.8620   1.1604193656e+02   3.3216813345e+01    0.4287364    0.3948984 -58.97    0.0018778    1.308    0.236
        15  -9.6515    195.1628    199.0356   8.6734505457e+01   3.2505725315e+00    0.3599405    0.2540071 -84.06  0.001500429    3.478    0.713
        16  -8.6923    140.7465    172.8272   9.3590551243e+01   1.8448001051e+01    0.2937362    0.1837419  63.11  0.001235702    2.093    0.522
        17  -8.0824    158.4834    161.9414   8.7296420968e+01   1.7273535285e+01    0.2005925    0.1343379 -73.88 0.0008053958    2.342    0.573
        18 -13.5825     57.4992    240.5613   1.2007601977e+02   1.7717620797e+01    0.9502474    0.6352865  64.05  0.003846903    1.183    0.155
        19 -10.5021     91.4551    153.8779   1.0229654309e+02   3.1629392912e+01    0.6063714    0.4249698 -27.38  0.001490251    2.066    0.516
        20  -7.6295    113.0000    150.9749   9.6149069711e+01   2.8605705632e+01     0.243949   0.08398206 -53.78 0.0007940435    2.885    0.653
        21  -8.9824    134.4122    148.6911   9.0235455231e+01   2.5030239830e+01    0.4193222    0.2093147 -60.57  0.001507021    2.545    0.607
        22  -9.4051    133.6203    143.4097   8.9277968853e+01   2.6391584873e+01      0.46347    0.1571991 -55.18  0.001345362    3.657    0.727
        23  -9.2346     85.2316    144.7630   1.0230455112e+02   3.4827623295e+01     0.314904    0.2304154  53.44 0.0007997717    1.412    0.292
        24  -9.4482    104.1525    139.5718   9.6158787963e+01   3.2918496325e+01    0.4913149    0.3201881 -25.15  0.002004162    2.355    0.575
        25 -10.4179     92.1501    139.1326   9.9340643773e+01   3.5086624142e+01    0.2774643    0.2560975 -38.79 0.0003272502    1.178    0.151
        26 -17.4196      7.3944    195.6638   1.2651954619e+02   3.2207133951e+01     17.01941     2.079725 -77.89   0.04723611    7.657    0.869
        27 -10.4653    114.0382    129.6996   9.1302544591e+01   3.3446947452e+01    0.5312591    0.4246338  13.06  0.002298121    1.570    0.363
        28  -9.1717    106.0117    131.0224   9.3804241201e+01   3.4634465766e+01    0.3523872    0.2888895 -88.10  0.001406945    1.381    0.276
        29 -10.9014    161.1578    224.8212   9.7934827970e+01   4.8134076853e+00    0.4534624    0.2791823  26.24  0.002350054    1.689    0.408
        30  -9.3421    100.3425    125.8638   9.4227128226e+01   3.6895354322e+01    0.3133782    0.2434438 -26.92 0.0005978578    1.543    0.352
        31  -8.4727    108.9581    118.9696   9.0159761114e+01   3.6951745377e+01    0.2260632     0.219092 -80.64 0.0005053966    1.038    0.036
        32  -8.9091    114.5777    118.2201   8.8397397373e+01   3.6041169146e+01    0.2249002    0.1424199 -39.73 0.0009499699    1.644    0.392
        33  -9.3092    183.8100    213.6710   9.1596134800e+01   2.8047203993e+00    0.2791697    0.1070052  33.66  0.001088399    2.617    0.618
        34  -8.5258    168.3976    113.2349   7.3465300013e+01   2.5392501650e+01    0.2296888    0.1447239 -51.09 0.0009432847    1.682    0.406
        35 -10.7482    117.7811    109.4634   8.5249310063e+01   3.7420422645e+01    0.5229792    0.4330148  80.19  0.002522697    1.465    0.318
        36  -8.5264    205.6736    110.1290   6.5040799572e+01   1.7417168426e+01    0.2531743    0.2102123  67.27 0.0006071719    1.360    0.265
        37  -9.9607    134.5067    106.5273   7.9916745867e+01   3.4529733340e+01     1.256605    0.1392926 -46.56  0.002030525   10.774    0.907
        38  -8.8751     61.1079    220.2660   1.1774834633e+02   2.1165160103e+01    0.2073347    0.1773456 -66.19 0.0008312276    1.413    0.292
        39  -8.7742     62.2221     69.1885   9.1479475118e+01   5.6029266302e+01    0.1745653    0.1638355  80.34 0.0006095276    1.346    0.257
        40  -9.1973     50.2381    224.7172   1.2022834668e+02   2.1652827142e+01    0.2657652    0.1547287  83.69 0.0008206758    1.629    0.386
        41 -12.0216    184.0774     48.4324   5.2161988403e+01   3.3081334955e+01    0.8982639    0.7692264  -0.46  0.003043974    1.414    0.293
        42  -9.6503    157.4755    218.8336   9.7774673778e+01   6.4543687980e+00    0.3286518    0.1894786  59.01    0.0009153    2.330    0.571
        43  -7.4115     93.6841    249.6835   1.1417401648e+02   1.1184792410e+01    0.1033849    0.0906916  11.04 0.0005348054    1.649    0.394
        44  -9.3605    152.4781     47.6347   5.7663601798e+01   4.1209080387e+01    0.2931542    0.2414126 -73.38 0.0006443086    1.383    0.277
        45  -9.3607     54.6749    222.7051   1.1921473837e+02   2.1500255651e+01    0.3312156    0.1378778  49.91  0.001181199    1.982    0.495
        46  -9.1834     92.6762    217.3396   1.1104930289e+02   1.7324070791e+01    0.2252715    0.1864561  70.90 0.0004877801    1.083    0.077
        47  -9.8766    125.1194    245.1234   1.0775177799e+02   7.2632605723e+00    0.1828352    0.1548998  27.24  0.000804006    1.290    0.225
        48  -9.1291    151.0420     54.4084   6.0137624567e+01   4.0540940841e+01    0.2726443    0.2404169 -89.79 0.0004145121    1.234    0.189
