#   1 NUMBER                 Running object number                                     
#   2 MAG_AUTO               Kron-like elliptical aperture magnitude                    [mag]
#   3 X_IMAGE                Object position along x                                    [pixel]
#   4 Y_IMAGE                Object position along y                                    [pixel]
#   5 X_WORLD                Barycenter position along world x axis                     [deg]
#   6 Y_WORLD                Barycenter position along world y axis                     [deg]
#   7 A_WORLD                Profile RMS along major axis (world units)                 [deg]
#   8 B_WORLD                Profile RMS along minor axis (world units)                 [deg]
#   9 THETA_WORLD            Position angle (CCW/world-x)                               [deg]
#  10 FWHM_WORLD             FWHM assuming a gaussian core                              [deg]
#  11 ELONGATION             A_IMAGE/B_IMAGE                                           
#  12 ELLIPTICITY            1 - B_IMAGE/A_IMAGE                                       
         1 -12.1850    204.6671     28.6491   5.1287252947e+01   2.9708413145e+01    0.6895759    0.5475761 -45.89  0.003642674    1.197    0.165
         2 -11.9671    210.7554     20.9176   4.8363247521e+01   2.9026330780e+01    0.6073516    0.3139233  37.43  0.001206006    2.559    0.609
         3 -13.1017      5.3819      7.9346   1.1132571160e+02   7.5886412527e+01     1.212834    0.5483509 -51.41  0.006438646    1.681    0.405
         4 -12.7002    220.1652      9.8514   4.4365519183e+01   2.7821200243e+01     0.776767    0.5553228 -44.54  0.002899803    1.261    0.207
         5 -14.4690     44.9132    193.6643   1.2244191937e+02   3.0448653230e+01      3.57015      2.17092 -58.78   0.02274244    2.091    0.522
         6 -10.8129    222.6764    250.0471   9.5162703919e+01  -8.3846100300e-01    0.3204391    0.2518055  35.70  0.002715387    1.584    0.369
         7 -11.7700    211.1534    240.9736   9.5824788549e+01   1.4077078056e+00    0.5281505    0.4028342  44.40  0.004135198    1.718    0.418
         8 -11.9614    210.7765    249.3190   9.6917959153e+01   7.0337179690e-01    0.4780503    0.2880325  33.83  0.002539066    1.256    0.204
         9 -11.5521    216.0000    248.8032   9.6039198058e+01   9.3634949142e-02    0.4678178    0.2611745   9.63  0.003222728    1.847    0.459
        10 -12.4372    138.7527    222.3232   1.0612187631e+02   1.3514393811e+01    0.8932479    0.6251495  48.85  0.006202955    1.295    0.228
        11 -12.3293    198.7560    233.9691   9.6944321287e+01   3.7188607769e+00    0.7289561    0.5036128 -32.45   0.00548397    1.880    0.468
        12 -13.7499    170.1666    242.4374   1.0275926186e+02   6.6937918690e+00     1.082505    0.7781714  46.07  0.006376985    1.427    0.299
        13 -14.1362    184.9218    237.9421   9.9742053656e+01   5.1810707383e+00     1.437677     1.040908  40.33   0.01013365    1.331    0.249
        14 -14.1855    136.4011    238.7514   1.0826244602e+02   1.1696917868e+01     1.433093    0.8253429  51.38  0.009422424    1.665    0.399
        15 -12.7434    150.8785    237.0142   1.0551293556e+02   9.9400722845e+00    0.7101392    0.6043553 -74.32  0.004972728    1.789    0.441
        16 -15.2595    112.1013    240.5925   1.1278823569e+02   1.4679162646e+01     3.330148     1.373599  31.84   0.01817465    2.162    0.538
        17 -14.2395     41.1027    208.5581   1.2405021223e+02   2.8194731126e+01     1.189684    0.7773578  36.75  0.008443127    1.389    0.280
        18 -15.6421     18.0579    241.9070   1.2952451165e+02   2.5080159950e+01     1.727166    0.5012605  56.54   0.01035422    2.282    0.562
        19 -13.4158      6.0746    249.2733   1.3167397757e+02   2.5064342310e+01    0.5519206    0.1107202  42.63    0.0032892    2.306    0.566
        20 -14.5243     42.1157    245.0806   1.2550697231e+02   2.2257529639e+01     1.080416    0.3050906  43.52  0.005972192    2.071    0.517
        21 -16.3187     60.4444    238.8920   1.2199147687e+02   2.1202363350e+01     2.052154     1.178132  65.56   0.01480851    1.582    0.368
        22 -15.3744     42.5046    231.5763   1.2487372952e+02   2.4260809141e+01     1.639803    0.5327408  58.57  0.008863211    2.601    0.616
        23 -10.8818    190.5149    216.0891   9.5971545831e+01   6.7852447957e+00    0.4046793    0.2064694  36.59  0.002423788    1.504    0.335
        24 -15.2135     91.2437    225.4087   1.1540281012e+02   1.9536295333e+01     2.083583      1.14825 -53.99   0.01328675    2.459    0.593
        25 -12.4819    132.7339    205.1445   1.0530136805e+02   1.6842659504e+01      1.02297    0.6591581 -30.50  0.006010911    2.307    0.567
        26 -12.3341    126.7432    197.7029   1.0560159247e+02   1.8890289981e+01    0.7607298    0.5025566 -35.46  0.004514116    2.106    0.525
        27 -12.6895    118.1682    195.0666   1.0704739813e+02   2.0606002481e+01    0.7080447    0.6321375  77.67  0.005056367    1.266    0.210
        28 -12.3852    214.2942    205.9711   9.0453970255e+01   4.4549273000e+00    0.5709434    0.3817543  -6.31  0.003856307    1.531    0.347
        29 -13.4932    106.9511    199.3102   1.0985532339e+02   2.1549045163e+01     1.159807    0.7431375  77.92  0.005499965    2.103    0.525
        30 -11.3970    204.0617    206.4330   9.2249819324e+01   5.8957265890e+00    0.3796055     0.265378  15.47  0.002597824    1.236    0.191
        31  -9.9625     11.2057    206.0889   1.2978989977e+02   3.1506116496e+01    0.2186798    0.1327569  26.05  0.001527454    1.863    0.463
        32 -11.6209    182.7556    193.5042   9.4077059010e+01   1.0714361262e+01    0.5209369    0.2664445  33.38  0.002818385    1.635    0.389
        33 -11.6512     82.0547    188.6913   1.1405772487e+02   2.6861212558e+01     1.041905    0.3834859  42.99  0.004988877    2.093    0.522
        34 -11.1407     86.2327    182.2621   1.1248749755e+02   2.7478485731e+01    0.4516251    0.3224455  58.98  0.002843518    1.240    0.194
        35 -10.6946    135.4042    185.2507   1.0218433120e+02   1.9541649646e+01    0.3366684    0.2639112 -64.62  0.002130145    1.621    0.383
        36 -12.4610    172.1826    173.7603   9.2913661219e+01   1.5203426190e+01    0.8999932     0.609032  -7.87  0.004877699    1.944    0.485
        37 -12.1150    118.3460    174.2670   1.0433040807e+02   2.4153892219e+01     0.743647     0.426774  34.46  0.003884478    1.599    0.375
        38 -12.1612    223.3811    217.0946   9.0623183132e+01   2.0457774612e+00     1.089198    0.5388108  -2.26  0.005632907    3.028    0.670
        39 -10.7027    103.5248    171.8046   1.0734399150e+02   2.6923913580e+01    0.3288624    0.2848183  26.21  0.002118619    1.273    0.215
        40 -11.1576     98.8720    168.8190   1.0803083829e+02   2.8198843855e+01    0.4801179    0.3492386  32.18  0.002821348    1.369    0.269
        41 -10.6923     87.9770    170.1953   1.1074335523e+02   2.9535160753e+01    0.7913019    0.3660223  63.14  0.003294548    3.002    0.667
        42 -10.6322     79.9205    167.7647   1.1236105200e+02   3.1147222070e+01    0.2987372    0.1811374  43.66 0.0005875927    1.396    0.284
        43  -9.9807      7.8406    177.4893   1.2960570985e+02   3.7055948219e+01    0.2246178    0.1154147  59.10  0.001184118    1.459    0.315
        44 -10.5172      3.7292    166.4870   1.3015764820e+02   3.9548750009e+01    0.3421942     0.191231 -87.99   0.00188692    1.577    0.366
        45 -12.0734     13.4567    160.9422   1.2771048803e+02   3.9905957414e+01    0.8086621    0.2889667  58.82  0.004028376    2.296    0.564
        46 -13.5673    229.6193    195.3402   8.6274015430e+01   3.3610265898e+00     1.155522    0.5819921  -7.50  0.006041639    2.580    0.612
        47 -10.6944     85.5278    161.4722   1.1026936810e+02   3.1621893934e+01    0.2349685    0.2179709  10.25 0.0006415992    1.356    0.263
        48 -12.9529    109.2298    151.8044   1.0312208959e+02   2.9899862402e+01     1.110854    0.7196609 -51.01  0.005847408    1.730    0.422
        49 -11.0894     25.3209    156.8506   1.2465209280e+02   3.9726848657e+01    0.4092129    0.3156494 -16.02  0.002630687    2.071    0.517
        50 -12.1777    100.2102    144.3144   1.0417744340e+02   3.2910249241e+01    0.4744209    0.3560741 -16.40  0.002423595    2.068    0.516
        51 -10.4892     70.4882    144.9911   1.1199896492e+02   3.7197971353e+01    0.2892331    0.2101317  76.21 0.0009498505    1.358    0.264
        52 -11.0346     66.2636    142.1414   1.1276208170e+02   3.8386541371e+01    0.4318799    0.2562011  48.57  0.002094972    1.515    0.340
        53 -11.1878     88.0376    144.2144   1.0729503116e+02   3.4845725987e+01     0.239142    0.2331497 -36.87 0.0004842272    1.240    0.194
        54 -11.0259     74.4496    130.5019   1.0891272376e+02   3.9870170986e+01    0.3950044    0.2276774  60.61  0.001871929    1.874    0.466
        55  -9.3911     97.7534    129.4367   1.0229710411e+02   3.6492845246e+01    0.1804745    0.1316788  27.59  0.000752671    1.539    0.350
        56  -9.6312      1.4983    126.9310   1.2924888383e+02   4.8108102813e+01    0.1795059   0.09436221 -86.00  0.001031027    1.586    0.370
        57 -11.2718     62.0974    121.1970   1.1108799939e+02   4.3697294945e+01    0.4954091    0.3890306   2.64    0.0027352    1.789    0.441
        58 -12.9292     19.0521    149.6246   1.2578319645e+02   4.1820732337e+01     1.068046    0.6091594  50.14  0.004836821    1.461    0.315
        59  -9.2040    167.6325    112.3477   8.1338097637e+01   2.6141390560e+01    0.1505531    0.1177926 -85.13 0.0007018954    1.874    0.466
        60 -12.9636      2.5722     76.5729   1.2580408647e+02   5.9827639710e+01    0.9344888    0.1833598 -78.52  0.003196764    3.945    0.746
        61 -10.5501     52.9887     89.5128   1.0869136248e+02   5.2445559981e+01    0.2008496    0.1349494  32.30  0.001037498    1.604    0.377
        62 -10.2644     41.3274     76.6614   1.1053074302e+02   5.6923498779e+01    0.1420921   0.09428354  69.96 0.0007051694    1.730    0.422
        63 -10.4914    195.2060     34.4926   5.4203759340e+01   3.1435585962e+01    0.2759456    0.2037359 -24.53 0.0008609185    1.325    0.245
        64 -11.5968     29.2509    236.8549   1.2744329281e+02   2.4783774109e+01    0.1566833   0.09595925  56.74 0.0005806974    1.138    0.121
        65 -13.5370    220.5825    182.1079   8.5545625288e+01   6.1564461640e+00     1.563188    0.7986419 -11.60  0.007827241    2.552    0.608
        66 -12.8380    235.2994    202.2878   8.6483710937e+01   1.8546884357e+00     1.456678    0.6045548 -15.13   0.00691388    3.402    0.706
