#   1 NUMBER                 Running object number                                     
#   2 MAG_AUTO               Kron-like elliptical aperture magnitude                    [mag]
#   3 X_IMAGE                Object position along x                                    [pixel]
#   4 Y_IMAGE                Object position along y                                    [pixel]
#   5 X_WORLD                Barycenter position along world x axis                     [deg]
#   6 Y_WORLD                Barycenter position along world y axis                     [deg]
#   7 A_WORLD                Profile RMS along major axis (world units)                 [deg]
#   8 B_WORLD                Profile RMS along minor axis (world units)                 [deg]
#   9 THETA_WORLD            Position angle (CCW/world-x)                               [deg]
#  10 FWHM_WORLD             FWHM assuming a gaussian core                              [deg]
#  11 ELONGATION             A_IMAGE/B_IMAGE                                           
#  12 ELLIPTICITY            1 - B_IMAGE/A_IMAGE                                       
         1 -13.5942    191.6725     26.5822   7.3503905635e+01   3.4095443637e+01     1.466395     1.374601  18.28  0.006764259    1.095    0.086
         2 -13.6517    206.1000      7.0483   6.6117647150e+01   3.2462844064e+01     1.496613     1.011108  44.55  0.007961317    1.621    0.383
         3 -13.2143      2.5894      5.0454   1.2903399870e+02   7.5763384873e+01     1.438845     1.315266  52.42   0.01044024    1.498    0.333
         4  -9.4150     81.9330    248.9899   1.4098291885e+02   1.7420130587e+01    0.1661626   0.08690263  54.87 0.0008957536    1.737    0.424
         5 -10.3222    174.7580    249.9452   1.2510634881e+02   6.1421292112e+00    0.1536848    0.1407582  46.89  0.001133631    1.561    0.359
         6 -11.4508    125.2619    249.8933   1.3353602133e+02   1.2272547183e+01    0.3730716    0.1278086  36.45  0.002043822    2.117    0.528
         7 -13.4900      8.5187    207.1661   1.5208632439e+02   3.1123776078e+01     7.455564    0.5603619  33.91   0.02358653    4.159    0.760
         8 -14.9602      8.2216    150.4309   1.4975552970e+02   4.2066965829e+01     6.258692     1.583063 -89.41   0.02278931    4.553    0.780
         9 -11.5473    185.4717    238.4767   1.2194045545e+02   6.0173957571e+00    0.3174855    0.2584932 -86.66  0.001837585    2.913    0.657
        10  -9.5227     12.9898    240.9724   1.5234079022e+02   2.5294447159e+01    0.1187901    0.1117537 -31.55  0.001140204    1.697    0.411
        11 -10.1633      2.5326    249.1634   1.5423520692e+02   2.4930988758e+01    0.1957378     0.129098  52.84  0.001466192    1.037    0.035
        12  -8.7583     47.0238    249.4627   1.4697481053e+02   2.0971869448e+01     0.140023   0.06978002  38.20 0.0003985268    1.493    0.330
        13 -10.1396    237.5987    246.7840   1.1469147664e+02  -1.1856171355e+00    0.1165152   0.08509276 -21.31 0.0009517486    1.690    0.408
        14  -9.7131    116.0925    227.0445   1.3301017533e+02   1.6472983912e+01    0.1771781     0.108042  54.99  0.001130699    1.735    0.423
        15 -11.3452    139.2867    249.6740   1.3109454990e+02   1.0585479411e+01    0.2980348    0.2182272  87.64  0.002128253    2.447    0.591
        16 -10.5445    172.8470    222.4976   1.2207408941e+02   9.5319426045e+00    0.2507845    0.1326518  25.54  0.001427698    1.685    0.407
        17  -8.3294    221.5652    213.4950   1.1242910140e+02   3.9346966235e+00    0.1117115   0.08278307  13.99 0.0001872375    1.033    0.032
        18  -8.9448    152.6364    212.9631   1.2452250914e+02   1.3568506360e+01    0.1443405    0.1280532  20.02  0.000375394    1.131    0.116
        19 -12.8351     40.0617    236.2718   1.4755583931e+02   2.3595292150e+01     0.314577    0.2380399 -55.37 0.0007760629    1.851    0.460
        20 -11.5266     65.1761    201.1476   1.4061334407e+02   2.6785211028e+01    0.2473245    0.2027332 -47.95 0.0005477328    1.570    0.363
        21 -11.8704     22.3136    201.0214   1.4920863728e+02   3.1060681058e+01     0.361086    0.1408655  48.09  0.001701473    1.933    0.483
        22 -10.7531     14.7260    197.7533   1.5055311892e+02   3.2285748316e+01     0.332549    0.1382668  39.42  0.001589382    1.882    0.469
        23  -9.5152    194.4315    198.2270   1.1467712265e+02   9.4844695819e+00    0.2422476    0.1716873 -54.99   0.00142189    2.506    0.601
        24  -9.5546    192.0028    193.0184   1.1427499088e+02   1.0505582776e+01    0.2913467    0.1758077 -55.10  0.001441524    3.318    0.699
        25  -8.2977     51.6483    197.2904   1.4309359772e+02   2.8935589133e+01    0.1188618   0.06356879  56.88 0.0007027377    1.672    0.402
        26 -11.8441     71.0065    192.7110   1.3867584534e+02   2.7628579704e+01    0.2236287    0.2075285 -51.52  0.000421176    1.328    0.247
        27  -9.4019     44.3559    192.0521   1.4423784772e+02   3.0639006031e+01    0.1599985    0.1334421  38.60  0.000478975    1.229    0.187
        28 -14.2419     46.0780    229.1237   1.4613216036e+02   2.4121770134e+01     3.463593    0.4962186  31.68  0.004092714    5.349    0.813
        29 -13.3110     67.6871    177.5983   1.3795853297e+02   3.0853252036e+01    0.4442844    0.2584276 -42.88  0.001821181    2.357    0.576
        30 -10.8334     80.5605    179.5436   1.3527430394e+02   2.8917764865e+01    0.2080331    0.1898503  54.01  0.000378905    1.059    0.056
        31 -11.7699     87.6236    169.9002   1.3253114574e+02   2.9859897624e+01    0.5365339    0.5101142 -16.34  0.003736053    1.240    0.194
        32  -9.3827    230.3808    167.2110   1.0302652906e+02   7.8662742792e+00    0.1634651    0.1022856 -33.14 0.0009502042    1.721    0.419
        33  -9.3273     67.1338    250.5580   1.4362425700e+02   1.8789420800e+01    0.1480454   0.07150732  37.40  0.001005763    1.533    0.348
        34 -12.9490     53.4969    217.4222   1.4408083349e+02   2.5261577348e+01      1.77181    0.8190727  36.97   0.01097344    1.728    0.421
        35  -9.9905     99.4755    153.5633   1.2741911915e+02   3.1445837244e+01    0.2506081    0.2436558  34.44 0.0007977943    1.067    0.063
        36 -12.0213     88.3009    152.9459   1.3007252431e+02   3.3168351207e+01    0.2537572    0.2313647 -16.30 0.0005724982    1.292    0.226
        37  -9.0592    102.2283    149.1899   1.2604560200e+02   3.1920844132e+01    0.1854007    0.1724293  -5.75 0.0004751866    1.194    0.163
        38 -12.4828     67.0997    143.7770   1.3418460217e+02   3.7891117668e+01    0.6750204    0.4236988  60.74  0.003400024    1.712    0.416
        39  -8.4261    192.2519    143.7065   1.0502457289e+02   1.7379854813e+01    0.1148793    0.1068383 -58.22 0.0002524387    1.486    0.327
        40  -9.7223    110.5703    137.9726   1.2199515139e+02   3.2904803073e+01    0.3368537    0.2230245 -23.52  0.001500962    2.142    0.533
        41  -8.2054    174.2735    137.6053   1.0726706969e+02   2.1626424602e+01    0.1306483    0.1104864 -70.72 0.0006989035    1.736    0.424
        42  -8.7980     87.4972    137.0139   1.2779328909e+02   3.6643535931e+01    0.1790511    0.1285562 -65.82 0.0009698329    1.435    0.303
        43  -9.6512     83.3391    244.3628   1.4042025205e+02   1.7909238056e+01    0.2609572   0.09592768  54.37  0.001350389    2.955    0.662
        44 -10.5094     98.0362    135.4481   1.2475055210e+02   3.5412197046e+01    0.2399533    0.2109729 -30.46 0.0005285837    1.257    0.204
        45 -10.3979     57.9951    133.1871   1.3519718453e+02   4.1319437955e+01     0.306831    0.1506686  61.46  0.001320421    2.650    0.623
        46 -10.0414     55.1942    130.7843   1.3564760206e+02   4.2181339931e+01    0.3094869    0.2091294 -22.48  0.001522782    2.222    0.550
        47  -8.5305     76.2692    244.6308   1.4167919310e+02   1.8650329742e+01    0.1024542   0.05788974  58.60 0.0006716968    1.666    0.400
        48  -8.9125     66.4688    243.0009   1.4329226003e+02   1.9935404589e+01    0.1248244   0.09191038 -88.76 0.0006942229    1.552    0.356
        49 -10.5291     95.2563    240.8967   1.3804992488e+02   1.7039264856e+01    0.1995841    0.1651879 -57.75 0.0007662962    1.577    0.366
        50  -9.2882    107.6227    124.4579   1.2009847154e+02   3.6204473155e+01    0.1659392    0.1338272  25.49 0.0003709052    1.307    0.235
        51 -10.0438    167.9919    113.0125   1.0286415863e+02   2.6986021143e+01    0.2938981    0.2657854 -76.12   0.00102551    1.447    0.309
        52  -9.5537    203.4567    111.4103   9.5580626163e+01   2.0074843578e+01    0.2898496    0.1763487   2.68   0.00127355    2.165    0.538
        53  -8.5574    184.3758     77.3127   8.9986130716e+01   2.9241160900e+01    0.1589237    0.1071611  18.63  0.000703002    1.791    0.442
        54 -10.2826      2.1640    240.2143   1.5409882264e+02   2.6283284414e+01    0.2526094     0.103121 -88.73  0.001739912    2.412    0.585
        55 -11.4282      9.8293     63.9326   1.4110465221e+02   6.1963861472e+01    0.5523258    0.1794068  32.54  0.002276401    3.300    0.697
        56 -10.1261     29.4727     60.9863   1.3209484816e+02   6.1304695587e+01    0.2135402    0.1925218  27.13 0.0003620434    1.290    0.225
        57 -11.6440      2.4063     48.9142   1.4188168036e+02   6.5897916241e+01    0.5399351   0.09850539 -65.81  0.001991245    3.217    0.689
        58 -10.6382    244.4311    248.5725   1.1390983949e+02  -2.1157780829e+00    0.2265734    0.1055814   4.53  0.001348938    2.475    0.596
        59 -10.2428     99.1046    249.0991   1.3801110714e+02   1.5470993743e+01    0.1507352    0.1200354  26.24  0.001240109    1.278    0.218
