#   1 NUMBER                 Running object number                                     
#   2 MAG_AUTO               Kron-like elliptical aperture magnitude                    [mag]
#   3 X_IMAGE                Object position along x                                    [pixel]
#   4 Y_IMAGE                Object position along y                                    [pixel]
#   5 X_WORLD                Barycenter position along world x axis                     [deg]
#   6 Y_WORLD                Barycenter position along world y axis                     [deg]
#   7 A_WORLD                Profile RMS along major axis (world units)                 [deg]
#   8 B_WORLD                Profile RMS along minor axis (world units)                 [deg]
#   9 THETA_WORLD            Position angle (CCW/world-x)                               [deg]
#  10 FWHM_WORLD             FWHM assuming a gaussian core                              [deg]
#  11 ELONGATION             A_IMAGE/B_IMAGE                                           
#  12 ELLIPTICITY            1 - B_IMAGE/A_IMAGE                                       
         1 -12.3913    187.8785     34.2534   3.6194413766e+00   3.3638745664e+01     1.654019     1.482403  16.37   0.01005387    1.505    0.335
         2 -13.1115    208.5221     46.8155   4.7154110905e+00   2.7293548597e+01     1.532191     0.861694 -66.37  0.007527051    1.864    0.464
         3 -12.6117    221.0491     38.9126   1.6637818573e+00   2.5661835870e+01     1.040022    0.5217362 -80.67   0.00143225    2.405    0.584
         4 -14.1158    243.5029     60.1786   4.4998728328e+00   1.8396095731e+01     1.485337     1.372804  -3.90  0.002059878    1.459    0.315
         5 -12.6152     64.9394      4.7519   1.4367753627e+01   6.7391743016e+01    0.6221089    0.5043111  -1.20  0.001256937    1.302    0.232
         6 -14.2951      7.8829     67.8021   7.2175324822e+01   6.4308690067e+01     2.585396     1.481501 -16.94   0.01268462    1.987    0.497
         7 -12.2988     57.8759     24.6421   2.8095895804e+01   6.6680096468e+01       1.9774     1.319812 -89.96  0.007747477    3.771    0.735
         8 -12.6108     74.8605     20.4994   1.9536109992e+01   6.3518056136e+01     2.186511     1.363366  87.54  0.005488609    2.798    0.643
         9 -13.8480      4.0109     57.0537   7.1859829919e+01   6.7170057025e+01     2.198515    0.7953405 -50.38   0.00952442    2.121    0.528
        10 -12.7258     26.0804     39.4419   5.2521538434e+01   6.9321413636e+01     1.678174    0.9376956 -43.09   0.00804719    1.614    0.380
        11 -13.2176     56.1003     58.8582   4.4803349651e+01   6.0921439279e+01     1.503112     1.101665  84.51  0.006665153    2.367    0.577
        12 -13.6620     14.3768     34.9843   5.8125295384e+01   7.1465773476e+01      1.28226     0.872177 -50.35  0.007346989    1.356    0.262
        13 -13.2748      4.8996     33.6797   6.4202728965e+01   7.2482617784e+01    0.7480763    0.5355679 -62.93  0.002543085    1.431    0.301
        14  99.0000     40.0714     24.9725   3.6962936690e+01   6.9953561152e+01     2.604537     1.596974  53.45   0.01265984    2.199    0.545
        15 -13.3887     61.8930     42.8319   3.5388316987e+01   6.2996637116e+01     1.020701    0.7030811 -48.87  0.002185037    1.634    0.388
        16 -11.3975    159.0758     27.1374   4.9054152129e+00   4.1556809164e+01    0.4578134    0.2908355  -9.57  0.002046443    2.222    0.550
        17 -12.9510    225.3051     23.7943   3.5787493157e+02   2.6629939758e+01     0.841223     0.413433  50.65  0.004048958    3.005    0.667
        18 -11.8107    211.1936     21.4511   3.5832223513e+02   2.9889693277e+01    0.4463163    0.3403495  42.29  0.002600412    1.872    0.466
        19 -11.6775    123.5515     24.3561   9.3397450926e+00   5.1003911524e+01    0.3891345     0.254141 -26.43  0.001598683    1.672    0.402
        20 -11.5928    244.3356     22.9084   3.5649603099e+02   2.2966084691e+01    0.5457494    0.2643859  83.99   0.00261152    2.219    0.549
        21 -11.6428    201.9474     20.7056   3.5883978769e+02   3.2020009125e+01    0.4408795    0.1959277 -42.72  0.002145285    1.842    0.457
        22 -10.9009    116.5043     17.6164   8.0487483378e+00   5.3546259501e+01    0.3424292    0.2631925  56.78  0.001878712    1.212    0.175
        23 -11.0990    114.9340     12.9059   6.4849514584e+00   5.4410721914e+01    0.2708117    0.2120719 -78.54   0.00039068    1.317    0.241
        24 -12.0202    116.7055      8.3145   4.4013885412e+00   5.4368223766e+01    0.6379044    0.4022399 -58.79  0.003202628    1.751    0.429
        25 -10.2324    111.6755      4.3114   3.6161754097e+00   5.5987478956e+01    0.2428656    0.1724194 -82.96 0.0008287146    1.444    0.308
        26  -9.2683    229.5657     15.3493   3.5573262849e+02   2.6719544467e+01    0.3408887    0.1319374 -43.97 0.0009413442    1.896    0.472
        27 -12.4295    221.4850      9.0929   3.5480489237e+02   2.9055503440e+01    0.6244704    0.1837961 -43.18  0.002856252    2.361    0.577
        28 -12.3547    228.2217      9.7586   3.5458564297e+02   2.7598655689e+01    0.8096244    0.3449019  77.45  0.003371158    2.355    0.575
        29 -12.6932    249.7574     10.6246   3.5370103384e+02   2.3319216753e+01    0.3989356    0.2468873 -46.77  0.001019252    1.205    0.170
        30 -13.6928    244.7102      8.4338   3.5349015980e+02   2.4501311976e+01    0.9020178    0.3792822 -77.33  0.004693723    2.416    0.586
        31 -10.1954    168.1951     15.0334   2.7213480615e-01   4.0619337490e+01    0.2754796    0.1937371 -47.54 0.0008086986    1.321    0.243
        32 -10.0851    187.0450     14.1765   3.5835573347e+02   3.6165514795e+01    0.2342497    0.1772642 -22.91  0.001380042    1.551    0.355
        33 -11.1093    150.1499     13.1786   1.6226812984e+00   4.5330837792e+01    0.2459764    0.1999333 -30.18  0.001435249    1.351    0.260
        34 -10.2232    161.1364     12.8173   3.2403151805e-01   4.2597424803e+01    0.2811275    0.1678654  34.19  0.001112418    2.482    0.597
        35 -10.6238    109.1273     11.1464   6.8068916581e+00   5.6060637816e+01    0.3803274     0.245551   8.78  0.001851059    2.066    0.516
        36  -9.5086     93.2211     11.9917   1.0404841320e+01   5.9997299616e+01    0.1575739    0.1131575 -20.91 0.0002892617    1.545    0.353
        37  -9.9296     88.6323     12.2759   1.1618695039e+01   6.1103854151e+01    0.1711735    0.1279073   1.19 0.0009215891    1.548    0.354
        38 -10.5915    102.1083     10.2865   7.7719964676e+00   5.7922766025e+01    0.2491109    0.2191565  38.74 0.0005246804    1.164    0.141
        39  -9.9036    101.9206      6.1166   6.0243433537e+00   5.8325254106e+01     0.217224    0.1551287  47.49  0.000887741    1.332    0.249
        40 -10.8759     26.0888     10.0267   3.6101180579e+01   7.4435313432e+01    0.2506763    0.1722716  -2.45 0.0008919717    1.470    0.320
        41  -9.7211    131.1633      8.8711   2.5193607069e+00   5.0598357102e+01    0.2633388    0.1523646  25.31  0.001169625    2.537    0.606
        42 -10.3900    124.8477      9.0906   3.4709388558e+00   5.2205322096e+01    0.2598395    0.1805077 -41.64  0.001053379    1.499    0.333
        43 -10.9388     72.3262      4.4262   1.1970295617e+01   6.5713603940e+01    0.7334164    0.2091447 -29.61  0.002779949    3.455    0.711
        44 -10.5132     85.7853      1.6668   7.2347708774e+00   6.2693126583e+01    0.4660134    0.1670605  52.59  0.001937981    2.258    0.557
        45 -10.5517     84.1847      7.2692   1.0315001684e+01   6.2640680804e+01    0.4059253    0.1837103  46.28  0.001535856    2.010    0.503
        46 -10.2082     78.5484      9.9307   1.3093915059e+01   6.3762362296e+01    0.3684264    0.1572127  58.03 0.0003764587    1.988    0.497
        47 -11.8398     76.8468      5.3702   1.1229646958e+01   6.4567178990e+01    0.3072065    0.2042823  10.59 0.0002285199    1.752    0.429
        48 -12.0964    193.8961      7.9957   3.5624854354e+02   3.5213083764e+01    0.2846448     0.239802 -75.33  0.001312485    1.077    0.072
        49 -13.0097    173.1806      6.0683   3.5727910836e+02   4.0289665717e+01     0.476009    0.2962267 -18.99  0.002116126    1.945    0.486
        50 -10.1601    215.7306      8.1483   3.5491528881e+02   3.0366871834e+01    0.1787768    0.1229504 -58.15 0.0003440532    1.138    0.121
        51  -9.5176    156.0481      8.2203   3.5944338624e+02   4.4315881766e+01    0.1736454   0.09720849  76.19 0.0008522699    1.604    0.377
        52 -11.9760     45.4895      5.9014   2.2542662041e+01   7.1455400097e+01    0.3402423    0.3287476  18.79 0.0004900342    1.223    0.182
        53 -11.4115     46.3196      2.3474   1.9842399043e+01   7.1636032938e+01    0.2400247    0.1569491  33.49 0.0008043828    1.364    0.267
        54  -9.8060    142.9025      6.9331   4.2381444690e-01   4.7761036940e+01    0.1903295    0.1593048 -82.20 0.0003394313    1.060    0.057
        55 -11.1679      4.0228      5.5840   5.0284458389e+01   7.7936376063e+01    0.3841173    0.2061883  -3.01  0.001440967    2.191    0.544
        56 -10.2063    210.6485      6.0487   3.5472136415e+02   3.1674411550e+01    0.1640979     0.126151 -46.79 0.0005617593    1.189    0.159
        57 -10.7853    184.0262      3.2438   3.5570483265e+02   3.7968426256e+01     0.314493    0.2219336  54.87  0.001596089    1.674    0.402
        58 -11.3001    216.5220      2.3322   3.5354855375e+02   3.0791039218e+01    0.4302677    0.1886248  82.83   0.00190291    2.186    0.543
        59  -9.6766    231.1269      1.5580   3.5267792995e+02   2.7862605874e+01    0.4705548    0.1304544  88.18  0.001854367    4.140    0.758
        60  -9.5068    203.0142      1.0000   3.5396146712e+02   3.3846530511e+01    0.1742344   0.06161952  80.27 0.0003586676    2.660    0.624
        61 -12.9773    200.7767     61.6998   9.3122662799e+00   2.6872787832e+01    0.7470586    0.6111116  65.04  0.003426347    1.352    0.261
        62 -10.2616     15.9245    238.7829   8.5643580688e+01   2.0797535820e+01     0.160693    0.1464226  60.05 0.0006230939    1.262    0.208
        63 -12.1328    238.6062     51.4877   3.0285355708e+00   2.0496576643e+01    0.4024968    0.2277427 -60.78  0.001005082    1.657    0.397
        64 -11.1859    104.9415     86.7285   3.6422861958e+01   4.5060823006e+01    0.6014764    0.4370195 -14.18  0.002527833    1.914    0.477
        65 -13.5410    110.9008     87.4453   3.4853282460e+01   4.3561895782e+01     1.124829     0.450185 -45.01  0.003776701    2.465    0.594
        66 -12.8105    114.7113     80.8233   3.1626115854e+01   4.4089825991e+01    0.9225807     0.525497 -47.80  0.003706093    1.775    0.437
        67 -13.1079    102.7784     96.1074   3.9999522412e+01   4.3405766848e+01    0.8782407    0.5435451  41.48  0.001803189    1.659    0.397
        68 -12.1429     95.4057     90.6615   4.0708318022e+01   4.6238489617e+01    0.5304363    0.4720768 -76.39  0.001867566    1.222    0.182
        69 -11.6288     56.4408     99.2744   5.7496667666e+01   5.1132154768e+01    0.3264451    0.1682188  44.31  0.001281103    2.125    0.529
        70 -11.4546     11.5439     98.0737   7.5880584644e+01   5.6190562135e+01    0.3140374    0.2305257 -75.46 0.0007812703    1.200    0.167
        71 -11.4116    141.5922     96.2544   2.9376778812e+01   3.4561476198e+01     0.434697    0.3579002  44.85  0.002113763    1.274    0.215
        72 -10.5066    250.2685     95.7152   1.1429544021e+01   1.2090448974e+01    0.4063201    0.1390125 -33.89  0.001709097    2.460    0.593
        73  -9.8153    244.5239     96.9354   1.2330100307e+01   1.2877112848e+01    0.1939568    0.1016931 -36.75 0.0005648684    1.507    0.336
        74 -10.5667    225.3829     97.2095   1.4724043315e+01   1.6260483093e+01     0.201722    0.1020228 -43.64 0.0009534556    1.646    0.392
        75 -11.7490     91.4513     34.2315   2.0810267058e+01   5.7851133250e+01    0.5297696    0.3003337  46.62  0.001914834    1.673    0.402
        76 -14.2146     66.8099     82.7973   4.8652602374e+01   5.3633673079e+01     1.728222     1.189096 -36.28   0.00638549    1.519    0.342
        77  -9.7284    236.7222    145.9904   2.3677795300e+01   6.4720825372e+00    0.1783846     0.134914 -29.10 0.0003323177    1.060    0.056
        78 -14.8530     50.8266     72.5711   5.2151845269e+01   5.8668982234e+01     3.336274     1.240601  34.45   0.01131914    2.749    0.636
        79 -10.9475    100.0778     54.5554   2.6582724529e+01   5.2592725939e+01     1.412181    0.7382494  36.03   0.00534362    2.379    0.580
        80  -9.2984    147.7334    128.6972   3.6570986954e+01   2.6218957010e+01     0.152716    0.1217749 -10.13 0.0001822383    1.525    0.344
        81  -9.8313    223.1727    121.6061   2.0504784707e+01   1.2660867864e+01    0.1751931    0.1236951  32.42 0.0009494221    1.755    0.430
        82 -10.0651    161.7036    120.6491   3.1365135519e+01   2.4967519900e+01    0.1572714    0.1206858  -6.56 0.0007034113    1.684    0.406
        83 -10.2509     73.0084    118.9999   5.6117058106e+01   4.3323904767e+01    0.2275915    0.2173314 -83.10  0.001189544    1.028    0.027
        84 -10.4577    171.9198    116.4913   2.8171499109e+01   2.3628004137e+01    0.2751535    0.1965855 -54.90 0.0003107683    1.465    0.317
        85 -12.6956     51.1559     45.1924   4.1390944393e+01   6.4529392819e+01     1.143491    0.5051857  26.46  0.004073486    3.181    0.686
        86 -11.5846    126.7540    115.8950   3.8619048988e+01   3.3601570246e+01     0.394035     0.234284  41.02 0.0007474648    1.750    0.429
        87 -13.7704     42.6160     55.2243   4.9868304078e+01   6.3823961574e+01     1.930957     1.084726   9.65  0.005507668    2.618    0.618
        88  -9.9054    182.8171    115.1657   2.5718072141e+01   2.1588387230e+01    0.2176323    0.1917918 -61.14 0.0003626397    1.187    0.158
        89 -11.1944     65.3402    114.4464   5.7788749570e+01   4.5764589663e+01    0.3097555    0.1900661 -63.44 0.0009978524    1.600    0.375
        90 -13.5460     78.9578     49.8971   3.1695251916e+01   5.8228827952e+01     1.012438    0.6940686  32.54  0.001674208    1.547    0.354
        91 -13.3629     79.3447     41.4151   2.7891850161e+01   5.9583130675e+01       1.2556    0.3905917  44.93  0.004122531    3.143    0.682
        92 -10.3631    206.1435     95.7961   1.7059322201e+01   2.0252402277e+01    0.1851949    0.1617815  -9.28 0.0004794348    1.328    0.247
        93 -12.7096    207.1584     79.1628   1.2859912674e+01   2.2783832738e+01    0.7202405    0.2650138  59.23  0.002828633    3.029    0.670
        94  -9.6731     27.3137     96.6790   6.8952869749e+01   5.5322971203e+01    0.1478005    0.1046542  66.98 0.0004120172    1.655    0.396
        95 -10.1775     25.6785    107.6765   7.1619198925e+01   5.2494500224e+01    0.1542847   0.09654062 -40.87  0.000704637    1.678    0.404
        96 -12.6944     46.8533     93.4483   5.9931989081e+01   5.3991382825e+01    0.6590038    0.3098749  38.60  0.002607161    2.235    0.553
        97  -9.3455    247.5918    113.6061   1.5496228473e+01   9.8280902727e+00    0.1254549   0.09828586 -37.20 6.058815e-05    1.017    0.017
        98 -13.4109    187.2016     60.3852   1.0727536978e+01   3.0152354355e+01     1.309353    0.8345457  53.74 0.0005378445    1.746    0.427
        99 -11.1345    226.8894     91.8991   1.3324902290e+01   1.6822245796e+01     0.274143    0.2085091 -81.42 0.0005232416    1.607    0.378
       100 -12.4297    223.8710     86.9330   1.2563482818e+01   1.8179281733e+01    0.4370369    0.3480658 -21.88  0.001563041    1.368    0.269
       101 -12.5447    219.0699     83.3193   1.2320438199e+01   1.9687650019e+01    0.3669818    0.3362798   9.18 0.0004672465    1.375    0.273
       102 -11.4802    212.7980     89.6478   1.4638446346e+01   1.9927479740e+01    0.2398555    0.1497755 -59.64 0.0004229276    1.750    0.429
       103 -12.0481     74.3841     97.8207   5.0221866821e+01   4.8594610641e+01     0.710108     0.330439 -59.21  0.002526381    2.308    0.567
       104 -11.1083    207.0279     89.6350   1.5437642890e+01   2.1104045690e+01     0.339211    0.1763943 -42.20 0.0004537346    1.637    0.389
       105  -9.5753      1.6711     91.3023   7.9143551504e+01   5.8547075703e+01    0.1369141   0.09246606  62.18 0.0005501734    1.647    0.393
       106 -10.5778    167.2904     90.0635   2.2119822013e+01   2.9772519070e+01    0.2738565      0.22025  73.59 0.0004948041    1.371    0.271
       107 -10.1114     85.9975     89.6623   4.3603813068e+01   4.8402130341e+01    0.2209479    0.2022685  33.03 0.0005180424    1.125    0.111
       108 -11.7713     51.7603     87.1080   5.6170439764e+01   5.4953901888e+01    0.4214948    0.2463903 -28.62  0.001205991    2.247    0.555
       109 -11.4975     47.8257     85.4684   5.7401776267e+01   5.5920757883e+01    0.3320115       0.2849 -69.65 0.0006205755    1.193    0.162
       110 -11.1701     43.0029     86.2360   5.9719585333e+01   5.6358215683e+01    0.2684627    0.2266765  14.16  0.001426705    1.286    0.222
       111 -11.8064    236.4203     86.1312   1.0898830087e+01   1.5946679195e+01    0.5620728    0.3152066  83.40   0.00257683    2.925    0.658
       112  -9.7991    248.2548     87.3478   9.8747088552e+00   1.3668741987e+01    0.1388462    0.1261752  21.02 0.0002432532    1.459    0.314
       113 -11.0842    248.9652     83.2495   8.9302511906e+00   1.4145934388e+01    0.3264707    0.2013808 -60.32 0.0009639161    1.706    0.414
       114 -10.8220    244.4604     80.6977   8.8446271396e+00   1.5307481130e+01    0.3558833    0.1171254  59.71   0.00151113    3.669    0.727
       115 -12.1785    169.1460     80.7793   1.9196141321e+01   3.1029826537e+01    0.4562346    0.3560883 -71.01  0.001027873    1.383    0.277
       116 -11.6648    148.2264     84.0467   2.4293780741e+01   3.5421467912e+01    0.4052162    0.3803019 -15.66  0.001434665    1.174    0.148
       117 -12.5398    147.4079     79.3553   2.3069081950e+01   3.6507273021e+01    0.4215696    0.3543932 -43.90 0.0001840583    1.151    0.131
       118 -12.1908     35.6871     83.0501   6.2164748077e+01   5.8052038871e+01    0.4553664    0.3545753 -75.22  0.001098059    1.345    0.256
       119 -11.4910     30.7897     81.9767   6.4150339611e+01   5.8856346743e+01     0.313474    0.2250366 -87.01  0.001193657    1.638    0.389
       120 -11.7375    162.6269     83.9126   2.1299117827e+01   3.2004471355e+01    0.5500191    0.4526893  61.74  0.002303809    1.270    0.213
       121 -10.8694    168.7788     76.5639   1.8076927226e+01   3.1858006004e+01    0.3935321    0.2624171  72.89  0.001224657    1.707    0.414
       122 -10.0186     80.1399     84.1757   4.3972892835e+01   5.0848050548e+01    0.2400629    0.2097712 -17.61 0.0003321955    1.242    0.195
       123 -12.8951     97.9110     75.3910   3.4880337251e+01   4.9075680825e+01     1.311134    0.6006911 -51.35  0.003801748    2.452    0.592
       124 -11.7136     91.9306     66.2677   3.3593530606e+01   5.2279461268e+01    0.4113003    0.3244123  14.12  0.001936155    1.545    0.353
       125 -12.7425    104.5040     66.0754   2.9548819156e+01   4.9435005764e+01    0.7126921    0.4915924  41.99            0    1.486    0.327
       126 -11.6289    124.0635     69.4402   2.5350027875e+01   4.4083646885e+01    0.5565218    0.3820031 -70.85 0.0009982768    1.926    0.481
       127 -13.7941    117.3007     61.2604   2.4265355297e+01   4.7234276103e+01    0.9811692    0.7329769 -45.97  0.002008577    1.354    0.261
       128 -11.9815     73.2773     74.4176   4.3307536701e+01   5.4410868483e+01    0.8317244    0.5919707  61.65  0.003724097    1.793    0.442
       129 -10.7274     66.5825     70.1790   4.4499527298e+01   5.6607126933e+01    0.3978674    0.2537358  54.19  0.001715338    1.925    0.480
       130 -10.8025     86.7588     75.8590   3.8802906031e+01   5.1391753048e+01     0.525373    0.2791876 -51.40 0.0009142946    1.985    0.496
       131 -11.9740     82.3143     71.6639   3.8921371030e+01   5.3224066098e+01    0.4871092    0.3806007 -48.88 0.0005659873    1.290    0.225
       132 -10.2817    155.6442     76.7415   2.0589968797e+01   3.4985055994e+01    0.3444381    0.2008027  62.10  0.001169111    1.828    0.453
       133 -10.8171    103.8899     75.6744   3.3098179518e+01   4.7664183051e+01    0.2564343    0.2153513 -30.90 0.0005435334    1.244    0.196
       134 -10.9762    144.6836     59.5426   1.7471662062e+01   4.0664371825e+01    0.6120726    0.3860792  25.05  0.002029378    2.645    0.622
       135 -10.6665    136.4867     61.9995   1.9965656960e+01   4.2317832092e+01    0.3623422    0.2542434  60.28 0.0003893989    1.416    0.294
       136 -10.9384    136.9324     57.5907   1.8415007119e+01   4.2940707019e+01    0.3707306     0.253574 -48.52  0.000732362    1.463    0.317
       137 -10.6180    149.9664     66.9814   1.8765556621e+01   3.8096226509e+01    0.3542406    0.2564716 -72.12 0.0006204174    1.588    0.370
       138 -10.6994    146.9801     63.4699   1.8262599390e+01   3.9436496803e+01    0.3511707    0.2804604  60.66  0.001084674    1.256    0.204
       139 -12.0107    137.4008     71.2707   2.2765912873e+01   4.0456482960e+01    0.9385412    0.4961942  62.09  0.003674552    2.052    0.513
       140 -12.2418    144.1740     68.1954   2.0320044714e+01   3.9325534199e+01    0.4037659    0.3444586  72.00 0.0003364132    1.182    0.154
       141 -11.0188    245.0558     49.9386   2.1673647267e+00   1.9485298933e+01    0.2133567    0.1414929 -46.23 0.0002982296    1.151    0.131
       142  -9.9466    137.1117     52.7061   1.6750093212e+01   4.3676416435e+01    0.2377513    0.1994529 -46.33 0.0006959267    1.182    0.154
       143 -11.3493    154.3749     63.1796   1.6755370500e+01   3.7640043669e+01    0.7433018    0.3614673 -43.83   0.00298338    1.960    0.490
       144 -10.9578    127.8685     58.5598   2.0737775420e+01   4.5067045180e+01    0.5107328    0.2795694  39.99  0.001998171    2.211    0.548
       145  -5.2660    156.4743     54.5234   1.3729192968e+01   3.8495351513e+01    0.5114979    0.2273758  62.88  0.001458099    2.246    0.555
       146 -11.2052    160.6114     50.8581   1.1929081760e+01   3.8013281638e+01    0.4038386    0.3451855  20.47   0.00137507    1.505    0.336
       147 -11.2345    163.1125     56.6993   1.3278583812e+01   3.6507175270e+01      0.41598    0.3713785 -77.71  0.001347059    1.054    0.051
       148 -11.3983    165.5661     52.3189   1.1589307895e+01   3.6565031847e+01    0.4045245    0.2480795  52.75 0.0008695117    1.741    0.426
       149 -11.7169    173.7631     56.4142   1.1538688353e+01   3.3944001165e+01    0.3672572    0.3171265 -79.08 0.0008138134    1.102    0.093
       150 -11.2598    144.5876     53.4547   1.5530639056e+01   4.1659566844e+01    0.6079292    0.3278812  34.90  0.001472484    2.897    0.655
       151  -9.8578    149.5469     48.9162   1.3170480467e+01   4.1088348516e+01    0.2060725    0.1452949 -29.39 0.0009191895    1.515    0.340
       152 -11.4328    133.9398    112.2632   3.5751966781e+01   3.2851629890e+01     0.426333    0.2000985 -35.27  0.001440855    2.521    0.603
       153 -10.7959     82.2970     78.9770   4.1468004057e+01   5.1616252274e+01    0.3897154    0.2457916  31.23 0.0009007529    1.775    0.437
       154 -10.6627    131.7842     51.9692   1.7606967378e+01   4.5147486372e+01     0.299996    0.1976172 -53.63  0.001356993    1.614    0.380
       155 -11.1784    133.1549     46.4563   1.5425941916e+01   4.5637366315e+01    0.7015989    0.4150238  72.24  0.003040863    1.805    0.446
       156 -10.4019    136.2720     43.4353   1.3778971790e+01   4.5276643953e+01    0.3067552    0.2310449 -88.87 0.0007931053    1.415    0.293
       157 -11.0135    133.4970     40.0435   1.3137808416e+01   4.6465300454e+01    0.3551002    0.2549657  74.62 0.0007559891    1.378    0.274
       158 -14.3292     77.0969     58.9933   3.6101374947e+01   5.6914801974e+01     1.278164    0.5651519  50.10  0.004386924    2.447    0.591
       159 -12.7492    230.4366     47.7015   2.8805912592e+00   2.2597376357e+01     1.050464    0.7993454  37.50  0.006291172    1.969    0.492
       160 -10.0822    210.2021    111.9567   2.0277990140e+01   1.6682225763e+01    0.2254923    0.1918328  60.31  0.001085803    1.390    0.280
       161 -11.5340    171.9640     44.7909   8.4618830555e+00   3.6072445264e+01    0.4408083    0.4061132  80.10  0.001508748    1.130    0.115
       162 -12.5745    178.2110     38.7622   5.9456711010e+00   3.5366221798e+01    0.5687832    0.4640442  25.90   0.00183698    1.683    0.406
       163 -11.1442    163.7558     31.3578   5.5904947008e+00   3.9871706283e+01    0.4158044    0.2422282 -53.71 0.0009850366    1.663    0.399
       164 -11.7003    142.5640     46.4275   1.3610125831e+01   4.3233012801e+01    0.4104744    0.2728654  30.76  0.001812005    2.082    0.520
       165 -12.5742    161.1553     38.6019   8.1276609414e+00   3.9597267127e+01    0.7406638    0.5993556 -87.84  0.002174886    1.173    0.147
       166 -12.3052    150.3642     41.1062   1.0539184299e+01   4.1992353159e+01    0.6097792    0.4127362  71.46  0.002151471    1.436    0.304
       167 -10.2655     82.8486     29.8224   2.1454009903e+01   6.0492417581e+01     1.152789    0.2251681  47.75  0.003051095    4.525    0.779
       168  -9.5177    121.6076     45.2064   1.7441368002e+01   4.8772243252e+01     0.199263    0.1459683 -18.54 0.0009442432    1.609    0.379
       169 -10.9266     98.3584     42.8064   2.2422605628e+01   5.4930848268e+01    0.3406777     0.233354  39.00 0.0004509122    1.518    0.341
       170  -9.9527     93.8132     42.3885   2.3584485328e+01   5.6087768666e+01    0.3501782     0.204603  33.09  0.001334575    2.083    0.520
       171  -9.3434    104.9708     43.0000   2.0675021404e+01   5.3282706525e+01    0.2459425   0.08108358  57.43 0.0007963907    2.901    0.655
       172 -10.8890    131.7830     33.4483   1.1144707248e+01   4.7781977158e+01     0.333576    0.1991516 -49.80 0.0005086137    1.751    0.429
       173 -11.2886    155.3356     42.7229   1.0261499839e+01   4.0506771839e+01    0.3499158    0.2809597  26.18  0.001814595    1.624    0.384
       174 -10.0761    122.0385     32.9008   1.2809929372e+01   5.0364735139e+01    0.2108088    0.1786718 -74.15 0.0006515015    1.216    0.177
       175 -10.3544    111.8210     32.6269   1.4886284747e+01   5.3014128625e+01    0.2689662    0.2144029  31.14 0.0006647222    1.398    0.284
       176  -9.0761    241.3961     29.9708   3.5816506633e+02   2.2695020711e+01    0.2340755     0.193161 -66.05 0.0009577635    1.135    0.119
       177  -9.3144    237.5095     30.5474   3.5854503971e+02   2.3378077794e+01    0.2058461    0.1582967  71.49 0.0008056924    1.525    0.344
       178 -11.0549    227.1361     30.2293   3.5919758768e+02   2.5488378943e+01    0.3671079    0.3225163  56.72  0.002511461    1.508    0.337
       179 -10.4754    174.7629    111.9238   2.6451029491e+01   2.3917851346e+01    0.2806639    0.2171365  38.96 0.0004359171    1.438    0.305
       180 -11.1096    216.2396     24.5968   3.5869651721e+02   2.8437157073e+01    0.4288293    0.3266156  39.64  0.002555036    1.942    0.485
       181  -9.8465    165.2433    110.9744   2.8133061174e+01   2.6174220647e+01    0.2016979    0.1233795 -41.74 0.0003153812    1.529    0.346
       182  -9.8005    138.3702     29.8788   8.7711695244e+00   4.6524881098e+01    0.1793708    0.1380858  -9.96 0.0004551507    1.611    0.379
       183 -10.7548    103.3808     28.8685   1.5341132321e+01   5.5622337090e+01    0.3711992    0.2816279 -39.97  0.001291572    1.398    0.285
       184 -10.5678     97.7836     22.0232   1.3788317745e+01   5.7831573992e+01    0.2721916    0.2242966  52.21  0.001188591    1.115    0.103
       185  -9.3380    102.2996     23.3086   1.3269702312e+01   5.6555505567e+01    0.2234058    0.1827499 -52.49 0.0004759736    1.334    0.250
       186 -10.0199    101.9798     19.7693   1.1843529368e+01   5.7026617827e+01    0.2193398    0.1955587  40.26  0.000780231    1.126    0.112
       187  -9.4790    114.3585     28.2727   1.2625490214e+01   5.2911360460e+01    0.1500494   0.09997767  39.07 0.0007001535    1.649    0.394
       188 -10.6805    203.3082     26.2798   1.1347623954e-01   3.1067338462e+01    0.2221051    0.1884865 -49.79 0.0005434015    1.142    0.125
       189 -10.5396    135.2176     25.6401   7.8181311854e+00   4.7840652434e+01    0.4532114    0.2560669  -1.84  0.001804915    2.986    0.665
       190 -10.5089    131.6896     23.6553   7.6901928422e+00   4.8978270005e+01    0.3469546    0.1080518  62.52  0.001235957    2.711    0.631
       191 -11.2655    136.3051     19.3807   5.4793364857e+00   4.8249809048e+01    0.3182264    0.2280044  47.67 0.0002524797    1.488    0.328
       192 -10.7270    130.6213     19.1805   6.2662113662e+00   4.9739527648e+01    0.2960791    0.1952014  79.90 0.0006333746    1.447    0.309
       193 -10.7614    196.1176    107.6155   2.1507653036e+01   2.0237406311e+01    0.3884281    0.2453191 -39.04  0.001873728    1.399    0.285
       194 -10.0569    119.5199     21.9742   9.1770866794e+00   5.2309331826e+01    0.2363483     0.182139 -89.03 0.0005687388    1.319    0.242
       195  -9.5108    234.0652     24.5015   3.5745784089e+02   2.4775650041e+01    0.2959567    0.2250795 -45.09  0.001984829    1.165    0.141
       196 -11.5364    152.2309    107.9909   3.0173267859e+01   2.9679991855e+01    0.4147412    0.2866876  74.34  0.001741719    1.985    0.496
       197 -10.1411    243.6750     19.2889   3.5577878385e+02   2.3505978652e+01    0.2012028    0.1267239 -73.81 0.0007709999    1.427    0.299
       198 -10.8420    153.7593     25.1284   4.9651576440e+00   4.3137423381e+01    0.3684475    0.2470508 -84.30  0.001399982    1.495    0.331
       199 -10.2095    148.1321     25.2434   5.7590468569e+00   4.4560449755e+01     0.256776    0.1909857  46.14  0.001355266    1.509    0.338
       200 -10.4352    112.6098     23.5969   1.1146965477e+01   5.3904938715e+01    0.4399797    0.2919816  19.87   0.00205833    2.027    0.507
       201 -11.1240    176.1450     23.8973   2.0011859078e+00   3.7701030904e+01    0.2918524    0.1862347 -38.03 0.0008402757    1.488    0.328
       202 -10.3481    180.7699     21.1233   7.7393924478e-01   3.6898983949e+01    0.2842199    0.1675519  71.67 0.0005469998    1.628    0.386
       203 -10.0386    193.6574     23.9125   3.3949015414e-01   3.3542338932e+01    0.2107511    0.1629901  73.33 0.0005655253    1.331    0.249
       204 -11.3199    148.5884    103.8183   2.9869061368e+01   3.1374534541e+01    0.2914445    0.2292489 -89.99 0.0008427845    1.599    0.374
       205 -10.8236    204.6791     17.2957   3.5779468156e+02   3.1791461260e+01    0.3921012    0.1807598 -75.34  0.001707829    2.314    0.568
       206 -10.7646    162.7831     20.8862   2.5663971624e+00   4.1337792902e+01    0.2918266    0.1827729 -81.09 0.0004388395    1.594    0.373
       207  -8.8767    151.3081     20.2587   3.7374339314e+00   4.4304594225e+01    0.1324226   0.09810848  47.16 0.0006920487    1.522    0.343
       208  -9.9471    194.1408     17.7666   3.5871687764e+02   3.4126115950e+01    0.2049368     0.141908 -64.69 0.0007582621    1.237    0.191
       209 -11.1117    144.3244    103.2638   3.0711692123e+01   3.2465514714e+01    0.3879018    0.3356976   7.13  0.001429614    1.386    0.278
       210 -11.1239     63.4918    108.0561   5.6960729805e+01   4.7752383305e+01    0.2380784     0.147719 -59.23 0.0003968295    1.533    0.348
       211 -11.7915    160.7413    105.2261   2.7565242271e+01   2.8329872516e+01    0.3670032    0.2639528 -53.94 0.0002549782    1.410    0.291
       212 -11.3043    160.5934     99.5958   2.6075859122e+01   2.9484952674e+01    0.3654059     0.278102 -71.63  0.001702182    1.563    0.360
       213 -10.6924    210.5243    105.2894   1.8670367571e+01   1.7764603804e+01    0.3032474    0.2689647 -68.04  0.001328494    1.221    0.181
       214 -10.3097     16.1663    105.9752   7.5151895459e+01   5.3735536843e+01    0.2800414    0.1553709 -33.04  0.001240721    2.121    0.528
       215  -9.8689    182.1196    104.8644   2.3264697021e+01   2.3682607720e+01     0.222572     0.187585 -61.80 0.0003254872    1.224    0.183
       216 -10.1187    191.5635    103.2549   2.1200001161e+01   2.1967771292e+01     0.298822     0.122596 -42.76  0.001139249    2.163    0.538
       217 -11.5441    110.9709    103.6481   3.9707879968e+01   3.9878559942e+01    0.4138013    0.2570587  19.60  0.001153009    2.621    0.618
       218 -10.3795     93.6702     16.2995   1.2247205778e+01   5.9466311015e+01    0.3864789    0.1726312  46.31  0.001499167    2.130    0.531
       219  -9.6690    172.6026     15.7663   5.6874216340e-02   3.9460686162e+01    0.1741401    0.1085249 -45.11 0.0002983754    1.467    0.318
       220 -10.4913     90.9669    104.3078   4.6211814018e+01   4.3864557918e+01    0.2245743    0.2047215  39.83  0.000395019    1.127    0.113
       221 -11.3153    128.4325     76.5202   2.6578661401e+01   4.1671441941e+01    0.5240459    0.3359113 -60.61  0.001918514    1.879    0.468
       222 -11.5901    119.9644     93.4961   3.4128260656e+01   4.0170973785e+01    0.3465338    0.2339384  50.58  0.001003815    1.517    0.341
       223 -11.7337    132.2810     87.0122   2.8906606392e+01   3.8658586411e+01    0.5636278    0.3912326  62.04  0.002478934    1.570    0.363
       224 -12.2902    137.1468     81.8978   2.6156157371e+01   3.8511482945e+01    0.8165798    0.6926171 -64.18  0.002738747    1.214    0.176
       225 -13.4337    121.1698     99.1545   3.5476599341e+01   3.8646779322e+01    0.7705553    0.5593327 -40.52  0.001973229    1.375    0.273
       226 -13.6559    128.5888     95.7971   3.2490137287e+01   3.7684646164e+01     1.171677    0.6348861  48.25  0.004235968    1.887    0.470
       227 -12.9208    122.9935     86.8979   3.1276279562e+01   4.0880163750e+01    0.8179606    0.6718057  -9.14  0.002929566    1.516    0.340
       228 -10.3453    126.9558     81.0438   2.8396938561e+01   4.1137723801e+01    0.2738934    0.2388127  35.87 0.0006548004    1.239    0.193
       229  -9.4349    203.9914    102.0332   1.8889643321e+01   1.9621019422e+01    0.1675977    0.1444449 -42.31 0.0003395738    1.007    0.007
       230 -11.3275    215.9748     99.6862   1.6566730945e+01   1.7647668421e+01    0.3023001    0.1746007 -36.64  0.001485523    1.481    0.325
       231 -11.5665    169.1439     98.4848   2.4047841935e+01   2.7756280982e+01    0.5773268    0.4214168   3.58  0.001687275    2.092    0.522
       232 -10.9410    128.1155     89.8341   3.0827011468e+01   3.9061072254e+01    0.4302914    0.2649221  55.76 0.0006537827    1.718    0.418
       233 -12.7150     85.4500     98.2369   4.6368672345e+01   4.6438498285e+01    0.7052625    0.4714483  23.51  0.002263787    1.836    0.455
       234 -11.4005    152.3038     98.4026   2.7528208732e+01   3.1630593619e+01    0.5462758    0.3673387 -68.91  0.002265499    1.972    0.493
       235 -12.2272    199.5482     96.4544   1.8218668456e+01   2.1498194989e+01    0.4989638    0.2829382 -39.57  0.001211512    1.537    0.350
       236 -11.7496    248.3382     44.2678   7.1512287252e-01   1.9613154341e+01    0.8725147    0.2467168 -40.55  0.002647561    2.398    0.583
       237 -13.2067    175.0413     87.2963   1.9930504845e+01   2.8491995646e+01     1.562717    0.9552793   0.15  0.004956077    4.379    0.772
       238 -12.3898    234.4023     37.3460   2.5059797838e-01   2.3150061685e+01    0.6124554    0.2889404 -64.83  0.002036308    2.182    0.542
       239 -10.6945     36.4181    248.7945   8.1875535841e+01   1.6717805823e+01    0.1497917    0.1020439 -66.12 0.0009621975    1.765    0.433
       240 -14.4438    195.5664     82.9596   1.5442381847e+01   2.4646353655e+01     2.294809     1.498503  38.50   0.01092231    2.024    0.506
       241 -10.3472    181.0197    244.0233   5.1135277726e+01  -9.1931931389e-01    0.1691008    0.1408703  46.04  0.001139722    1.706    0.414
       242 -13.2017    192.7259     45.2883   6.0193715011e+00   3.1053396202e+01     1.160967     0.696206 -88.43   0.00564463    1.861    0.463
       243 -12.9271    177.8170     73.0949   1.5580750294e+01   3.0315369417e+01     1.628991    0.9596878 -79.27  0.006444606    2.596    0.615
       244 -11.8115    164.3012     65.7642   1.5754866887e+01   3.4767398523e+01      1.16573    0.6065477  42.56  0.004585076    2.478    0.597
       245 -11.8930    209.1892     58.3275   7.4800514439e+00   2.5531157932e+01    0.3488078    0.2470129 -75.71  0.000907034    1.463    0.317
       246  -9.7446    218.6029    239.7533   4.3618331503e+01  -4.8413156732e+00    0.1372754   0.09672681 -32.82 0.0006130213    1.572    0.364
       247 -14.4554    210.9202     64.9719   8.9111967776e+00   2.4183429612e+01     1.654654     1.272999  47.79  0.003252147    1.621    0.383
       248 -12.7416    196.0169     67.9639   1.1530200640e+01   2.6974064317e+01    0.7333367    0.4044681  64.60 0.0003785058    1.974    0.493
