#   1 NUMBER                 Running object number                                     
#   2 MAG_AUTO               Kron-like elliptical aperture magnitude                    [mag]
#   3 X_IMAGE                Object position along x                                    [pixel]
#   4 Y_IMAGE                Object position along y                                    [pixel]
#   5 X_WORLD                Barycenter position along world x axis                     [deg]
#   6 Y_WORLD                Barycenter position along world y axis                     [deg]
#   7 A_WORLD                Profile RMS along major axis (world units)                 [deg]
#   8 B_WORLD                Profile RMS along minor axis (world units)                 [deg]
#   9 THETA_WORLD            Position angle (CCW/world-x)                               [deg]
#  10 FWHM_WORLD             FWHM assuming a gaussian core                              [deg]
#  11 ELONGATION             A_IMAGE/B_IMAGE                                           
#  12 ELLIPTICITY            1 - B_IMAGE/A_IMAGE                                       
         1 -17.7167    236.8070     60.8072   6.2170435644e+01   1.8163159409e+01     5.167604     4.212128  -0.97   0.01951001    1.424    0.298
         2  -8.5958     80.3459     12.8430   7.7996313365e+01   6.2106223191e+01     0.275802    0.1423683 -38.55  0.001307269    2.131    0.531
         3 -10.0275    216.0912      1.5272   4.9178138354e+01   3.0239508935e+01    0.4410364     0.148121  68.48  0.001074363    2.628    0.620
         4 -10.8236     70.2647    247.4695   1.2932830362e+02   1.7451560120e+01    0.3354036    0.1345575  51.49  0.001957974    1.855    0.461
         5 -11.8618      3.3255    236.9255   1.3946239889e+02   2.6490578013e+01    0.8274646    0.2951312 -88.56  0.005066261    2.494    0.599
         6 -11.4941     15.3409    249.8411   1.3813385794e+02   2.3265579668e+01     1.048888    0.1820617  36.02  0.004423831    5.461    0.817
         7 -10.2107     82.8709    245.1471   1.2704206751e+02   1.6181897841e+01    0.1775406    0.1135119  61.60  0.001241044    1.258    0.205
         8  -9.9710    188.0015    233.4856   1.0714342320e+02   1.9517458362e+00    0.1894899    0.1722765 -74.96 0.0009970029    1.608    0.378
         9  -9.8470     17.7159    233.4269   1.3708216471e+02   2.5699509067e+01    0.1863748    0.0667344  43.49  0.001139738    2.131    0.531
        10 -12.3055      4.7366    223.8796   1.3874904053e+02   2.8555134703e+01    0.9339287    0.3775457  83.89  0.005811543    2.132    0.531
        11  -9.5616    149.5493    223.4453   1.1279200834e+02   9.6144986660e+00    0.2161749    0.1758298  49.56 0.0003301557    1.081    0.075
        12  -9.0140    100.9978    175.9913   1.1618787301e+02   2.6018408607e+01    0.1800864    0.1582634  66.47  -0.01509786    1.005    0.005
        13  -8.2488    242.9886    169.1903   8.6281897770e+01   1.1302218350e+00    0.1732243    0.1431987  17.77 0.0003222846    1.070    0.066
        14  -9.1936    229.8543    167.1019   8.8131014172e+01   3.7740768794e+00    0.1898194    0.1836004  -1.71 0.0006989814    1.261    0.207
        15  -8.2649     98.9321    164.6575   1.1499560765e+02   2.8682206563e+01    0.1752654    0.1503353  61.31 0.0006021779    1.064    0.060
        16  -7.9684    243.7580    164.3468   8.5174364807e+01   1.6507902448e+00    0.1661648    0.1083524  31.67 0.0002448833    1.442    0.307
        17  -9.5410     35.2800    159.1910   1.2884579190e+02   3.8152283786e+01    0.2601245    0.1871122 -64.92  0.001027161    1.376    0.273
        18 -11.4499     28.6973    157.7080   1.3017252028e+02   3.9116099554e+01    0.6908843    0.4551455 -84.89   0.00447639    1.267    0.211
        19 -10.2314    211.9362    157.2368   8.9359189696e+01   8.6583344952e+00    0.2709558    0.2222473  37.12 0.0003682191    1.164    0.141
        20 -11.8843    237.3595    246.4462   1.0061961440e+02  -7.0075545847e+00    0.2279598    0.1848897  25.25 0.0001445567    1.249    0.200
        21  -9.2987    245.4579    120.3511   7.5348450627e+01   7.6135322386e+00    0.2741434    0.2239328  60.16  0.001197258    1.475    0.322
        22  -8.2409    144.0360    148.4998   1.0169903278e+02   2.3950776992e+01    0.2191592    0.1358035  45.02 0.0005397251    1.527    0.345
        23  -9.6735    177.6652    146.8524   9.3955240231e+01   1.7400229726e+01    0.4701218    0.2266541  59.22  0.001646139    3.090    0.676
        24  -9.9169    151.8626    123.0267   9.4264113721e+01   2.7464641250e+01    0.3487833    0.1721645 -36.99  0.001335987    2.243    0.554
        25 -10.2877    123.8859    111.4486   9.8354843454e+01   3.5698304646e+01    0.3177445    0.2504556   7.36  0.001529802    1.665    0.399
        26 -10.1201    160.2164    110.2155   8.9152236406e+01   2.8155976898e+01    0.2527411    0.1968148 -83.95   0.00115248    1.753    0.430
        27 -10.0664    209.0549    145.6459   8.7412955127e+01   1.1091503342e+01     0.235185    0.1983448 -42.68 0.0007321453    1.316    0.240
        28 -11.0165    125.9768    105.6877   9.6366153912e+01   3.6497453894e+01    0.3945253    0.3311702  46.49  0.002044538    1.198    0.165
        29 -10.8162    117.8606    104.5773   9.8229082944e+01   3.8360023419e+01     0.434342    0.2124003 -53.37  0.001692119    2.184    0.542
        30 -10.2047    144.1380    106.0502   9.1873161793e+01   3.2568321754e+01    0.3714293    0.2122055  35.84  0.001403235    1.956    0.489
        31 -10.7177    130.8931     99.1356   9.3370595663e+01   3.6839318520e+01    0.5951735    0.2142917 -40.52   0.00196111    2.899    0.655
        32 -11.1508     55.3766    147.0370   1.2280512585e+02   3.8596499331e+01     1.003675     0.683415 -24.31  0.003123299    2.556    0.609
        33 -10.2384    121.3856     97.8074   9.5518118902e+01   3.9089902800e+01    0.3191591    0.1846365 -32.05  0.001295759    2.068    0.516
        34 -10.4832    112.9718     95.8377   9.7284660721e+01   4.1179297130e+01    0.4112243    0.2074026 -41.53  0.001607244    2.004    0.501
        35 -10.0822    124.7056     90.8979   9.2734833664e+01   3.9834870363e+01    0.5338529    0.1758257 -35.42  0.001470578    4.302    0.768
        36  -9.7212    130.0054     91.8339   9.1597823645e+01   3.8519650168e+01    0.2785077    0.2093975 -52.12  0.001331475    1.389    0.280
        37  -9.7319    130.0118     87.7746   9.0444608134e+01   3.9334501528e+01     0.313985    0.2208747 -19.83  0.001336174    1.771    0.435
        38  -9.5878    116.0344     90.3463   9.4937358618e+01   4.1728032020e+01    0.2067569    0.1985805  48.15 0.0006006911    1.070    0.066
        39 -11.7730    188.1167    139.2294   9.0103219228e+01   1.6565476160e+01    0.8145876    0.5386415  75.05  0.003304775    2.651    0.623
        40  -9.3892    151.3108     87.9227   8.5178888023e+01   3.4500191383e+01    0.2237078    0.2013246 -29.01  0.001150423    1.123    0.109
        41  -7.6026     51.2721     80.6867   1.1237204452e+02   5.4090656270e+01    0.1236756   0.09673297  87.66 0.0002097801    1.555    0.357
        42  -8.4861    139.1573     66.2034   8.1551995791e+01   4.1338143807e+01     0.230669     0.203825  13.28 0.0005889407    1.191    0.161
        43 -11.1852     66.4836    143.9901   1.1966445902e+02   3.7892115533e+01    0.7311544    0.4699748  66.77  0.002672535    1.678    0.404
        44  -9.3872     34.1362    155.1309   1.2871000566e+02   3.9138874427e+01    0.2512102     0.202928 -85.17  0.001221307    1.074    0.069
        45  -8.5821    157.7594     61.1964   7.5654282632e+01   3.7677201176e+01    0.2222916    0.2101395 -70.96  0.001183068    1.137    0.121
        46  -7.8525     49.5189     61.5003   1.0800717271e+02   5.8427819736e+01    0.1284981    0.1117743 -45.44 0.0002336256    1.044    0.042
        47 -10.4027    181.2752     56.9090   6.9653152581e+01   3.2399326557e+01    0.3232374    0.2547484 -33.38 0.0007682521    1.278    0.218
        48  -9.8738    136.0627    130.8473   9.9831550374e+01   2.9153611907e+01    0.4391216    0.2079965 -49.73  0.001731095    2.196    0.545
        49 -11.2396     69.5069    140.9961   1.1846605035e+02   3.8163174358e+01    0.6640276    0.4137633 -81.47  0.002381805    1.706    0.414
        50  -8.2714    246.0155    128.7459   7.7165337770e+01   6.2747254616e+00    0.1753281    0.1598993  14.50 0.0002953042    1.092    0.084
        51  -9.9682    157.9794     52.2435   7.2758960566e+01   3.9038388641e+01    0.5880297    0.2082461 -29.76  0.001923798    3.018    0.669
        52 -10.1419    134.6227    120.8099   9.7886137074e+01   3.1544717142e+01    0.4523893    0.2286735 -50.37  0.001810204    2.063    0.515
        53  -9.3910    128.0332     52.5732   7.9838973194e+01   4.6257078608e+01    0.2570663    0.2093109 -27.15 0.0002404978    1.234    0.189
        54  -8.3791     95.0715     53.1321   8.9471607713e+01   5.3129092425e+01    0.2107115    0.1794421  -9.49 0.0005235294    1.169    0.145
        55 -11.2583    133.9215    115.5954   9.6810693137e+01   3.2781179383e+01    0.8613344    0.2896672 -42.36  0.002781574    3.131    0.681
        56  -9.3607    158.1875     43.8028   6.9974037083e+01   4.0234673438e+01    0.2261169    0.2032624 -65.25 0.0006010669    1.218    0.179
        57  -8.5206    133.0034     38.1860   7.3548495686e+01   4.7296854545e+01    0.2488765    0.2025937 -26.51 0.0009942392    1.253    0.202
        58 -11.4111    133.8991    108.4721   9.5042771332e+01   3.4272179217e+01    0.6975623    0.3426552 -36.48  0.001456768    2.314    0.568
        59 -11.0142    183.6551     33.7861   6.2264480887e+01   3.4993722552e+01    0.5491263    0.2951314 -14.78  0.001984238    2.374    0.579
        60  -9.7771    185.9122     27.3344   5.9970610738e+01   3.5197525429e+01    0.2610349    0.2330228 -16.01 0.0004425226    1.211    0.174
        61  -9.6841    141.1105    122.8505   9.6780104441e+01   2.9779061466e+01    0.2270852    0.2016584  78.48 0.0004123003    1.239    0.193
        62  -7.6979     45.4983     33.4740   1.0030670589e+02   6.4380177334e+01    0.1271473     0.103116 -24.38 0.0002872165    1.038    0.036
        63  -8.4586     93.8132     32.1930   8.1965563040e+01   5.6845501231e+01    0.1946274    0.1518491  11.02 0.0006254608    1.306    0.234
        64  -8.5796     84.8236     21.6838   8.0461167263e+01   6.0104110813e+01    0.2236225    0.1640755 -14.73 0.0006258895    1.313    0.239
        65  -7.9007     70.9624    123.0349   1.1512182679e+02   4.2033468466e+01    0.1554509    0.1430759 -86.96 0.0004103192    1.034    0.033
        66  -9.0264     74.9868     17.5128   8.1956662425e+01   6.2493762997e+01    0.2571068    0.1679744 -41.22 0.0004546748    1.732    0.423
        67 -10.0582     57.8378    248.1500   1.3141266300e+02   1.8877634844e+01     0.236933    0.1404241 -55.34  0.001598743    2.473    0.596
