#   1 NUMBER                 Running object number                                     
#   2 MAG_AUTO               Kron-like elliptical aperture magnitude                    [mag]
#   3 X_IMAGE                Object position along x                                    [pixel]
#   4 Y_IMAGE                Object position along y                                    [pixel]
#   5 X_WORLD                Barycenter position along world x axis                     [deg]
#   6 Y_WORLD                Barycenter position along world y axis                     [deg]
#   7 A_WORLD                Profile RMS along major axis (world units)                 [deg]
#   8 B_WORLD                Profile RMS along minor axis (world units)                 [deg]
#   9 THETA_WORLD            Position angle (CCW/world-x)                               [deg]
#  10 FWHM_WORLD             FWHM assuming a gaussian core                              [deg]
#  11 ELONGATION             A_IMAGE/B_IMAGE                                           
#  12 ELLIPTICITY            1 - B_IMAGE/A_IMAGE                                       
         1 -10.8716     32.0694     63.9839   1.0045112822e+02   6.0541979699e+01     1.696541    0.4694906 -37.16   0.00519009    4.894    0.796
         2 -10.8362     37.7444     10.8029   7.7151475755e+01   6.9427788133e+01     1.102998    0.3473212 -42.26  0.004309855    4.037    0.752
         3 -10.9493     21.9557     53.5422   1.0171895807e+02   6.3581334312e+01     0.857215    0.5178822 -88.07   0.00287467    3.755    0.734
         4 -11.1034     23.6622     32.5858   9.3879053886e+01   6.7531512477e+01      1.37711    0.4232462 -37.69  0.003836044    2.883    0.653
         5 -10.5758      6.9860     30.1044   1.0133422352e+02   6.9219927130e+01    0.6289558    0.3123605 -46.78  0.001929288    1.502    0.334
         6 -10.3536     27.4335     11.5253   8.2653416567e+01   7.0590698609e+01    0.7852811    0.4233837  32.97  0.004434753    2.011    0.503
         7  -9.4657      2.3334     14.5380   9.7932044080e+01   7.2286571346e+01    0.4086267    0.2202858 -63.11  0.001789193    2.735    0.634
         8 -10.4096      5.7312      4.8595   9.1485940870e+01   7.3621630110e+01    0.5218521    0.3329003 -11.73  0.001849923    1.305    0.234
         9 -10.2063     10.4332     18.7377   9.5144298771e+01   7.1030509222e+01     1.079316    0.3601929 -23.46   0.00341109    6.300    0.841
        10 -10.9254    134.0455     31.0112   5.4553847548e+01   4.8146723697e+01    0.3768358    0.2752518   2.26            0    1.619    0.382
        11  -9.6010     60.6144     32.1431   7.7102911531e+01   6.3079140792e+01    0.7502926    0.3205624 -31.48  0.002639471    2.288    0.563
        12 -10.0364     62.8233      2.9198   6.2557988929e+01   6.6394488205e+01    0.4841665    0.3533745  19.29  0.002268683    1.147    0.128
        13  -9.4394     63.2354     21.4631   7.1327451482e+01   6.4193507563e+01    0.4281971    0.2545818 -44.92 0.0008760679    2.238    0.553
        14 -10.2472     64.3388     12.9968   6.6939019886e+01   6.5057433039e+01    0.5371683    0.3245743 -24.42  0.001706952    1.605    0.377
        15  -8.7500     46.3760     20.4544   7.7885317289e+01   6.6922540341e+01    0.3779417    0.1934846 -32.35   0.00198819    1.779    0.438
        16 -10.0528     52.7177     13.8176   7.1948409091e+01   6.6879997403e+01    0.5840578    0.3065775  24.57  0.002226213    1.960    0.490
        17 -10.1622     46.2220     29.4437   8.2011944737e+01   6.5577054993e+01    0.4745816    0.2551171 -48.55  0.001451336    2.292    0.564
        18  -9.5448     91.6556     25.5547   6.3323663390e+01   5.8360663681e+01    0.7118502    0.2546305 -31.30  0.002271108    2.792    0.642
        19  -8.9431    129.6411     17.1644   5.0573602438e+01   5.0756657041e+01    0.3964116    0.1680201 -32.51  0.001678891    2.452    0.592
        20  -9.6104    118.9766     20.6501   5.4135904914e+01   5.2914994974e+01    0.4241164    0.2726848 -18.55  0.001664257    1.687    0.407
        21  -8.5616    112.4164     15.6257   5.3734138895e+01   5.4953517513e+01    0.2461174    0.1917141 -18.31 0.0005876341    1.364    0.267
        22  -8.8460    101.8435      8.0023   5.3220621522e+01   5.8059001487e+01    0.3536035    0.2137832 -51.41  0.001498279    2.429    0.588
        23  -8.6130    104.5229     14.9843   5.5397850829e+01   5.6798113043e+01     0.379855    0.2104793   7.75  0.001366873    2.439    0.590
        24  -8.3477     72.0217      8.5023   6.2060407125e+01   6.4151322842e+01    0.2246515    0.1687349 -17.21 0.0005688525    1.329    0.248
        25  -8.3183     76.5498      6.0507   5.9424066876e+01   6.3524163476e+01    0.2807234    0.1824316 -44.23  0.001023468    2.146    0.534
        26  -8.4003     78.8223      3.1194   5.7354032195e+01   6.3344115240e+01    0.2901887    0.2016786  37.92 0.0004712792    1.216    0.178
        27  -9.2560     73.7134     19.5392   6.6580939959e+01   6.2596838189e+01    0.3585736    0.2203157 -38.29 0.0008382744    1.865    0.464
        28  -8.8698     73.8457     13.1389   6.3610856033e+01   6.3316497149e+01    0.4969754    0.2266964  -9.35  0.002004608    3.151    0.683
        29  -8.9523     96.4110     14.5644   5.7352313310e+01   5.8611970904e+01     0.688062    0.2790919 -13.19  0.002593941    3.427    0.708
        30  -8.2054     97.6320      6.1317   5.3489573360e+01   5.9149700871e+01    0.2199457    0.1538389   2.44 0.0008517363    1.503    0.335
        31  -8.2217     95.8364      2.8149   5.2537593957e+01   5.9821379546e+01     0.219926    0.1692604  49.29 0.0005763551    1.159    0.138
        32 -10.1878     18.5730      5.1371   8.4136421181e+01   7.2443069856e+01    0.5446262    0.3744583 -49.94  0.002892443    2.223    0.550
        33  -9.5849     85.2842     13.0824   5.9911888899e+01   6.1086456425e+01    0.3937175    0.2995871 -58.80  0.001621436    2.036    0.509
        34  -7.4294     80.6537     12.9826   6.1302073897e+01   6.2022267696e+01    0.2494795    0.1033905 -37.16  0.001041157    2.795    0.642
        35  -9.0153    133.6348     11.7090   4.7875885646e+01   5.0325020257e+01    0.4858069    0.1807173 -40.57  0.001655937    3.093    0.677
        36  -9.0357    131.4476      5.5136   4.6095856521e+01   5.1401082504e+01    0.3749792    0.1637865  52.91   0.00168509    1.910    0.476
        37  -8.7952    135.5489      1.4949   4.4005281092e+01   5.0738481839e+01    0.3978946    0.1747342  46.97  0.001689634    2.065    0.516
        38  -8.7612    125.1688     12.9448   4.9948935074e+01   5.2238905379e+01    0.2861587    0.2265097 -54.27 0.0006823968    1.516    0.340
        39  -8.9304    126.5252      8.9787   4.8239620028e+01   5.2280835129e+01    0.3001512    0.2287514   1.60 0.0009573473    1.464    0.317
        40  -9.2003    122.5613      7.4640   4.8456285254e+01   5.3354660725e+01    0.3985714    0.2731454 -62.29  0.001186673    1.962    0.490
        41  -8.4236    125.6114      5.1656   4.7030639712e+01   5.2826548742e+01    0.2833266    0.1930765  27.32  0.001136447    1.552    0.356
        42  -8.1832    141.5140     12.0034   4.6579764044e+01   4.8380517607e+01    0.1893985    0.1340962 -22.67   0.00071305    1.558    0.358
        43  -8.7232    236.0668     10.2662   3.5143278533e+01   2.5967338179e+01    0.1895696    0.1593519 -46.67  0.001157578    1.193    0.162
        44  -9.0728    114.0901     10.0712   5.1203267945e+01   5.5102091333e+01    0.3077454     0.200185  30.33 0.0004082762    1.544    0.352
        45  -8.7860    155.5910      8.3557   4.3179771357e+01   4.5253239292e+01    0.4420237    0.2100204 -51.11  0.001890014    2.579    0.612
        46  -8.1641    137.5149      9.4852   4.6413294225e+01   4.9587779060e+01     0.134777    0.1189291  53.94 8.478959e-06    1.014    0.014
        47  -7.6992    110.3177      7.6669   5.1102401285e+01   5.6183128869e+01    0.1381947    0.1174819  38.91 0.0002754341    1.022    0.021
        48  -8.8779    111.0424      4.0208   4.9512151862e+01   5.6326400261e+01    0.2518432    0.1619118  24.03 0.0008539418    1.635    0.388
        49  -7.9050     84.8272      6.5051   5.7119574688e+01   6.1825331259e+01    0.2597285    0.1318658  22.69  0.001182958    2.296    0.564
        50  -8.4634    247.9754      4.7865   3.3113417484e+01   2.4020863592e+01    0.1626526    0.1445658 -83.02 0.0003977026    1.184    0.155
        51  -8.2426    143.1658      4.3875   4.3768180784e+01   4.8652559895e+01    0.2792472    0.1038906 -44.62 0.0008758283    3.311    0.698
        52  -8.7379    115.2540      4.2048   4.8699839035e+01   5.5340217336e+01    0.2499838    0.1946498 -31.76 0.0007262477    1.456    0.313
        53  -8.1140    104.0106      2.4984   5.0457261591e+01   5.8043333249e+01    0.2439194    0.1607092  18.33  0.001292817    1.595    0.373
        54  -8.2505     89.2103      2.7378   5.4219460035e+01   6.1245436967e+01    0.2130608    0.1441341 -19.13   0.00102189    1.561    0.359
        55  -7.2806    147.4497      9.4433   4.4756736171e+01   4.7160978034e+01    0.1329476    0.1196593  68.24 0.0001210383    1.030    0.029
        56  -8.0507    158.0373    122.0381   7.6741122101e+01   2.6299998755e+01     0.249823     0.198018 -84.13  0.001119968    1.713    0.416
        57 -10.4218    193.6021    249.0932   9.4008962203e+01  -3.6323388506e+00    0.4182347    0.2427857  29.84  0.002441898    1.418    0.295
        58  -9.5951    202.5077    249.6293   9.2432789163e+01  -4.9993486787e+00    0.3319889    0.2517876  -2.09  0.002240382    1.276    0.216
        59  -9.6510    177.4734    244.4913   9.6396397208e+01  -5.7164189767e-01      0.24771    0.1761704  65.91  0.001062747    2.345    0.574
        60  -9.9299    165.0021    250.0000   9.9555236470e+01   5.1439884245e-01    0.3458487    0.1774452  28.82   0.00179561    1.830    0.453
        61 -10.0323    140.7225    118.4904   8.0109204317e+01   3.0822913171e+01    0.5012507    0.3644416 -79.44  0.001151813    2.039    0.510
        62 -11.4553    121.2345    109.3269   8.2898514586e+01   3.6935202850e+01     1.770818    0.7127429 -46.80  0.005570447    2.411    0.585
        63  -8.4863      1.6229    116.7492   1.2069262459e+02   5.0344995818e+01    0.3583428    0.1336443 -84.48  0.001517295    2.700    0.630
        64 -10.3566     91.9671    113.1341   9.2414400474e+01   4.1488133517e+01    0.6290668    0.4368781 -77.42  0.001928014    1.918    0.479
        65  -9.1259     93.3532    103.1560   8.9447440879e+01   4.3604163565e+01    0.6622282    0.3699799  20.57  0.002527015    2.614    0.617
        66  -9.5393     94.3495     97.2400   8.7533721019e+01   4.4790809235e+01    0.3606152    0.2990962 -71.04 0.0007788162    1.405    0.288
        67  -8.8869     95.7062     91.4086   8.5454831003e+01   4.5858974331e+01    0.5388966    0.3221143 -16.69  0.001979483    2.828    0.646
        68  -8.7479    153.2542    115.6448   7.6232685131e+01   2.8715515658e+01    0.2929703    0.1906567 -53.41 0.0007655807    1.672    0.402
        69  -8.0815    245.2989    115.6529   5.8304561322e+01   8.9460031538e+00    0.1404435   0.09962084 -58.43 0.0007036295    1.681    0.405
        70  -9.7311     81.5610     99.5505   9.2219581055e+01   4.6390866947e+01    0.7761758    0.2942614 -52.65  0.002040517    2.459    0.593
        71 -10.1476     78.3596    112.9134   9.6529795519e+01   4.3699429431e+01    0.5566469    0.3508425 -80.63  0.001638193    2.327    0.570
        72  -7.7966     77.6873    105.6732   9.5013826302e+01   4.5540627603e+01    0.2902545    0.1737285 -34.57  0.001201725    1.873    0.466
        73  -7.3803    167.2384    113.9911   7.2506094177e+01   2.5936353565e+01    0.2044778      0.12945 -40.44 0.0003963842    1.534    0.348
        74  -8.3922     63.5068     82.0341   9.3567770281e+01   5.3047369725e+01    0.2144234    0.1270501 -51.88  0.000514687    1.534    0.348
        75 -10.4573     66.0831    109.1065   9.9523670173e+01   4.6357216885e+01     1.188109    0.4409007 -53.58  0.002953324    2.304    0.566
        76  -9.9915     59.4478    109.6595   1.0176564908e+02   4.7074250107e+01    0.7728549    0.3472916 -54.12   0.00218594    1.896    0.473
        77 -10.4578     62.9861     95.5968   9.7347612834e+01   4.9997581286e+01    0.7112197    0.4234827 -78.77  0.001550213    2.677    0.626
        78  -9.1335     63.9819     86.5512   9.4651203681e+01   5.1962504918e+01    0.7866437    0.4276954  -3.77  0.002678374    4.081    0.755
        79 -10.0279     14.3409    111.4067   1.1628865092e+02   5.0863702291e+01    0.5081559    0.2635611  84.55  0.001859805    2.359    0.576
        80  -9.1113     14.3959    104.7987   1.1532982815e+02   5.2443725301e+01    0.3099471     0.148086 -38.06  0.001498424    2.310    0.567
        81  -8.2994    158.9378    111.7785   7.3844215137e+01   2.8262728174e+01    0.2728954    0.2225527 -40.14 0.0005371671    1.195    0.163
        82 -10.9505     21.3130    101.3250   1.1256294846e+02   5.2805662952e+01     1.316177    0.6394786  84.87  0.003915138    3.466    0.711
        83  -8.7386     19.4586     87.5509   1.1074567120e+02   5.6196013099e+01     0.198627    0.1596142 -60.28 0.0001478093    1.038    0.037
        84  -9.2595     20.5090     84.1736   1.0971372182e+02   5.6910647497e+01    0.2647175    0.1736883 -41.55 0.0008659113    1.367    0.269
        85  -8.6473    149.5325    109.5709   7.5522496407e+01   3.0832297034e+01    0.2706048    0.1463784 -52.02  0.000103023    2.056    0.514
        86 -10.8809     44.6868    102.5361   1.0507648941e+02   5.0476575933e+01    0.8564817    0.4959119  72.23  0.003247859    3.039    0.671
        87  -8.9754     40.0013    106.8444   1.0746375044e+02   4.9901040067e+01    0.2420546    0.1695488 -66.19 0.0004907374    1.250    0.200
        88  -9.4992      6.0952    103.6738   1.1777576340e+02   5.3202514433e+01    0.4073937    0.2694802  86.66  0.001419111    1.538    0.350
        89  -9.8539    149.4674    103.2268   7.3797751609e+01   3.2178470079e+01    0.6728456    0.2978099 -48.01 0.0009629598    2.386    0.581
        90  -8.6112    150.3289     96.6572   7.1737153730e+01   3.3329976765e+01    0.4766592    0.2854947 -40.44  0.001932563    1.634    0.388
        91  -8.2095    166.0161    103.8540   7.0067657321e+01   2.8269025416e+01    0.2718093    0.2160875 -43.74 0.0005288997    1.235    0.190
        92  -8.0991     74.1067    102.1345   9.5290162538e+01   4.6912698288e+01    0.3598235    0.1883831 -53.28 0.0009469023    1.729    0.421
        93  -8.7300    158.9502    101.5732   7.1063897369e+01   3.0354719625e+01    0.2975166    0.2214584 -47.69 0.0005676663    1.355    0.262
        94  -9.9158    240.8471     96.7782   5.4606596753e+01   1.2925300837e+01    0.4575973    0.2774204  64.84  0.001591823    2.060    0.515
        95  -8.4562    164.1713     94.3468   6.7847036984e+01   3.0572662825e+01    0.2990614    0.2160248 -46.52 0.0006719411    1.390    0.280
        96 -10.7621     25.5380     78.3259   1.0662213300e+02   5.7891903773e+01    0.8077477    0.5687919  88.46  0.004477489    1.875    0.467
        97  -9.1711    221.4657    249.2192   8.8914437556e+01  -7.6191840477e+00    0.2209421    0.1346394  28.95 0.0007601559    1.343    0.256
        98  -9.3715     38.6494     58.5050   9.6120315637e+01   6.1072225451e+01    0.4428986    0.3387599 -34.30  0.002699877    1.086    0.079
        99 -10.0294     49.9750     54.4530   9.0117905782e+01   6.0615873528e+01    0.4825847    0.3864141  84.68  0.001156621    2.199    0.545
       100 -10.0576     55.3512     44.0145   8.4089197087e+01   6.1873129794e+01      1.44592    0.7082719  -5.77  0.003598861    8.388    0.881
       101 -10.0957     34.5276     90.5580   1.0603403457e+02   5.4310480714e+01    0.6410425      0.34038 -79.96  0.001956826    2.567    0.610
       102 -10.0024     36.8316     81.0572   1.0304383236e+02   5.6310258201e+01    0.7064172    0.3453293 -19.71  0.002795472    3.345    0.701
       103  -7.3533    249.6985     94.3231   5.2809438254e+01   1.1557533031e+01    0.1390301    0.0946907 -59.16  0.000388965    1.632    0.387
       104  -9.4993    138.7312     92.6087   7.3470250612e+01   3.6788019476e+01    0.3709304    0.2883995 -66.81 0.0008856506    1.590    0.371
       105  -9.7034    140.4451     82.4609   7.0001808817e+01   3.8413386534e+01    0.9756731    0.3436228 -34.24  0.002992767    3.204    0.688
       106  -8.6564    139.8628     75.3954   6.7969550716e+01   3.9882961311e+01    0.4826078    0.3147388 -36.68  0.001235586    1.524    0.344
       107 -10.2976      4.3737     89.4922   1.1630360637e+02   5.6621542752e+01     0.875204    0.3327116 -83.84  0.003392389    3.474    0.712
       108  -9.5726      6.4103     78.8088   1.1381741824e+02   5.8983743106e+01    0.9138927    0.2345811 -37.94  0.003223827    4.444    0.775
       109  -8.9754    157.8368     90.8132   6.8281826367e+01   3.2744970832e+01    0.4837691    0.2143916 -31.87  0.001597199    2.571    0.611
       110  -9.6984    110.6651     90.0741   8.0490338122e+01   4.3305870989e+01    0.8024844    0.3740286  32.45  0.002836693    2.682    0.627
       111  -8.9779    150.6630     89.4134   6.9564414524e+01   3.4694840736e+01    0.2833676    0.2386459 -48.59 0.0006458379    1.209    0.173
       112 -10.3372     47.8488     84.4548   9.9848301169e+01   5.4412988506e+01    0.6439791    0.4024082 -73.46  0.001985473    1.995    0.499
       113  -9.5067     49.1680     77.1119   9.7429148469e+01   5.5931112565e+01    0.6116403    0.3992354 -19.15  0.002986388    1.786    0.440
       114  -7.0441    174.5277     88.4992   6.3965807514e+01   2.9231951036e+01    0.1539162    0.1484212 -51.13 0.0008097968    1.034    0.033
       115 -10.0027     81.7456     72.5283   8.4267017958e+01   5.2335142792e+01    0.4643889    0.3372008 -70.65  0.001010142    2.051    0.512
       116  -9.3020     83.1719     64.9934   8.1269071327e+01   5.3605234040e+01    0.5892732    0.3450696 -13.11  0.002307198    2.702    0.630
       117 -10.1923     85.3318     86.6007   8.7394206645e+01   4.8725940783e+01    0.4614445     0.364309 -86.69  0.001010102    1.820    0.451
       118  -9.7630     87.1148     78.9526   8.4491097832e+01   5.0078008081e+01    0.6875604    0.4050133  13.85  0.001808663    2.649    0.622
       119  -8.3869    163.0909     87.1000   6.6022892020e+01   3.2213429646e+01    0.2449609    0.1890947 -73.49 0.0006372145    1.657    0.397
       120 -10.3090    103.9799     82.7038   8.0267019858e+01   4.6183821353e+01    0.5156999    0.3748832 -60.16 0.0008836814    1.654    0.395
       121  -9.8881    104.6520     72.1247   7.6678062135e+01   4.8191130216e+01    0.8081688    0.5790932  -1.54  0.003693749    1.790    0.441
       122  -8.4836    170.2876     82.9053   6.3264959790e+01   3.1269762453e+01    0.4104649    0.1867922 -42.83   0.00104907    2.168    0.539
       123  -8.9954    156.8898     76.5981   6.4316287873e+01   3.5630089445e+01    0.5954947    0.2654026 -48.46  0.001777385    2.590    0.614
       124  -9.3298     74.4575     79.1800   8.8871876004e+01   5.2096640504e+01    0.7064102    0.2947972 -49.88  0.001729605    2.244    0.554
       125  -8.8437    149.8571     80.2957   6.7047939030e+01   3.6627841551e+01    0.4278699    0.2413971 -36.72  0.001130852    1.761    0.432
       126  -8.8551    118.8642     80.4668   7.5165126075e+01   4.3602916269e+01    0.3414085    0.2469077 -54.77 0.0006378962    1.567    0.362
       127  -8.0627    120.0110     75.9855   7.3419680946e+01   4.4238590732e+01    0.2410214    0.1999308   3.51 0.0005731819    1.332    0.249
       128  -8.8974    200.3843     79.1702   5.6537822892e+01   2.4741201045e+01    0.3482508    0.2464967 -27.34  0.001141783    1.467    0.318
       129  -7.9560     68.8204     79.2397   9.0870984292e+01   5.2923778754e+01    0.3698002   0.08978417 -48.37  0.001136768    3.537    0.717
       130  -8.2604    157.7001     83.3653   6.6144988173e+01   3.4195276386e+01    0.3124654    0.1974661 -41.12 0.0008952186    1.559    0.358
       131  -8.6192    166.3674     78.5012   6.2816595101e+01   3.3006278973e+01    0.2771782    0.2319274 -44.11 0.0005810353    1.187    0.157
       132  -8.0468    184.4825     77.9779   5.9054101081e+01   2.8725916276e+01    0.2213953    0.2048925  58.89 0.0004247098    1.108    0.097
       133  -9.4741    127.3346     75.3007   7.1184513261e+01   4.2760388641e+01    0.4465663    0.3158847 -54.84 0.0006890644    1.646    0.392
       134  -8.5872    129.7788     68.4373   6.8323441583e+01   4.3476847691e+01    0.5493786    0.2558766  35.94  0.001933589    2.663    0.624
       135  -8.3380    130.4842     65.0518   6.7031506069e+01   4.3915458863e+01    0.3254997    0.3044093 -23.12  0.001062259    1.063    0.060
       136  -9.1404    115.1152     73.0839   7.3877923165e+01   4.5846577581e+01     0.393388    0.2949981 -46.29 0.0006124574    1.381    0.276
       137  -7.3887    116.3110     68.3652   7.1979825873e+01   4.6480588970e+01    0.2396483     0.149733  40.66 0.0007159386    1.613    0.380
       138 -10.5578     55.5670     71.1204   9.3297903489e+01   5.6480640625e+01    0.6723572    0.3830371  51.84  0.001925442    2.752    0.637
       139  -9.5683     54.7745     63.1299   9.1105606860e+01   5.8264743164e+01    0.4261394    0.3077683 -25.07  0.001701666    1.317    0.241
       140  -9.8174     62.6986     60.9079   8.7309265572e+01   5.7646301002e+01    0.6102175     0.291629  30.98  0.002179296    2.267    0.559
       141 -10.5974     16.3649     66.7268   1.0751822229e+02   6.1139172645e+01     1.404009    0.4461257 -63.53   0.00455536    2.710    0.631
       142  -9.2615    162.6953    247.3403   9.9639586935e+01   1.2603004538e+00    0.2193965    0.1460883  63.45  0.001186063    2.253    0.556
       143  -9.4937    181.7454    249.7068   9.6328230016e+01  -1.9609081501e+00    0.3191485    0.2001633 -53.80  0.001445611    2.335    0.572
       144 -10.5617    152.8706    245.3600   1.0127859066e+02   3.0674007869e+00     0.409952    0.2776564  33.36  0.002490159    1.241    0.194
       145 -10.2058     12.2300     45.6834   1.0376478030e+02   6.5860648717e+01    0.8154717    0.3678853 -10.64  0.003378569    2.971    0.663
       146 -10.0775      4.8152     41.9854   1.0614297436e+02   6.7024737241e+01    0.5636341    0.2930509 -60.83  0.001942145    1.683    0.406
       147  -8.8791    245.8615    243.5886   8.3718961593e+01  -1.0197903743e+01    0.1895882    0.1463353 -16.50 0.0005972811    1.316    0.240
       148  -7.3649    229.3080    245.2969   8.6894056933e+01  -8.2097786298e+00    0.1202328    0.0734417   6.75 0.0001704936    1.591    0.371
       149  -8.4620    105.7857    239.7091   1.0983852239e+02   1.1130959004e+01    0.2141842    0.1295969  48.97 0.0002751408    1.397    0.284
       150  -8.6071    216.8255    233.2222   8.7197529303e+01  -4.8920874074e+00    0.1973284    0.1719509  10.19 0.0006543137    1.194    0.162
       151  -8.0931    174.9016     72.7638   5.9412271463e+01   3.1936324208e+01    0.2097744    0.1765811 -70.52  0.001052797    1.316    0.240
       152  -8.5559    162.6582     72.7094   6.1893765482e+01   3.4924376052e+01    0.3087248    0.2179017 -53.30   0.00100354    1.554    0.357
       153  -8.4548    169.5167     71.0639   5.9986946124e+01   3.3537281342e+01    0.3926284    0.1492865 -34.26  0.001339267    2.644    0.622
       154  -8.2134    170.8105     65.0307   5.7954617199e+01   3.4223240990e+01    0.2791339    0.1900078 -45.85 0.0005059206    1.491    0.329
       155  -8.1012    156.5254     70.0774   6.2424182359e+01   3.6867367313e+01    0.2283985    0.1488102 -35.95 0.0005636535    1.529    0.346
       156  -9.1723    146.9442     69.1647   6.4311110132e+01   3.9331834726e+01     0.376335    0.2618937 -56.73  0.001036389    1.713    0.416
       157  -8.1775    147.5222     63.9553   6.2537041680e+01   4.0084596380e+01    0.3778052    0.1905057  36.57  0.001388604    2.457    0.593
       158  -9.7426     94.7646     68.4603   7.8572307046e+01   5.0829420330e+01    0.4042161    0.2702306 -48.53 0.0008315268    1.581    0.368
       159  -7.6131    175.3563     68.7653   5.8168730578e+01   3.2496170943e+01    0.1973278    0.1420625 -25.45 0.0002464759    1.487    0.328
       160  -9.4861    118.1467     54.9915   6.6896162243e+01   4.8417586508e+01    0.5294704    0.3599138 -41.48  0.001438478    1.536    0.349
       161  -8.7065    121.0576     47.1330   6.3343991179e+01   4.9001117179e+01     0.400716    0.1991741 -34.18 0.0008030898    2.034    0.508
       162  -9.1338    121.3144     66.1720   6.9847086478e+01   4.5787576752e+01    0.4240697    0.2908385 -62.41 0.0005855834    2.058    0.514
       163  -8.1629    122.1943     60.9660   6.7854736462e+01   4.6507566116e+01    0.3347515    0.2417301  10.37  0.001336275    1.732    0.422
       164  -9.4405    109.7564     64.0204   7.2415979744e+01   4.8671764078e+01    0.3767311    0.2970121 -57.17 0.0007431913    1.536    0.349
       165  -9.1420    110.4584     58.3538   7.0246667857e+01   4.9527286680e+01    0.4793319    0.3207124  18.36  0.001656894    1.866    0.464
       166  -8.3785    142.0339     48.5330   5.8773829403e+01   4.3845380191e+01    0.3198612    0.2117623 -29.96 0.0003404364    1.562    0.360
       167  -9.1642    138.8925     56.0174   6.1971722546e+01   4.3452516862e+01    0.6784229    0.2136726 -33.76   0.00169622    3.217    0.689
       168  -7.8616    142.0071     44.5087   5.7440884003e+01   4.4434100541e+01    0.2884672    0.1285708  52.00  0.001045463    2.079    0.519
       169  -8.9449    139.3409     40.4068   5.6641715284e+01   4.5651091846e+01    0.4141981    0.2358986 -54.68  0.001052783    2.383    0.580
       170  -8.7057    138.1682     66.3582   6.5521825837e+01   4.1900984202e+01    0.3111478    0.2283345 -46.26  0.000661273    1.434    0.303
       171  -8.3199    138.7469     62.0062   6.3970926089e+01   4.2507856703e+01    0.3224235    0.2027705  32.79  0.001377816    1.834    0.455
       172  -8.2989    157.8449     63.1483   6.0016206849e+01   3.7711298347e+01    0.2309693    0.1982672 -64.27 0.0007920453    1.280    0.219
       173  -9.5353     96.8573     57.8958   7.4231262578e+01   5.2397269389e+01    0.7685202    0.4516455 -26.35  0.003409495    1.834    0.455
       174  -9.4432    187.9311    233.3925   9.2708144400e+01  -5.4385368144e-01    0.2442481    0.2043431 -80.47  0.001479616    2.018    0.505
       175  -8.0453    152.4991     60.8496   6.0447836045e+01   3.9390972490e+01    0.2230234     0.148235 -32.59  0.001012007    1.529    0.346
       176  -9.7464     73.2176     59.4824   8.2887745084e+01   5.6334193257e+01    0.4121107    0.2551152 -51.11 0.0008854187    1.783    0.439
       177  -9.7836     74.6527     51.3934   7.9428908971e+01   5.7601907016e+01    0.6682431     0.378116  -8.78  0.002604763    2.958    0.662
       178  -9.1406    147.1603     56.7244   6.0310320841e+01   4.1349862491e+01    0.8295224    0.2789292 -26.83  0.002406366    4.113    0.757
       179  -8.8608    153.5655     40.7373   5.3832323073e+01   4.2116537715e+01    0.4104163    0.2249694 -30.00  0.001162942    1.900    0.474
       180  -8.3410    153.0153     34.4807   5.1926717596e+01   4.3068306397e+01    0.2584319    0.2436567 -82.21   0.00102704    1.103    0.093
       181  -8.3436    149.7365     47.9339   5.6919493270e+01   4.2053965042e+01     0.247919    0.2205165 -13.59 0.0006940015    1.189    0.159
       182  -9.2506    149.0108     43.2882   5.5562193396e+01   4.2892231850e+01    0.5203969     0.296378 -46.44  0.002268329    1.952    0.488
       183  -8.8572    130.0872     57.4112   6.4586699415e+01   4.5301762482e+01    0.4628978    0.2237775 -39.45  0.001235483    2.094    0.522
       184  -8.6321     87.3162     58.5426   7.7595704306e+01   5.4090401426e+01    0.3482465    0.2286292 -52.09 0.0008156933    1.822    0.451
       185 -10.4270     85.5669     48.5869   7.4518694119e+01   5.6166832366e+01    0.6400684    0.4395843 -62.23  0.001465918    2.412    0.585
       186  -9.6526    162.8357     52.9153   5.5856420985e+01   3.8085761466e+01    0.4505248    0.3037858 -29.29  0.001514282    1.544    0.353
       187  -7.3076    152.5303     53.5262   5.8126816461e+01   4.0535607444e+01    0.1458751    0.1428388  52.92  4.46088e-05    1.011    0.011
       188  -7.1564    172.4734     50.4789   5.3333365573e+01   3.6053685508e+01    0.1451772    0.1381257 -81.74 0.0001530105    1.041    0.040
       189  -9.1449    157.3146     49.0406   5.5733599896e+01   4.0024670888e+01    0.2707812    0.2375857 -51.13  0.001465371    1.189    0.159
       190  -9.6709    130.6976     46.0471   6.0550592823e+01   4.6923826051e+01    0.9196945    0.3657348 -21.48  0.001790609    3.817    0.738
       191  -8.8481    132.7226     35.9208   5.6557604729e+01   4.7844014575e+01    0.2789983    0.2291087 -36.63 0.0005083908    1.294    0.227
       192  -9.0823    215.5623    215.6750   8.4430214307e+01  -2.2139909519e+00    0.2285848     0.220289 -41.63 0.0006322307    1.483    0.326
       193  -8.8617    112.3824     45.0094   6.4905722439e+01   5.1268290635e+01    0.7361752    0.3332071 -19.38  0.002538639    3.311    0.698
       194  -9.1181    105.4682     51.9667   6.9436027754e+01   5.1661558689e+01    0.5833246    0.2763928 -30.49  0.001782414    2.217    0.549
       195  -9.2096     70.7698     26.7219   7.0836953781e+01   6.2190543026e+01    0.5069395    0.2982652  37.38  0.002379369    1.620    0.383
       196  -8.9849     70.8332     31.8262   7.3019122202e+01   6.1450821285e+01    0.5712374    0.2222276 -37.49  0.002388563    2.534    0.605
       197  -9.9023     69.4685     42.5197   7.7934411822e+01   5.9995659029e+01    0.7026032    0.3093481 -46.02  0.002315924    2.580    0.612
       198  -9.7669     76.0537     32.1746   7.1266557531e+01   6.0479703175e+01    0.4647622     0.346334  28.96 0.0009965326    1.259    0.206
       199  -9.7160     79.5896     23.7639   6.6430976468e+01   6.0969905268e+01     0.521286    0.2716789  24.12  0.001670881    2.328    0.570
       200  -9.0878     84.7062     21.9049   6.3944784065e+01   6.0208231395e+01    0.2429856    0.2282777 -20.20 0.0006672243    1.255    0.203
       201  -9.0081     39.9294     34.6944   8.7043300938e+01   6.5485440163e+01     0.398589    0.3021964   3.24  0.002513316    1.247    0.198
       202  -9.8555     37.8130     42.0176   9.0846698649e+01   6.4407129163e+01    0.3394355    0.3057468 -76.15  0.001575789    1.664    0.399
       203 -10.0100     35.8877     38.0083   9.0195704909e+01   6.5351381873e+01    0.4228387    0.1973091 -35.06 0.0003533307    1.894    0.472
       204  -8.9748    104.9260     40.9725   6.5508951282e+01   5.3488560217e+01    0.3471621    0.2515306 -54.09  0.000854338    1.816    0.449
       205  -8.2518    106.0536     36.0215   6.3295992016e+01   5.3948826110e+01    0.2714078    0.2102735  23.19 0.0008519915    1.271    0.213
       206  -8.3728    123.1847     40.5204   6.0438275310e+01   4.9473256376e+01    0.4289214    0.2296709  19.15  0.001497274    3.367    0.703
       207 -10.3230     90.7336     38.0436   6.8700299478e+01   5.6845004869e+01      0.82057    0.3052549  36.11  0.002832572    3.133    0.681
       208  -9.3363    101.0936     32.6493   6.3397153995e+01   5.5472837113e+01    0.3909985    0.2526778 -29.06  0.001462089    1.574    0.365
       209  -8.0030     96.8397     33.2236   6.4879034712e+01   5.6290394303e+01    0.2352506    0.1847549  -5.30 0.0006800788    1.269    0.212
       210  -8.2252    160.3402     39.2379   5.2088009979e+01   4.0633702242e+01    0.2063068    0.1241226 -40.24 0.0007656819    1.707    0.414
       211  -8.2072     53.8190     39.1504   8.2802759211e+01   6.2936904701e+01    0.1856506     0.167369 -21.03 0.0006352381    1.204    0.170
       212  -8.8964    144.1863     36.4418   5.4289635824e+01   4.4996014879e+01    0.2599337    0.2107538 -50.19 0.0005459306    1.353    0.261
       213  -7.1138      7.3997     37.2199   1.0347699477e+02   6.7832249133e+01    0.1199801   0.06637016 -26.55 0.0006860726    1.641    0.391
       214  -8.8069    118.8875     34.4355   5.9294638824e+01   5.1289153021e+01    0.3292311    0.1917219 -31.07 0.0008741859    1.772    0.436
       215  -7.1345    212.2733     35.3711   4.3378108463e+01   2.8411385383e+01    0.1297637    0.1040879  22.36 0.0005980392    1.679    0.405
       216 -10.4052    234.9761    208.7869   7.9594166742e+01  -4.1727075569e+00    0.2351716    0.1979941  -6.05 0.0004006373    1.123    0.109
       217  -9.0363    203.4729    210.0879   8.5758510502e+01   5.6290406541e-01    0.2672107    0.1688174  39.78 -9.764433e-05    1.543    0.352
       218  -9.8969     10.6132    207.6367   1.2574841660e+02   2.9063186912e+01    0.5540954    0.3038499  20.29  0.003171636    2.741    0.635
       219  -8.8556    204.5526    205.3326   8.4686018003e+01   1.1425274421e+00    0.2309548    0.1959593  11.11 0.0003591595    1.013    0.013
       220  -9.1099    110.3435     32.8826   6.0917804490e+01   5.3426286354e+01      0.37318    0.2347032 -44.58 0.0008406998    1.880    0.468
       221  -8.0311    110.3815     26.7684   5.8558023745e+01   5.4184774505e+01    0.2961831    0.2105101   5.52  0.001476952    1.576    0.365
       222  -8.6126     45.4067     15.7404   7.6064379494e+01   6.7716761059e+01    0.1986475     0.141569  -4.90 0.0008695748    1.215    0.177
       223  -8.3260    205.1592    200.8542   8.3739119877e+01   1.7657901509e+00    0.2191686    0.1720451  27.87 0.0005581181    1.178    0.151
       224  -9.0911    192.0636    194.3201   8.5135444923e+01   5.1104776979e+00    0.6710216    0.3593501 -62.40  0.002167135    5.101    0.804
       225  -7.5355    231.5767    196.9882   7.7993082579e+01  -1.9185872927e+00    0.1829001    0.1149008 -30.38 0.0003552586    1.498    0.332
       226  -8.4324     42.3600     27.8965   8.3071850778e+01   6.6324715050e+01    0.2350799    0.1448755 -16.15  0.001293922    1.596    0.374
       227  -9.7774    152.6229     27.8249   4.9853317978e+01   4.3973228435e+01    0.4428495    0.3574162 -32.81   0.00245773    1.313    0.239
       228  -7.2725    156.6338     27.2985   4.8985535682e+01   4.3037883784e+01    0.1464046    0.1031394 -71.96 0.0007032481    1.727    0.421
       229 -10.2547    172.6705    195.7859   8.9458377807e+01   8.2745123100e+00    0.2469664    0.2362921  -5.47 0.0003526866    1.099    0.090
       230  -9.1573    144.1456     26.1200   5.0847267199e+01   4.6264613408e+01    0.3454421    0.1948162 -25.39  0.001394408    1.914    0.478
       231  -8.2286    162.8457     26.2288   4.7621059684e+01   4.1614088739e+01     0.203863    0.1778316 -74.34  0.001168063    1.191    0.160
       232  -8.5235    128.3374     25.7699   5.3930363102e+01   5.0137716468e+01    0.2533798    0.2030677 -55.82 0.0007491275    1.488    0.328
       233  -9.1311    132.9370     17.4679   5.0029477056e+01   4.9932587131e+01    0.2993019    0.2039052  74.71 0.0006464134    1.575    0.365
       234  -8.3810    125.0318    194.4343   9.9764214780e+01   1.6904623574e+01    0.2210601    0.1863161 -32.11 0.0002349054    1.378    0.274
       235  -8.9681    140.2227     22.8752   5.0496635165e+01   4.7590015177e+01    0.2011055    0.1841897 -80.26  0.000461482    1.192    0.161
       236  -9.1838     57.3484    187.6072   1.1437271809e+02   2.8465404110e+01    0.2116072    0.1883334 -76.37 0.0004722879    1.166    0.142
       237  -8.3770    111.4818     21.0495   5.6064801115e+01   5.4594817888e+01    0.3428287    0.1326721 -25.48  0.001303679    2.735    0.634
       238  -8.7077    194.0832    180.3949   8.1998575262e+01   7.2279834213e+00    0.2107571     0.177553 -10.09 0.0002374836    1.146    0.127
       239  -7.4518    179.7055    178.2891   8.4598318057e+01   1.0280925134e+01    0.1338701    0.1164467  79.86 0.0004250578    1.550    0.355
       240  -9.0749    103.0300     21.1255   5.8260766908e+01   5.6471474437e+01    0.3192185    0.2661311 -34.91 0.0009507953    1.355    0.262
       241  -6.9545    103.4227    173.4626   1.0146455447e+02   2.5128931667e+01    0.1406193    0.1322981  80.66 9.848637e-05    1.011    0.011
       242  -8.1345    151.3070     20.9970   4.7876942925e+01   4.5063749655e+01    0.1892264    0.1771281 -31.18  0.001141543    1.157    0.135
       243  -8.6912     58.4722    172.0210   1.1228934092e+02   3.1934248701e+01    0.2067929    0.1800474  52.33 0.0002126218    1.185    0.156
       244  -7.8469    247.2853    171.6769   7.0174313149e+01  -5.2612788479e-01    0.1199224    0.1013567 -51.59 0.0003313648    1.599    0.375
       245  -7.3885    121.8247    171.3653   9.6592303152e+01   2.2476367422e+01     0.182818    0.1357353  26.31 0.0001176014    1.489    0.328
       246  -8.8766    133.7383    146.0826   8.8530038460e+01   2.6017511481e+01    0.6232266    0.1889833 -54.07  0.001725972    4.044    0.753
       247  -9.4165    236.1411    146.2421   6.6668001769e+01   5.5161739563e+00    0.4528518     0.167076  38.95  0.001686502    3.143    0.682
       248  -8.6004    139.7297     18.1946   4.8994218636e+01   4.8207857959e+01    0.2264967    0.1650142 -29.04 0.0006415489    1.481    0.325
       249  -9.4009     67.2313    144.4181   1.0603035203e+02   3.7503484677e+01    0.5699146    0.3142568  54.95  0.002520833    2.135    0.532
       250  -8.7475    112.1585    133.8316   9.1476715639e+01   3.2981875113e+01    0.3967515    0.2741136  79.21   0.00163889    2.199    0.545
       251  -9.1183     83.6120    131.9389   9.9100053516e+01   3.8255049397e+01    0.6876147    0.3952855  69.63  0.002532553    3.048    0.672
       252 -10.9210     70.5545    126.3966   1.0179749498e+02   4.1513680411e+01    0.8974719    0.6384318 -34.81  0.001476347    1.585    0.369
       253  -7.5651    189.7534     15.3957   4.0798367178e+01   3.6146802445e+01      0.19562    0.1068499  59.16 0.0009478689    1.715    0.417
       254 -10.2600     58.2918    124.6012   1.0510632208e+02   4.3542254260e+01    0.7413673     0.426381  76.80  0.002097433    2.852    0.649
       255  -9.0808    135.7609    132.2885   8.4834638594e+01   2.8760645866e+01    0.5907896    0.2133508 -47.08  0.001921641    2.718    0.632
       256  -9.2038    131.7317    131.1748   8.5612907823e+01   2.9829826378e+01    0.3933464    0.2838827  88.90  0.001628832    2.130    0.530
       257  -8.6380    243.4090    132.2089   6.2337782518e+01   6.5463500190e+00    0.2010047    0.1154523 -42.04 0.0009532857    1.608    0.378
       258  -9.4078    141.0545    127.6929   8.2357971489e+01   2.8705779569e+01    0.3284164    0.2307424 -51.21 0.0004383681    1.444    0.307
       259  -9.9146     98.5429    128.6452   9.4114322113e+01   3.6642506842e+01    0.6307616    0.4041469  78.45  0.002421803    2.692    0.629
       260  -8.8064    126.3575    129.3900   8.6602110494e+01   3.1313459420e+01    0.3088514    0.2368133 -34.36  0.001450948    1.364    0.267
       261  -7.4541    160.5027    128.4590   7.7777035835e+01   2.4394269174e+01    0.1562252    0.1510275 -14.22 4.918196e-05    1.009    0.009
       262 -10.3131    117.0764    125.3640   8.8145793487e+01   3.4060135647e+01    0.6454892    0.5029631 -85.08  0.001293453    1.661    0.398
       263  -9.4825    197.8470    126.5747   6.9183157608e+01   1.6677094329e+01    0.2666517    0.2391451 -31.14  0.000349507    1.050    0.048
       264 -10.0597     41.7475    122.2793   1.0965668807e+02   4.5947895691e+01    0.8356589    0.3710644 -85.07  0.002604884    3.840    0.740
       265  -9.4884     35.6324    109.1057   1.0928311199e+02   4.9761222751e+01    0.7590114    0.2934061 -75.00  0.002532726    3.235    0.691
       266 -10.1197     27.4324    122.9658   1.1400596206e+02   4.7089694710e+01    0.5966465    0.2982438  70.86  0.002159795    2.986    0.665
       267 -10.2506    139.5654    104.2618   7.6582306855e+01   3.4167897621e+01    0.6060184     0.373937 -45.69  0.001560025    1.601    0.375
       268  -7.4701     50.2845     35.2982   8.2723454312e+01   6.4074580647e+01    0.1306705   0.08620442 -10.60 0.0001880683    1.548    0.354
       269  -9.5076    130.1550     97.0287   7.7018388019e+01   3.7759886253e+01    0.4873081    0.3336982  11.58  0.001780182    2.149    0.535
       270 -10.7385    132.3098    120.1050   8.2716892287e+01   3.2231375594e+01     1.002734    0.6486395  79.43  0.003145076    3.081    0.675
       271 -11.1682    133.5271    109.6631   7.9645897130e+01   3.4304238701e+01     1.031955    0.5001708 -46.05  0.002542636    2.025    0.506
       272 -10.8518    123.1124     91.1149   7.7219983763e+01   4.0517388266e+01     1.035251     0.710122 -25.55  0.002565262    1.649    0.393
       273 -10.5289    108.8359    113.0151   8.7392361842e+01   3.8513113193e+01     1.219277    0.5010993 -51.73  0.002856297    2.425    0.588
       274 -10.5484    108.5649     99.5861   8.3862999116e+01   4.1634376318e+01    0.9983236    0.6366614  65.73  0.002669719    2.475    0.596
       275  -8.0150    202.6283    123.2820   6.7439885391e+01   1.6279874975e+01    0.2515201    0.1759221  25.49 0.0008209496    1.722    0.419
       276  -9.5503    127.7815    102.5897   7.9242988425e+01   3.7072465172e+01    0.4187268    0.3429577 -47.11   0.00117186    1.206    0.171
