#   1 NUMBER                 Running object number                                     
#   2 MAG_AUTO               Kron-like elliptical aperture magnitude                    [mag]
#   3 X_IMAGE                Object position along x                                    [pixel]
#   4 Y_IMAGE                Object position along y                                    [pixel]
#   5 X_WORLD                Barycenter position along world x axis                     [deg]
#   6 Y_WORLD                Barycenter position along world y axis                     [deg]
#   7 A_WORLD                Profile RMS along major axis (world units)                 [deg]
#   8 B_WORLD                Profile RMS along minor axis (world units)                 [deg]
#   9 THETA_WORLD            Position angle (CCW/world-x)                               [deg]
#  10 FWHM_WORLD             FWHM assuming a gaussian core                              [deg]
#  11 ELONGATION             A_IMAGE/B_IMAGE                                           
#  12 ELLIPTICITY            1 - B_IMAGE/A_IMAGE                                       
         1 -14.9333      6.6782     71.1721   7.5094381508e+01   5.9625212433e+01     1.059174    0.5914657 -59.51  0.004307101    1.361    0.265
         2 -13.9747     41.6865      4.6837   3.8820804328e+01   6.9670769944e+01    0.8771296    0.5160067 -14.23  0.004706166    1.718    0.418
         3 -12.9430      7.8725      2.6505   5.5714079243e+01   7.3372914201e+01    0.4933619    0.4011088  29.18  0.003732182    1.687    0.407
         4 -15.9190     11.3732     23.1920   6.1974569900e+01   6.9407591265e+01     1.886556    0.8544053 -39.39  0.009582129    1.781    0.439
         5 -14.2518     27.0488     12.0202   4.9654502820e+01   7.0195417654e+01    0.8450832    0.4769772 -24.64  0.004452277    1.668    0.400
         6 -11.7926    194.7928     23.2685   6.2492011669e+00   3.2906470676e+01    0.4749676    0.3538037 -18.14  0.002302554    1.453    0.312
         7 -13.6482    188.1332     24.0303   7.4169159014e+00   3.4600054913e+01     1.627192    0.7722613 -47.64  0.006298536    2.359    0.576
         8 -13.2070    187.5437     11.3562   3.5637126947e+00   3.6135917581e+01    0.8390151    0.5522171 -33.91  0.004091273    1.551    0.355
         9 -13.9192    122.2626     36.6675   2.4922692961e+01   5.0035380165e+01     1.038641    0.5952785  27.80  0.003658441    2.181    0.541
        10 -14.3367    166.5888     29.0640   1.2506311266e+01   3.9782138265e+01     1.152094    0.9267683  64.33  0.003954927    1.207    0.172
        11 -14.3056    147.7373     29.6805   1.6346426162e+01   4.4678555799e+01     1.409364    0.8434476  61.58  0.004517884    1.649    0.394
        12 -13.2012    214.7796     20.1395   2.8457607362e+00   2.8007718014e+01    0.6221102    0.3582844 -27.68  0.002880983    1.738    0.425
        13 -13.9929    217.0562     11.4923   2.0352064833e-01   2.8353473882e+01     1.165088    0.7526945 -71.80  0.002882384    1.672    0.402
        14 -12.6400    120.2863     26.4235   2.1440178029e+01   5.1944877837e+01    0.6650956    0.4646816  40.29   0.00264566    1.362    0.266
        15 -15.1620     99.1289     11.5414   2.0853929292e+01   5.8613966672e+01     1.486731    0.9329361  46.51  0.004229645    1.488    0.328
        16 -12.2466     85.5378     13.8305   2.6060045932e+01   6.1169329531e+01    0.4496173    0.3853342 -24.71  0.002712709    1.223    0.183
        17 -11.5476     71.0260     16.2783   3.2289860019e+01   6.3540113923e+01    0.3611964    0.2094222 -21.38  0.001586047    1.686    0.407
        18 -11.6210     75.0321      9.9812   2.7806890962e+01   6.3668273910e+01    0.3275304    0.2241366   5.54 0.0009737736    1.482    0.325
        19 -12.2048     59.9548     15.3825   3.6183941158e+01   6.5491336076e+01     0.504853    0.2995894  20.25  0.002607661    1.898    0.473
        20 -11.8661     46.7269     12.7684   4.0587581023e+01   6.7798933847e+01    0.2829939    0.2686518   0.21   0.00133675    1.363    0.267
        21 -12.3598    123.3066     10.7567   1.4370168168e+01   5.3077254178e+01    0.2720966    0.2437359  77.35 0.0003894596    1.270    0.212
        22 -12.2387    152.2907      9.0129   8.0066206729e+00   4.5824005175e+01    0.4716289    0.2795795  57.68  0.001647449    1.507    0.336
        23 -10.7550     80.3557      7.0651   2.4547641139e+01   6.3013979518e+01    0.1909861    0.1541435 -11.13  0.001141578    1.148    0.129
        24 -11.9965    119.5384      2.7554   1.1887313483e+01   5.4784326728e+01    0.6624588     0.325668  82.50  0.002271402    3.819    0.738
        25 -11.8694     78.4537      1.9063   2.2618812762e+01   6.3964851690e+01    0.8293076    0.1108303  48.35  0.002435655    5.159    0.806
        26 -11.2176     67.7359      2.7049   2.6790545520e+01   6.5878300910e+01    0.2840048    0.1758686  14.14  0.001499607    1.693    0.409
        27 -11.4288    232.7701      1.7059   3.5617189040e+02   2.5396444241e+01     0.287258    0.1708054  70.10  0.001428102    1.616    0.381
        28 -11.1643     61.2806      1.4488   2.8597487609e+01   6.7147313111e+01    0.3162158    0.1160083  46.24  0.001368956    2.780    0.640
        29 -11.8089     48.6200    181.4021   7.6981068198e+01   3.2008813263e+01    0.3006176    0.2127362 -61.96  0.002007205    1.584    0.369
        30 -12.8828    107.7560    246.5206   7.1831035631e+01   1.2856622922e+01    0.6081885    0.4126464  81.26  0.004299957    1.665    0.400
        31 -13.7553     98.1661    239.0643   7.2809230907e+01   1.5321051896e+01    0.7642202    0.5751831  62.20  0.005765033    1.088    0.081
        32 -14.1733     91.1322    231.2547   7.3350335896e+01   1.7521857239e+01    0.8064539    0.5099736  60.01  0.005472946    1.279    0.218
        33 -12.3823     50.9662    248.6733   8.1225401017e+01   1.9924849630e+01    0.3361089    0.2755804  65.03  0.002950726    1.290    0.225
        34 -12.5565     58.0853    246.6028   7.9985988263e+01   1.9399265527e+01    0.4695294    0.2924566  43.11  0.003491226    1.473    0.321
        35 -11.5422     41.2016    248.4553   8.2724357671e+01   2.1071771039e+01    0.3632892    0.1389154  89.57  0.002074943    3.009    0.668
        36 -13.1761     28.4323    246.2100   8.4563084864e+01   2.2801928765e+01     0.413083    0.2440933  78.41   0.00286271    1.355    0.262
        37 -12.1408      2.8460    249.6334   8.8433622293e+01   2.4805883878e+01    0.3013242    0.1584251  53.86  0.001765301    1.318    0.241
        38 -13.8342      9.7744    245.6374   8.7309203551e+01   2.4764728456e+01    0.7524574    0.2734522  56.49    0.0041184    1.815    0.449
        39 -12.3147    198.6458    181.4257   4.6142054070e+01   7.2873559422e+00    0.2740099    0.2432656  41.63  0.001424942    1.183    0.155
        40 -12.4846    124.1552    166.5352   5.8910545758e+01   2.3913016485e+01    0.5767424    0.3717009 -73.23  0.002836075    1.979    0.495
        41 -10.7935    177.9623    167.2297   4.7536919056e+01   1.3528093171e+01    0.1961778    0.1054296  44.41 0.0008837619    1.667    0.400
        42 -12.3555     24.1471    159.5179   8.0220685420e+01   3.9013072739e+01    0.2814775    0.1907149 -81.28  0.001743589    1.230    0.187
        43 -11.9386     77.3042    156.8808   6.8082514861e+01   3.3417739455e+01    0.3679237     0.301206  43.37  0.001214065    1.283    0.220
        44 -12.9777     73.6504    153.1215   6.8421896968e+01   3.4731145885e+01    0.6318671     0.425834  35.98  0.002460078    1.608    0.378
        45 -12.9372      7.8783    149.9230   8.2980679472e+01   4.2384441541e+01     0.664235    0.3283693  59.15  0.004043415    1.845    0.458
        46 -11.0356     12.6671    148.6747   8.1856397098e+01   4.2268839771e+01     0.195923    0.1258899 -72.31  0.001080958    1.351    0.260
        47 -11.3149    103.4537    149.8085   6.0870153396e+01   3.0912746471e+01    0.3161433    0.2284444 -36.56  0.001326945    1.792    0.442
        48 -11.6779    111.3462    155.8380   6.0033090688e+01   2.8312119714e+01    0.4567995    0.2849737  83.86  0.002024255    2.403    0.584
        49 -11.5069     59.7382    147.9934   7.1025031971e+01   3.7657675427e+01    0.1878554    0.1675974 -60.08 0.0007742374    1.283    0.220
        50 -11.4912     62.4047    146.1983   7.0157370433e+01   3.7717635236e+01    0.2282501    0.1649572  62.53   0.00136593    1.318    0.241
        51 -11.6374    188.8082    155.8150   4.3047255743e+01   1.3249839490e+01    0.1931116    0.1735534  71.31  0.001084309    1.354    0.262
        52 -10.5274     38.4695    145.5270   7.5743964094e+01   4.0594030913e+01    0.1190107   0.09768546 -89.43  0.000146069    1.035    0.034
        53 -12.2333     40.5348    137.3235   7.4340601226e+01   4.2178872355e+01    0.4091166    0.1999501  63.88  0.001998425    2.350    0.574
        54 -12.2182     44.1818    132.6051   7.2866269041e+01   4.2845457983e+01    0.4048882    0.2195463 -73.51   0.00218194    1.625    0.385
        55 -12.1184    136.4809    132.0150   4.9485208588e+01   2.8563872717e+01    0.5688404    0.2387017  39.18   0.00208025    2.484    0.597
        56 -14.6440    105.9912    104.4065   5.0965014971e+01   4.0399333450e+01     1.410217     1.266143 -43.96  0.006206736    1.111    0.100
        57 -13.3252      5.2174    117.3359   8.1032850183e+01   4.9530517990e+01     1.498481     0.334111 -62.81  0.006481631    3.095    0.677
        58 -12.2634     49.7563     98.6560   6.6102784329e+01   4.9959090793e+01    0.7656546    0.4694571  16.68  0.003969803    2.253    0.556
        59 -12.0494     49.1039     93.4087   6.5298735704e+01   5.1228505258e+01    0.3709156    0.2793355  73.15  0.002169934    1.532    0.347
        60 -12.1942     42.5437     90.2574   6.6731958684e+01   5.2629071002e+01    0.3672075    0.2500398 -78.18 0.0002837103    1.448    0.309
        61 -12.2537     36.7855     92.9124   6.9009957438e+01   5.2578100567e+01    0.3691937    0.2762888   0.42  0.001454399    1.816    0.449
        62 -14.8558     24.8754     93.6599   7.2769433996e+01   5.3421885585e+01     1.793837     1.129267 -19.13   0.01004944    2.355    0.575
        63 -13.4962      2.2749     96.9684   7.9814765333e+01   5.4173278897e+01    0.8337656    0.3508739 -82.39  0.003475826    2.044    0.511
        64 -14.0371     18.6102    111.7899   7.6974731108e+01   4.9823358525e+01    0.6011755     0.522436 -21.23  0.003077638    1.540    0.350
        65 -12.8764     17.4471    104.0987   7.6372043761e+01   5.1628677035e+01    0.4332281    0.2789889  41.51  0.001610485    1.755    0.430
        66 -12.9372     32.1362    111.9945   7.3322772017e+01   4.8664041149e+01    0.6398343    0.2081963 -57.71  0.002832703    2.487    0.598
        67 -12.8013     84.4324    114.9753   5.9299669011e+01   4.1662445015e+01    0.8703983    0.5203267  29.50  0.003744671    2.011    0.503
        68 -11.9710     78.5256    110.4984   6.0034968684e+01   4.3564494215e+01    0.3909244    0.2869802 -82.56  0.002051912    1.501    0.334
        69 -11.7546    121.5847    111.8694   4.8589539521e+01   3.5799148752e+01    0.3066769    0.2385825  65.16 0.0007152883    1.444    0.308
        70 -10.9772     63.0852    110.7538   6.4452814748e+01   4.5614748309e+01    0.7962867    0.3821819 -75.09  0.003298795    2.591    0.614
        71 -10.7524     64.5151    101.5417   6.2259320926e+01   4.7539874876e+01    0.2929948    0.2245214 -27.08  0.001370618    1.624    0.384
        72 -12.0141     61.5088     97.5481   6.2340296350e+01   4.8834131635e+01    0.4249787    0.3134663  85.40  0.001698568    1.586    0.369
        73 -10.7326     46.0462    110.2317   6.9184978021e+01   4.7709985892e+01    0.2706219    0.1143684 -46.64   0.00117365    2.618    0.618
        74 -10.7869     42.9674    106.2575   6.9421692280e+01   4.8935981066e+01    0.1974681    0.1303311 -31.66  0.001066455    2.023    0.506
        75 -12.3703    136.5122    102.9399   4.2485760814e+01   3.4577877296e+01    0.6060584    0.2983318  49.97  0.001775159    2.083    0.520
        76 -13.1099    112.1163    116.6662   5.2193399701e+01   3.6578216094e+01    0.5922344    0.3905563  36.89  0.002499887    1.601    0.375
        77 -11.9123    163.5325     97.7271   3.4569958521e+01   2.9438567366e+01    0.3306692      0.28711  67.03 0.0005064095    1.258    0.205
        78 -12.9735    137.1115     94.6993   4.0101321256e+01   3.6127673345e+01    0.5189241    0.4571824  73.71  0.001715912    1.270    0.213
        79 -13.3758    106.5592    123.8232   5.5206144416e+01   3.6017089970e+01     1.302173    0.5783384  37.60  0.005145972    2.400    0.583
        80 -11.7158    101.7440    118.7647   5.5400804238e+01   3.7980195524e+01    0.9001399    0.4426549  31.19  0.003558335    2.585    0.613
        81 -12.2334     19.0320     86.0445   7.3395865891e+01   5.5567536926e+01    0.3487409    0.2509527 -31.18  0.001714764    1.651    0.394
        82 -13.2160    188.4815     84.0109   2.5427842690e+01   2.5785090911e+01    0.7342091    0.3241957  45.66  0.002184309    2.281    0.562
        83 -13.3112    164.2203     71.4371   2.6753939413e+01   3.4045114561e+01     1.132891    0.5835251  46.42  0.004383559    1.916    0.478
        84 -14.2361    169.3763     76.9272   2.7297143217e+01   3.1795567404e+01     1.544111    0.6049809  50.00  0.004211855    2.454    0.593
        85 -12.0099    158.4556     83.5024   3.1685213245e+01   3.3318453873e+01     0.369275    0.2965879  55.91 0.0008035846    1.272    0.214
        86 -12.8688    161.0696     80.1922   3.0106617727e+01   3.3283182798e+01     0.526051    0.3819193  29.66  0.001490106    1.540    0.351
        87 -12.7569     28.8892    121.9444   7.5455972268e+01   4.6714017973e+01    0.4698148    0.2804792 -61.23  0.002245938    1.479    0.324
        88  -8.2450     40.0074     67.9678   6.2789449614e+01   5.7874505050e+01     1.128148    0.2407918  30.61  0.003983926    4.828    0.793
        89 -13.3819     66.2206     49.3260   4.7652833150e+01   5.8645408593e+01     1.191116    0.6028394 -39.08  0.005533433    1.812    0.448
        90 -12.4891     51.5612     66.6182   5.8324766648e+01   5.6948275455e+01     1.168315    0.4195768 -61.81  0.004340065    3.132    0.681
        91 -13.1491     56.9239     65.4774   5.6105379426e+01   5.6556216594e+01    0.8289993    0.4907836 -29.06  0.004016433    2.029    0.507
        92 -13.8504     73.6055     74.0626   5.2805308393e+01   5.2443998919e+01     1.271924    0.7109459   9.92  0.004714628    3.711    0.730
        93 -13.1494     87.4489     65.2227   4.5599890792e+01   5.2092897731e+01    0.5453721    0.4269183 -14.07  0.001023344    1.439    0.305
        94 -13.4778     92.2350     57.4341   4.1464617133e+01   5.2788677055e+01    0.5960488    0.5087269 -42.04  0.002453051    1.149    0.130
        95 -12.8640     54.7596     81.2129   6.0880635858e+01   5.3352982962e+01    0.6186119    0.3747785 -43.74  0.003231704    1.572    0.364
        96 -13.9139     61.1919     75.6811   5.7380656540e+01   5.3796954558e+01    0.8105413    0.4802345 -45.43  0.001581159    1.528    0.345
        97 -12.4148    181.0197    120.9591   3.6768626316e+01   2.1041437296e+01    0.3562437    0.2572588  46.67  0.001119637    1.340    0.254
        98 -12.9473    216.3571     80.8517   1.9511533993e+01   1.9404665978e+01    0.5278487    0.4919936  58.11  0.002195945    1.126    0.112
        99 -11.8611    114.1471     79.8815   4.2012208709e+01   4.4054456979e+01    0.4872152    0.3304337 -47.34  0.002271948    1.464    0.317
       100 -11.9895    236.4882     79.7623   1.6077479712e+01   1.4803946176e+01    0.2956062    0.1856637  75.94  0.001294926    2.184    0.542
       101 -12.5166    135.4655     79.2283   3.6023426406e+01   3.9565806132e+01    0.7568074     0.361366  51.80  0.002656539    2.181    0.541
       102 -11.0464     42.6715     79.3125   6.4462854845e+01   5.5090916050e+01    0.2540058    0.1821245 -61.81  0.001075887    1.187    0.157
       103 -10.9280     41.6182     75.7434   6.4033362577e+01   5.5994468054e+01     0.285208    0.2219976  82.91  0.001720676    1.531    0.347
       104 -13.6193    171.5667    242.4313   6.0455250372e+01   3.6916628476e+00    0.7881464    0.4111761  35.51  0.004625361    1.568    0.362
       105 -14.1660      5.2706     63.4286   7.4314988665e+01   6.1388943100e+01    0.6026812    0.4805059 -74.98   0.00360412    1.131    0.116
       106 -12.2724    187.1144     79.1419   2.4307619831e+01   2.6944645405e+01    0.2481146    0.2131375  22.18 0.0006869007    1.227    0.185
       107 -11.5678     27.3057     75.6881   6.8892336577e+01   5.7274040475e+01    0.3761651     0.202408 -87.70  0.001796284    2.490    0.598
       108 -13.6066    199.3368     69.9170   1.9385423209e+01   2.5330505389e+01    0.8411742    0.4779239  44.83  0.002435708    1.809    0.447
       109 -10.8055    117.7502     71.4330   3.8384608224e+01   4.4996171415e+01    0.2791414    0.1480983  50.25  0.000975428    1.997    0.499
       110 -12.6241    134.6949     66.1001   3.2082910280e+01   4.2211952661e+01     0.634301    0.4604743  27.13  0.001852061    1.557    0.358
       111 -11.9825    158.6584     64.7850   2.5904971842e+01   3.6585753667e+01    0.6080672    0.2774001 -43.63  0.002181566    2.341    0.573
       112 -11.7789     99.8477     64.2523   4.1350161715e+01   5.0030342601e+01    0.3916651    0.3191239 -39.14  0.001802709    1.170    0.146
       113 -12.9556     78.7937     59.8552   4.6746817901e+01   5.4624844707e+01    0.6949357    0.4642019 -53.05  0.003508479    1.525    0.344
       114 -12.0266     83.3188     54.0208   4.3236378434e+01   5.5028725843e+01    0.3816131    0.2481723  -1.83  0.001675901    2.323    0.570
       115 -12.1143     36.1782     54.4707   6.0731516001e+01   6.1153753826e+01    0.5292276    0.1531313 -45.87  0.002089464    2.880    0.653
       116 -11.1299     34.4731     60.5382   6.2978876814e+01   6.0009947915e+01    0.3597283     0.161444 -50.07  0.001784306    1.781    0.438
       117 -12.0046     38.7148     59.7472   6.1187919830e+01   5.9787149926e+01    0.2957147    0.2224302  82.03   0.00172081    1.830    0.454
       118 -12.3876    210.2171     77.2108   1.9551368901e+01   2.1469076173e+01     0.502051     0.323318 -54.42  0.002166279    1.864    0.463
       119 -13.5072    177.7273     57.1599   1.9550740426e+01   3.2897651113e+01    0.9236094    0.6480972 -46.06  0.002989314    1.509    0.337
       120 -11.7377     24.8531     59.0180   6.6223395112e+01   6.1131462711e+01    0.4231415    0.1780172 -53.29  0.002134016    1.802    0.445
       121 -11.1271    111.2363     58.5788   3.6004268531e+01   4.8824280037e+01    0.2836923    0.2243183   5.09 0.0006919522    1.450    0.310
       122 -14.4641    119.7520     54.8289   3.2267360258e+01   4.7653805987e+01     1.017838    0.6830583  42.64  0.001920846    1.489    0.328
       123 -11.2771     17.6287     55.3015   6.8124594791e+01   6.2441004424e+01     0.293743     0.164418 -66.14  0.001689219    1.509    0.337
       124 -12.2300    135.9125     51.0035   2.6667502128e+01   4.4532893502e+01    0.6213198    0.4402025 -28.39  0.002188026    1.430    0.301
       125 -13.5156    103.2753     50.4032   3.5493308710e+01   5.1959346630e+01     0.974461    0.5513327 -49.77  0.001692436    2.058    0.514
       126 -13.2015     97.9822     49.9797   3.6984486395e+01   5.3092913139e+01    0.6998758    0.4160988 -43.22  0.002257153    1.674    0.402
       127 -10.5209     23.5269     49.9598   6.4510939590e+01   6.3167723541e+01     0.178687   0.09606768 -57.65 0.0004307666    1.476    0.322
       128 -12.0562    151.9661     46.7757   2.1448570208e+01   4.1185082183e+01    0.5056304    0.2157572  53.80  0.001837274    2.209    0.547
       129 -12.7532    158.5066     43.1742   1.8833078894e+01   4.0024511807e+01    0.6538164    0.4890016  43.03  0.002903699    1.310    0.237
       130 -10.7498     38.8331     46.1563   5.7236039289e+01   6.2629551132e+01    0.1819506    0.1562872 -55.58 0.0007326914    1.185    0.156
       131 -12.9259     23.4649    216.2586   8.3940578416e+01   2.8234454262e+01    0.9258106    0.1855333  48.71  0.004551172    3.079    0.675
       132 -13.1818      6.0801     42.9619   6.9932145506e+01   6.5718333410e+01     0.726985    0.4933774  18.65  0.004959064    1.851    0.460
       133 -14.1170     26.2197    226.5152   8.3997428610e+01   2.6204733223e+01    0.9336681    0.3303637 -63.55  0.005311643    3.247    0.692
       134 -12.2926    147.2109    238.8855   6.4267814277e+01   7.9954133815e+00      0.17709    0.1302827  55.76 0.0009329451    1.244    0.196
       135 -11.5515     16.3289    235.5635   8.5954077037e+01   2.5717018025e+01    0.2503824    0.1024039  67.78  0.001633871    1.913    0.477
       136 -14.0981    212.4756     41.1386   9.0642066451e+00   2.6065568272e+01      2.27394    0.7663661  72.57  0.006554369    4.323    0.769
       137 -13.7768     20.7378    223.9334   8.4758818080e+01   2.7195457507e+01     0.524844    0.3978983  59.05  0.003144484    1.237    0.192
       138 -11.7883    237.8066    229.6022   4.7389041788e+01  -5.2803840230e+00    0.1631962   0.08967654  43.99 0.0009602582    1.741    0.425
       139 -12.3941     57.5620    202.3358   7.6997842506e+01   2.6934784693e+01    0.6323092    0.2377696 -79.11  0.003011632    3.067    0.674
       140 -10.7536     25.4761     44.0213   6.2091648997e+01   6.4258863105e+01    0.1924776   0.09868921 -57.37  0.001034939    1.602    0.376
       141 -11.7174    135.0137     39.5066   2.2776036832e+01   4.6543226372e+01    0.5080404    0.3006954  60.66  0.001577461    1.797    0.443
       142 -12.1659    109.8797     41.9415   3.0364721271e+01   5.2015129032e+01    0.4534518    0.2095796  49.35 0.0009182989    2.179    0.541
       143 -12.9634    113.8837     37.8600   2.7654307062e+01   5.1778966133e+01    0.4084514    0.3818039  16.72  0.001402032    1.033    0.032
       144 -13.5708     65.7335    223.1861   7.7140864562e+01   2.2230139586e+01    0.7326267    0.4244598  46.88   0.00489363    1.406    0.289
       145 -12.8186    131.4564     33.4343   2.1381215625e+01   4.8292120425e+01    0.5660175    0.4426952  -3.63   0.00147349    1.367    0.268
       146 -13.0259     43.5867     32.9360   5.0682933257e+01   6.4719730016e+01    0.7748461    0.5168349  21.54  0.004571076    1.674    0.402
       147 -12.1096     40.4881     40.3249   5.4652381563e+01   6.3633253486e+01    0.4532696    0.2874876  24.87  0.002619459    1.806    0.446
       148 -12.5986     33.1393     39.9893   5.7631700034e+01   6.4424827735e+01    0.3383194    0.2345092 -24.44 0.0007898202    1.438    0.305
       149 -12.5550     76.0237     37.0130   3.9452551744e+01   5.9398309252e+01    0.4007022    0.2886682  16.46  0.001317801    1.520    0.342
       150 -11.6953     70.8646     36.1385   4.0996865648e+01   6.0397942307e+01    0.3154221    0.2748891  64.15  0.001053397    1.601    0.375
       151 -12.5916    242.0940     35.9665   4.0445035665e+00   1.9359376178e+01     0.549418    0.3270581  73.05  0.001994312    1.802    0.445
       152 -11.2465    104.5094     36.5524   2.9858513527e+01   5.4031421247e+01    0.2979496    0.1369564 -33.27  0.001199042    2.125    0.529
       153 -14.3060     62.8283    214.0012   7.6955161019e+01   2.4180275526e+01     0.829107    0.3937433  45.98  0.004955862    1.695    0.410
       154 -12.5259     94.2994    218.1858   7.1586443219e+01   1.9214336245e+01    0.2623794    0.1720677  50.59  0.001336013    1.206    0.171
       155 -11.2615    113.4788     31.9864   2.5465523436e+01   5.2750558475e+01    0.2609118    0.2105422  73.94 0.0006454412    1.580    0.367
       156 -13.3217    217.3251     28.5388   4.8909005907e+00   2.6385464627e+01    0.7100635     0.430479 -64.60  0.003160798    1.940    0.485
       157 -10.7571      5.5048    219.0912   8.6989593813e+01   2.9468186475e+01    0.1390951   0.07405305 -88.11  0.000717144    1.557    0.358
       158 -12.4178    223.5719     20.6558   2.0147966713e+00   2.5704970484e+01    0.3755422    0.3140718  56.63  0.001435361    1.236    0.191
       159 -11.2341     85.7942    215.3460   7.2882063806e+01   2.0902139049e+01    0.1641163    0.1206937  66.97 0.0009026928    1.132    0.117
       160 -11.0689    156.6845    214.6648   5.9515125122e+01   9.8920294767e+00    0.1207195   0.08883944  16.66 0.0007047268    1.692    0.409
       161 -13.3818     57.8377     26.8010   4.2218458231e+01   6.3987034919e+01    0.9842874    0.3826282  34.59  0.003752461    2.834    0.647
       162 -12.6483    140.1442     21.4372   1.4896948552e+01   4.7657118549e+01    0.8531603    0.3308588  58.58   0.00196665    2.360    0.576
       163 -12.1255     30.5462     25.4719   5.3631299995e+01   6.7472444461e+01    0.3195331    0.2168983  -4.23  0.001683149    1.618    0.382
       164 -12.6260     35.3246     23.3775   5.0581068941e+01   6.7378380618e+01    0.2849188    0.2101448 -18.97 0.0007343183    1.232    0.188
       165 -12.6994      4.6715    211.7737   8.6835589156e+01   3.0800882638e+01    0.3872458    0.1724526 -75.25  0.002601145    2.047    0.512
       166 -10.8588    136.6083    210.8082   6.2799310638e+01   1.3859270648e+01    0.1543561    0.1152925 -77.05 0.0009482551    1.704    0.413
       167 -11.1256     51.2170     20.4121   4.2188504378e+01   6.5977190063e+01    0.2696891    0.1535493  39.96  0.001433503    2.039    0.510
       168 -12.1408     46.1733     20.3514   4.4364497950e+01   6.6649419314e+01     0.341729    0.2147604   0.34  0.001169342    1.912    0.477
       169 -12.7512     72.3648    207.7844   7.4689236035e+01   2.4057308364e+01    0.4094078    0.2101591 -73.86  0.002383773    2.051    0.512
       170 -10.9586    249.0238    225.2384   4.4864271931e+01  -6.5333181059e+00    0.1574916   0.07533228  37.29 0.0008954426    1.664    0.399
       171 -13.3584     15.9864    198.1687   8.4293636368e+01   3.2199532982e+01    0.8161456    0.2054416 -61.92  0.003707016    4.338    0.769
       172 -13.8445     29.9812    169.3093   7.9772869797e+01   3.6441876641e+01     1.051411    0.6970484  40.77  0.006488942    1.577    0.366
       173 -13.6683     22.2044    180.8504   8.2141002827e+01   3.4895748008e+01    0.7072175     0.298764 -66.23    0.0040601    2.227    0.551
       174  -9.7529     55.3419     11.2968   3.6108045686e+01   6.6794669254e+01    0.1316813   0.08556282   1.62 0.0007033002    1.664    0.399
       175 -15.2739      8.3241    183.2722   8.4894801977e+01   3.5684327724e+01     1.155207    0.8253478 -85.98  0.009025989    1.220    0.180
       176 -15.3325     15.2558    174.9310   8.3108044704e+01   3.6698113985e+01      1.93916    0.7862707  65.19   0.01056636    2.279    0.561
       177 -13.6028     39.3525    195.6413   7.9896104262e+01   3.0296807878e+01    0.6494113    0.3212078  69.26  0.003833838    1.842    0.457
       178 -12.8780    164.2320    195.4958   5.5241300068e+01   1.1510604887e+01    0.3899869    0.2718803  89.65  0.001925222    2.580    0.612
       179 -12.1310    201.0184    191.2882   4.7477336791e+01   5.4305286120e+00    0.3104881    0.2263834  24.17  0.001395138    1.253    0.202
       180 -11.7651    155.8687    184.6602   5.5164752092e+01   1.4811555131e+01    0.2182968    0.1900472 -22.75  0.001333616    1.374    0.272
