#   1 NUMBER                 Running object number                                     
#   2 MAG_AUTO               Kron-like elliptical aperture magnitude                    [mag]
#   3 X_IMAGE                Object position along x                                    [pixel]
#   4 Y_IMAGE                Object position along y                                    [pixel]
#   5 X_WORLD                Barycenter position along world x axis                     [deg]
#   6 Y_WORLD                Barycenter position along world y axis                     [deg]
#   7 A_WORLD                Profile RMS along major axis (world units)                 [deg]
#   8 B_WORLD                Profile RMS along minor axis (world units)                 [deg]
#   9 THETA_WORLD            Position angle (CCW/world-x)                               [deg]
#  10 FWHM_WORLD             FWHM assuming a gaussian core                              [deg]
#  11 ELONGATION             A_IMAGE/B_IMAGE                                           
#  12 ELLIPTICITY            1 - B_IMAGE/A_IMAGE                                       
         1 -14.7994    244.8616     42.3911   3.5508409014e+02   2.2353907737e+01     2.855046    0.6367026 -32.98   0.01128492    3.438    0.709
         2 -13.1684    233.8900     36.9894   3.5471408928e+02   2.4942796541e+01    0.8449091    0.3113672 -57.39  0.003643877    2.810    0.644
         3 -13.9630    226.4818     22.7675   3.5209911950e+02   2.7958171279e+01     1.009749    0.6212142  35.33   0.00536191    3.060    0.673
         4 -13.4062    222.2308     11.8635   3.4992641258e+02   2.9945697118e+01     1.432005    0.2536233 -51.20  0.005179509    4.166    0.760
         5 -13.2690    227.0590      7.0076   3.4860684615e+02   2.9513213959e+01    0.8958599    0.3443494 -48.25  0.003376186    1.889    0.471
         6 -13.1954    234.1898     24.6243   3.5202684879e+02   2.6311042446e+01    0.8273339    0.3009844 -48.55  0.002802828    2.062    0.515
         7 -14.4427    238.4536     51.1824   3.5741743655e+02   2.2390863473e+01     2.263657    0.6778892 -52.22  0.009062287    3.452    0.710
         8 -14.9755    245.3210      7.9540   3.4797267266e+02   2.6074187842e+01     3.046539    0.6862701 -32.54   0.01358869    3.103    0.678
         9 -12.7210     54.2332     24.5453   2.3999640558e+01   6.7484452804e+01    0.6052986    0.5419785   4.55  0.003445766    1.107    0.097
        10 -13.9877    244.4867     21.9245   3.5086751609e+02   2.4757719606e+01      1.15022    0.5559772 -60.74  0.006775733    1.824    0.452
        11 -12.1342    158.9951     26.4719   3.5900360731e+02   4.2128010352e+01    0.2283854    0.2114006 -61.81  0.001428938    1.095    0.086
        12 -11.3081     32.3547     20.5434   3.3820754326e+01   7.2109755695e+01     0.406451    0.2464009 -36.57  0.001160365    1.656    0.396
        13 -12.4586     69.1025     14.2766   1.2453280481e+01   6.5663945941e+01    0.5474942    0.3516569  72.96  0.001983892    1.817    0.450
        14 -11.2056    212.6414     15.6714   3.5136157100e+02   3.1442852197e+01    0.2632266    0.1347137 -57.64 0.0007607279    1.659    0.397
        15 -10.4679     37.9266     12.4626   2.5427091967e+01   7.2436375362e+01    0.2280702    0.1648958  16.28 0.0009289442    1.467    0.318
        16 -10.5193    108.9375     11.2343   1.0535801427e+00   5.6246271539e+01    0.2196543    0.1971491  33.97  0.000589853    1.238    0.192
        17 -10.2544     88.3696     12.4518   5.9210148197e+00   6.1263133524e+01    0.1995157    0.1405333  38.49 0.0006836802    1.488    0.328
        18 -10.1337     13.6987     12.0720   4.2638797862e+01   7.6205458566e+01    0.1633972    0.1358901 -23.38 0.0002177131    1.092    0.084
        19 -10.2113    144.0306      9.7366   3.5550397801e+02   4.7584864813e+01    0.1785477    0.1485149  87.20 0.0002418367    1.088    0.081
        20  -9.5497    130.0000     10.0245   3.5732460906e+02   5.1049865254e+01    0.2077847   0.07598031 -24.36 0.0008027248    2.944    0.660
        21 -12.1442    116.4158      7.5125   3.5833114196e+02   5.4712545485e+01    0.4088026    0.3626754 -29.13   0.00141852    1.248    0.199
        22  -9.9684     78.2114      9.6524   7.2184245761e+00   6.4027900462e+01    0.2616503    0.1441199  58.68 0.0008282037    1.604    0.377
        23 -11.3082     75.8492      6.5027   6.2529783255e+00   6.4911289350e+01    0.4228887    0.2375925   0.05  0.001884473    2.542    0.607
        24 -10.1661     54.3922      9.8604   1.5558891016e+01   6.9472536908e+01    0.1825643    0.1014409 -51.29  0.000799683    2.573    0.611
        25 -10.3466     25.8975      9.8942   3.1515784989e+01   7.4883804004e+01    0.1926169    0.1552433   4.64  0.000635986    1.169    0.144
        26 -11.0420    194.1786      7.8306   3.5064950076e+02   3.6109820925e+01    0.2261021    0.2055545 -55.38 0.0009203628    1.188    0.158
        27 -12.1883    173.2975      6.5652   3.5180117190e+02   4.0896077605e+01    0.3273891    0.2445658 -42.57  0.000569594    1.248    0.198
        28 -11.9910     64.7905      7.3618   1.0129786201e+01   6.7429445006e+01    0.5118879    0.2832089  78.91  0.002195046    2.576    0.612
        29 -10.3986    210.2192      6.2923   3.4931552152e+02   3.2899935438e+01    0.1947289    0.1288199  87.66  0.001237716    1.479    0.324
        30 -10.1442      2.9982      6.4607   4.9242590191e+01   7.8341422449e+01    0.1823063    0.1102638  14.99   0.00103026    1.599    0.374
        31 -10.8300    189.2321      5.0163   3.5025554040e+02   3.7462455805e+01    0.2202144    0.1595148  75.42 0.0008507769    1.411    0.291
        32  -9.4296    142.2731      4.2869   3.5390309833e+02   4.8529031821e+01    0.1223487   0.09433484  45.47 0.0002127121    1.508    0.337
        33 -10.3632     70.7089      3.2717   5.9797040997e+00   6.6445252229e+01    0.2675968    0.1481477  13.07   0.00116677    2.636    0.621
        34  -9.9523     45.3137      7.3308   1.8117541966e+01   7.1683903605e+01     0.137638   0.09151844  21.38 0.0007044766    1.677    0.404
        35 -10.7102     65.0214      3.5404   7.8692782824e+00   6.7758463484e+01    0.2028743    0.1190107  61.75 0.0008352749    1.554    0.356
        36  -9.9279     46.0128      2.5188   1.4585401103e+01   7.2090528085e+01    0.1818443    0.1171221  54.06 0.0003418906    1.443    0.307
        37  -9.9670    116.9632      1.4037   3.5588137379e+02   5.5109507605e+01    0.1943973     0.115671  74.74            0    1.499    0.333
        38 -11.3748     88.1919      1.2961   6.6895277402e-01   6.2355629146e+01    0.2130447    0.1071617  67.65 0.0002673473    1.750    0.429
        39 -11.1810    222.1719     84.3884   6.2704055629e+00   2.0753216214e+01    0.2315471    0.1439503 -38.05            0    1.308    0.236
        40 -10.5874    177.8978     84.2756   1.2424795580e+01   2.9347161304e+01    0.3059896    0.2017484   9.19  0.001260296    2.944    0.660
        41 -11.0808    162.0367     83.7006   1.5059546710e+01   3.2836880765e+01    0.3491698    0.2536769  64.60  0.001590508    1.517    0.341
        42 -10.4736    147.2713     84.1862   1.8133228613e+01   3.6005770761e+01     0.300843    0.2099895  69.50  0.001406235    1.682    0.405
        43 -10.7155     35.8512     82.2660   5.5298527105e+01   5.7781474129e+01    0.3509237    0.1594863 -47.96   0.00120613    2.106    0.525
        44 -12.0693     39.4114     77.1732   5.2324653473e+01   5.8674436273e+01    0.3101376     0.290457 -85.29 0.0003689483    1.122    0.109
        45 -11.7762    169.2311     80.5547   1.2920291776e+01   3.1820839547e+01    0.3528261    0.3455759 -20.30  0.001311126    1.128    0.113
        46  -9.9612     19.3615     82.2615   6.3220941462e+01   5.9368408835e+01    0.1484348   0.09653826 -33.33 0.0005804696    1.633    0.388
        47 -11.8567    197.1139     80.4871   8.5706518935e+00   2.6043988415e+01     0.241659    0.1877187 -42.05 0.0001165663    1.110    0.099
        48  -9.9596      1.0000     83.9444   7.2383578040e+01   6.0017695807e+01    0.2211121   0.07010741 -77.58 0.0003775853    2.803    0.643
        49 -10.6651    114.5976     80.6327   2.5010598475e+01   4.4032294989e+01    0.3899493    0.2300747  44.78   0.00164905    1.739    0.425
        50 -11.8507    147.2182     79.1359   1.6711623292e+01   3.6947338304e+01    0.2848723    0.2265284 -42.26 0.0003148474    1.201    0.168
        51 -11.0662     98.4307     77.6293   2.8854115491e+01   4.8202759018e+01    0.5417904    0.3488598 -63.08   0.00185765    1.921    0.480
        52 -11.1609    107.2906     65.3948   2.2120303745e+01   4.8707200894e+01    0.3923825    0.2235272  33.46  0.001521321    2.343    0.573
        53 -11.2899     96.5511     70.8035   2.7205034111e+01   5.0040920475e+01    0.4928738    0.3007285 -36.68  0.002105312    1.754    0.430
        54 -10.0731    203.5368     79.5011   7.4673125676e+00   2.4938031920e+01     0.132621    0.1121801 -45.35 4.481893e-05    1.003    0.003
        55 -10.8822    101.5191     67.9480   2.4689142905e+01   4.9519593206e+01    0.3875016    0.2604549   6.80  0.001126286    2.759    0.638
        56 -10.2848     48.0038     78.2224   4.8597784068e+01   5.7273585175e+01    0.1934531     0.122166  29.03 0.0003950783    1.639    0.390
        57 -10.3166    127.8798     76.1357   2.0172699435e+01   4.1916891852e+01    0.2192186    0.1944692 -75.91 0.0002917441    1.171    0.146
        58 -11.0157    226.9056    242.1230   3.4573756589e+01  -2.5141331157e+00    0.1509401     0.118469  -4.36 0.0006649904    1.251    0.201
        59 -10.6592    212.4874    241.8333   3.6892425920e+01  -1.0945893219e+00    0.1829625    0.1182392  30.55  0.001276749    1.712    0.416
        60 -12.0913    220.5354     38.0060   3.5595163402e+02   2.7326242411e+01    0.4116442    0.2271491 -68.00  0.001516955    1.895    0.472
        61 -11.2102     15.5201    242.5044   7.7598519475e+01   2.0130995350e+01    0.1153696   0.08846963  47.19 0.0001180469    1.011    0.011
        62 -10.5339    238.6580    230.3396   3.1035908340e+01  -2.2299327766e+00   0.08664005   0.07943741  -8.46 0.0007049335    1.772    0.436
        63 -11.2621    246.2446    211.7576   2.7075161956e+01  -7.2185620913e-01    0.1769322    0.1603499 -41.24  0.001401329    1.969    0.492
        64 -10.5206    197.8914    204.5069   3.3809298248e+01   5.5694181131e+00    0.1802333    0.1619068 -17.07   0.00129326    1.312    0.238
        65 -12.0191    229.0395    118.9648   1.2786311957e+01   1.4439861406e+01     0.247361    0.1957226  33.86 0.0004974677    1.532    0.347
        66 -14.1518    230.5363     46.6847   3.5708528146e+02   2.4373496941e+01    0.7409866    0.6003115 -73.56  0.002790581    1.235    0.190
        67 -10.6022    204.6171    117.9277   1.6090475849e+01   1.8590579786e+01    0.3242538    0.1684615 -50.72  0.001025298    2.090    0.522
        68 -11.1807     73.2798     74.9818   3.6859230512e+01   5.3880325727e+01    0.2831469    0.2480758  63.42 0.0006647571    1.242    0.195
        69 -11.9498     54.9364     72.4706   4.3737896282e+01   5.7652144737e+01    0.4964923    0.2259119 -59.53  0.001375359    2.371    0.578
        70 -11.0934    177.9457     71.7728   9.1702907967e+00   3.1386365936e+01    0.3412972    0.2340919 -70.34   0.00108377    1.704    0.413
        71 -11.9154    217.6834     70.9006   3.7534333155e+00   2.3516306151e+01    0.3082857    0.1643571  49.71 0.0008383236    2.346    0.574
        72 -11.0723    209.3782     71.1651   4.7688868151e+00   2.5051553113e+01    0.2687644    0.1491276 -52.96 0.0004414485    1.726    0.421
        73 -11.5890    208.9249     67.0050   3.8419630964e+00   2.5740189347e+01    0.2372012    0.1655649 -43.57   0.00030916    1.190    0.159
        74 -10.0370     74.2652     70.9177   3.5124487393e+01   5.4613117635e+01     0.208904    0.1875686 -41.04 0.0005853805    1.111    0.100
        75 -11.4298    202.5065     69.2380   5.1423795382e+00   2.6678965072e+01    0.3063392    0.1804827  70.32  0.001162014    2.018    0.505
        76  -9.8682    190.0222     69.0203   6.7102168200e+00   2.9254267228e+01    0.1627748    0.1360054 -46.62 0.0003135755    1.046    0.044
        77 -10.7168    123.9294     68.3018   1.8682295394e+01   4.4301197814e+01     0.351854    0.1960068 -54.78  0.001415268    2.056    0.514
        78 -11.1552     25.6727     69.6587   5.7271124988e+01   6.2108594293e+01    0.1460737    0.1404131 -76.90 0.0007304878    1.089    0.081
        79 -11.4226    213.9117     66.8682   3.2450483126e+00   2.4798810434e+01    0.1792632    0.1600244 -28.04 0.0003263157    1.218    0.179
        80 -10.3053    161.5447     65.6787   1.0161524810e+01   3.6001659695e+01    0.3694788    0.1776136 -28.27  0.001454307    2.433    0.589
        81  -9.9899    143.5186     67.3478   1.4007853808e+01   3.9885380100e+01    0.2588566    0.1372916  57.96  0.001088721    1.940    0.485
        82 -11.8598     93.1618     65.1631   2.6355948290e+01   5.1928875060e+01    0.4884456    0.3028089 -17.32  0.001827333    2.744    0.636
        83 -10.6440    235.3424     66.3010   9.2680683135e-01   2.0974158693e+01    0.1095644   0.09013023   1.99 0.0005741094    1.675    0.403
        84  -9.7999    193.4606     66.4739   5.6107394162e+00   2.8923434279e+01    0.1321372    0.1172944 -45.36 0.0008078231    1.069    0.065
        85 -10.8064    154.7037     65.1513   1.1211769199e+01   3.7656167602e+01    0.4209155    0.2028079 -43.19  0.001659497    1.930    0.482
        86 -13.0909    117.3583     61.6306   1.8128398677e+01   4.7057818803e+01    0.5731085    0.4714353  -1.09 0.0009623819    1.565    0.361
        87 -10.9863    167.7698     64.5086   8.8047244814e+00   3.4780010392e+01    0.4249877    0.2430884  50.40  0.001975547    1.933    0.483
        88  -9.8496     85.5880     64.5251   2.8696342948e+01   5.3692058232e+01    0.1480199    0.1452173 -75.53 3.795361e-05    1.035    0.034
        89 -11.0744    247.2178    117.8104   1.0268118464e+01   1.1908972487e+01     0.230296    0.1754225  63.39  0.001559806    1.877    0.467
        90 -10.8474     48.6237     17.8166   2.2950010559e+01   6.9616564669e+01    0.3711563    0.2715414  87.37 0.0008727321    2.395    0.582
        91 -11.6102     68.7690     38.6091   2.4609191791e+01   6.2177696827e+01    0.6089408    0.4474294 -61.63    0.0020489    1.727    0.421
        92 -12.2957     61.7629     36.4415   2.6547605391e+01   6.4001484203e+01     0.505847    0.3671294   8.42  0.002128187    1.784    0.440
        93 -13.0492     59.8568     29.8473   2.4189751303e+01   6.5500075587e+01    0.6727014    0.4738249  47.00  0.001875344    1.366    0.268
        94 -12.1552     58.1732     61.2196   3.8464556758e+01   5.9723162066e+01      1.04409    0.5964504 -75.09  0.003514767    3.701    0.730
        95 -13.2287     51.2937     44.5363   3.5114258313e+01   6.4458118964e+01    0.5922502    0.3751439  13.85   0.00111999    2.192    0.544
        96 -12.9757     60.9243     43.3066   3.0037614703e+01   6.2918417368e+01    0.4069124    0.3555462  49.62 0.0004637323    1.184    0.155
        97 -11.1554     50.8653     56.6948   4.0222022811e+01   6.1956267484e+01    0.2879565    0.2171932  31.87 0.0004077118    1.336    0.251
        98 -11.7414     48.3481     52.7001   3.9942536586e+01   6.3241819482e+01    0.3826432    0.3285393 -49.60 0.0009961242    1.177    0.150
        99 -12.4254     29.1485     63.3989   5.3725054241e+01   6.3326959734e+01    0.3675018    0.2289904  54.99  0.001104213    2.075    0.518
       100 -11.4393     16.6672     63.0867   6.0567068915e+01   6.4566593692e+01    0.2474212    0.2278749  48.81 0.0007409579    1.208    0.172
       101 -10.4333    199.9699     63.0254   3.9401881041e+00   2.8093663743e+01      0.15881    0.1349486 -51.86 0.0003487123    1.009    0.009
       102 -12.5865      6.1448     70.8080   6.7937560962e+01   6.3253654013e+01    0.7384848    0.4665336 -39.23  0.003778982    1.532    0.347
       103 -12.1041    209.6118     58.5225   1.7566341771e+00   2.6798405525e+01    0.3072559    0.2069075 -69.07 0.0006518952    1.575    0.365
       104 -10.1705    180.3535     60.1520   5.7432004222e+00   3.2655367132e+01    0.3086634    0.1628572 -59.13 0.0008486245    2.168    0.539
       105 -11.1277    151.4711     59.7201   1.0193569515e+01   3.9288755298e+01    0.3198246    0.2525817  10.86 0.0006588432    1.775    0.437
       106 -13.6135     76.8151     58.6096   2.9728759923e+01   5.6732303023e+01    0.8508174    0.3987007  40.56  0.003289153    2.181    0.541
       107 -10.8207      1.4392     59.9225   6.8708941792e+01   6.6281257534e+01    0.3197517    0.1209846 -74.37 0.0008740926    2.415    0.586
       108 -11.9110      6.1429     56.1895   6.5165434868e+01   6.7000844954e+01    0.5946987    0.3659088  17.47  0.003073235    1.735    0.424
       109  -9.9715    184.0185     61.4939   5.5932580824e+00   3.1659781635e+01    0.2076081    0.1575637 -76.71 0.0007571335    1.397    0.284
       110 -10.6922    145.2274     59.4395   1.1266006467e+01   4.0805640384e+01    0.3379236    0.2271316  42.25  0.001328423    1.737    0.424
       111 -10.4035    102.0230     60.0322   2.1777544124e+01   5.0929891457e+01    0.2214636    0.2159262 -64.75  0.000322661    1.027    0.027
       112 -11.1417    162.1527     58.0062   7.8721449361e+00   3.7072007936e+01    0.2777229    0.2269478 -17.90  0.001507657    1.442    0.307
       113 -10.8747     39.4201     52.5984   4.4562768546e+01   6.4612336165e+01    0.3916804    0.2633866 -63.07  0.001246075    1.657    0.396
       114 -11.8335     38.6670     58.1981   4.6967256275e+01   6.3427285402e+01     0.446548     0.275824  45.00  0.001146723    1.819    0.450
       115 -12.7207     34.0150     56.7006   4.8970235655e+01   6.4381644432e+01    0.6178183    0.3292851  13.50  0.002304939    2.351    0.575
       116 -10.5394    173.6870     56.9921   5.8322667237e+00   3.4601682940e+01    0.2081237    0.1816035  57.01 0.0003820428    1.277    0.217
       117 -10.0372    196.2245    113.2362   1.6383521306e+01   2.0852646699e+01      0.29155    0.1218151 -39.04 0.0008700169    2.073    0.518
       118 -12.2994    221.8143     55.2443   3.5976452861e+02   2.4891456227e+01    0.3441263     0.231486 -63.34  0.002076079    1.447    0.309
       119 -11.1193    221.2794     50.5882   3.5875645027e+02   2.5601936657e+01    0.2607618    0.1405694 -43.77  0.001437028    1.467    0.318
       120 -10.6877    216.0849     55.8546   4.6124454621e-01   2.5900370068e+01    0.1890996    0.1380887 -56.18 0.0002699054    1.199    0.166
       121 -11.0282    196.8839     55.4424   2.4272899360e+00   2.9804473455e+01    0.2355734    0.1852951 -58.42 0.0003811714    1.134    0.118
       122  -9.9662    142.0312     55.8336   1.0760288534e+01   4.2145947037e+01    0.1977087    0.1686416  36.78  0.001057226    1.362    0.266
       123 -10.1813     98.0194     54.7501   2.1050061304e+01   5.2822521377e+01    0.3370207    0.2512755  -9.15  0.001557488    1.822    0.451
       124 -10.0311    101.8795     53.3861   1.9404415684e+01   5.2169093410e+01     0.274532    0.1727309  35.58 0.0003859331    1.894    0.472
       125 -10.3906     44.5486     57.5672   4.3687693739e+01   6.2741917075e+01    0.1972156    0.1374706  20.01 -9.379917e-06    1.550    0.355
       126 -10.0824    123.1537     53.7567   1.4051161708e+01   4.7028906795e+01    0.1926167    0.1711984  30.27 0.0005547261    1.282    0.220
       127 -10.3678    146.0918     52.4792   8.9569471072e+00   4.1698818190e+01    0.2036413    0.1811622 -50.03 0.0002981567    1.084    0.078
       128 -10.8254     75.7760     51.9793   2.7547444279e+01   5.8259121719e+01    0.3007958      0.19626 -50.17 0.0003837714    1.635    0.388
       129 -12.0523     82.0797     48.4819   2.3822237439e+01   5.7557207131e+01    0.4328098    0.4010745  -6.59  0.001661126    1.150    0.130
       130 -12.0522     77.0188     47.9950   2.5461442587e+01   5.8746124956e+01    0.5422727     0.517997 -50.81  0.002308613    1.089    0.082
       131 -12.4300     81.1980     40.9632   2.1000679854e+01   5.9065716088e+01    0.6205299    0.4764145  55.47  0.003206842    1.283    0.221
       132 -11.5044     75.3279     41.6950   2.3432146297e+01   6.0238648800e+01    0.2972833    0.2444464  81.64  0.001190934    1.494    0.330
       133  -9.8290    161.6886     51.3674   6.0260553809e+00   3.8177354861e+01    0.1536541   0.09527935 -62.90 0.0007037449    1.764    0.433
       134 -12.2816     15.5556     47.3025   5.6919140783e+01   6.8535655574e+01    0.6056997    0.3584387 -78.93  0.001957981    2.087    0.521
       135 -10.6986    182.0662     49.5510   2.6913709890e+00   3.3805610795e+01    0.1965759    0.1614303 -46.85 0.0003321111    1.093    0.085
       136 -10.2161    214.2957     48.6626   3.5896008184e+02   2.7198702975e+01     0.134156   0.07559704 -56.79 0.0004606617    1.652    0.395
       137 -10.2841    169.2785     46.7124   3.5869680431e+00   3.7085847167e+01    0.1960549    0.1693584 -41.19 0.0004520184    1.143    0.125
       138 -11.2344    172.1461     44.0951   2.4660630422e+00   3.6788850820e+01    0.3320684    0.2554473  76.78   0.00153148    1.319    0.242
       139 -11.2917    133.4854     46.5409   9.4165235478e+00   4.5653242993e+01     0.273114    0.2263764 -75.06 0.0005586583    1.223    0.182
       140 -11.6235    126.3086     45.1517   1.0400519046e+01   4.7620557284e+01    0.3945143    0.3451672  70.05   0.00198586    1.109    0.099
       141 -11.5149     25.6609     44.7767   4.9625441394e+01   6.8130978223e+01    0.4702818    0.4166415  39.75  0.002389105    1.259    0.206
       142 -12.0716      5.4472     34.7386   5.9937323074e+01   7.2208765958e+01     0.401265    0.2668996  22.84 0.0009836568    1.586    0.370
       143 -11.7818     11.8478     32.2384   5.4229202199e+01   7.2302510148e+01    0.4527248     0.230065  14.78   0.00199226    2.057    0.514
       144 -12.5339      9.0013     42.7128   5.9879446348e+01   7.0118803263e+01    0.8786173     0.223463 -44.85  0.003044875    3.381    0.704
       145 -11.3078      6.2392     39.4447   6.0833001603e+01   7.1067254622e+01     0.236585    0.2279235  57.33 0.0007409506    1.221    0.181
       146 -10.3359     98.2057     43.7227   1.6770121725e+01   5.4670398038e+01    0.3629105     0.177847 -51.05  0.001159073    2.452    0.592
       147 -10.0916     41.5692     44.8196   4.0311293973e+01   6.5996833667e+01     0.195198     0.135451 -62.51 0.0009494946    1.717    0.418
       148 -10.4814    189.6672     43.3176   1.5563657442e-01   3.2985436159e+01    0.2218195    0.2140815  21.85  0.001458391    1.313    0.238
       149 -10.9471    214.9875     44.5370   3.5793193634e+02   2.7593782406e+01    0.2269344    0.1502283 -38.74  0.000317867    1.277    0.217
       150 -10.3002    148.6866     41.6749   5.1408862351e+00   4.2655630514e+01    0.2384707    0.1746293 -32.97  0.001247088    1.396    0.283
       151 -10.2076    146.6157     38.8023   4.5656760996e+00   4.3553320312e+01    0.2382229    0.1758246 -62.71  0.001172199    1.343    0.255
       152 -10.3722    159.8810     40.8749   3.2055328913e+00   4.0084690045e+01     0.189814    0.1760322  75.37 0.0005085313    1.140    0.123
       153 -10.8160    133.0225     40.5838   7.5036952830e+00   4.6637932608e+01    0.2600059    0.2274057 -60.23 0.0008445169    1.103    0.094
       154 -10.2704     35.9325     41.1033   4.1918684343e+01   6.7615919839e+01    0.2207209    0.1554605 -15.80 0.0005370619    1.648    0.393
       155 -11.6230    200.3834     38.3649   3.5779928745e+02   3.1337882790e+01    0.2991642    0.1844814 -37.38  0.001257011    1.417    0.294
       156 -10.8818     41.1520     39.6565   3.8297099354e+01   6.7128577636e+01    0.2638043    0.2196062  -4.16 0.0006977513    1.238    0.192
       157 -10.2513    110.8372     39.3607   1.1769560678e+01   5.2289554981e+01    0.2214493    0.1208914  50.26  0.000953023    1.802    0.445
       158 -10.2957    186.0104     37.9800   3.5915602346e+02   3.4477268031e+01    0.1997284    0.1703285 -58.30 0.0004901304    1.014    0.014
       159 -10.8200    189.4131     34.3066   3.5783869777e+02   3.4191785757e+01    0.2127006    0.2074916  65.02 0.0004639555    1.266    0.210
       160 -10.7781    174.7791     37.0835   1.8024289021e-01   3.7115014082e+01    0.4176639    0.1920068 -81.20  0.001516264    3.561    0.719
       161 -11.0379     26.2534     36.4096   4.5867947425e+01   6.9898389850e+01    0.3090267     0.210391 -38.76  0.001214791    1.395    0.283
       162 -10.4502    180.5157     37.5181   3.5963744184e+02   3.5759268860e+01     0.132239     0.115256 -61.51 0.0001806185    1.022    0.021
       163 -11.3605     51.5953     35.5349   3.0858055348e+01   6.6131778698e+01      0.34227    0.2805827  54.55  0.001883999    1.365    0.267
       164 -10.5545    161.1564     35.4273   1.4104930176e+00   4.0503060564e+01    0.2153022    0.1793573 -25.23 0.0003449108    1.339    0.253
       165 -11.2671     91.5786     33.7303   1.4593098655e+01   5.7793287419e+01    0.4668797    0.3219397  10.54  0.002115493    2.130    0.531
       166 -10.4043     87.5081     34.5009   1.6146135526e+01   5.8642764379e+01    0.2449873    0.2336877 -41.09 0.0006896231    1.098    0.089
       167 -10.8088    131.6793     33.6054   5.3617100456e+00   4.7927387069e+01    0.2784694    0.1953651 -61.16 0.0002684888    1.482    0.325
       168 -10.7450     71.5521     32.7932   2.0841411757e+01   6.2541748501e+01    0.3448576    0.2006933  69.87  0.001335914    2.557    0.609
       169 -10.0906    111.0383     32.3048   9.0209716042e+00   5.3241490513e+01    0.2031226    0.1770039  73.83  0.000670511    1.092    0.084
       170  -9.9675     80.4264     30.4905   1.6627661913e+01   6.0891422962e+01    0.1387766    0.1337409  67.49 0.0001383458    1.056    0.053
       171 -10.3479     38.4715     29.0576   3.4717981734e+01   6.9605630774e+01    0.3643942    0.1613488 -39.51  0.001532775    2.315    0.568
       172 -10.9188     37.1956     23.3368   3.2398854145e+01   7.0836482276e+01    0.2953612    0.1908619 -45.51  0.001375956    1.656    0.396
       173 -10.9816     41.6641     20.6927   2.8299486230e+01   7.0498010238e+01    0.4942391    0.3380331  67.90  0.002347683    2.397    0.583
       174 -12.0412      3.6618     27.5451   5.8836949605e+01   7.3944645153e+01    0.4227788    0.2371196 -46.61  0.002240593    1.526    0.345
       175 -11.0501    135.5284     27.3823   2.5731736104e+00   4.7761530160e+01    0.4678507    0.2445436 -66.79  0.001614899    2.468    0.595
       176 -10.0958    139.4643     26.9874   1.8274783431e+00   4.6832150076e+01    0.1964529    0.1755041 -59.32  0.001160795    1.078    0.072
       177  -9.8575    102.9198     28.7539   9.4997102847e+00   5.5728957873e+01    0.3968688    0.1669964 -49.71  0.001353956    2.959    0.662
       178 -10.2925     85.9233     29.5336   1.4448232992e+01   5.9743438179e+01    0.2819844    0.1224981  51.19 0.0007483856    2.118    0.528
       179  -9.9839     90.2337     27.6019   1.2324683157e+01   5.8981806813e+01    0.2068964    0.1203829  49.76 0.0009464585    1.623    0.384
       180 -10.9965    198.3284    107.9447   1.4848357599e+01   2.1361031613e+01    0.3794947    0.2876895 -18.60  0.002136355    1.422    0.297
       181 -11.4637     11.3230     25.6216   5.1852096508e+01   7.3777983477e+01    0.4173659    0.2834935 -35.64   0.00157277    1.339    0.253
       182  -9.7609    198.4578     26.4237   3.5499686821e+02   3.3185994259e+01    0.1260989    0.1023528 -59.75 0.0001864855    1.013    0.013
       183 -10.2968    175.8717     25.2379   3.5676663908e+02   3.8315097450e+01    0.3155272    0.1383439 -64.68   0.00128204    2.735    0.634
       184 -10.8002    123.3457     23.7199   3.3181448699e+00   5.1251282036e+01    0.2631023    0.1922333 -65.40 0.0002632297    1.422    0.297
       185 -11.2478    124.3037     20.7107   2.0487726830e+00   5.1359496990e+01    0.2338551    0.2234732  79.05  0.000178226    1.084    0.077
       186 -11.4075     73.7412     24.0842   1.5862300551e+01   6.3341271247e+01    0.2754694    0.1883885  48.21  0.000741376    1.360    0.265
       187 -11.6177    210.6345     21.5348   3.5287245954e+02   3.1210735647e+01    0.2851717    0.2618881  -1.61  0.001142187    1.475    0.322
       188 -12.6584     81.5853     21.6222   1.2121949951e+01   6.1838381417e+01    0.4897279    0.2763664  63.01 0.0009620319    1.741    0.426
       189 -10.1474     24.9416    111.5028   6.5485988979e+01   5.0974259701e+01    0.1993924     0.144153  20.02 0.0003891565    1.494    0.330
       190 -10.2675    151.6504     22.0510   3.5854869547e+02   4.4415654145e+01    0.1864799     0.156156 -49.40 0.0005144688    1.143    0.125
       191 -10.4715    113.5272     21.8155   4.4169532985e+00   5.3944889625e+01    0.2654749    0.1862049  68.02 0.0007177201    1.327    0.246
       192 -10.0546     97.4454     22.0737   8.0222169071e+00   5.7930850048e+01    0.1998206    0.1386632 -28.52 0.0006497824    1.553    0.356
       193 -12.1980     68.2550     26.8170   1.9219283954e+01   6.4182042720e+01    0.3125749    0.2737123 -68.81  0.001406897    1.357    0.263
       194 -10.2847     77.5269     16.9946   1.1113635275e+01   6.3373028208e+01    0.2082043    0.1612706 -53.67 0.0005424609    1.477    0.323
       195 -10.1045    201.5289     19.4381   3.5302406029e+02   3.3324932773e+01    0.1905438    0.1463881 -37.79 0.0006199855    1.243    0.196
       196 -10.0946    200.5678     15.7716   3.5219197935e+02   3.3924714418e+01    0.1753969    0.1234626 -48.90 0.0003378336    1.168    0.144
       197 -10.4147     85.9393    107.1738   4.1474258806e+01   4.3804420409e+01    0.2343577    0.2060858  68.54 0.0004401542    1.222    0.182
       198 -11.8605     15.3831    106.7132   6.8744329180e+01   5.3038437207e+01     0.246919    0.2281478  87.06 0.0003097678    1.043    0.042
       199  -9.8085    154.5052     15.4685   3.5616244595e+02   4.4443223359e+01    0.1319321    0.1166523 -77.65 0.0001516971    1.029    0.028
       200 -10.3556    160.0132     14.0061   3.5513593974e+02   4.3271061032e+01     0.192556    0.1646837 -78.03  0.001198074    1.031    0.030
       201 -10.5847    150.1820     13.1599   3.5591791383e+02   4.5733842692e+01    0.1804039    0.1718034 -89.50 0.0005045008    1.142    0.124
       202 -10.5403    208.8338    104.7874   1.2556868870e+01   1.9991126844e+01    0.3429451    0.1638497 -56.20  0.001379427    3.012    0.668
       203  -9.5148    185.3145    105.7193   1.6461529786e+01   2.4174780336e+01    0.1339739    0.1033371 -68.82 0.0003869056    1.573    0.364
       204 -11.7033    249.3672     97.2494   5.9485115703e+00   1.4472944382e+01    0.1940934    0.1448893 -26.64 0.0003630444    1.221    0.181
       205 -11.6014    199.5911     96.2468   1.1960399378e+01   2.3053247431e+01    0.2427657    0.2078311 -55.41 0.0003115004    1.152    0.132
       206 -10.3515    102.0361     15.6969   4.2550077156e+00   5.7520527031e+01    0.2230228    0.1723857   0.09 0.0008951402    1.595    0.373
       207 -11.2833    102.2365     96.4801   3.3330832037e+01   4.3225353960e+01    0.2785517    0.2624852 -49.28 0.0004322777    1.049    0.047
       208 -10.9716    160.1193     95.9666   1.8681525736e+01   3.1019753589e+01    0.2462663    0.2064941  72.42 0.0006423968    1.345    0.256
       209 -10.1683    140.6669     96.3185   2.2954156152e+01   3.5109450241e+01    0.1545284    0.1176532 -80.35 0.0007048409    1.694    0.410
       210 -10.1557    183.0028     94.7459   1.4204711001e+01   2.6524355167e+01    0.1805191    0.1730296 -52.34 0.0003024864    1.078    0.073
       211 -10.7031    128.8694     94.8310   2.5399522150e+01   3.7961764976e+01    0.2106092     0.179112 -76.55 0.0004683034    1.312    0.238
       212 -10.6092    169.9632     97.8144   1.7262352003e+01   2.8630116045e+01    0.2638383    0.1988084 -38.47 0.0007786329    1.226    0.184
       213 -10.4093    250.3176     90.3256   4.4610230862e+00   1.5277944380e+01    0.1112233   0.08248466  -9.60  0.000704505    1.674    0.403
       214 -10.3339     95.6561     90.3912   3.3666561209e+01   4.5956069414e+01    0.4142896    0.2281667 -54.20  0.001646814    1.893    0.472
       215 -13.0896    237.9721     80.9300   3.7824353552e+00   1.8535564215e+01     0.491765    0.3286303  78.46  0.001088545    2.019    0.505
       216 -13.1404    237.4396     86.8036   5.0747646004e+00   1.7804053723e+01    0.4259596    0.3979393   1.37  0.002387737    1.319    0.242
       217 -11.7524    231.2852     84.6697   5.2918404280e+00   1.9132886256e+01    0.2855557    0.1932772 -51.93  0.000868602    1.356    0.262
       218 -10.4498    127.6316     89.8901   2.4314824124e+01   3.9249696786e+01    0.2564877    0.2050704  39.43 0.0005853238    1.335    0.251
       219  -9.4991     88.2718     89.6426   3.5910346991e+01   4.7600446562e+01    0.1571512    0.1223754 -89.08 0.0006999584    1.645    0.392
       220 -10.7163    114.7956     86.6684   2.6785117512e+01   4.2733371405e+01    0.2560342    0.1840432  44.44 0.0006501878    1.423    0.297
       221 -11.7797     66.2290     82.2334   4.1925643232e+01   5.3431865866e+01     0.492772    0.3940777  74.98  0.001503379    1.530    0.346
       222 -13.0782    248.6904     83.1959   3.1803452656e+00   1.6496124949e+01    0.3130223    0.2482195 -45.45 0.0006190825    1.084    0.077
       223  -9.5007    106.3192     86.6773   2.9237309157e+01   4.4563185752e+01    0.1584921     0.122716 -88.68 0.0007044533    1.671    0.402
       224 -11.1297     52.7811     86.4273   4.8725322373e+01   5.4512781561e+01    0.3090462    0.1859237  -5.54  0.001093179    2.818    0.645
       225 -10.3220     48.0709     85.7571   5.0599586218e+01   5.5346995895e+01    0.2155512    0.1960152  61.56 0.0004453366    1.173    0.147
