#   1 NUMBER                 Running object number                                     
#   2 MAG_AUTO               Kron-like elliptical aperture magnitude                    [mag]
#   3 X_IMAGE                Object position along x                                    [pixel]
#   4 Y_IMAGE                Object position along y                                    [pixel]
#   5 X_WORLD                Barycenter position along world x axis                     [deg]
#   6 Y_WORLD                Barycenter position along world y axis                     [deg]
#   7 A_WORLD                Profile RMS along major axis (world units)                 [deg]
#   8 B_WORLD                Profile RMS along minor axis (world units)                 [deg]
#   9 THETA_WORLD            Position angle (CCW/world-x)                               [deg]
#  10 FWHM_WORLD             FWHM assuming a gaussian core                              [deg]
#  11 ELONGATION             A_IMAGE/B_IMAGE                                           
#  12 ELLIPTICITY            1 - B_IMAGE/A_IMAGE                                       
         1 -13.1320    180.3066     39.4656   6.4722239025e+01   3.5323703671e+01     1.083094    0.9112137  27.85  0.004269524    1.613    0.380
         2 -12.7122    200.8141      7.0223   5.5080810170e+01   3.4460459914e+01      0.79348    0.6328667 -88.54  0.004053547    1.035    0.034
         3 -19.4896     38.7012    147.5614   1.2772953410e+02   4.0792547039e+01     21.65611     3.976188 -65.75   0.05596006    5.525    0.819
         4 -11.4654    248.4836    247.5072   9.6975460266e+01  -1.4165694888e+01    0.5609455    0.3777834  -7.51  0.003574845    1.348    0.258
         5  -9.1495    154.3117    214.3250   1.1002315625e+02   6.2126270056e+00    0.1454672     0.112009  -7.04 0.0006449954    1.659    0.397
         6 -10.2447     19.1839    213.9735   1.4019201612e+02   2.6756411645e+01    0.1558885    0.1260584  87.08 0.0002281886    1.057    0.054
         7 -10.5500     15.7893    206.4365   1.4025593343e+02   2.8836869804e+01    0.1718021    0.1516671 -76.20  0.001181264    1.254    0.202
         8  99.0000     11.4884    205.4659   1.4106883917e+02   2.9486609383e+01    0.3187594    0.1745807  53.24  0.001784616    1.736    0.424
         9  -9.2350     86.3948    201.7657   1.2375732000e+02   2.0819687161e+01    0.4552139    0.2024946  53.73  0.001721038    2.589    0.614
        10  -8.6776     66.9730    226.0055   1.3131152549e+02   1.8069301905e+01    0.3048466    0.1467451  37.44  0.001408657    2.041    0.510
        11  -9.9192    152.9879    198.4302   1.0743981127e+02   9.8763395180e+00    0.3471494    0.2124608 -49.65  0.001551247    1.662    0.398
        12 -10.9877     71.1886    196.6412   1.2665405772e+02   2.4372339120e+01    0.5040534    0.2931526 -43.72   0.00137741    2.131    0.531
        13  -9.1384    193.7912    196.3848   9.8120155541e+01   2.8022056648e+00    0.2707206    0.1832887 -71.38  0.001164094    2.427    0.588
        14  -8.9664    191.5023    192.0063   9.7733385887e+01   4.0979171355e+00    0.3105778    0.1839201 -73.51 0.0009852621    4.432    0.774
        15  -9.6580     81.9766    194.8127   1.2378531119e+02   2.3195395031e+01    0.3498278    0.3114042  51.80  0.001627361    1.141    0.123
        16  -9.6647    149.9350    188.0490   1.0615973929e+02   1.2776851339e+01    0.2447965    0.1891874 -10.92  0.001134961    1.696    0.410
        17 -12.2761     69.3723    218.6391   1.2992766980e+02   1.9406488754e+01    0.3225925    0.2313589  71.50 0.0008630583    1.343    0.255
        18 -11.3573     73.9942    213.5029   1.2825440231e+02   1.9926274513e+01     0.259642    0.2276271 -87.09  0.001547018    1.069    0.064
        19 -11.0353     99.4884    180.3102   1.1705120216e+02   2.3914604430e+01    0.4190847     0.254475 -57.72  0.001386387    1.596    0.373
        20  -9.0621     94.0438    181.6330   1.1866292760e+02   2.4505501013e+01     0.295281    0.1229124  44.74  0.001083225    2.425    0.588
        21  -9.3300    149.1030    179.8733   1.0473293912e+02   1.4808036298e+01    0.2435227    0.2074111  83.48  0.001077409    1.360    0.265
        22  -9.0986    204.6376    176.6748   9.1948864592e+01   4.8088166801e+00    0.2925604    0.2215797 -52.15  0.001498597    1.351    0.260
        23 -10.3274     76.2282    208.5869   1.2710059004e+02   2.0752461577e+01    0.4255764    0.3602691  25.26   0.00228008    1.429    0.300
        24 -11.3445    104.8379    172.5256   1.1425459882e+02   2.4913578917e+01    0.4769851    0.3265265  32.60  0.002183653    1.590    0.371
        25  -8.7649    164.6257    171.0381   9.9300345452e+01   1.3752510924e+01     0.218562    0.1844544 -49.32 0.0004928544    1.164    0.141
        26  -8.9643    192.6500    164.8685   9.1897338426e+01   9.5281368192e+00     0.239529    0.2085524  19.48 0.0007093115    1.263    0.208
        27 -10.2016     97.0442    158.5559   1.1359040932e+02   2.9761057503e+01    0.3261592    0.2663324 -38.15 0.0004279433    1.320    0.242
        28 -11.5551     61.3571    216.3685   1.3143292489e+02   2.1063568576e+01    0.4078647     0.323655  67.43  0.001054743    1.129    0.114
        29 -11.7835     86.3777    152.6664   1.1532224584e+02   3.3030172994e+01     0.435022     0.349415 -34.02 0.0008422659    1.388    0.280
        30  -8.7657    187.3194    153.3310   9.0496247937e+01   1.3050004161e+01    0.1544191     0.120137  -7.17 0.0004403504    1.691    0.409
        31  -9.7804    134.2470    147.3902   1.0140622864e+02   2.5430180436e+01     0.895006    0.1972663 -53.63  0.001900073    6.358    0.843
        32  -8.1590    161.6713    149.3375   9.5220551145e+01   1.9266527174e+01    0.1627539    0.1243032 -88.40 0.0007051904    1.731    0.422
        33  -8.5460    174.3812    148.7130   9.2226596381e+01   1.6732769433e+01    0.1592922    0.1219098  86.19 0.0007014241    1.736    0.424
        34 -11.0167    101.7422    151.9154   1.1095917874e+02   3.0588478855e+01    0.6262347    0.4353017 -30.18  0.001976124    1.801    0.445
        35 -10.0507    110.8162    138.2321   1.0546706106e+02   3.2261114208e+01    0.4856746    0.3046246 -29.87  0.001942769    2.099    0.524
        36 -10.6289    100.2911    137.5775   1.0822753460e+02   3.4371923654e+01    0.3193351    0.2836261 -11.57 0.0005753015    1.283    0.221
        37 -10.0211    105.9275    130.8816   1.0509719103e+02   3.4943810591e+01    0.3702706    0.3358064 -67.59  0.001117941    1.116    0.104
        38  -8.9845    117.2099    129.0848   1.0156333695e+02   3.3187304293e+01     0.239119     0.208643 -21.67 0.0008171789    1.270    0.213
        39  -8.9731    160.2164    126.8228   9.0271015480e+01   2.4588959442e+01    0.2662115    0.1716581 -86.21 0.0009464233    2.814    0.645
        40  -9.3245    105.4737    124.8443   1.0377089578e+02   3.6451531329e+01    0.2722294    0.2255812  -9.46  0.000637081    1.450    0.310
        41  -8.4568    111.7979    118.3878   1.0039461416e+02   3.6718793256e+01    0.2023102    0.1467355  29.15  0.000121472    1.539    0.350
        42  -9.4413    168.2718    113.2164   8.5168858422e+01   2.5674845594e+01    0.3532553    0.2317871 -63.69  0.001050367    1.805    0.446
        43  -8.8598    206.0469    110.1611   7.7183390713e+01   1.7930951645e+01    0.2135136    0.2028882  11.30 0.0006442465    1.288    0.223
        44 -10.2035     66.0533    210.1812   1.2963837933e+02   2.1856642173e+01    0.4289641     0.341175  62.17  0.001640012    1.163    0.140
        45  -9.5176     60.0769    207.4770   1.3066534171e+02   2.3330861894e+01    0.4069037    0.2981652 -43.49  0.001884414    1.717    0.418
        46  -9.8889     81.4152     76.0749   9.7716597538e+01   5.1112798819e+01    0.2599863    0.1929469  42.44 0.0006016289    1.405    0.288
        47 -11.0555    173.4692     72.3866   7.3928447524e+01   3.2076393830e+01     0.647176    0.3653608 -84.16  0.002330953    3.310    0.698
        48  -9.1541    167.7972    231.6479   1.1005415668e+02   4.0438922850e-01    0.2428298     0.192327 -11.18 0.0009484758    1.440    0.306
        49 -12.2397    166.2593     54.4096   7.0639468241e+01   3.6539091952e+01    0.5675853     0.512699  89.16  0.001179595    1.034    0.033
        50 -12.0694     13.2797    245.2959   1.4363547087e+02   2.0561047320e+01    0.3208026    0.1627678 -65.70  0.001852307    1.949    0.487
        51 -11.7118    184.6622     32.5170   6.2487836437e+01   3.5200989581e+01    0.5038621    0.4127408  41.72  0.001577423    1.530    0.346
