#   1 NUMBER                 Running object number                                     
#   2 MAG_AUTO               Kron-like elliptical aperture magnitude                    [mag]
#   3 X_IMAGE                Object position along x                                    [pixel]
#   4 Y_IMAGE                Object position along y                                    [pixel]
#   5 X_WORLD                Barycenter position along world x axis                     [deg]
#   6 Y_WORLD                Barycenter position along world y axis                     [deg]
#   7 A_WORLD                Profile RMS along major axis (world units)                 [deg]
#   8 B_WORLD                Profile RMS along minor axis (world units)                 [deg]
#   9 THETA_WORLD            Position angle (CCW/world-x)                               [deg]
#  10 FWHM_WORLD             FWHM assuming a gaussian core                              [deg]
#  11 ELONGATION             A_IMAGE/B_IMAGE                                           
#  12 ELLIPTICITY            1 - B_IMAGE/A_IMAGE                                       
         1 -10.0563    211.3382      7.3355   5.5312370145e+01   3.2321698167e+01    0.1143106    0.0834048  50.31 0.0007051556    1.751    0.429
         2 -10.4935    176.3041    245.7989   1.1251872420e+02  -3.2450748950e+00     0.434738    0.2789813 -36.60  0.001965771    1.742    0.426
         3 -13.4777    221.5999    154.2099   8.5940149545e+01   6.1221468481e+00     8.756839     1.325661 -38.95   0.01468015   12.144    0.918
         4 -14.8741    246.3994     22.6362   5.5262334286e+01   2.3139601888e+01     5.645465     1.999388 -35.49    0.0255805    3.164    0.684
         5 -11.7639    236.0594    228.8515   9.7895875093e+01  -9.6885964673e+00    0.5940746    0.3882238 -44.47  0.002870694    1.713    0.416
         6 -12.2486    248.7856    180.6903   8.6553049453e+01  -3.5417771561e+00     1.388808    0.3281847 -46.03  0.004235693    4.477    0.777
         7 -12.1784    242.8519    136.8750   7.8670535485e+01   5.4578377525e+00     1.269963    0.3333839 -45.93   0.00413052    3.430    0.708
         8 -12.5810    247.2636    241.5569   9.8090589765e+01  -1.3114153624e+01    0.9644051    0.7127275 -58.77  0.005597595    2.463    0.594
         9 -12.2113    238.3311    219.2793   9.5747963880e+01  -8.4965831737e+00    0.7392198    0.5539975 -59.25  0.004170608    2.027    0.507
        10 -13.0765    236.1318    191.0394   9.0803564439e+01  -3.3609678260e+00     3.329574    0.4726987 -40.75  0.008138396    6.668    0.850
        11 -13.6380    245.0230    156.0979   8.2269745615e+01   1.5135418014e+00     2.687557    0.7839472 -41.39  0.009457511    2.991    0.666
        12 -13.5305    248.3072    124.3557   7.5253060288e+01   6.7518912484e+00     3.491422    0.3117706 -42.95  0.007323601    8.441    0.882
        13 -14.8788    245.2743    100.1747   7.0698631029e+01   1.1644378928e+01     5.582501     2.388634 -34.41   0.02220964    2.723    0.633
        14 -10.7946    191.8014    247.5232   1.0965811776e+02  -6.0102559374e+00    0.4872374    0.3615614 -42.47  0.002907292    1.515    0.340
        15 -10.5165    140.0077    248.4617   1.2042546394e+02   2.2725266032e+00    0.3888911    0.2601873 -33.05  0.002031163    1.992    0.498
        16  -9.7171    124.3980    249.7533   1.2383961363e+02   4.5998017382e+00    0.2291585     0.129458 -63.36  0.001132731    2.113    0.527
        17  -9.8332    156.4089    247.3311   1.1685460472e+02  -2.4178556557e-01    0.2826087    0.1612418 -43.89  0.001246271    2.005    0.501
        18  -9.6063    132.2211    247.0334   1.2185060823e+02   3.8302238272e+00    0.2583456    0.1790453 -40.71  0.001315183    1.776    0.437
        19  -9.4103    186.4309    246.4879   1.1057048561e+02  -4.9916564878e+00    0.2417009    0.1261795 -44.22 0.0009606344    2.119    0.528
        20  -9.8459    163.3023    246.0527   1.1523412428e+02  -1.1551647409e+00    0.2913464    0.1751918 -51.85  0.001218928    1.940    0.484
        21 -10.0672    113.0319    246.1675   1.2573818001e+02   7.1430718625e+00    0.3042552     0.198614 -57.54  0.001652934    1.711    0.415
        22  -9.3078    151.4713    245.9306   1.1767426767e+02   8.3257375241e-01    0.1839556    0.1333791 -51.69 0.0007932218    1.576    0.365
        23 -10.3769    103.4905    243.6226   1.2740860450e+02   9.1829791361e+00    0.2556642     0.128656 -61.54  0.001213373    2.174    0.540
        24 -10.4851    199.0254    226.7394   1.0469048349e+02  -3.6503949454e+00    0.4597985     0.261172 -52.16  0.002178571    2.177    0.541
        25 -10.3755    201.7850    241.5932   1.0669309870e+02  -6.6023674862e+00    0.3258244    0.2227249 -41.48  0.001325683    1.589    0.371
        26 -11.1037    204.8396    234.7441   1.0492213191e+02  -5.9514769814e+00    0.4738649    0.3716258 -55.44  0.001947943    1.672    0.402
        27 -10.0684    169.3401    241.6887   1.1330542410e+02  -1.3807209262e+00    0.3285349    0.2210312 -35.23  0.001423971    1.687    0.407
        28 -10.2250    125.0885    242.1156   1.2267825640e+02   5.9640299514e+00    0.2821466    0.1931144 -65.41  0.001517106    1.673    0.402
        29 -10.3634    214.0663    240.4148   1.0408564156e+02  -8.2873928925e+00    0.3063192    0.1782272 -38.97 0.0009789367    1.773    0.436
        30 -10.2679    211.7211    227.0310   1.0220975025e+02  -5.7401642937e+00    0.3725891    0.2102265 -35.14  0.001344287    1.779    0.438
        31 -10.3115    219.8016    239.7398   1.0286519584e+02  -9.0327186306e+00    0.3129604    0.1982236 -42.90  0.000918619    1.737    0.424
        32 -11.3150    216.2149    233.0038   1.0238765581e+02  -7.4245401523e+00    0.4728409    0.3703934 -37.90  0.001836711    1.361    0.265
        33  -8.8512    154.7459    241.9374   1.1639244846e+02   1.0179374841e+00    0.1602137    0.1164907 -47.38  0.000878569    1.545    0.353
        34  -9.5830    117.6260    240.9575   1.2410084657e+02   7.4288774908e+00    0.2790233    0.1284787 -58.03  0.001237302    2.410    0.585
        35 -10.2720    183.5165    239.0045   1.0994686879e+02  -3.2498193422e+00    0.4049175    0.2540091 -44.80  0.001758648    1.751    0.429
        36 -10.1012    148.1697    239.6101   1.1742843510e+02   2.5647904265e+00    0.2935344    0.2076229 -65.79  0.001559168    1.752    0.429
        37  -9.8835    134.5011    240.5004   1.2045902339e+02   4.7052455821e+00    0.2558233    0.1356227 -55.86  0.001200238    2.133    0.531
        38 -10.3881    159.3464    237.9902   1.1481587335e+02   9.7230892340e-01    0.3805855    0.2666362 -53.14  0.001900308    1.629    0.386
        39 -11.0543    190.8155    234.5478   1.0770998406e+02  -3.6699764683e+00    0.5301952    0.3442026 -54.38  0.002506586    1.950    0.487
        40 -10.0931     92.6737    246.4903   1.2997709823e+02   1.0297259535e+01    0.2176664    0.1168976 -64.83  0.001090335    2.007    0.502
        41  -9.8802     90.0009    237.9916   1.2955342221e+02   1.2461155431e+01    0.1642388    0.1412238  79.94  0.001014273    1.087    0.080
        42  -9.5291    139.0770    236.3772   1.1888384014e+02   4.7358050862e+00    0.2506476    0.2061209 -70.35     0.001178    1.392    0.282
        43  -9.6598    170.5921    234.4067   1.1187388378e+02  -2.7353806111e-01    0.2472807    0.1623928 -42.95 0.0008910803    1.657    0.397
        44  -9.1942    107.7133    234.6414   1.2538080306e+02   1.0347840752e+01    0.1272996    0.1069719 -18.97 0.0007022881    1.680    0.405
        45  -9.7037    145.0486    232.3811   1.1699587835e+02   4.4971949784e+00    0.2527711    0.2084672 -66.77 0.0009440391    1.386    0.279
        46  -9.8480    122.5690    232.7084   1.2191147671e+02   8.2796985311e+00    0.2476455    0.1304912 -52.24  0.001137544    2.080    0.519
        47 -10.4705    176.7009    235.1629   1.1072102174e+02  -1.4410891593e+00    0.4600649    0.2153572 -41.86  0.001792469    2.334    0.572
        48 -10.0364    133.2803    231.6051   1.1942654794e+02   6.6801688870e+00    0.2294048    0.1664237 -32.12  0.001122136    1.784    0.439
        49  -9.7048    113.6652    231.1855   1.2363166839e+02   1.0090109882e+01    0.2665397     0.128779 -68.29  0.001094876    2.652    0.623
        50  -9.2360    157.9713    230.5269   1.1392220319e+02   2.6217782267e+00    0.2129057    0.1809898 -46.64  0.001230196    1.289    0.224
        51  -9.4574    174.0534    228.3259   1.1013368290e+02   2.6204374819e-01    0.2286659     0.185998 -24.96  0.001026504    1.329    0.248
        52  -9.1882    152.4515    229.0067   1.1486633249e+02   3.8772077516e+00    0.1983241    0.1380056 -50.95 0.0007951032    1.577    0.366
        53  -9.6131    184.4864    227.5196   1.0780965957e+02  -1.3680518805e+00    0.2564745    0.1331914 -44.79 0.0008755708    2.046    0.511
        54  -8.9034    138.4736    228.4782   1.1782239727e+02   6.4178105195e+00    0.1392174    0.1263266  47.60 0.0001220927    1.003    0.003
        55  -9.9791    190.3799    225.4990   1.0623773205e+02  -1.9950421911e+00    0.3443311    0.1895768 -39.73  0.001227173    1.896    0.473
        56  -9.4799    163.0411    226.6771   1.1220280885e+02   2.4835670825e+00    0.2590553    0.2072672 -34.53   0.00129608    1.366    0.268
        57 -10.9331    216.7954    222.7023   1.0043981221e+02  -5.8053627894e+00    0.4514024    0.2762051 -45.29  0.001612082    1.760    0.432
        58  -8.9269    220.5119    218.4668   9.8947757834e+01  -5.6686082616e+00    0.2093876     0.155487  24.46 0.0006613391    1.301    0.231
        59 -11.5311    217.2259    211.8375   9.8355734798e+01  -3.9960019655e+00    0.6948203    0.4175492 -48.36  0.002982481    1.842    0.457
        60 -10.2511    217.2759    204.1196   9.6885845392e+01  -2.6254650649e+00    0.3447266     0.218761 -36.17  0.001064682    1.503    0.335
        61  -8.9235    170.3683    224.7576   1.1031018748e+02   1.5744082524e+00    0.1879285     0.126784 -35.20 0.0006530586    1.641    0.390
        62  -8.9059    155.4423    224.5018   1.1348527178e+02   4.2439381767e+00    0.1388123    0.1287584  33.37 0.0001038846    1.016    0.015
        63 -10.0370    148.0124    223.1574   1.1488948269e+02   5.8268813072e+00    0.3413788    0.2115591 -46.91  0.001646992    1.750    0.429
        64 -10.4510    205.9315    224.8976   1.0297571059e+02  -4.4524257513e+00    0.3857055    0.2051613 -42.68  0.001445424    1.934    0.483
        65  -9.7513    180.3935    222.3731   1.0777095558e+02   2.8498647615e-01    0.2992498    0.1578828 -40.60  0.001153514    2.013    0.503
        66  -9.7301    185.8142    220.6879   1.0633554803e+02  -3.3498024585e-01    0.3104636    0.1845283 -41.51  0.001502157    1.749    0.428
        67  -9.2023    174.5045    222.0296   1.0895867522e+02   1.3745066051e+00    0.2031667    0.1373036 -45.36 0.0009143941    1.574    0.364
        68 -10.7081    202.2043    217.9873   1.0247647763e+02  -2.6204490943e+00    0.5011405    0.2693287 -44.59  0.002358068    1.927    0.481
        69  -9.3144    204.5355    212.2972   1.0095677321e+02  -1.9796662633e+00    0.2326647    0.1223106 -32.17  0.000682417    2.074    0.518
        70  -8.7668    140.4876    221.5106   1.1628454678e+02   7.4975087300e+00    0.1407614    0.1308716  40.30 -9.885141e-06    1.039    0.037
        71 -10.4551    210.8177    217.7150   1.0070347051e+02  -3.9905814746e+00    0.4326259    0.2409742 -43.62  0.001451588    1.836    0.455
        72  -9.7884    209.8337    211.8694   9.9816240488e+01  -2.7888226778e+00     0.331479    0.2240266 -21.29  0.001094166    1.606    0.377
        73 -10.5662    193.3127    218.1879   1.0432933568e+02  -1.1565971468e+00    0.4158204    0.2857042 -45.69  0.001553345    1.544    0.352
        74  -9.1739    158.5254    218.9558   1.1188184947e+02   4.8076096769e+00    0.2100503    0.1406896 -48.90  0.001034116    1.597    0.374
        75  -9.6928     99.5780    232.6878   1.2687517249e+02   1.2075410566e+01     0.250137    0.1241698 -56.83  0.001146634    2.143    0.533
        76  -9.4210    179.2448    216.4821   1.0697045026e+02   1.6086098866e+00     0.250834    0.1923457 -41.06 0.0008120158    1.356    0.263
        77  -9.9316    170.7797    215.8629   1.0867576381e+02   3.2334812771e+00     0.343001    0.1945421 -40.41   0.00142222    1.894    0.472
        78  -9.6290     55.9939    216.7786   1.3439734484e+02   2.2068437817e+01    0.2223087     0.156822 -77.80 0.0008315392    1.297    0.229
        79  -9.1158    165.4034    215.3058   1.0974528779e+02   4.3089546870e+00      0.25524    0.1348203 -43.70  0.001108538    2.011    0.503
        80  -9.1161    143.3132    215.3237   1.1464207222e+02   8.2912866367e+00    0.1424986    0.1131575  -5.87 0.0006155398    1.659    0.397
        81  -9.0034    154.4463    213.4990   1.1184423302e+02   6.6600050631e+00    0.1420736    0.1346122  37.63 0.0001333613    1.006    0.006
        82  -9.3536    200.1532    210.2742   1.0146813797e+02  -8.6063851595e-01    0.2372651     0.174623 -29.50  0.000649659    1.365    0.268
        83  -9.9403    192.9471    209.6310   1.0283236412e+02   5.1142881644e-01    0.3044831    0.2012425 -43.66 0.0009405437    1.544    0.352
        84  -9.3818    186.1550    210.3368   1.0438643092e+02   1.5741970093e+00    0.2378214    0.1866306 -25.18 0.0006883162    1.338    0.252
        85  -9.7216    176.9194    210.0211   1.0629766577e+02   3.2896892949e+00    0.2885973    0.1973508 -45.30   0.00123907    1.517    0.341
        86  -9.3607    160.9457    210.2413   1.0982868360e+02   6.1508953948e+00    0.2588979    0.1831055 -33.50  0.001260753    1.599    0.375
        87 -10.2795    206.0301    206.1342   9.9496309694e+01  -1.0983948032e+00    0.5588942    0.2081718 -43.95  0.002144246    2.665    0.625
        88  -8.9079    182.7723    206.9417   1.0447324490e+02   2.8441514291e+00    0.1860746    0.1162441 -43.34 0.0008707459    1.634    0.388
        89  -8.8005    156.2879    206.3557   1.1017200790e+02   7.8215849497e+00    0.1473871    0.1138002 -10.92 0.0004469114    1.676    0.403
        90  -9.2474    139.3840    204.8017   1.1374323082e+02   1.1281431898e+01    0.2115437    0.1346583 -42.15 0.0009554804    1.744    0.427
        91 -10.0727    197.8407    203.0241   1.0057043074e+02   9.1394273585e-01    0.3427145    0.2109478 -30.57  0.001250004    1.755    0.430
        92 -10.4548    210.3035    200.4725   9.7556008339e+01  -7.7679642306e-01    0.4234757    0.2745158 -56.56  0.001527988    1.959    0.490
        93  -9.5175    186.8490    202.6351   1.0279386344e+02   2.9594433271e+00    0.2781409    0.2028345 -50.23  0.001122123    1.463    0.316
        94  -9.2337    192.6691    201.8062   1.0141021655e+02   2.0717736426e+00    0.1983233     0.129257 -52.16 0.0009366739    1.700    0.412
        95  -9.1323    164.4140    201.7501   1.0751025166e+02   7.2833226900e+00    0.2076641    0.1361821 -36.67 0.0009507431    1.673    0.402
        96  -9.6427    139.2569    198.9924   1.1274824122e+02   1.2598071399e+01    0.1992215    0.1938273 -71.95            0    1.058    0.055
        97  -9.3970    132.9867    199.0341   1.1422210640e+02   1.3751887903e+01    0.2128149    0.1771161 -12.25            0    1.537    0.349
        98 -10.0795    215.3050    197.1029   9.5915122103e+01  -1.0061821505e+00    0.3101011    0.1948906 -41.04  0.001005095    1.525    0.344
        99  -9.9292    202.0472    196.7183   9.8488166933e+01   1.3825703398e+00    0.3340097    0.2064116 -44.81   0.00129312    1.612    0.380
       100  -8.6483    191.2621    197.3446   1.0084357915e+02   3.2069290408e+00    0.1450716    0.1081235 -11.78 0.0004172819    1.599    0.375
       101  -9.1791    176.4212    196.9701   1.0395266007e+02   6.0330173443e+00    0.2255878    0.1412971 -45.61 0.0009446809    1.620    0.383
       102  -9.3062    184.3000    195.5927   1.0198043421e+02   4.8437486171e+00    0.2618643    0.1704004 -26.45  0.001176877    1.832    0.454
       103  -9.6852    209.1836    193.9041   9.6496796903e+01   6.5870366960e-01    0.2967044    0.1843218 -36.69 0.0007397691    1.559    0.358
       104  -9.3648    194.2773    194.0057   9.9558528647e+01   3.3197918559e+00    0.2080969    0.1815825 -39.24  0.000815022    1.141    0.123
       105  -8.9483    161.6360    191.8073   1.0624903607e+02   9.9418437744e+00    0.2130313    0.1412365 -58.97 0.0009505725    1.697    0.411
       106  -9.2792    205.2762    190.4839   9.6603005853e+01   2.0141987386e+00    0.2480849    0.1203096 -43.16 0.0008408254    1.994    0.498
       107  -9.6324    198.9148    190.2344   9.7849869455e+01   3.2192800417e+00    0.2592052     0.196686 -37.06 0.0009535112    1.280    0.219
       108  -9.1668    185.3691    189.8351   1.0061699547e+02   5.8234985993e+00    0.2152278    0.1314981 -34.72 0.0009454921    1.747    0.428
       109  -9.2599    178.6964    189.4910   1.0199237111e+02   7.1631245515e+00    0.2708047    0.1324877 -46.05  0.001079617    2.048    0.512
       110  -9.5429    210.2029    188.5461   9.5230587724e+01   1.5066240637e+00    0.2638092    0.1825379 -41.57 0.0007110465    1.385    0.278
       111  -9.0393    193.1904    187.5688   9.8505460760e+01   4.8152138678e+00    0.1965306    0.1367599  26.67 0.0005103291    1.577    0.366
       112  -8.5820    166.0000    185.9858   1.0411753932e+02   1.0367024689e+01     0.244802   0.08532906 -48.07 0.0007956005    2.895    0.655
       113 -10.0027    203.1477    182.8752   9.5501950220e+01   3.9029929059e+00    0.3535752    0.2043726 -45.69  0.001159882    1.691    0.409
       114 -10.4028    210.9439    181.4724   9.3657112510e+01   2.7476969043e+00    0.4159676     0.217968 -39.43  0.001387817    1.823    0.452
       115  -9.7869    210.4935    174.9962   9.2417160534e+01   4.1056619952e+00    0.3983153    0.1347678 -44.56 0.0009764977    2.805    0.643
       116  -9.4218    183.4793    182.5435   9.9554859093e+01   7.7041105854e+00    0.3035786    0.1439832 -45.81  0.001186575    2.086    0.521
       117  -8.8799    197.4308    181.9970   9.6493403177e+01   5.1487693849e+00    0.2264764    0.1377843 -43.16 0.0006969498    1.592    0.372
       118  -8.9491    176.5118    181.0021   1.0076162754e+02   9.3898937213e+00     0.235475    0.1460608 -45.24 0.0009751288    1.601    0.375
       119  -9.4594    190.8343    178.8367   9.7222539518e+01   7.0569671377e+00    0.2780506    0.1948331 -49.22  0.001220778    1.438    0.305
       120  -9.4752    197.5235    176.3644   9.5314084582e+01   6.2798077312e+00    0.3008947    0.1399752 -44.78  0.001183248    2.076    0.518
       121  -9.2427    182.4717    175.9694   9.8418124222e+01   9.2943992429e+00    0.2344156    0.1452726 -45.93 0.0008061447    1.588    0.370
       122  -8.9377    101.0907    175.9108   1.1791730559e+02   2.5013506504e+01    0.1861996    0.1714606 -35.70 0.0009960966    1.231    0.187
       123  -9.2283    192.5581    172.7695   9.5595975903e+01   7.9854962204e+00    0.2837059    0.1394854 -40.35  0.001103927    2.018    0.504
       124  -9.4644    205.0614    176.3911   9.3785136017e+01   4.8429540164e+00    0.2926295     0.199079 -48.31  0.001122322    1.462    0.316
       125  -9.7472    205.2909    169.0956   9.2216430937e+01   6.2709626359e+00    0.3954568    0.1920249 -48.40  0.001588749    2.053    0.513
       126  -9.0094    200.6366    171.2177   9.3600884723e+01   6.7348920490e+00     0.214428    0.1310979 -35.12 0.0009446276    1.664    0.399
       127  -9.2356    211.9025    168.6873   9.0828338336e+01   5.0952495074e+00    0.2567393    0.1789595 -35.34 0.0008253586    1.378    0.274
       128  -8.7902    178.6414    168.2121   9.7618366447e+01   1.1731988632e+01    0.2219338    0.1381483 -37.15 0.0008472988    1.677    0.404
       129  -9.6314    191.5091    164.9887   9.4162894242e+01   9.8269604358e+00    0.3914306    0.1436149 -44.35  0.001335063    2.624    0.619
       130  -9.3703    199.4761    164.4267   9.2396832706e+01   8.3589891224e+00    0.3101477    0.1405052 -44.18   0.00105852    2.100    0.524
       131  -8.9767    184.5211    165.0208   9.5654608254e+01   1.1229616994e+01    0.2391108    0.1460464 -45.28  0.001032083    1.590    0.371
       132 -10.3973    212.7563    162.3176   8.9320371795e+01   6.2041433652e+00    0.4614647    0.2301754 -40.32  0.001922801    1.889    0.471
       133  -9.8740    205.1686    161.0598   9.0532788730e+01   7.9299253969e+00    0.3535103    0.2050492 -42.76  0.001507968    1.623    0.384
       134  -8.9713    176.5083    159.0335   9.6099352906e+01   1.4176722057e+01     0.245816    0.1490881 -45.59  0.001038749    1.608    0.378
       135  -9.6985    216.1711    156.0284   8.7332657616e+01   6.8024141208e+00    0.3464849     0.191853 -43.91    0.0012673    1.664    0.399
       136  -9.5417    197.0729    156.6337   9.1201390977e+01   1.0460326886e+01    0.3038817     0.210006 -37.79  0.001323359    1.418    0.295
       137  -9.2444    187.5712    155.7274   9.2976039555e+01   1.2598399552e+01    0.2966141    0.1432867 -40.69  0.001126717    2.059    0.514
       138  -9.7502    211.5127    154.5239   8.7891916027e+01   8.0097946685e+00    0.2882007    0.1352138 -39.53 0.0008466846    2.046    0.511
       139  -9.2159    205.5547    153.9541   8.8921508420e+01   9.3062042867e+00    0.2322652    0.1380333 -43.05  0.001022134    1.577    0.366
       140  -9.9607    144.6900    153.1929   1.0223898875e+02   2.2163775000e+01    0.3224518    0.1417776 -55.77  0.001077772    2.564    0.610
       141  -8.9474    202.3544    150.8372   8.8869994416e+01   1.0591820588e+01    0.2183454    0.1323601 -34.72 0.0007809591    1.714    0.416
       142  -9.8276    215.1835    148.5730   8.5913431789e+01   8.4809366441e+00    0.3372253    0.1968744 -50.17  0.001310632    1.670    0.401
       143  -9.1263    196.6028    149.2858   8.9678247177e+01   1.2093351099e+01    0.2141999    0.1381298 -35.06 0.0009412101    1.602    0.376
       144  -8.9643    176.2069    146.0059   9.3244982705e+01   1.7100918601e+01    0.2163835    0.1214835 -45.39  0.000866369    1.728    0.421
       145  -9.5595    208.1103    144.3445   8.6321392778e+01   1.0749774687e+01    0.2741303    0.1904774 -35.14  0.001175798    1.437    0.304
       146  -9.1503    200.4375    144.9961   8.7956132610e+01   1.2192160416e+01    0.2395831    0.1402637 -44.13 0.0007034299    1.608    0.378
       147  -9.2407    218.5437    143.8234   8.4266881118e+01   8.7615110147e+00     0.273642    0.1328951 -38.83  0.001033333    1.971    0.493
       148  -9.7960    138.8540    143.5755   1.0151065459e+02   2.5638841801e+01    0.2764849    0.1932636 -55.64  0.001216453    1.448    0.309
       149  -9.4292    214.0237    142.0144   8.4699519268e+01   1.0022175233e+01    0.2997463    0.1878555 -44.26 0.0007676386    1.467    0.318
       150  -8.8135    194.4578    143.4681   8.8810848138e+01   1.3759569899e+01    0.1514155    0.1431941 -52.11 0.0001458344    1.007    0.007
       151  -9.1594    181.6038    141.7582   9.1100091712e+01   1.6863731464e+01    0.2261188    0.1413115 -54.50  0.000948894    1.667    0.400
       152  -9.0173    155.4954    142.5080   9.7180691181e+01   2.2347284137e+01    0.1570416    0.1535116 -65.70 0.0002318882    1.009    0.009
       153  -9.7870    208.5024    137.5066   8.4731348021e+01   1.2053605376e+01     0.316328    0.1379801 -43.00  0.001201391    2.131    0.531
       154  -9.4364    198.5850    136.6784   8.6450509326e+01   1.4299743843e+01     0.290095    0.1407194 -40.37  0.001123199    2.010    0.503
       155  -8.8474    172.4907    137.4969   9.2096766679e+01   1.9768986258e+01    0.1567587    0.1494558 -71.08 -7.787035e-05    1.035    0.034
       156  -8.9632    192.5833    136.2703   8.7553802892e+01   1.5665518406e+01    0.2180008     0.141696 -34.95 0.0009501392    1.619    0.382
       157  -8.9192    187.5253    135.0258   8.8300482491e+01   1.7019040993e+01    0.2366635    0.1462823 -44.40  0.000840425    1.550    0.355
       158  -9.0539    163.3057    135.3574   9.3667346649e+01   2.2255095808e+01    0.1609449    0.1268743  -6.90 0.0007040505    1.723    0.420
       159  -9.5874    179.4352    132.2729   8.9356830006e+01   1.9373165947e+01    0.3003426     0.147871 -40.27  0.001093093    2.053    0.513
       160  -9.4996    205.6725    130.5088   8.3691602688e+01   1.4056335077e+01     0.258573    0.1304681 -43.33 0.0008282459    1.850    0.459
       161  -9.1289    133.0000    134.9642   1.0098365882e+02   2.8879463301e+01    0.2640027   0.08882833 -48.41 0.0007993247    2.921    0.658
       162  -9.9454    142.9875    131.2880   9.7561823704e+01   2.7606748881e+01    0.2264045    0.2174098  57.36 0.0008578112    1.052    0.050
       163  -9.4269    212.0487    128.6646   8.2104037006e+01   1.3085154545e+01    0.2665509    0.1865615 -52.36  0.001007628    1.360    0.265
       164  -9.0705    192.3967    128.7655   8.5858711344e+01   1.7266110390e+01    0.2155621    0.1410339 -34.68 0.0009308291    1.625    0.384
       165  -8.9435    172.2386    128.9945   9.0137557438e+01   2.1670027481e+01    0.2141102    0.1285018 -45.14 0.0008839431    1.622    0.383
       166  -9.4523    152.0000    125.9753   9.4055780394e+01   2.6831863554e+01    0.2652428   0.08877608 -45.50 0.0008027863    2.945    0.660
       167  -9.7653    134.6711    126.3310   9.8456006439e+01   3.0519415609e+01    0.1638855    0.1252571  88.71 0.0007051656    1.715    0.417
       168  -9.3622    217.4866    125.0029   8.0325395965e+01   1.2673810412e+01    0.2259853     0.133547 -42.49 0.0007228791    1.558    0.358
       169  -9.5950    107.6688    125.6739   1.0558597766e+02   3.6134223428e+01    0.1585421    0.1218458 -13.22 0.0007051012    1.708    0.415
       170  -9.7196    179.8274    123.6949   8.7235479731e+01   2.1101873618e+01    0.2808966    0.2079709 -36.64  0.001250603    1.398    0.285
       171 -10.5327    212.6631    121.4991   8.0387327288e+01   1.4365406753e+01    0.4747345    0.1316679 -40.11  0.001428511    3.566    0.720
       172 -10.4462    117.1546    122.8422   1.0225104224e+02   3.4943683151e+01    0.2218807    0.1904335 -16.97  0.001091892    1.337    0.252
       173  -9.6344    203.0220    120.9948   8.2015993845e+01   1.6529451862e+01    0.2252185    0.1856309  -3.82 0.0007672994    1.630    0.386
       174  -9.3075    194.2410    120.6418   8.3599200072e+01   1.8522540978e+01    0.2898607    0.1693463 -51.61 0.0009882009    1.697    0.411
       175 -13.8323    247.5870    217.5855   9.3768596067e+01  -9.5479026923e+00     3.029401    0.4781371 -39.34  0.008647104    5.892    0.830
       176 -10.3189    140.4916    118.0132   9.4888405723e+01   3.1126101681e+01    0.2460714    0.1532803 -45.67  0.001033004    1.591    0.371
       177  -8.6596    199.3080    116.3282   8.1626503663e+01   1.8268024058e+01     0.146266    0.1207951  -0.02 0.0004208708    1.658    0.397
       178  -9.2453    187.7313    122.9601   8.5433023948e+01   1.9491625092e+01     0.226278    0.1911135 -50.26  0.001002683    1.130    0.115
       179  -9.1027    162.6989    115.6610   8.8998312242e+01   2.6662250508e+01    0.1558324    0.1263301  -0.72 0.0007036758    1.667    0.400
       180 -10.4102    129.0003    115.2131   9.7126680264e+01   3.4224055842e+01    0.2353335    0.1767089 -23.75  0.001055763    1.619    0.382
       181  -9.0418    185.8192    114.2341   8.3734139534e+01   2.1700256035e+01    0.2057585    0.1845991  -9.72  0.001061067    1.341    0.254
       182 -10.1750    114.0032    114.0143   1.0088685566e+02   3.7582958339e+01    0.1892276    0.1838755 -45.93 0.0007887114    1.010    0.009
       183  -9.3470    194.7087    112.9893   8.1707927370e+01   1.9950181732e+01    0.2233893    0.1819597 -48.78 0.0007754921    1.166    0.142
       184 -10.7964    123.8254    109.8882   9.7116375237e+01   3.6485207419e+01    0.2433151    0.2187172  -9.64  0.001231841    1.236    0.191
       185 -10.2764    107.3932    109.7897   1.0165836463e+02   3.9824910502e+01     0.222288    0.1378315 -37.76 0.0009489175    1.692    0.409
       186  -8.8970    201.3486    108.7590   7.9486083027e+01   1.9297240806e+01    0.2068672    0.1344441 -34.71 0.0007066416    1.649    0.394
       187 -10.1840    212.8476    110.8672   7.7956002276e+01   1.6377097424e+01    0.2069775    0.1606882 -66.34 0.0006780813    1.304    0.233
       188  -9.9142    133.3813    107.8369   9.4058898287e+01   3.4884595997e+01    0.2271785    0.1445556 -34.70 0.0009534748    1.733    0.423
       189 -10.9024     95.2603    107.7422   1.0467832844e+02   4.2546110620e+01     0.277744    0.1847739 -51.35  0.001286552    1.479    0.324
       190 -10.5657     81.6492    106.6719   1.0856012595e+02   4.5112534711e+01    0.2379696    0.1706499 -18.53  0.001124038    1.720    0.419
       191  -9.7844    129.5046    106.5714   9.4730454543e+01   3.5993164739e+01    0.1521639    0.1486799  81.52 6.159188e-06    1.034    0.033
       192  -9.4333    205.5155    104.4652   7.7750461331e+01   1.9193516319e+01    0.2486575    0.1392622 -31.59  0.001017917    2.148    0.535
       193 -10.3590    213.6034    104.1960   7.6318441249e+01   1.7470689084e+01    0.2030105    0.1327619 -33.58 0.0009446825    1.671    0.402
       194  -9.8313    119.4879    102.5245   9.6325382290e+01   3.8971655991e+01    0.1498345    0.1479302  -8.83 6.121292e-05    1.013    0.013
       195  -9.6617    150.2073    101.5816   8.8259083825e+01   3.2425167268e+01    0.2202015    0.1433453  39.11 0.0009140626    1.671    0.402
       196  -9.6937    141.4745    101.4755   9.0329799749e+01   3.4424102650e+01    0.1510326    0.1500386  57.28 0.0002454639    1.030    0.029
       197 -10.0614    130.7716    101.0079   9.2907098102e+01   3.6887101548e+01     0.229167    0.1730436  21.99  0.001047868    1.630    0.387
       198 -12.4278    241.6857    203.6343   9.2224744854e+01  -6.4098996563e+00     1.306166    0.3477765 -36.24  0.004347064    3.924    0.745
       199  -9.0609    209.4454     99.4814   7.5933647377e+01   1.9255916356e+01    0.1444818    0.1319129 -64.97 0.0002439013    1.031    0.030
       200  -8.9638    203.1790     96.8287   7.6376178674e+01   2.1141890304e+01    0.1879051    0.1767701   0.28 0.0007357621    1.326    0.246
       201  -8.9012    195.5681     96.2322   7.7564370815e+01   2.2976603295e+01    0.2025896    0.1407412 -31.25 0.0009436001    1.653    0.395
       202 -10.9569    111.5170     95.0259   9.6477984974e+01   4.2165901567e+01     0.416148    0.1941502  27.90   0.00129891    3.712    0.731
       203 -10.0991     94.7803     95.4031   1.0149589728e+02   4.5303268469e+01    0.2106069    0.1375187  27.01 0.0009546992    1.727    0.421
       204  -8.6885    220.3055     93.3183   7.2813095751e+01   1.8000794952e+01    0.1307205    0.1139109   4.98 0.0003205007    1.630    0.387
       205  -8.8226    167.2974     99.3259   8.3849449349e+01   2.8928763688e+01    0.1494569    0.1233744   7.20  0.000506285    1.629    0.386
       206  -8.8359    207.5990     93.6927   7.4906698604e+01   2.0725043912e+01    0.1431895    0.1145008  19.96 0.0006995763    1.849    0.459
       207  -9.4454    128.0199     91.4531   9.0993009824e+01   3.9414921890e+01    0.2211279    0.1453704  46.76            0    1.500    0.333
       208 -12.9035    245.6351    191.3543   8.9173185632e+01  -4.9120942242e+00     1.607586    0.6084414 -52.58  0.005169784    4.711    0.788
       209  -9.8508    225.3819     80.7627   6.9314266962e+01   1.9078711645e+01    0.2265627    0.1649449 -37.69 0.0006443345    1.452    0.311
       210  -9.6435    215.3261     78.9819   7.0353432040e+01   2.1576302205e+01    0.2266885    0.1910345  34.61 0.0006775233    1.593    0.372
       211 -13.0004    230.5499    187.7811   9.1183521604e+01  -1.8612232550e+00     5.311951    0.6163204 -40.34   0.01068364    9.512    0.895
       212 -10.7997    224.8698    249.2527   1.0351514792e+02  -1.1199493976e+01    0.3373381    0.2420956 -30.40  0.001372932    1.393    0.282
       213  -8.9062    211.5007     75.4664   7.0121349600e+01   2.3018302999e+01    0.1384159     0.124986 -77.05 0.0003425834    1.054    0.051
       214 -11.4102    225.3046    242.6086   1.0231031143e+02  -1.0270557047e+01    0.5370865    0.2730463 -39.42  0.002791521    2.005    0.501
       215 -11.3701    209.7225    248.5302   1.0629050960e+02  -8.9054651519e+00     0.453597    0.3502837 -16.31  0.002138149    1.270    0.212
       216  -8.5372    218.3103     67.3365   6.7342720371e+01   2.2820627646e+01    0.1250105    0.1092539  21.70  0.000546272    1.683    0.406
       217  -9.7298    127.0233     53.9900   8.0284137995e+01   4.6087071222e+01    0.2031461    0.1888279  48.31  0.001209954    1.010    0.010
       218  -9.0497    172.1721     49.8857   7.0103702909e+01   3.6145855196e+01    0.1718294    0.1506907  46.17 0.0009996772    1.261    0.207
       219 -12.4478    230.1162    235.4091   1.0016016101e+02  -9.8577859779e+00     1.681098      1.07769 -62.43  0.007734378    3.413    0.707
       220  -9.2012     85.9917     44.0197   8.8148628190e+01   5.5950192661e+01    0.2149147    0.1445991  15.01  0.001130636    1.685    0.407
       221 -11.4037    227.9832    222.2045   9.8205467591e+01  -7.4414548013e+00     1.880313    0.5103545 -44.98   0.00650282    4.038    0.752
       222 -12.6030    223.5589    195.8961   9.4087441252e+01  -2.1769012382e+00     4.648813    0.6552798 -43.79   0.01109636    6.904    0.855
       223  -9.2979     15.0030     17.9964   1.0559884756e+02   6.9396548294e+01    0.1298121   0.09535487  -9.88  -0.03019764    1.001    0.001
