#   1 NUMBER                 Running object number                                     
#   2 MAG_AUTO               Kron-like elliptical aperture magnitude                    [mag]
#   3 X_IMAGE                Object position along x                                    [pixel]
#   4 Y_IMAGE                Object position along y                                    [pixel]
#   5 X_WORLD                Barycenter position along world x axis                     [deg]
#   6 Y_WORLD                Barycenter position along world y axis                     [deg]
#   7 A_WORLD                Profile RMS along major axis (world units)                 [deg]
#   8 B_WORLD                Profile RMS along minor axis (world units)                 [deg]
#   9 THETA_WORLD            Position angle (CCW/world-x)                               [deg]
#  10 FWHM_WORLD             FWHM assuming a gaussian core                              [deg]
#  11 ELONGATION             A_IMAGE/B_IMAGE                                           
#  12 ELLIPTICITY            1 - B_IMAGE/A_IMAGE                                       
         1 -12.4791    214.1981     26.2626   4.0580922678e+01   2.7845590404e+01     1.079364    0.8086369  28.75  0.005986824    1.781    0.439
         2 -12.7030    202.3043     38.5309   4.5048954350e+01   2.9170021988e+01     1.587107     1.072795  35.85  0.007924597    1.915    0.478
         3  -9.4736     16.4080      8.7859   8.9292122938e+01   7.5616976499e+01    0.1786143   0.09822079 -39.82 0.0003888631    1.610    0.379
         4 -10.4606    240.7840      3.4176   3.3136166795e+01   2.4396947267e+01    0.4771534    0.3095369  54.95  0.002841193    1.924    0.480
         5 -10.1285    236.1829      2.4102   3.3136429379e+01   2.5453989637e+01    0.3567694    0.2700031  84.98  0.001757081    1.375    0.273
         6  -7.9039     92.4706    216.9961   1.0586443838e+02   1.9044280817e+01    0.1540901    0.1192918 -75.27 0.0007299794    1.554    0.357
         7 -11.7589      9.4710    187.9892   1.2239229376e+02   3.4150183449e+01    0.4560756    0.3123412  38.53 0.0006904582    1.333    0.250
         8 -13.4825     41.5299    201.6956   1.1582298785e+02   2.8219947225e+01     2.212349    0.9049765  58.54  0.007024123    2.281    0.562
         9 -12.9250     50.6931    192.0037   1.1301412797e+02   2.9136680423e+01     1.703917    0.9521051  64.85  0.007969752    1.732    0.423
        10 -10.1777     48.9593    180.5602   1.1248943654e+02   3.1741184784e+01    0.2644709     0.194608  47.98   0.00100017    1.151    0.131
        11 -10.6072     66.4273    176.2057   1.0770540867e+02   3.0511052159e+01     0.477848    0.3046623 -38.55  0.002412785    2.286    0.563
        12 -10.3566     71.0584    171.1221   1.0595595190e+02   3.0992831037e+01    0.3171247    0.2795002  -3.72 0.0007246688    1.473    0.321
        13  -9.5750     41.3794    178.9080   1.1423088113e+02   3.2958284864e+01    0.2321168    0.1371157  51.07 0.0004919133    1.422    0.297
        14 -14.6794      3.2067    180.6159   1.2356296476e+02   3.6208841069e+01     15.80647    0.8509276 -81.22   0.03456175   12.907    0.923
        15 -11.3151     80.2449    161.4698   1.0233190699e+02   3.1819452571e+01      0.87299    0.3521929  50.12  0.000389333    2.548    0.607
        16 -11.9676     68.4644    144.4915   1.0318136027e+02   3.7414727976e+01     1.035918    0.5744413  66.41  0.004064762    2.240    0.554
        17 -10.6747     86.8462    155.1340   9.9654864087e+01   3.2238506462e+01    0.5238283     0.394828 -19.98  0.001430207    1.919    0.479
        18  -8.7122     33.1365    157.1707   1.1460435076e+02   3.8713185813e+01    0.1912489     0.127824  60.77  0.001084725    1.324    0.245
        19 -10.5331     74.9100    154.5506   1.0280736506e+02   3.4156390942e+01    0.4381419     0.405342 -44.45  0.002439337    1.268    0.211
        20  -9.5480     22.4148    148.2743   1.1686426377e+02   4.1830431585e+01    0.2397442    0.1057487 -73.01 0.0008300663    2.075    0.518
        21  -9.0543    134.0167    145.5601   8.5806762364e+01   2.6117173977e+01    0.3773271    0.1961774 -59.00  0.001511763    2.513    0.602
        22  -9.4999    101.4150    140.0596   9.3142604708e+01   3.3235678210e+01     0.538384    0.3232071 -27.24   0.00210567    2.856    0.650
        23  -8.9821     81.8410    141.5617   9.8886983219e+01   3.6120316154e+01    0.4048158    0.1841234  51.28  0.001051532    2.368    0.578
        24 -10.4526     88.6590    140.0020   9.6683271015e+01   3.5397312737e+01    0.2733392    0.2483284 -38.71 0.0004244368    1.254    0.202
        25  -8.1493     32.8619    138.8346   1.1298660701e+02   4.3094008670e+01    0.1885793    0.1338197  66.17 0.0005902657    1.297    0.229
        26  -8.8641     26.0841    137.6313   1.1490378092e+02   4.4042135008e+01    0.3544416          nan  36.37 0.0009067776    6.181    0.838
        27  -8.6399     73.3407    133.3131   9.9997529583e+01   3.9371004614e+01    0.1414317    0.1115187 -22.96 0.0007046793    1.700    0.412
        28  -9.2369    110.7891    130.6844   8.8722359030e+01   3.3643813525e+01    0.2705072    0.2199144   9.94 0.0008074323    1.520    0.342
        29  -8.6524    105.8695    130.6872   9.0074901452e+01   3.4551405356e+01    0.2876101    0.2240141 -68.46 0.0008844946    1.398    0.285
        30  -8.9010     98.0246    126.5785   9.1445893624e+01   3.6905766868e+01    0.2664217    0.2031814 -34.31 0.0008546594    1.559    0.359
        31 -10.4200     58.0232    129.5446   1.0408247837e+02   4.2446484171e+01    0.4943803    0.2652848 -78.10  0.002162293    2.047    0.511
        32 -11.8291     67.7205    157.4843   1.0516502437e+02   3.4496432382e+01    0.4712999    0.3874845 -41.82  0.001143657    1.489    0.329
        33  -8.0239    107.5261    119.2214   8.7131763996e+01   3.6830436729e+01    0.1884969    0.1429143 -37.99 0.0003339335    1.463    0.316
        34  -9.1244     32.6515    118.7846   1.1079345476e+02   4.8069054369e+01    0.2611079    0.1735205 -51.88  0.001370728    1.586    0.370
        35 -10.9491     20.8298    115.8075   1.1443117907e+02   4.9890841054e+01    0.4733745    0.2528295 -87.46  0.002293077    1.782    0.439
        36  -8.4612    205.5234    110.0427   6.3062283633e+01   1.8191476640e+01     0.203057    0.1892055  31.95  0.001232453    1.134    0.118
        37  -9.0248    135.0000    111.5343   7.7920033986e+01   3.2906220001e+01    0.3294259   0.08647335 -44.46 0.0009279439    3.880    0.742
        38 -12.7204     24.2912    226.1824   1.2076407040e+02   2.5392262389e+01     1.229976    0.4712826  54.49  0.005525405    1.968    0.492
        39  -7.5619     74.6484     85.2831   8.9176458268e+01   5.0806572060e+01    0.1528631    0.1138804  71.78 0.0002454329    1.656    0.396
        40  -7.9773    110.1067    201.1586   1.0027645452e+02   1.9366122594e+01    0.1665667    0.1303583  59.20 0.0003264462    1.304    0.233
        41  -7.4532     69.4801     81.5017   9.0034715393e+01   5.2578953672e+01     0.147723    0.1392311 -87.86 3.460969e-05    1.073    0.068
        42 -10.7438     13.3760     60.2657   1.0945381126e+02   6.4388692914e+01    0.3297108    0.2519414 -84.42  0.001331619    1.278    0.217
        43 -13.8974      9.0300    208.1406   1.2322524581e+02   3.0168756387e+01     2.293807     1.366186 -50.76  0.006968463    2.521    0.603
        44 -10.8920     12.2421     53.0644   1.0852747873e+02   6.6216164353e+01     0.303134    0.2460539 -68.28  0.001878313    1.098    0.090
        45 -14.9667      8.3294    241.1779   1.2433377973e+02   2.4295281763e+01      3.29708     2.202254  20.23   0.02392009    1.862    0.463
        46 -11.6283    192.5126     45.0191   4.8025686371e+01   3.0684432458e+01    0.5467651    0.4594128  19.77  0.001976674    1.448    0.310
        47 -10.1183     62.3442    199.7843   1.1094872996e+02   2.6167237809e+01    0.3997516    0.2106311 -55.53  0.001081664    2.297    0.565
        48  -9.1147    140.3450     45.9361   5.6809314979e+01   4.3796198131e+01    0.2875064    0.2350452 -85.72 0.0008685927    1.336    0.252
        49  -8.4085    143.7733     40.7494   5.4319866448e+01   4.3669253960e+01    0.2070272    0.1666974 -70.31 0.0005302073    1.334    0.251
        50 -14.5007     38.4755    249.2263   1.1899252944e+02   2.0037800505e+01     7.901253     2.265906  23.48   0.02102526   10.757    0.907
        51  -8.5122     32.7554     30.9861   8.9563557498e+01   6.9341648454e+01    0.1779852    0.1034154 -50.34 0.0007773273    1.592    0.372
        52  -8.1576     99.3281    180.9265   1.0016540355e+02   2.4835201492e+01    0.1768853     0.162747  60.44 0.0006907781    1.083    0.076
        53  -9.5640     59.3572    220.4395   1.1320887380e+02   2.2630097525e+01    0.3237201    0.1738194  24.38  0.001753305    2.044    0.511
