#   1 NUMBER                 Running object number                                     
#   2 MAG_AUTO               Kron-like elliptical aperture magnitude                    [mag]
#   3 X_IMAGE                Object position along x                                    [pixel]
#   4 Y_IMAGE                Object position along y                                    [pixel]
#   5 X_WORLD                Barycenter position along world x axis                     [deg]
#   6 Y_WORLD                Barycenter position along world y axis                     [deg]
#   7 A_WORLD                Profile RMS along major axis (world units)                 [deg]
#   8 B_WORLD                Profile RMS along minor axis (world units)                 [deg]
#   9 THETA_WORLD            Position angle (CCW/world-x)                               [deg]
#  10 FWHM_WORLD             FWHM assuming a gaussian core                              [deg]
#  11 ELONGATION             A_IMAGE/B_IMAGE                                           
#  12 ELLIPTICITY            1 - B_IMAGE/A_IMAGE                                       
         1 -15.0449    247.1793     76.3445   3.5956210822e+02   1.7762496966e+01     1.301614    0.6044797 -34.01   0.00717548    1.764    0.433
         2 -16.1633     58.2864     57.5913   3.2910180731e+01   6.0650295281e+01     1.182701    0.9338934  11.79  0.005263494    1.506    0.336
         3 -14.7395    215.5612     30.3152   3.5235530406e+02   2.9228160762e+01    0.7609074    0.7347205  33.12  0.005685442    1.479    0.324
         4 -14.1886     30.6145      9.8255   2.3125748087e+01   7.4202059538e+01     0.312832    0.2492549 -21.67  0.001922696    1.302    0.232
         5 -13.9473     58.9126      5.8400   7.2358534149e+00   6.8724724826e+01     1.099864    0.3763293  64.10  0.004197935    2.834    0.647
         6 -12.9703     65.0829      2.1793   3.2045716743e+00   6.7617430724e+01    0.6323124    0.2307141  70.25  0.002436646    2.825    0.646
         7 -12.9256    246.0003    226.2128   2.6278491782e+01  -2.5133369966e+00    0.3839513    0.2027519  -5.90  0.002493039    1.884    0.469
         8 -13.8200    233.9883    245.7017   3.0846405251e+01  -3.7450061816e+00    0.6488553    0.2684628 -29.46  0.004032759    2.039    0.510
         9 -13.3210    164.3905    247.8179   4.3094727951e+01   2.7827984472e+00    0.4438363    0.3054625   4.95  0.003004096    1.242    0.195
        10 -14.7499      3.7722    246.3764   7.7625135319e+01   2.0135221072e+01    0.7700917    0.3821037  72.65  0.004462067    1.919    0.479
        11 -13.4306    180.6221    219.0648   3.6021190616e+01   5.2110109588e+00    0.5034946     0.325038 -12.04   0.00305038    1.537    0.349
        12 -13.7176    163.9040    218.8038   3.9216816688e+01   7.2627816233e+00    0.4875628    0.3635585   3.52    0.0031222    1.206    0.171
        13 -13.7787    246.2382    207.9672   2.3485503292e+01  -2.9896092602e-01    0.7228268    0.3132764 -19.62  0.003830118    2.583    0.613
        14 -13.4124    235.5276    209.6508   2.5310850061e+01   5.3633208446e-01    0.4252151    0.2494351  -8.88  0.002571849    1.624    0.384
        15 -12.8197    240.4109    204.5719   2.3793270702e+01   7.0738745117e-01    0.3902819    0.2988476  14.87  0.002467297    1.379    0.275
        16 -13.5248    214.4579    210.6324   2.8767241151e+01   2.6046680101e+00    0.5949005    0.3046196  -6.57    0.0030085    2.663    0.624
        17 -13.0761    224.1022    210.4950   2.7195884235e+01   1.5942562166e+00    0.3784571    0.2198003 -17.74  0.002412287    1.540    0.351
        18 -13.9629    174.2495    204.6668   3.5012593410e+01   8.2767070128e+00    0.7518525    0.4318326 -27.44  0.004066063    1.769    0.435
        19 -15.7428    127.6498    197.4950   4.3835265241e+01   1.5910431608e+01     1.465072    0.7394832  32.21  0.006829243    1.822    0.451
        20 -12.8241    210.5668    201.5897   2.7966479305e+01   4.3292446933e+00    0.3001821    0.1972151  20.45  0.001887937    1.500    0.333
        21 -13.3938    232.1505    196.6727   2.3749401355e+01   2.6179284940e+00    0.5034183    0.2568927  24.94  0.003032197    2.128    0.530
        22 -13.0311    221.8779    189.7926   2.4187538767e+01   4.7331072318e+00     0.425523    0.1912161 -27.95  0.002205007    2.112    0.527
        23 -14.2510    210.3889    179.8240   2.4319063393e+01   7.6187888943e+00    0.8487482     0.447083 -18.50  0.004217223    2.321    0.569
        24 -13.2129    216.5050    179.0177   2.3189212639e+01   6.9716859675e+00    0.4374948    0.2535399 -33.24  0.002131551    1.441    0.306
        25 -12.1794    232.1818    185.4489   2.1885813777e+01   4.1708665551e+00    0.2366051    0.1458731 -15.07  0.001493198    1.536    0.349
        26 -14.8134    147.3286    181.6908   3.6772235026e+01   1.6149825584e+01    0.7286109    0.4485907 -26.75  0.003526144    1.871    0.466
        27 -12.0804    193.2334    202.4323   3.1102561880e+01   6.2588580522e+00    0.2123235    0.1608418   2.02  0.001401707    1.176    0.150
        28 -13.2161    183.5058    178.9381   2.8885494325e+01   1.1366722872e+01    0.4805513    0.3276331 -24.59  0.002757485    1.393    0.282
        29 -12.7417    248.2891    176.2847   1.8061106961e+01   3.6413167784e+00    0.2822008    0.2253855   0.65  0.002192064    1.255    0.203
        30 -13.6890    171.3591    173.9952   3.0337657725e+01   1.3996313656e+01    0.4545193     0.376629  72.99  0.002597409    1.859    0.462
        31 -15.7350    128.2701    165.3319   3.8277942303e+01   2.2513946388e+01     1.070296    0.6650172  27.42  0.004991824    1.685    0.406
        32 -14.5276    222.5397    113.4316   9.7630924234e+00   1.6309738250e+01     1.479372    0.6122216 -30.49  0.006478492    2.522    0.603
        33 -14.8435    203.3001    118.3478   1.3478980488e+01   1.8679856352e+01     1.943192     1.326857 -52.20   0.01095952    1.451    0.311
        34 -15.8594    230.0455    133.8073   1.2834233842e+01   1.2056674133e+01     1.482589    0.7067345 -30.71   0.00760356    1.908    0.476
        35 -15.1318    236.7533    117.0137   8.7115973056e+00   1.3600270875e+01     1.055247    0.5985867 -45.16  0.004690633    1.485    0.327
        36 -15.6519    247.5640    108.8181   5.8896933973e+00   1.3217683638e+01     1.426002    0.6150343 -42.13   0.00765913    1.766    0.434
        37 -14.3432    248.5988     93.8425   2.8777308164e+00   1.5161402672e+01    0.6247962    0.4320397 -33.16  0.003177908    1.213    0.176
        38 -13.1255    206.7220    161.4893   2.1595653263e+01   1.1011232746e+01    0.3505292    0.2106228 -31.10  0.001968747    1.457    0.314
        39 -13.2341    229.3259    159.3525   1.7730697258e+01   8.3034700774e+00    0.4131974    0.2792783 -24.28   0.00219195    1.258    0.205
        40 -13.7717    176.1642    155.2228   2.5814278107e+01   1.6688989341e+01    0.7102598    0.3180372 -43.69  0.003121146    2.063    0.515
        41 -14.2190    227.8803     93.2211   4.9308503851e+00   1.8496887870e+01     1.124013     0.803626  85.51  0.006015409    1.889    0.471
        42 -14.9379    115.2573    150.5182   3.8761156812e+01   2.8028707265e+01     1.043149    0.7088144   7.53  0.004511894    2.079    0.519
        43 -14.5681    180.8291    139.5630   2.1741157145e+01   1.8792634189e+01     1.148049    0.5135536 -37.54  0.004938707    2.094    0.522
        44 -13.7970    246.9074    242.1250   2.8429288219e+01  -4.4296716332e+00    0.5909735    0.4044648  18.69  0.004851616    1.522    0.343
        45 -13.2565      2.3310    131.5083   7.3066223950e+01   4.7702285232e+01    0.2644652    0.1182558 -81.09   0.00109955    2.025    0.506
        46 -15.5268    148.5401    113.4303   2.2276813754e+01   2.9851828301e+01     2.156276     1.356603 -68.16  0.008995802    2.269    0.559
        47 -13.6950    151.5469     93.6632   1.6622501079e+01   3.3105180577e+01    0.5957218    0.4795833 -72.95  0.002994904    1.349    0.259
        48 -12.4274    208.2223     92.1778   7.0754960188e+00   2.2047962555e+01    0.4431062    0.2821787  43.63  0.002435381    2.013    0.503
        49 -10.5231    211.0108     86.9929   5.5728628408e+00   2.2345268589e+01    0.3876782    0.3113926  14.69  0.002015092    1.792    0.442
        50 -13.1481    175.2271     88.7278   1.1051507808e+01   2.8998855744e+01    0.5573487    0.4346836  72.28  0.003093729    1.437    0.304
        51 -13.5938    171.1854     78.5466   9.1222046980e+00   3.1575217907e+01    0.7765143    0.3797374 -43.42  0.003443343    1.813    0.448
        52 -16.0035     88.2159     75.9380   2.7879816239e+01   5.0696338303e+01     1.804754     1.078588 -42.85  0.007726796    1.717    0.418
        53 -15.4804     89.8888     60.3874   2.1947065212e+01   5.3496788367e+01      1.05215    0.6831266 -30.81  0.004685553    1.812    0.448
        54 -14.1878    158.4960     80.9949   1.1923892598e+01   3.3907975352e+01    0.5287781    0.4045728 -53.11   0.00227329    1.213    0.176
        55 -15.0560    103.4762     70.4237   2.1307761445e+01   4.8456335709e+01    0.9450638    0.7515492  84.95   0.00463128    1.444    0.307
        56 -15.0414    109.5946     59.6175   1.5981528186e+01   4.9056434612e+01    0.9394101    0.7461607  17.39  0.004586658    1.717    0.417
        57 -16.5184     33.4613     69.3691   4.9115383991e+01   6.1829686956e+01     1.504644     0.979297  29.88  0.007255946    1.559    0.359
        58 -12.0952    204.6364     70.0938   2.4952897620e+00   2.6074634542e+01    0.2160975    0.1681857 -77.91  0.001303997    1.343    0.256
        59 -15.2203    248.7999    143.2760   1.2204316220e+01   8.1621763486e+00     2.875715    0.4813593 -35.27  0.008608798    5.994    0.833
        60 -12.7975    209.1940    246.7994   3.4945291823e+01  -1.6349451763e+00    0.4088399    0.1900347   5.25  0.002190652    2.596    0.615
        61 -12.5094    212.8532     52.8548   3.5767925703e+02   2.6910871710e+01    0.1808506    0.1613844 -40.18   0.00104578    1.231    0.188
        62 -15.1793    240.5883    141.6315   1.2935366432e+01   9.4520633819e+00     1.032146    0.5645344 -37.49  0.005908533    1.418    0.295
        63 -15.9276    161.9254     59.3282   5.4162264215e+00   3.6722649811e+01     1.471117    0.6882055  69.19  0.006159159    2.402    0.584
        64 -15.8102    178.8229     52.3536   1.2052159037e+00   3.3979082632e+01    0.8223675    0.6108188  58.84  0.004717996    1.510    0.338
        65 -14.0407    248.0841     35.5884   3.5137853192e+02   2.2741705140e+01    0.3872454    0.2272034 -41.89  0.002578109    1.259    0.206
        66 -12.4685    223.5351    243.7356   3.2195909480e+01  -2.5900184493e+00    0.2541954    0.1178327  14.93  0.001541752    2.092    0.522
        67 -13.9605    113.9117    236.8715   5.2157238371e+01   1.0321862255e+01    0.3931349    0.3143137  20.96  0.002585719    1.044    0.042
        68 -13.3543    228.4318    227.6015   2.9116734251e+01  -1.0654079276e+00    0.5131685    0.2783215 -34.10  0.003432806    1.628    0.386
