#   1 NUMBER                 Running object number                                     
#   2 MAG_AUTO               Kron-like elliptical aperture magnitude                    [mag]
#   3 X_IMAGE                Object position along x                                    [pixel]
#   4 Y_IMAGE                Object position along y                                    [pixel]
#   5 X_WORLD                Barycenter position along world x axis                     [deg]
#   6 Y_WORLD                Barycenter position along world y axis                     [deg]
#   7 A_WORLD                Profile RMS along major axis (world units)                 [deg]
#   8 B_WORLD                Profile RMS along minor axis (world units)                 [deg]
#   9 THETA_WORLD            Position angle (CCW/world-x)                               [deg]
#  10 FWHM_WORLD             FWHM assuming a gaussian core                              [deg]
#  11 ELONGATION             A_IMAGE/B_IMAGE                                           
#  12 ELLIPTICITY            1 - B_IMAGE/A_IMAGE                                       
         1 -11.9756      2.0000     80.9824   1.0989590689e+02   5.9334728389e+01     1.441758          nan -65.49  0.003630874    7.017    0.857
         2 -13.1883    223.9118     32.4798   3.5749490822e+01   2.6624900290e+01     1.235311    0.9162053  40.30  0.007333068    1.945    0.486
         3 -11.6742    204.3614     49.0132   4.1676128713e+01   2.8709145882e+01    0.8881613    0.4392476 -44.86  0.004201361    1.865    0.464
         4 -12.4393    247.5278     11.8856   2.9674209411e+01   2.4263358299e+01     0.640331    0.3856164 -53.67  0.003308233    1.335    0.251
         5 -11.3183      1.8159     11.2498   8.9976261732e+01   7.3152655806e+01    0.4868567    0.2199749 -49.47  0.002732828    2.199    0.545
         6 -11.2884      2.4251      3.7787   8.6039958970e+01   7.4228132085e+01    0.5344521    0.3000049 -53.24  0.003106215    2.624    0.619
         7 -10.6473     76.6197    220.9078   1.0727376481e+02   1.7886948327e+01    0.7507742    0.1545632  42.28  0.002471532    3.780    0.735
         8 -13.3970    109.1735    238.4751   1.0209855862e+02   9.6141990872e+00     2.742945    0.8057423  29.37  0.008642328    4.412    0.773
         9 -12.0060     34.9662    249.1601   1.1836625516e+02   1.7227575654e+01     2.115715    0.5110005  29.19  0.007370789    5.203    0.808
        10 -11.7637     59.3765    246.2265   1.1335540208e+02   1.4915116345e+01    0.6341967    0.4603943  75.65  0.004094682    1.295    0.228
        11 -10.4483     15.2943    248.8410   1.2202780619e+02   1.9378249970e+01    0.2616232    0.2055127  68.87   0.00135505    1.072    0.067
        12 -12.4798      2.9681    244.3341   1.2405405451e+02   2.1450137858e+01     3.189596    0.3574732 -77.48  0.009886287    7.324    0.863
        13 -14.3861      3.3657    171.1581   1.1981721302e+02   3.7451008275e+01     6.874157     1.321149 -73.91   0.02364622    3.883    0.742
        14 -11.5534     10.8190    231.7479   1.2199063236e+02   2.3232079853e+01     1.024073    0.3358381 -86.88  0.004521959    3.135    0.681
        15 -13.5384     35.2499    192.3294   1.1395074881e+02   2.9517957936e+01      3.59071     1.227998  61.60   0.01144094    4.708    0.788
        16 -13.2703     26.9707    198.3326   1.1640145070e+02   2.8966996237e+01     1.169655    0.8278415  73.38  0.004915084    1.248    0.199
        17 -12.8833    110.5522    229.6855   1.0070611670e+02   1.1136141114e+01     1.848406    0.3840614  39.35  0.005943544    3.772    0.735
        18 -11.4486     99.8592    229.0587   1.0300600449e+02   1.2856378272e+01    0.5011988    0.3302199  43.32  0.002736649    1.330    0.248
        19 -12.2383     86.3364    234.7185   1.0662246108e+02   1.3646150396e+01    0.9641092    0.6282323  17.30  0.005002215    2.014    0.503
        20 -10.6502    138.4388    230.8809   9.4706670992e+01   6.6146255530e+00     0.273259    0.1667643  18.39  0.001214925    1.918    0.479
        21  -8.9205     59.1221    230.5089   1.1206982948e+02   1.8140873179e+01    0.2371255    0.1699926 -67.30 0.0009404986    1.476    0.322
        22  -8.8640     77.2730    226.0851   1.0768653757e+02   1.6689683202e+01    0.1775921    0.1508639  76.79 0.0003734188    1.125    0.111
        23 -10.0829    166.9080    222.5420   8.7238353264e+01   3.6738289057e+00    0.3713765    0.2337913 -65.24  0.001714752    2.603    0.616
        24 -12.0607     18.1163    206.3768   1.1897044681e+02   2.7997902089e+01     0.383378    0.2969175 -54.77 0.0007969551    1.542    0.352
        25 -10.0837     43.2221    218.0914   1.1441905232e+02   2.2734194220e+01    0.2925488    0.1814717  82.47 0.0004849489    1.576    0.365
        26 -10.0386     41.8214    208.9986   1.1394538674e+02   2.4925502091e+01    0.3577355    0.1894332 -75.98   0.00111308    1.801    0.445
        27 -10.2599     37.5242    207.2267   1.1475715972e+02   2.5809289516e+01     0.441403    0.2408583  81.52  0.001552605    1.907    0.476
        28 -11.3650     49.3077    179.5916   1.0913761573e+02   3.1025625142e+01     0.508576    0.3989793 -14.39  0.001958693    1.770    0.435
        29 -10.8511     56.7787    173.2303   1.0639524151e+02   3.1698537236e+01    0.3065659    0.2530279 -39.39 0.0005883633    1.405    0.288
        30 -12.7500     10.6092    206.6730   1.2059511752e+02   2.8627931559e+01    0.7502853    0.6405614   4.39  0.003272007    1.674    0.403
        31  -8.6652    101.3264    171.6512   9.4240656389e+01   2.5605117136e+01    0.1587997    0.1131402  72.18 0.0007049205    1.755    0.430
        32 -11.4504     57.4974    132.0642   9.9744175150e+01   4.2079507187e+01     1.096032    0.4493697 -76.57  0.003187455    4.460    0.776
        33 -11.4245     54.1726    120.6036   9.8617633354e+01   4.5392536340e+01    0.8737044    0.3682121 -72.82  0.002897705    3.401    0.706
        34 -12.1873     68.1704    144.4379   9.8729607328e+01   3.7515292733e+01    0.8634383    0.6000332  74.97  0.003199097    1.796    0.443
        35 -12.6009     54.3880    159.7175   1.0518440427e+02   3.5395846418e+01    0.5441776    0.3303671 -39.81  0.001605586    1.970    0.492
        36 -10.3966     22.7726    155.9054   1.1345392344e+02   3.9642027774e+01    0.3066615    0.2014953 -80.51  0.001676711    1.338    0.252
        37  -9.7977     92.6295    143.1390   9.1241900384e+01   3.4125526615e+01    0.3321146    0.2785178  21.97 0.0008397003    1.301    0.231
        38  -8.8907     96.0020    139.8235   8.9562832511e+01   3.4387050541e+01    0.3134211    0.1981553 -40.51 0.0006748703    1.682    0.405
        39 -11.2090     80.3056    141.4245   9.4537258750e+01   3.6521576963e+01    0.3266549    0.2772188 -45.45 0.0003942484    1.169    0.145
        40 -10.4330     68.5032    163.3731   1.0179696569e+02   3.2647856048e+01    0.2847808    0.2557797 -41.48 0.0005510578    1.212    0.175
        41  -9.7753    106.1770    131.4039   8.4718022439e+01   3.4659718856e+01     0.355568    0.3094693   1.38 0.0009276661    1.297    0.229
        42  -9.7344     92.8098    127.8840   8.7883183747e+01   3.7894352218e+01    0.3011449    0.2395065 -28.02 0.0005408467    1.388    0.279
        43  -9.6513     65.5035    127.9995   9.6427374418e+01   4.2066942071e+01    0.2365314    0.1351371 -58.06  0.001037897    1.610    0.379
        44  -8.5974    113.9603    125.2019   8.0994219464e+01   3.4682140346e+01    0.2674099    0.1874411   1.39  0.001078298    2.142    0.533
        45  -8.8372    104.1715    119.8446   8.2539737763e+01   3.7816824696e+01    0.2144587    0.2059179  82.05 0.0002916952    1.113    0.102
        46  -8.3366     23.8241    116.8514   1.0801966264e+02   4.9368089931e+01    0.1754952    0.1462968  75.55 0.0004023359    1.317    0.241
        47  -8.9363    205.3378    110.7325   5.6248121236e+01   1.8337897191e+01    0.3457445    0.2218898  36.11  0.001358132    1.920    0.479
        48 -12.0928     76.6417    157.0297   9.8475073882e+01   3.3105889376e+01     1.155537    0.7530293  65.71  0.003994397    1.896    0.473
        49 -10.8277      2.4919     97.0222   1.1230017940e+02   5.5559938233e+01    0.3747775    0.2366983 -62.29  0.002182833    1.248    0.199
        50  -8.9382     28.3010    244.4802   1.1935352539e+02   1.8878079320e+01    0.1968122    0.1325981 -87.33 0.0006508611    1.381    0.276
        51 -10.6492     13.1955     60.4403   1.0073813832e+02   6.3277940600e+01    0.3535952    0.1819771 -51.97  0.001521289    1.551    0.355
        52  -9.8966    163.0806     83.9152   5.7558648307e+01   3.2700875011e+01     0.230513    0.2301421  44.80  0.001299997    1.053    0.050
        53 -11.8394    209.8663     43.3300   3.9669908680e+01   2.8260802964e+01    0.7537844    0.4064317 -45.99  0.003825902    1.693    0.409
        54 -11.6526     83.6242    245.4249   1.0829968693e+02   1.1900240529e+01    0.7430247    0.4183837  37.71  0.002097851    1.525    0.344
        55  -9.5922     18.8385     47.1474   9.4238856567e+01   6.5576600654e+01    0.1698855    0.1565122 -34.10 0.0006027949    1.250    0.200
        56 -11.8304     69.9420    246.4971   1.1122954635e+02   1.3515367369e+01    0.8301995      0.61696  53.94  0.003179726    1.116    0.104
        57  -9.8660    125.2895     33.1419   5.0426705780e+01   4.9492450845e+01    0.3089744     0.234462 -73.21 0.0006445018    1.673    0.402
        58  -9.5656    116.3897     24.8608   4.9598470056e+01   5.2526566252e+01    0.2944184    0.2093489 -65.17  0.001042129    1.895    0.472
        59  -8.0872     20.3479     52.6695   9.5246699297e+01   6.4364201364e+01    0.1140034   0.09715889  64.56 0.0007049218    1.763    0.433
        60 -11.4132    119.0021    225.0140   9.8198026146e+01   1.0781885277e+01    0.4700287    0.3999275 -11.61  0.002770459    1.406    0.289
        61  -9.0770    189.1002     15.4969   3.5392982554e+01   3.6336882993e+01    0.1910058    0.1102068  74.76 0.0006445587    1.550    0.355
        62 -11.2185     85.9390    222.7058   1.0537373359e+02   1.6198229135e+01    0.6804353    0.3982386  70.01  0.001852283    2.152    0.535
