#   1 NUMBER                 Running object number                                     
#   2 MAG_AUTO               Kron-like elliptical aperture magnitude                    [mag]
#   3 X_IMAGE                Object position along x                                    [pixel]
#   4 Y_IMAGE                Object position along y                                    [pixel]
#   5 X_WORLD                Barycenter position along world x axis                     [deg]
#   6 Y_WORLD                Barycenter position along world y axis                     [deg]
#   7 A_WORLD                Profile RMS along major axis (world units)                 [deg]
#   8 B_WORLD                Profile RMS along minor axis (world units)                 [deg]
#   9 THETA_WORLD            Position angle (CCW/world-x)                               [deg]
#  10 FWHM_WORLD             FWHM assuming a gaussian core                              [deg]
#  11 ELONGATION             A_IMAGE/B_IMAGE                                           
#  12 ELLIPTICITY            1 - B_IMAGE/A_IMAGE                                       
         1 -13.6587      6.1140     13.2979   1.2169209440e+02   7.0679409117e+01     2.291853    0.5798923 -46.39   0.01067007    2.629    0.620
         2 -13.3869    189.7200     28.2354   7.2594581380e+01   3.3956557849e+01     1.210499     1.071261  19.58  0.006121964    1.226    0.184
         3 -14.1209    201.3720     11.0250   6.6156725817e+01   3.2874699532e+01     2.043586     1.200761  41.71  0.009735681    1.916    0.478
         4 -10.1432     88.6850    249.0397   1.3965821691e+02   1.4572622258e+01    0.1438106     0.116512  72.15 0.0004297968    1.146    0.128
         5 -10.5833    138.4827    249.9573   1.3138136847e+02   7.3363172055e+00    0.1868906    0.1205538  43.40 0.0008404938    1.203    0.169
         6 -11.1802    125.5037    250.0000   1.3359136605e+02   9.2566075623e+00    0.3711512    0.1176956  42.01  0.001763326    2.454    0.593
         7 -10.3387    110.6696    250.5803   1.3614607697e+02   1.1313180609e+01    0.2692878   0.08043962  43.41   0.00127599    2.535    0.605
         8 -10.9673     98.4778    250.0075   1.3812413080e+02   1.3100017560e+01    0.2631084    0.1889298  56.24  0.001662975    1.064    0.060
         9 -11.0398    102.0999    247.3203   1.3727965337e+02   1.3004162425e+01    0.2484898    0.1896119 -80.88 0.0009410722    1.473    0.321
        10  -9.1077     74.3334    250.2914   1.4209032140e+02   1.6247253947e+01   0.08816862   0.07891205  29.07 0.0003154386    1.633    0.388
        11  -9.9674     67.2465    250.4400   1.4323395275e+02   1.7110668619e+01    0.1819454   0.09199115  50.82 0.0006945619    1.490    0.329
        12 -12.1172     27.1137    239.8399   1.4886592853e+02   2.3373339839e+01    0.7531767    0.2321534  64.14  0.003705285    3.378    0.704
        13 -10.3914     37.7864    249.5932   1.4775951752e+02   2.0669272932e+01    0.2709808    0.1373379  48.23  0.001541412    1.537    0.350
        14 -11.2314     30.7654    250.2534   1.4885042659e+02   2.1318608083e+01    0.5215029    0.1558935  49.53  0.002023861    2.311    0.567
        15 -12.0729     35.3857    245.1907   1.4788383292e+02   2.1630679184e+01    0.4477743    0.4022364 -40.84  0.003841721    2.010    0.503
        16 -15.2444     19.4265    171.3368   1.4581632369e+02   3.6768668133e+01     6.484159     1.996736 -87.78    0.0232895    4.925    0.797
        17 -10.6391    160.5808    226.5003   1.2459446188e+02   7.2123224184e+00    0.2706753    0.0994005  42.05  0.001227237    2.222    0.550
        18 -11.3402     82.3649    243.4229   1.4024005357e+02   1.6284147873e+01    0.4541789    0.2075482  67.17  0.002388309    2.651    0.623
        19 -11.1511     46.0678    248.1806   1.4641029102e+02   1.9972452170e+01    0.2871375    0.1568962  72.00  0.001565679    1.569    0.362
        20 -10.5718    174.3728    222.2164   1.2146600118e+02   5.5559066814e+00    0.3284063    0.2580485  87.73  0.001663491    1.997    0.499
        21 -14.9786      3.2376    234.0711   1.5220866262e+02   2.6641620482e+01     6.855257    0.5554803 -71.74   0.02693808    6.551    0.847
        22 -14.6673     57.2012    212.2340   1.4200832616e+02   2.4799215008e+01     7.188914          nan  46.19   0.01986597    8.160    0.877
        23 -10.3297    233.8531    237.7346   1.1343590332e+02  -5.8323137662e+00    0.1716904    0.1532664 -61.29  0.001220633    2.070    0.517
        24  -8.8486    152.7640    212.8128   1.2412443803e+02   1.0593052687e+01     0.161267    0.1284869  58.44 0.0003758828    1.271    0.213
        25 -11.4188     68.5369    197.6860   1.3855493485e+02   2.6114152318e+01    0.3216294    0.2148121 -50.09  0.001631444    1.906    0.475
        26  -9.9809    192.7818    194.3969   1.1350961832e+02   6.4619155681e+00    0.5605549    0.2936693 -61.67  0.001773062    6.228    0.839
        27 -11.6033     73.6816    190.1633   1.3674552310e+02   2.6904804702e+01    0.2372691    0.2143349 -62.22 0.0004859026    1.326    0.246
        28 -12.7697     44.2854    232.2443   1.4570051104e+02   2.2784517655e+01    0.3142721    0.2531487  54.56 0.0007857131    1.284    0.221
        29  -8.8944    104.8864    180.6534   1.2908773925e+02   2.4265703095e+01    0.1730638    0.1424574  60.75 0.0004646287    1.113    0.101
        30 -13.2435     70.0221    175.4165   1.3579610158e+02   3.0360878822e+01    0.4500032    0.2622448 -45.75    0.0016966    2.225    0.550
        31 -10.9368     82.5932    177.6160   1.3340433524e+02   2.8202315403e+01    0.2210915    0.1978784  84.00 0.0004278923    1.057    0.054
        32 -13.7969     10.3087    206.8307   1.4980323523e+02   3.0736588029e+01     1.021693    0.7455556  60.94  0.006835083    1.202    0.168
        33 -12.0243     88.5076    167.7832   1.3078090857e+02   2.9383046164e+01    0.9109747    0.5338311  60.89  0.004603085    1.872    0.466
        34 -13.1257     66.1686    142.7465   1.3224768204e+02   3.7872461045e+01     1.852302    0.9090286  87.68  0.003390033    4.309    0.768
        35  -9.9865    101.0463    151.9905   1.2541854503e+02   3.0802541922e+01    0.2699201    0.2261531 -47.70  0.000761818    1.269    0.212
        36  -9.1555    103.6726    147.7046   1.2403857562e+02   3.1296060708e+01    0.2616348     0.177367 -32.66  0.001270648    1.951    0.487
        37 -12.0252     90.0118    151.4041   1.2791543534e+02   3.2647686140e+01    0.2695558    0.2393773 -38.14 0.0005793078    1.315    0.239
        38 -10.7744     42.9506    148.7137   1.3855466715e+02   3.9260023568e+01    0.2642339    0.1536589  68.93   0.00143769    1.890    0.471
        39  -8.4934    192.2186    143.9845   1.0347926310e+02   1.4859222228e+01    0.1811161    0.1170654 -36.21 0.0003682437    1.570    0.363
        40  -9.1445    242.0177    138.7668   9.3131859050e+01   5.6034533511e+00    0.1702609    0.1118857  44.19 0.0004079084    1.580    0.367
        41  -9.7844    111.5034    136.9366   1.2008408978e+02   3.2293401425e+01      0.34038     0.236517 -23.91  0.001375902    2.050    0.512
        42 -10.4412     99.1151    134.3117   1.2262702574e+02   3.4956964965e+01    0.2685916    0.2183133 -35.03  0.000693418    1.387    0.279
        43  -9.6612     44.3218    130.3123   1.3580979261e+02   4.3183752201e+01    0.1225288   0.08575649 -41.94 0.0002977191    1.653    0.395
        44 -14.0510     50.5019    222.6825   1.4400097343e+02   2.3721181827e+01     1.171437     1.027664 -85.19  0.009591525    1.338    0.253
        45  -9.2207    108.1252    123.9859   1.1820186878e+02   3.5697484185e+01    0.1983056    0.1924108 -61.05 0.0003305895    1.018    0.018
        46 -10.8738    168.2458    113.2255   1.0111734480e+02   2.5703336708e+01    0.3649309    0.3085798 -67.67  0.000853422    1.423    0.297
        47  -8.9492    203.3599    111.3198   9.3452530216e+01   1.8108395738e+01    0.1602671    0.1129825  14.36  0.000704341    1.767    0.434
        48 -10.3755    228.5792    227.9289   1.1276705359e+02  -3.9579991719e+00    0.2932416    0.2156229 -53.64   0.00162445    2.460    0.593
        49  -8.8633     34.2862    229.2043   1.4713603491e+02   2.4399442029e+01    0.2016503    0.1004311  53.12 0.0007288537    1.568    0.362
        50 -10.2580    249.3514    248.8244   1.1262129890e+02  -9.1621607369e+00    0.1591733    0.1122982  26.44  0.001164557    1.134    0.118
        51 -10.6968     81.3347    248.4074   1.4081159488e+02   1.5639060513e+01    0.2612332    0.1605499  66.10  0.001482557    1.428    0.300
        52  -8.5899     73.8336     38.4241   1.0346395664e+02   5.8736304129e+01    0.1654939    0.1184422  19.44 0.0003577829    1.457    0.314
