#   1 NUMBER                 Running object number                                     
#   2 MAG_AUTO               Kron-like elliptical aperture magnitude                    [mag]
#   3 X_IMAGE                Object position along x                                    [pixel]
#   4 Y_IMAGE                Object position along y                                    [pixel]
#   5 X_WORLD                Barycenter position along world x axis                     [deg]
#   6 Y_WORLD                Barycenter position along world y axis                     [deg]
#   7 A_WORLD                Profile RMS along major axis (world units)                 [deg]
#   8 B_WORLD                Profile RMS along minor axis (world units)                 [deg]
#   9 THETA_WORLD            Position angle (CCW/world-x)                               [deg]
#  10 FWHM_WORLD             FWHM assuming a gaussian core                              [deg]
#  11 ELONGATION             A_IMAGE/B_IMAGE                                           
#  12 ELLIPTICITY            1 - B_IMAGE/A_IMAGE                                       
         1 -13.3903     57.2775    129.4023   1.0196631214e+02   4.2615824555e+01     3.381864      1.05704 -71.68  0.007149797    8.326    0.880
         2 -13.9056    227.3660     20.2826   3.5061429409e+01   2.6776632098e+01    0.9469658    0.8955889  47.33  0.002719906    1.402    0.287
         3 -14.1196    210.2518     36.5753   4.0494224080e+01   2.8588870091e+01     1.704132     1.434477   1.47   0.00743027    1.650    0.394
         4 -12.4392    218.1070     29.1776   3.7917079765e+01   2.7747116824e+01    0.4581432    0.3662775  40.07   0.00113398    1.663    0.399
         5 -11.9020    248.0667      2.6065   2.9905551567e+01   2.4429658972e+01    0.4608913    0.2459566 -89.29  0.002725167    1.736    0.424
         6 -13.2966     31.8864    204.3696   1.1799508973e+02   2.7349361935e+01    0.5132928    0.4307131 -48.60  0.001277429    1.544    0.352
         7 -11.2359    139.0192    249.3415   1.0030439824e+02   3.5715343122e+00     0.274269    0.2250632 -76.12  0.001766591    1.592    0.372
         8 -12.9119     62.5938    174.9066   1.0769996621e+02   3.0582634001e+01     1.242294    0.6147341 -31.34   0.00386618    5.279    0.811
         9 -13.9054      4.3753    181.7943   1.2225699600e+02   3.5047409566e+01      1.90937    0.5619264 -81.79  0.007035818    3.113    0.679
        10 -16.3243     35.7373    188.1768   1.1571374311e+02   3.0620269353e+01     11.07621     4.668969  71.37   0.04265395    3.353    0.702
        11 -10.8784    192.2710    193.4286   8.0237914553e+01   4.7101419092e+00    0.5652241    0.3312584 -66.43  0.001950158    4.435    0.775
        12 -10.4687    109.8174    201.2696   9.9984975413e+01   1.7423763315e+01    0.3073875    0.1978433 -68.96 0.0008139313    1.773    0.436
        13 -10.1482    208.5102    197.0062   7.7672306027e+01   1.3502908071e+00     0.201564    0.1250772 -36.79 0.0006189712    1.572    0.364
        14 -15.5085      8.7304    240.0816   1.2475946889e+02   2.2298754460e+01     2.082502     1.590866  57.60   0.01595349    1.184    0.155
        15  -9.0585    107.4218    190.1429   9.8844514417e+01   2.0282736978e+01    0.2035007    0.1348431 -76.50 0.0009439022    1.825    0.452
        16  -9.4179     80.9729    182.3338   1.0413260204e+02   2.6235651172e+01    0.4141871    0.1435844  41.66  0.001538494    2.691    0.628
        17  -9.6350     99.3625    181.0474   9.9363144602e+01   2.3693355692e+01     0.235894    0.1962854  26.59 0.0005300392    1.312    0.238
        18 -10.2802    173.0567    244.9523   9.2891488384e+01  -8.8632862871e-01    0.3206903    0.1853209 -63.52  0.001466378    3.425    0.708
        19 -12.6801     82.5814    156.2589   9.9549702104e+01   3.2342228387e+01     1.004725    0.7160855 -49.14  0.001497516    1.409    0.291
        20 -14.1458     68.2459    144.3281   1.0144360202e+02   3.7413873177e+01     4.506941     2.013763  64.46  0.005141619    6.758    0.852
        21 -15.1714     10.3327    209.3913   1.2279793971e+02   2.8404438804e+01     1.596662     1.033301  65.01   0.01042327    1.275    0.216
        22  -9.4842    138.4717    171.4623   8.7966651551e+01   1.9018572677e+01    0.1481952     0.144263  53.72 0.0001189393    1.042    0.041
        23 -13.5347     62.3948    158.5634   1.0541500455e+02   3.4632240586e+01    0.5317571     0.327931 -46.29  0.001580839    1.745    0.427
        24 -15.4066     49.1748    249.0340   1.1794047150e+02   1.6163686579e+01     10.88379     3.105441  26.94   0.02170581   16.951    0.941
        25 -10.5120    133.6801    144.5503   8.3466669349e+01   2.6089033465e+01     1.103059    0.2043645 -52.89  0.001960278    9.428    0.894
        26  -9.6843    174.8958    149.1479   7.4678232594e+01   1.6677197212e+01    0.2288133    0.2128222  86.98 0.0005527831    1.257    0.205
        27 -11.7468     58.4507    147.0124   1.0468890383e+02   3.8034294176e+01    0.6051799    0.3291191  24.07  0.002683421    2.237    0.553
        28  -8.9978    179.3124    145.6791   7.2919627249e+01   1.6491629462e+01    0.1503026    0.1227254 -82.23 0.0003244207    1.651    0.394
        29 -10.8990     30.1803    143.8624   1.1218396720e+02   4.1933901988e+01     0.385714    0.2901962   0.33  0.001937515    1.792    0.442
        30  -9.8313    100.5116    138.9678   9.1166651439e+01   3.3679926628e+01      0.36976    0.2420651 -29.12   0.00114801    1.989    0.497
        31 -12.4119     85.3140    140.7598   9.5867704333e+01   3.5776231436e+01    0.3159436    0.2681482 -42.87  0.000439539    1.199    0.166
        32 -10.5413     97.1682    142.1838   9.2791427569e+01   3.3469281579e+01    0.3308427    0.3005999 -41.46  0.000838274    1.119    0.106
        33 -11.7023     75.4193    136.3627   9.7868039760e+01   3.8390354443e+01    0.4493884    0.2987229  61.28 0.0004418491    1.844    0.458
        34  -9.6896     45.6395    135.8290   1.0657778435e+02   4.2370079291e+01    0.2001483    0.1196609 -76.70  0.000718836    1.670    0.401
        35 -10.9110    107.2413    131.1349   8.7507825866e+01   3.4371689260e+01    0.5059687    0.3640244  36.62  0.001970638    1.446    0.308
        36 -11.4891     67.0901    127.5254   9.8602837351e+01   4.1794334354e+01    0.5977131    0.3188844 -71.15  0.002424699    2.174    0.540
        37 -10.8670     17.7017    130.3511   1.1399112244e+02   4.6345300882e+01    0.2524071     0.230392  49.84 0.0008525713    1.265    0.210
        38 -10.0963    135.7510    128.7596   7.9197726813e+01   2.9297221878e+01    0.3708355     0.196177 -51.96  0.001416153    1.962    0.490
        39 -11.0230     95.8978    127.2368   8.9873818498e+01   3.7355015275e+01    0.3519401    0.2770901 -19.87  0.001108418    1.528    0.345
        40  -9.3748    115.7649    125.0207   8.3649325139e+01   3.4207680908e+01    0.2605441    0.1772271 -22.01  0.001065237    1.989    0.497
        41  -9.5756     91.8915    216.3141   1.0609238791e+02   1.6985002080e+01    0.2083682    0.1654605  88.60 0.0003124366    1.307    0.235
        42  -8.5241    163.3225    121.6569   7.0683436738e+01   2.4918219817e+01    0.1612106    0.1251064 -80.58 0.0007050414    1.729    0.422
        43  -9.1666    146.4873    172.0109   8.6151880341e+01   1.7386807562e+01    0.2061628     0.135315 -76.04 0.0008093098    2.483    0.597
        44  -9.6143    106.0560    119.6898   8.5092889230e+01   3.7329606578e+01    0.2016218    0.1948633   7.44 0.0003559051    1.071    0.066
        45  -9.1142    168.0351    113.2017   6.7460529454e+01   2.5621671339e+01    0.2584348    0.1855251  85.47  0.001071325    2.096    0.523
        46 -10.0735    205.1758    110.6432   5.9426912059e+01   1.7909631041e+01    0.3207452     0.251348  32.80  0.001137473    1.473    0.321
        47 -10.1599    134.2998    105.0829   7.3399407990e+01   3.4862781626e+01    0.3939481    0.1866217 -49.25  0.001424857    2.203    0.546
        48  -9.0024    224.9941    103.5222   5.4443833265e+01   1.5027100569e+01    0.1828996    0.1219599 -87.65 0.0004070421    2.350    0.574
        49  -9.9857    241.3392     99.2944   5.1099281861e+01   1.2484782674e+01    0.1292005    0.1040225   3.44 0.0002577052    1.653    0.395
        50  -8.9839    130.9868     96.4861   7.1857330078e+01   3.7408748280e+01    0.2184424    0.1395176  71.44 0.0008099393    2.498    0.600
        51 -10.8683     53.0674     91.1383   9.4989442094e+01   5.2456077226e+01    0.3009665    0.1829739 -47.54  0.001020838    1.443    0.307
        52  -9.8938     41.7419     92.0585   9.9303333431e+01   5.3537671597e+01    0.2106753    0.1914075  -6.46 0.0004870451    1.183    0.155
        53 -10.1995    249.8530     87.8577   4.7481009867e+01   1.2690103531e+01    0.1860147     0.135293 -58.32  0.000467149    1.321    0.243
        54 -10.6493    244.9569     88.5287   4.8241157722e+01   1.3527335576e+01    0.1853866    0.1321501  60.84  0.001037409    1.610    0.379
        55 -11.9771     75.3141    162.6525   1.0258797332e+02   3.1837007202e+01    0.4747098    0.3652944  45.65  0.000367265    1.315    0.240
        56  -9.0149    160.6944     82.6691   6.0782208028e+01   3.3259634849e+01    0.1541847    0.1209084  11.41 0.0007037927    1.659    0.397
        57  -9.7498    243.3277     78.3169   4.6197056127e+01   1.5453676417e+01    0.1240649    0.1032294   5.72 0.0004182871    1.678    0.404
        58  -8.8415     25.7000     68.2992   9.9548150796e+01   6.0425371545e+01     0.114855   0.09889799  78.94 0.0002619367    1.580    0.367
        59 -11.3413     13.3860     60.1998   1.0261758404e+02   6.3085228176e+01    0.3026506    0.2131131 -62.85 0.0004586598    1.388    0.280
        60 -10.5803     41.6878     59.3437   9.0223418867e+01   6.0710268446e+01    0.3269995    0.2059149  43.56   0.00166588    2.072    0.517
        61 -13.1649     58.4008    242.7911   1.1571307792e+02   1.6216355321e+01    0.4604199     0.285963  60.16 0.0006728058    1.377    0.274
        62 -13.6721    201.6363     42.3167   4.2933987846e+01   2.9822047252e+01     1.293983    0.8412409  39.56  0.004522787    2.043    0.511
        63  -9.5069    197.7867    223.1590   8.4517005928e+01  -1.2482171473e+00    0.1791211    0.1637707  13.38 0.0005327871    1.182    0.154
        64 -11.8057    183.8023    216.0617   8.6106725575e+01   2.1384286435e+00    0.4399308    0.3305365  74.20  0.002197289    2.436    0.589
        65  -9.1686     22.9603     57.4650   9.7672133295e+01   6.2945019441e+01    0.1602946   0.09667185  46.84 0.0008091162    2.504    0.601
        66  -9.9296     18.1921     55.1543   9.9104329922e+01   6.3797861500e+01    0.1495689    0.1440394 -61.11 0.0004416394    1.322    0.243
        67 -10.8236     12.0940     53.1382   1.0127066179e+02   6.4642217284e+01    0.1994593    0.1305326 -35.04 0.0006632147    1.259    0.206
        68 -10.1833      6.2253     50.3667   1.0318461684e+02   6.5568694085e+01    0.1458414    0.1053804  22.70 0.0005405169    1.657    0.396
        69 -10.6056    134.2231     41.0525   5.3780022140e+01   4.6286299010e+01    0.3663084    0.2490295 -79.04   0.00106003    2.150    0.535
        70  -9.1656    134.8338     33.8049   5.1265806878e+01   4.7075801659e+01     0.178707    0.1556539 -79.31  0.000246076    1.280    0.219
        71  -8.6968    115.4836     31.4857   5.4763250912e+01   5.1912517288e+01    0.1370206    0.1256969  41.98  0.000810191    1.022    0.022
        72 -10.2780    189.4740     15.2206   3.7542156706e+01   3.5941785720e+01    0.2379477    0.1635276  76.48 0.0007276505    1.309    0.236
