#   1 NUMBER                 Running object number                                     
#   2 MAG_AUTO               Kron-like elliptical aperture magnitude                    [mag]
#   3 X_IMAGE                Object position along x                                    [pixel]
#   4 Y_IMAGE                Object position along y                                    [pixel]
#   5 X_WORLD                Barycenter position along world x axis                     [deg]
#   6 Y_WORLD                Barycenter position along world y axis                     [deg]
#   7 A_WORLD                Profile RMS along major axis (world units)                 [deg]
#   8 B_WORLD                Profile RMS along minor axis (world units)                 [deg]
#   9 THETA_WORLD            Position angle (CCW/world-x)                               [deg]
#  10 FWHM_WORLD             FWHM assuming a gaussian core                              [deg]
#  11 ELONGATION             A_IMAGE/B_IMAGE                                           
#  12 ELLIPTICITY            1 - B_IMAGE/A_IMAGE                                       
         1 -14.8119    165.0260     42.5510   7.6873875641e+01   3.8929864624e+01      1.24379     1.086449  -3.04  0.003882526    1.305    0.234
         2 -14.8418    181.4591      9.0315   6.4123723859e+01   3.8588411144e+01     1.750795    0.9633405  63.08  0.006211662    1.617    0.381
         3 -11.2062    133.8435    246.2551   1.2843512796e+02   7.3736417523e+00    0.1610505    0.1379256  54.86   0.00033176    1.119    0.106
         4 -20.1802     69.4463    177.5471   1.3349612630e+02   3.0341683644e+01     16.81263     6.219468 -67.82    0.0701336    2.683    0.627
         5 -13.2751    180.5272    193.6662   1.1169721801e+02   7.8262079821e+00    0.4429388    0.4053624  38.18  0.002008775    1.072    0.067
         6 -11.9393    169.5457    195.4877   1.1424363020e+02   9.5696462745e+00    0.2195264    0.2113759 -84.09 0.0005418089    1.203    0.168
         7 -14.0601    165.7957    188.9338   1.1387225496e+02   1.1439341219e+01    0.6526297    0.4647289  44.79  0.003470025    1.266    0.210
         8 -14.5153    174.2997    187.7984   1.1190775864e+02   1.0018915962e+01     1.125664    0.5431435 -42.59  0.004930472    2.301    0.565
         9 -12.7628    170.1671    183.3705   1.1195427421e+02   1.1607293040e+01    0.3831707    0.2888449  34.07  0.001086039    1.254    0.203
        10 -11.3816    112.5906    196.1406   1.2637690520e+02   1.9719399279e+01    0.5200875       0.3443   6.93    0.0021464    3.500    0.714
        11 -11.8941    106.0552    192.2963   1.2725854593e+02   2.1588625974e+01    0.7882411    0.5271419   4.28  0.003237524    3.609    0.723
        12 -13.9697    203.5125    174.4951   1.0349736509e+02   6.6598848381e+00     1.961711    0.5663871 -49.54  0.004636554    8.002    0.875
        13 -12.8521    202.4656    170.4619   1.0288516439e+02   7.5411598293e+00    0.3997019    0.2716007 -45.36  0.001359985    1.635    0.389
        14 -12.8556    205.2641    169.0014   1.0204227094e+02   7.2379402963e+00    0.8749086     0.405674 -54.33  0.003007815    3.881    0.742
        15 -12.8387    151.6326    182.5168   1.1574339647e+02   1.5344999188e+01    0.3221752    0.2694823  82.56  0.001608924    1.394    0.283
        16 -12.3454    199.1624    178.8911   1.0521837824e+02   6.7666378974e+00    0.5403798    0.3091699 -62.30  0.002030014    3.648    0.726
        17 -13.2414    195.2813    168.6731   1.0393783976e+02   9.2720667658e+00     0.475954    0.4172137 -29.11  0.000736525    1.182    0.154
        18 -12.5151    192.6752    164.2016   1.0353716077e+02   1.0585693546e+01    0.4700093    0.3192904  38.47  0.001694274    1.405    0.288
        19 -12.4667    160.3604    179.4280   1.1330384869e+02   1.4247293805e+01     0.446663    0.1739191  37.89  0.001629172    2.617    0.618
        20 -13.1328    177.0449    169.9321   1.0793003481e+02   1.2713108613e+01    0.5038403    0.2971464  38.60   0.00230108    1.623    0.384
        21 -14.5251    137.8945    171.2540   1.1676543202e+02   2.0231970236e+01     1.197911    0.5696759  48.09  0.004937639    1.995    0.499
        22 -13.0783    142.1013    165.8693   1.1480404984e+02   2.0526335507e+01    0.4162973     0.368978  81.42 0.0007201648    1.192    0.161
        23 -11.3309     10.9088    174.4538   1.4604370693e+02   3.7594536838e+01    0.1975188    0.1376996 -74.62 0.0004219628    1.311    0.237
        24 -11.9302    125.8019    171.9696   1.1965810565e+02   2.2366069254e+01    0.3225939     0.282076  87.48  0.001230843    1.169    0.145
        25 -12.2331    167.9472    243.6048   1.2183653787e+02   2.2808187574e+00    0.1870566      0.17983 -85.31 0.0005301093    1.341    0.254
        26  -8.7732      7.9376    238.6368   1.4996697146e+02   2.5333347771e+01    0.2829688    0.1099643  44.45  0.001775204    1.998    0.499
        27 -10.5110     12.4929    244.4149   1.4947918925e+02   2.3870968111e+01    0.1616061    0.1058833  64.99 0.0005639051    1.051    0.048
        28 -12.3591    164.7459    171.3113   1.1082161376e+02   1.4928367714e+01    0.3531207    0.2492412 -83.01  0.001569888    2.275    0.560
        29 -11.7064    230.0039    166.0168   9.6830104617e+01   2.9796430814e+00    0.1997355    0.1727871 -71.73 0.0007774072    1.679    0.404
        30 -10.9267     24.8002    165.1437   1.4231552495e+02   3.8349058158e+01    0.1991737    0.1825033  21.88  0.001187636    1.518    0.341
        31 -12.3790    115.3218    161.5081   1.2027761632e+02   2.6551382084e+01    0.6051846    0.2782955  55.10  0.002293081    2.535    0.605
        32 -10.5002     13.3612    163.1465   1.4469969952e+02   3.9830446756e+01    0.1621835    0.1391059 -88.34 0.0003846771    1.188    0.158
        33 -11.8312     13.6820    239.5667   1.4908136284e+02   2.4594164699e+01    0.2936692    0.1308646 -89.43  0.001861149    1.949    0.487
        34 -11.6094    189.1873    158.4744   1.0303803982e+02   1.2335770107e+01    0.3414849     0.231232  26.73  0.001370469    1.652    0.395
        35 -11.2050    138.9928    249.9816   1.2791589962e+02   6.0000336412e+00    0.2159697    0.1877303  -8.43  0.001531674    1.610    0.379
        36 -14.7761    132.5148    145.1297   1.1290573847e+02   2.6867700846e+01     1.240757      0.74424 -64.55  0.004419456    2.047    0.512
        37 -11.1232    131.2394    237.2369   1.2788004287e+02   9.2051817683e+00     0.253848    0.1576749 -60.89  0.001493278    2.002    0.501
        38 -10.3234    176.9644    154.9566   1.0483928601e+02   1.5554262068e+01     0.218448    0.1800382  86.41 0.0004942014    1.570    0.363
        39 -12.7902    161.7804    153.3865   1.0782003426e+02   1.9066535612e+01    0.3584912    0.2816354  52.03  0.001094701    1.250    0.200
        40 -10.5086    192.2960    153.6286   1.0135787348e+02   1.2572313194e+01    0.1462586    0.1176329 -79.61 0.0007027945    1.734    0.423
        41 -12.1733    174.4260    148.5564   1.0398726493e+02   1.7333550444e+01    0.3832135    0.2899201 -60.01  0.001150956    1.554    0.356
        42 -14.2592    144.1797    145.3781   1.1015123798e+02   2.4422595183e+01     1.005848    0.5359046 -63.78   0.00366812    2.739    0.635
        43 -10.2856     13.3881    233.9264   1.4887828572e+02   2.5625470393e+01     0.152106   0.08674547  77.71 0.0005579805    1.331    0.249
        44 -10.8141    138.6772    246.3190   1.2755456022e+02   6.5978481126e+00     0.206377    0.1369998  67.12  0.001232039    1.757    0.431
        45 -12.7722    134.6612    109.4561   1.0391267562e+02   3.4232328980e+01     1.493881     0.183574 -45.66   0.00283312    8.234    0.879
        46 -14.1505    135.7493    128.5539   1.0840119467e+02   2.9840688820e+01     1.424187    0.4092366 -49.88   0.00412785    3.704    0.730
        47 -11.3231      5.0344    137.4309   1.4454221005e+02   4.6203637706e+01    0.2357568    0.1960651 -55.07    0.0012061    1.388    0.279
        48 -10.8650    171.1605    137.3997   1.0216456013e+02   2.0250043352e+01    0.2196317    0.1428193  57.94 0.0009428216    1.695    0.410
        49 -11.8269     16.3919    249.7840   1.4909000888e+02   2.2551368384e+01    0.1763641    0.1182712  68.96 0.0005825547    1.024    0.024
        50 -12.4579    160.5845    127.7676   1.0225040682e+02   2.4567101443e+01    0.4491836    0.3428397 -65.86  0.001842374    1.550    0.355
        51 -12.5041    202.4842    223.8339   1.1257333951e+02  -6.6715551985e-01    0.2451597    0.1540826  37.42  0.001356531    1.326    0.246
        52 -10.6045     22.6427    138.0582   1.4019306122e+02   4.4680595453e+01    0.1887037    0.1804331   4.51 0.0007323411    1.409    0.290
        53 -11.9349    125.0482    243.8828   1.2979108728e+02   9.1279734092e+00     0.197246    0.1566002 -62.06 0.0007598293    1.560    0.359
        54 -11.1061    130.8144    213.5692   1.2496994587e+02   1.3310053176e+01    0.2181175    0.1683937 -85.86 0.0007395408    1.534    0.348
        55 -10.5841    116.5458    213.4074   1.2784507532e+02   1.5731967943e+01    0.1888086    0.1620948  72.17 0.0001286667    1.117    0.105
        56 -10.7919    115.9530    210.0152   1.2753180320e+02   1.6463641945e+01    0.2178845    0.1551264  49.93 0.0004711023    1.187    0.157
        57 -10.9920    167.8553    112.7789   9.6828312785e+01   2.5934286375e+01     0.362308    0.2474095  87.54  0.001407636    2.371    0.578
        58 -14.0273     11.7063    205.9976   1.4779274649e+02   3.1043352978e+01    0.4850765    0.3526077  37.05  0.002458117    1.651    0.394
        59 -10.9528    205.2710    110.1837   8.8549738899e+01   1.7615659178e+01    0.3121084    0.2226061  50.39 0.0008944507    1.433    0.302
        60 -10.9267    153.4716    202.0381   1.1863109820e+02   1.1381368923e+01    0.1882928    0.1356877 -52.43 0.0008264286    1.604    0.377
        61 -12.5345    153.5755    194.8704   1.1744636416e+02   1.2657237394e+01     0.389544    0.2589336 -57.77   0.00200411    1.790    0.441
        62 -11.1622      8.0888    102.1583   1.3997724221e+02   5.4022648811e+01    0.2408015    0.2151576  48.57  0.001776856    1.345    0.256
        63 -13.6162    162.6899    201.6840   1.1668494012e+02   9.7609162249e+00    0.8176295      0.45336 -69.87  0.003104904    3.929    0.745
        64 -11.8941    157.5973    199.5957   1.1738750652e+02   1.1061931505e+01    0.3571061    0.2257234  54.19 0.0007435391    1.593    0.372
        65 -10.9561    139.8115    200.3233   1.2120271658e+02   1.4162003237e+01    0.3395177    0.2237551  39.80 0.0008659284    1.372    0.271
        66 -14.4482    153.6341     56.9581   8.3731825328e+01   3.9716616688e+01     1.323281     1.103084  42.22  0.003246865    1.208    0.172
        67  -9.8182    160.0000    246.9001   1.2371644717e+02   3.0995909111e+00    0.1566052   0.07015114 -48.28 0.0007924875    2.874    0.652
        68 -12.9413    169.2995     34.1913   7.3498806182e+01   3.8929027575e+01    0.4195513    0.3833465 -24.41  0.000864386    1.187    0.158
        69 -11.0008     13.5030     59.9552   1.3074193185e+02   6.3071165183e+01    0.1773379    0.1608365  58.38 0.0004273256    1.399    0.285
        70 -10.8467    139.8584     32.1877   7.8336435792e+01   4.6781222315e+01    0.4229335    0.2265829  80.18  0.001560548    2.844    0.648
