#   1 NUMBER                 Running object number                                     
#   2 MAG_AUTO               Kron-like elliptical aperture magnitude                    [mag]
#   3 X_IMAGE                Object position along x                                    [pixel]
#   4 Y_IMAGE                Object position along y                                    [pixel]
#   5 X_WORLD                Barycenter position along world x axis                     [deg]
#   6 Y_WORLD                Barycenter position along world y axis                     [deg]
#   7 A_WORLD                Profile RMS along major axis (world units)                 [deg]
#   8 B_WORLD                Profile RMS along minor axis (world units)                 [deg]
#   9 THETA_WORLD            Position angle (CCW/world-x)                               [deg]
#  10 FWHM_WORLD             FWHM assuming a gaussian core                              [deg]
#  11 ELONGATION             A_IMAGE/B_IMAGE                                           
#  12 ELLIPTICITY            1 - B_IMAGE/A_IMAGE                                       
         1 -12.5598     75.2607     51.6355   7.9587492025e+01   5.7329317071e+01     1.406426     1.045897 -53.09  0.007409799    1.658    0.397
         2 -13.2947     42.4949     45.7639   9.0395485771e+01   6.3117252207e+01     1.150498     0.659988  44.06  0.000732065    2.426    0.588
         3 -12.1819    124.8563     28.0143   5.5830202071e+01   5.0401187512e+01      0.89999    0.4432349  43.86  0.003191386    1.922    0.480
         4 -12.4761    131.5099     14.8862   4.9703211573e+01   5.0204616640e+01     1.622083    0.5697743  57.81  0.006363092    2.341    0.573
         5 -13.0757    160.0828     27.6179   4.8814718004e+01   4.1684142521e+01     1.557639    0.8043878  71.76  0.001654746    2.011    0.503
         6 -10.7904    147.4550     17.1762   4.7593808893e+01   4.6016094152e+01    0.6576484    0.5112001 -21.13  0.003661507    1.431    0.301
         7 -12.2474     60.4284     46.8931   8.3409157300e+01   6.0537031935e+01     1.109354    0.5433157 -47.59  0.005006285    2.166    0.538
         8 -11.6479      6.0246     34.6872   1.0345064974e+02   6.8380903107e+01     1.640141    0.3808542 -51.04  0.001080289    2.707    0.631
         9 -10.3025     47.3098     18.8930   7.6962923678e+01   6.6912485921e+01    0.3382776     0.261969   0.65  0.001193173    1.067    0.063
        10  -9.9667     32.0298     12.2941   8.0882724688e+01   6.9861731508e+01     0.188821    0.1651158  27.62 0.0005049309    1.544    0.352
        11 -10.7352     21.9878      5.0316   8.2336805584e+01   7.2019760694e+01    0.2802792    0.2047882 -32.76   0.00100985    1.441    0.306
        12 -11.3631     14.1424     23.6273   9.5288116185e+01   6.9861540451e+01    0.4452907    0.3556712  18.38 0.0002475111    1.479    0.324
        13 -11.9492     26.5539     27.9057   9.0754648440e+01   6.8030041455e+01    0.5178191    0.4129768   8.62  0.002278803    1.278    0.217
        14 -12.3348     48.4091     12.9423   7.3592951345e+01   6.7541427277e+01    0.7756007    0.3077621  38.40  0.003659141    2.423    0.587
        15 -11.7760     20.2605     21.8827   9.1372313468e+01   6.9641475589e+01    0.7065334    0.2021813 -43.44  0.003089134    2.766    0.638
        16 -12.0245     22.8755     11.5630   8.5216236551e+01   7.1003262397e+01    0.7641196     0.409009   8.49   0.00424281    2.056    0.514
        17 -10.9335    178.6057     21.2328   4.4117281403e+01   3.7707229260e+01    0.5529841    0.2898202  42.37  0.001704179    2.245    0.555
        18 -11.3548    183.2263     25.2272   4.4629234947e+01   3.6091901553e+01    0.6017333    0.3922952  47.09  0.002959162    1.626    0.385
        19 -12.3859    104.5362     12.7746   5.4807145305e+01   5.6782904238e+01    0.5508447    0.4554931 -26.61   0.00189784    1.340    0.254
        20 -11.4263    105.9690     20.5839   5.7579368836e+01   5.5650551643e+01    0.3849422    0.2894742 -20.22 0.0005813579    1.395    0.283
        21 -10.7385    198.0520     29.1374   4.3781337292e+01   3.1930664452e+01    0.4904911    0.4134802 -16.73  0.001929415    1.396    0.284
        22 -11.8723     36.2495     18.6886   8.1939912383e+01   6.8424609441e+01    0.6111825    0.3826075 -35.78   0.00331109    1.502    0.334
        23 -10.9225    214.6495     22.8088   4.0275245029e+01   2.8660421105e+01    0.4097728    0.3269557   2.36  0.001657085    1.732    0.423
        24 -10.6269     87.3360      7.4076   5.7095904148e+01   6.1039808715e+01    0.5761984    0.3002385  56.11  0.002640818    1.837    0.456
        25 -11.3918     90.7334     21.0008   6.1990906666e+01   5.8912148058e+01    0.6253234    0.3739834 -22.37  0.002261115    1.719    0.418
        26 -11.3736     86.0468     14.2032   6.0469360826e+01   6.0635483459e+01    0.7483335     0.423334  13.47  0.002742998    2.164    0.538
        27 -11.8252    137.7036     23.1708   5.1396299281e+01   4.7817793752e+01     0.951453    0.5940046  56.34  0.003140069    1.430    0.300
        28 -11.9669     68.2269     18.1160   6.8174749656e+01   6.3626281698e+01    0.5222019    0.4625548  19.13  0.003419909    1.165    0.142
        29 -12.0265    238.0049     15.8853   3.6508668784e+01   2.4101871804e+01    0.5430443    0.3937491  59.74  0.002256707    1.538    0.350
        30 -11.3728    164.9497     18.0164   4.5092321552e+01   4.1508867044e+01    0.4715406    0.2729028  39.70  0.001511418    1.960    0.490
        31  -9.4318    192.1955     16.2354   4.1036428833e+01   3.4849433165e+01    0.4601083     0.212574  42.02  0.001844564    2.933    0.659
        32 -10.4489    226.0944     15.7588   3.7491819316e+01   2.6795083700e+01    0.3778614    0.2034204 -41.20  0.001646471    1.691    0.409
        33 -11.2651    211.8476      9.7543   3.7352917064e+01   3.0766230028e+01    0.4768611    0.3169889   6.46  0.001501078    2.476    0.596
        34 -11.3541    192.7492      7.3365   3.8614783639e+01   3.5622910264e+01    0.6022806    0.4005036  15.70  0.002694733    2.290    0.563
        35  -9.5688     94.4467     12.0824   5.7142387079e+01   5.9080330752e+01    0.2094483    0.1743121  65.81 0.0004294107    1.391    0.281
        36  -9.3848      4.5817     11.2567   9.5264435234e+01   7.2639851025e+01    0.3389955    0.1372691 -39.54  0.001880688    1.844    0.458
        37 -10.7977    242.3917      3.6674   3.3529059230e+01   2.4476871157e+01    0.3605116    0.1725295  68.90  0.001900447    2.007    0.502
        38  -9.9795    168.9081      9.7228   4.2063564216e+01   4.1335388521e+01    0.4374818    0.1526208  52.28  0.001696466    2.633    0.620
        39  -8.8075    163.1769      9.8252   4.2862277123e+01   4.2769996424e+01    0.2070727    0.1759227  39.23 0.0006814585    1.257    0.204
        40  -9.3957    163.5834      5.5321   4.1514998994e+01   4.3060206755e+01    0.3122991    0.1877829  31.42  0.001505088    2.092    0.522
        41 -10.0317     65.8934     10.1763   6.5282523184e+01   6.4962474233e+01      0.29712    0.1965046  50.25  0.001013162    1.653    0.395
        42  -9.9402     62.7833      6.9247   6.4833815479e+01   6.5865430346e+01    0.3095046    0.1963302  18.13  0.001411909    1.485    0.327
        43 -10.5619    232.7314      7.4295   3.5050421706e+01   2.6201102231e+01    0.3209031    0.2039505 -89.08 0.0009191262    1.454    0.312
        44 -10.4319    237.4032      6.1923   3.4426669828e+01   2.5297289206e+01    0.2559209    0.1388627 -49.70  0.001041863    1.595    0.373
        45 -10.3888    228.0299      3.6403   3.4565118542e+01   2.7651802324e+01    0.3553297    0.2289871 -51.82  0.001737356    1.379    0.275
        46 -11.1050    218.8828      3.0136   3.5141130398e+01   2.9806338545e+01    0.3047988    0.2742055 -43.26  0.001052616    1.242    0.195
        47 -10.1117    223.3583      1.8382   3.4516593582e+01   2.8894843466e+01    0.2511627    0.1859093  85.48  0.000974736    1.202    0.168
        48  -9.1899     78.4830      7.5097   5.9780149699e+01   6.2841042877e+01    0.2209039    0.1766311  43.12 0.0006145793    1.204    0.169
        49 -11.3911     75.4254      3.3861   5.8813773014e+01   6.3830584608e+01    0.7491155    0.3019108  44.59   0.00342849    2.062    0.515
        50 -11.0718     41.1559      5.0486   7.2769247005e+01   6.9574443642e+01    0.4620721    0.2379112  -6.89  0.002298597    2.327    0.570
        51 -12.0301    246.9128      7.2035   3.3962177305e+01   2.3130689882e+01    0.5445945    0.4909548   2.14  0.003780087    1.583    0.368
        52 -10.2313    183.3780      4.9831   3.8986792532e+01   3.8160632440e+01    0.3419698    0.2245833 -36.35  0.001655344    1.592    0.372
        53  -9.8263    154.2654      6.9879   4.3243477506e+01   4.5272435752e+01    0.3850948    0.1792932  70.36  0.001122715    1.958    0.489
        54 -10.8520    176.6208      5.6521   3.9937303213e+01   3.9780952168e+01    0.4186042    0.2257385  80.78 0.0009349817    1.798    0.444
        55 -10.9316    114.2599      3.6627   4.9000930961e+01   5.5346953496e+01    0.5209032    0.2793014  53.19  0.000573708    1.549    0.355
        56 -11.1289    106.4922      1.8645   4.9948978237e+01   5.7292590495e+01    0.5855834    0.3173238  66.96  0.001807821    1.857    0.462
        57 -11.1141    142.6008      2.5068   4.3534886328e+01   4.8566249728e+01    0.3924656     0.263663  49.46  0.001133603    1.348    0.258
        58 -11.9763    133.9834      2.6663   4.4969609833e+01   5.0680808277e+01    0.4590963    0.2738331  63.35  0.001303629    1.443    0.307
        59 -10.1750    207.7266      2.5940   3.5981627504e+01   3.2464210771e+01    0.2359349    0.2075108  82.15 0.0008134418    1.115    0.103
        60  -9.9169    204.4697      1.4944   3.5999757854e+01   3.3345621851e+01    0.3299923    0.1535449  64.84  0.001319388    1.927    0.481
        61  -9.8928    158.4942      2.1732   4.1167235230e+01   4.4626642962e+01    0.4510618    0.1591325  51.42  0.001802927    2.545    0.607
        62 -10.2482     12.8945      1.9209   8.5777030737e+01   7.3373407162e+01    0.2721858    0.1530697  14.00  0.001503386    1.708    0.415
        63 -11.2731      3.2680      1.8346   9.1511922404e+01   7.4201294893e+01    0.4093597     0.166648  13.31  0.002182118    2.725    0.633
        64  -9.2387    123.1420      1.2155   4.6351855590e+01   5.3428360288e+01    0.3151664     0.101321  67.52  0.001148634    2.977    0.664
        65 -10.1258     82.2146      1.3099   5.5812266727e+01   6.2639378431e+01    0.1997201    0.1004512  52.66 0.0003433603    1.746    0.427
        66 -12.5961     17.1971     12.6234   8.8788092344e+01   7.1404586310e+01    0.8088967    0.5013143 -16.96  0.004663507    1.376    0.273
        67  -9.3122    152.0809      1.0000   4.1668507986e+01   4.6327030653e+01    0.2216427   0.06702528  69.18 0.0007018031    2.874    0.652
        68  -9.7558    215.1198    150.9345   7.1912047913e+01   7.9899540269e+00    0.2141331    0.2018976 -45.37  0.001226767    1.214    0.177
        69 -10.3021    143.2999    248.7029   1.0398100665e+02   3.9347237948e+00    0.2918409    0.1866738 -34.01  0.001673594    2.152    0.535
        70  -9.7469     71.5230    151.3678   1.0633928526e+02   3.5249349925e+01    0.2929485    0.1829408  26.71  0.001395984    1.909    0.476
        71  -9.4013    234.5394    150.2082   6.8208511300e+01   4.4146864061e+00    0.2683057    0.1708299   6.97  0.001206248    2.155    0.536
        72 -10.1412    239.5866    146.7127   6.6570114488e+01   4.0676864840e+00    0.2633965    0.2055214 -10.28 0.0007439314    1.248    0.199
        73 -11.0790    249.5519    142.6910   6.4042881001e+01   2.9261300437e+00    0.6267636    0.2517481 -36.57  0.002614124    2.174    0.540
        74 -10.2801    133.2960    141.0559   8.7898762980e+01   2.7007721613e+01    0.3517092    0.2930861 -62.66   0.00121316    1.277    0.217
        75 -11.8935     23.2509    135.1419   1.1704256335e+02   4.4602853354e+01      1.00342    0.4047603  44.45  0.004594376    2.685    0.628
        76 -12.3198     30.0733    132.9237   1.1488725124e+02   4.4542956183e+01    0.4270968    0.2977827  84.07 0.0002902863    1.436    0.304
        77  -9.6292     79.2276    137.9984   1.0187516582e+02   3.7395974363e+01    0.2803283    0.2066341 -64.96  0.001124599    1.285    0.222
        78 -10.5987     67.4194    135.6694   1.0477899699e+02   3.9654154336e+01    0.3672146     0.219023 -43.62  0.001221785    1.805    0.446
        79 -10.3196     47.4637    135.5258   1.1040113467e+02   4.2153126884e+01    0.4684846     0.164868 -61.86  0.001345974    2.355    0.575
        80 -10.4050     39.7040    137.6098   1.1286964851e+02   4.2473557026e+01    0.2375748    0.2096725  67.81 0.0003921503    1.176    0.149
        81  -9.4882    216.5644    136.1468   6.8256837301e+01   1.0345054947e+01    0.3745506    0.1371929 -34.60  0.001249343    2.693    0.629
        82  -9.1846    192.4350    136.4687   7.3060521843e+01   1.5352905917e+01    0.1514269    0.1436537 -16.72 0.0001262687    1.017    0.017
        83 -10.8864     93.0339    131.4860   9.6653008138e+01   3.6789832573e+01    0.7260749     0.281642 -59.74  0.002468729    2.803    0.643
        84  -8.9505    107.6089    145.8270   9.5654917126e+01   3.0813824685e+01    0.2052784      0.14106 -67.39 0.0003115732    1.594    0.373
        85 -10.2259     74.2856    132.3670   1.0219895164e+02   3.9503193344e+01    0.2925453     0.212269 -29.10   0.00143151    1.722    0.419
        86  -9.9936     61.7410    132.3636   1.0580985010e+02   4.1217605277e+01    0.3300851    0.2940677 -10.90  0.001924658    1.359    0.264
        87  -9.5607     39.3080    132.8573   1.1229348609e+02   4.3672789222e+01    0.2171841     0.169862  54.01 0.0005841727    1.376    0.273
        88  -9.2988    103.6932    130.8795   9.3514728834e+01   3.5081604458e+01    0.2451419    0.2061639  24.44 0.0003918836    1.316    0.240
        89 -11.0748     10.6578    127.1589   1.1953852524e+02   4.7468731953e+01    0.4849924    0.1886015 -58.90 0.0008028709    2.041    0.510
        90 -10.4288     81.9598    125.6041   9.8592121555e+01   4.0007400042e+01    0.4045241    0.2903443 -22.10  0.001119024    1.856    0.461
        91  -9.1782    224.0783    126.8494   6.4724947295e+01   1.0459156702e+01    0.2169293    0.1848832 -53.19 0.0005410577    1.284    0.221
        92 -10.3072     22.8911    127.0340   1.1611684476e+02   4.6584012390e+01    0.1855427    0.1642846 -77.14 0.0003152909    1.088    0.081
        93  -9.5760      2.6487    126.1500   1.2160907975e+02   4.8221633026e+01     0.268878    0.1643564  82.48  0.001508575    1.562    0.360
        94 -10.2860      4.3942    120.8867   1.2057273480e+02   4.9354376588e+01    0.5098126    0.1754027 -62.40  0.002347714    2.121    0.529
        95 -11.6823      2.2731    111.9260   1.2016106281e+02   5.1583031704e+01    0.4428193    0.2985539  69.26   0.00222104    1.616    0.381
        96 -11.4854      3.8709    105.6165   1.1891182246e+02   5.2975016897e+01    0.4456854    0.3519233  88.42  0.002421739    1.232    0.188
        97 -10.8027     33.1162    144.2994   1.1553617074e+02   4.1507522651e+01    0.3026397    0.2727633  55.04  0.001422363    1.228    0.186
        98 -10.7940     55.2345    123.4356   1.0610196325e+02   4.4221789116e+01    0.5410284    0.4062666  -2.52  0.002733115    1.791    0.442
        99 -10.3052     18.8905    122.7489   1.1669413433e+02   4.7928720579e+01    0.3178873    0.1415407 -65.66  0.001552015    1.753    0.429
       100 -12.0152    104.1630    122.2171   9.1374060828e+01   3.7057937832e+01    0.4643692    0.4128782 -39.76 0.0008822471    1.119    0.106
       101  -9.9064     49.5323    122.9733   1.0772394380e+02   4.4999707971e+01    0.3028209    0.2111467  14.37   0.00118587    1.838    0.456
       102  -9.3862     87.3069    135.3311   9.9076564964e+01   3.6794814940e+01    0.1495595    0.1123196 -27.06 0.0006768645    1.662    0.398
       103  -9.2088     71.5116    120.8916   1.0070484580e+02   4.2710799087e+01    0.2207317    0.1308211 -56.94 0.0007504422    1.531    0.347
       104  -9.1623    221.2126    120.3944   6.3695617479e+01   1.2188185154e+01    0.1897033    0.1435166  63.59 0.0006245935    1.605    0.377
       105  -9.1724    148.2012    119.9742   7.8982210204e+01   2.8536945298e+01    0.2643358    0.1850294 -13.80 0.0008577374    1.986    0.496
       106 -10.6633     33.2462    119.3664   1.1199716273e+02   4.7545646557e+01    0.2950829    0.2529715 -87.33  0.001443288    1.135    0.119
       107  -9.5839    210.3148    117.9689   6.5061969308e+01   1.4952736338e+01    0.2546535    0.1007024 -52.79 0.0007047575    4.323    0.769
       108 -11.2387     45.5235    120.0448   1.0841336024e+02   4.6158076363e+01    0.6674026    0.3775477  80.54  0.002810976    2.694    0.629
       109  -9.6706    113.6365    115.8926   8.7113607301e+01   3.6738591449e+01    0.2602108     0.220148  20.00 0.0006830739    1.309    0.236
       110  -9.9733     94.8147    111.9811   9.1610421233e+01   4.1157170060e+01    0.4065381    0.2993419  24.09  0.001937419    1.559    0.359
       111 -10.6374    107.4284    111.9714   8.7883317678e+01   3.8847875935e+01    0.4547262    0.3378748 -79.30  0.001370034    1.805    0.446
       112 -11.0636    102.3947    109.6967   8.8768722297e+01   4.0323167746e+01    0.6575892    0.5251518   9.86  0.002533777    1.511    0.338
       113  -9.6451     80.0380    115.2411   9.6873546758e+01   4.2817658260e+01    0.3733319     0.247101 -80.37  0.001627926    2.042    0.510
       114  -9.2606     67.6347    114.3198   1.0049038075e+02   4.4853001189e+01    0.3372075    0.2443412 -89.02  0.001648261    1.723    0.420
       115  -9.7360     66.9682    110.6217   9.9885595575e+01   4.5839694187e+01    0.3411047    0.1962425  31.43  0.001568402    1.929    0.481
       116  -9.7870     26.5885     86.7904   1.0827870459e+02   5.5883026511e+01    0.7621697    0.5678234 -73.01  0.004570214    1.313    0.239
       117 -11.3133      9.4991     97.1720   1.1596192038e+02   5.4634794814e+01    0.6251643    0.4960909  84.06  0.001538973    1.338    0.253
       118 -12.0489      7.2046     88.7161   1.1539979158e+02   5.6729588432e+01    0.5338144    0.4395918  50.07  0.002476102    1.498    0.333
       119 -11.4756     42.1501     93.8540   1.0434192939e+02   5.2817532767e+01    0.4336234    0.3049927 -87.48  0.001280236    1.790    0.441
       120 -11.5588     35.6087     93.2098   1.0645922491e+02   5.3606492869e+01     1.284561    0.6400182 -69.76  0.005858196    2.048    0.512
       121 -12.7633     25.2205    106.9295   1.1246267717e+02   5.1235924016e+01     1.079399    0.9086357  -1.57  0.006244944    1.461    0.316
       122 -11.9525     18.7374    106.1231   1.1437950374e+02   5.1919229227e+01     0.285803     0.227764 -44.97 0.0002131153    1.245    0.196
       123 -11.6339     17.1943    101.0098   1.1406723545e+02   5.3241310591e+01    0.2701457    0.2329426 -37.08  0.000415955    1.246    0.197
       124 -11.6872     22.5317     94.8895   1.1125888015e+02   5.4303494653e+01    0.5173519    0.2979873  14.09  0.002769813    2.186    0.543
       125 -12.1803     18.2252     89.8964   1.1181909437e+02   5.5780330097e+01    0.5466074    0.2292414 -58.52 0.0004726889    1.791    0.441
       126 -11.3252     22.6163    114.0544   1.1438437730e+02   4.9731361535e+01    0.3980549     0.256321  -0.71  0.001827626    2.172    0.540
       127 -11.0619     28.1594    113.1473   1.1255347106e+02   4.9499769010e+01     0.317535    0.2740715 -14.93 0.0008225798    1.399    0.285
       128 -11.9580     44.1841     85.1426   1.0159712863e+02   5.4631840460e+01    0.8472738    0.4209079  29.68   0.00399741    2.259    0.557
       129 -10.8649     37.5027     86.0073   1.0420439146e+02   5.5107228432e+01    0.3089446    0.2486687  33.10 0.0009741363    1.457    0.314
       130  -9.7348    126.8963    113.7587   8.2885684186e+01   3.4525236406e+01    0.2407878    0.2147673   0.98 0.0008530347    1.234    0.190
       131 -11.2132    171.3935    109.9168   7.0868263622e+01   2.5336667454e+01    0.7591027    0.4778157  29.03   0.00271918    2.022    0.505
       132  -9.7589     48.7641    112.4045   1.0600306790e+02   4.7666913496e+01    0.2401194    0.2057686 -74.69  0.001214954    1.117    0.105
       133 -10.3137    120.2726    109.3957   8.3545095884e+01   3.6883848997e+01    0.3613402    0.2119188 -42.21  0.001485136    1.684    0.406
       134 -11.3075     78.8415    108.3077   9.5609496995e+01   4.4664509320e+01    0.7532499     0.382079  34.77  0.003147049    2.128    0.530
       135 -10.5773     89.9966    104.4796   9.1167240301e+01   4.3750855036e+01    0.3626543    0.3056396  14.35  0.001296007    1.328    0.247
       136 -10.6934     85.9603    103.9448   9.2286750628e+01   4.4555474135e+01    0.4893967    0.3362861 -14.06   0.00160986    2.060    0.515
       137  -9.5673     58.4751    108.4458   1.0210791102e+02   4.7478653301e+01    0.2770802    0.1271121 -60.33  0.000679092    1.986    0.496
       138 -10.3290    157.5268    106.5174   7.3128209187e+01   2.9256079211e+01    0.4168167    0.3087499  -1.65  0.001639922    1.840    0.456
       139 -10.3299    143.2917    105.9764   7.6469953662e+01   3.2637781166e+01    0.3495412     0.307339 -78.57  0.001266492    1.320    0.242
       140 -11.8116    145.5962    100.3250   7.4309344984e+01   3.3294114074e+01    0.6154698    0.5244849 -17.00  0.002449994    1.269    0.212
       141  -9.3802    167.3045    105.0635   7.0474944826e+01   2.7262318343e+01    0.2197957    0.2017533 -45.73 0.0004596474    1.089    0.082
       142  -8.3950     45.6911    105.6660   1.0565183953e+02   4.9633106937e+01    0.1432861   0.09071609 -37.16 0.0006028301    1.674    0.402
       143  -9.9534     57.2211    102.7048   1.0124724163e+02   4.9013723649e+01    0.3219361    0.1725696 -56.42  0.001478262    1.633    0.388
       144 -10.1628     57.4933     97.9781   1.0006469782e+02   5.0103068851e+01    0.2522852    0.2164936 -43.38  0.001255659    1.064    0.061
       145  -8.9736     82.4430    102.5033   9.3024823129e+01   4.5467215144e+01     0.148598    0.1355425 -39.72 6.666104e-05    1.032    0.031
       146  -9.6357     50.6081    101.7388   1.0321493999e+02   5.0031644834e+01     0.349957    0.1700779 -51.33  0.001060351    1.755    0.430
       147 -10.9412     52.2031     95.7491   1.0132889296e+02   5.1268913439e+01    0.5919742    0.3232129 -75.77  0.002330391    2.587    0.613
       148 -10.1692    210.0270     98.5719   6.0266290185e+01   1.8490217360e+01    0.5063423    0.3263519 -11.73  0.002103786    2.202    0.546
       149  -9.5495    120.7798    101.2015   8.1147424660e+01   3.8596120408e+01    0.2225907    0.1867321  -7.47  0.001070516    1.361    0.265
       150 -11.6576     67.1408     95.3653   9.6184376376e+01   4.9439140886e+01    0.4847165     0.444206 -19.74  0.001534373    1.116    0.104
       151 -11.1418     89.8366     89.4971   8.7094668291e+01   4.7185122886e+01    0.7308948    0.3727688 -34.18  0.002829546    2.258    0.557
       152  -9.8023     80.7084     98.4229   9.2516347740e+01   4.6695143726e+01    0.2815983    0.2369521  -3.15 0.0008654338    1.340    0.254
       153  -9.4755     77.2282     96.8351   9.3227145103e+01   4.7610162150e+01    0.2650885    0.2072377  13.19 0.0005789695    1.480    0.325
       154 -11.2798     79.0356     92.8738   9.1567815829e+01   4.8236031171e+01    0.8492802    0.3784073  37.52  0.003371178    2.389    0.581
       155  -9.9734    141.1941     96.1295   7.4221824375e+01   3.5170683129e+01     0.492998     0.187221  40.06  0.001535361    3.009    0.668
       156  -9.9456    117.5016     93.3016   7.9802245128e+01   4.0992852977e+01    0.3380373    0.2659872 -10.66  0.001138396    1.509    0.337
       157 -10.9169    124.6012     93.6489   7.7907243105e+01   3.9401470514e+01    0.6680223    0.3485937  42.99  0.001921157    1.949    0.487
       158  -9.6325    160.0079     93.4789   6.8905250475e+01   3.1277881541e+01    0.4926914    0.2726968  72.79  0.001545834    3.513    0.715
       159 -10.8221    152.1132     91.7013   7.0241479500e+01   3.3508172157e+01    0.5284103    0.4279067 -68.14  0.002261078    1.471    0.320
       160  -9.4567    104.3106     93.6465   8.3785456705e+01   4.3588437880e+01    0.2593896    0.2125731 -69.66  0.000922003    1.458    0.314
       161 -10.8081    100.0311     90.9745   8.4313784425e+01   4.4995063662e+01    0.5730117    0.3821294  27.59  0.001845339    1.699    0.411
       162 -10.2622    104.3795     86.8235   8.1742417646e+01   4.5048149585e+01    0.4108397    0.2925844 -29.61  0.001910291    1.470    0.320
       163 -10.9769    113.6838     83.4950   7.7945118692e+01   4.3846995474e+01    0.4059139    0.3771332 -47.46  0.001417943    1.117    0.105
       164 -11.6654    120.8816     86.8464   7.6910965537e+01   4.1623719878e+01    0.7023636    0.4553638 -48.73   0.00306593    1.603    0.376
       165  -9.5157    200.5060     88.3841   5.9299921070e+01   2.2480796972e+01     0.355783    0.2313863 -65.86   0.00149514    2.056    0.514
       166  -9.9296     66.7366     88.6327   9.4550949790e+01   5.1046438191e+01    0.3661098    0.2340069 -22.39  0.001300183    1.979    0.495
       167 -11.7610     76.1413     79.9694   8.8828538282e+01   5.1562747637e+01    0.9965307    0.7876856  73.69  0.005017756    1.845    0.458
       168 -10.9445     67.1141     81.9510   9.2555452409e+01   5.2493396395e+01    0.8455417    0.3775828  25.10  0.003258515    2.890    0.654
       169 -11.2216     58.0097     77.8167   9.4627773411e+01   5.4651694495e+01    0.4398808    0.2853565 -63.54 0.0003809271    1.751    0.429
       170 -12.6460     52.3851     73.7267   9.5528729727e+01   5.6255639869e+01     0.608362    0.3124541 -58.47 0.0007839674    2.007    0.502
       171 -11.3019     47.0714     74.5237   9.7753937717e+01   5.6705139924e+01    0.3483786    0.2243764 -57.33 -0.0001541599    1.471    0.320
       172 -10.3846    183.7328     85.8427   6.1727658971e+01   2.6955588688e+01    0.7216901    0.2692357 -44.01  0.002405211    2.706    0.630
       173 -10.7809    109.1126     80.6108   7.8394280693e+01   4.5386387344e+01    0.4450172     0.335193 -12.16  0.001384035    1.572    0.364
       174 -11.3881    142.5770     84.0783   7.0310105841e+01   3.7251931956e+01    0.5929189    0.3888689  40.56  0.001187672    1.568    0.362
       175 -10.5494    165.7986     83.5697   6.4763099389e+01   3.1748406028e+01    0.4156763    0.3449964 -66.08  0.001512627    1.360    0.265
       176 -11.8798    122.9166     69.0544   7.0699618436e+01   4.4633420931e+01    0.8038819    0.6183175  28.94  0.003073623    1.369    0.269
       177 -10.2635    127.5007     83.0517   7.3917165150e+01   4.0929201253e+01    0.3454975    0.3087002 -57.05  0.001697316    1.212    0.175
       178  -9.4320    102.6603     80.2013   8.0224803029e+01   4.6772465178e+01    0.3502599    0.1916768 -32.75 0.0009027341    1.981    0.495
       179 -10.2525    104.1491     75.6692   7.8319953826e+01   4.7393295661e+01    0.3827968    0.3451751 -84.46  0.001328037    1.382    0.276
       180 -10.6780    127.3681     77.1902   7.2119486698e+01   4.2101900826e+01    0.4394908    0.2865555 -44.16  0.001054501    1.564    0.361
       181 -10.6122    232.9352     77.3534   5.1437609329e+01   1.6880192231e+01    0.4127923    0.2318377 -38.00  0.001469263    1.593    0.372
       182 -11.6770     14.0135     74.7340   1.1038034602e+02   5.9524316342e+01    0.5059206    0.2898196 -65.01  0.001772177    1.469    0.319
       183  -9.5821    174.9135    246.8434   9.7658501950e+01  -7.3583183204e-01    0.2420686    0.1247501  31.85   0.00126926    1.665    0.399
       184 -11.2313     85.8113     73.6046   8.3543647330e+01   5.1283105231e+01     1.953814    0.8971082  23.57  0.006295939    3.857    0.741
       185 -11.0175     80.0011     67.7183   8.3592943031e+01   5.3479729283e+01    0.5064696    0.4168829  28.90  0.001294039    1.253    0.202
       186  -9.8954     84.0474     64.1876   8.0997535256e+01   5.3468985250e+01    0.2257025    0.1798206  -9.70 0.0006310297    1.292    0.226
       187 -11.7259     91.3297     62.6070   7.8003432370e+01   5.2430426482e+01     1.078373    0.4208794  45.45  0.003975427    2.712    0.631
       188 -11.0101     91.7052     57.8288   7.6187582906e+01   5.3235299899e+01    0.3933927    0.3443735  31.35  0.001341071    1.151    0.131
       189 -10.7240     87.5842     57.2060   7.7332508086e+01   5.4128937856e+01    0.5639228    0.2158137 -35.08  0.001836313    2.707    0.631
       190 -11.7052      1.9087     71.1774   1.1425370686e+02   6.0966499689e+01    0.5663953    0.1554373 -65.11  0.002404188    2.619    0.618
       191 -12.3974      5.7480     62.9864   1.1110190782e+02   6.2582057491e+01    0.7530163    0.3913758 -31.87  0.004198352    1.876    0.467
       192  -8.8005    134.6633     77.3292   7.0239017092e+01   4.0396842367e+01    0.1591439    0.1248621 -79.14  0.000705199    1.730    0.422
       193 -10.4793     14.5625     67.3032   1.0854391672e+02   6.1140767421e+01    0.3204429    0.2235878   2.22  0.001997922    1.678    0.404
       194 -12.2104    186.4286     70.4609   5.6936918152e+01   2.8930979901e+01    0.9755977    0.6563722 -36.60  0.003294638    1.461    0.316
       195  -9.9878    184.3960     61.2282   5.4690573699e+01   3.0912242863e+01    0.3021223    0.2278462 -41.57  0.001499037    1.309    0.236
       196 -10.5749     64.7101     75.3242   9.1460119819e+01   5.4283717992e+01    0.4168761    0.2840569   3.21 0.0005939851    1.852    0.460
       197  -9.0560    197.6419     74.6815   5.6141011552e+01   2.5489539472e+01    0.1545623    0.1157056  21.75 0.0007044474    1.758    0.431
       198 -10.6824     22.4016     36.9349   9.6270248286e+01   6.6794179922e+01    0.4484538    0.2356157  40.82   0.00229129    2.816    0.645
       199 -10.2783     13.0777     47.3224   1.0399887266e+02   6.5461129376e+01    0.4635722    0.1575588 -36.75   0.00202994    2.705    0.630
       200 -10.0262     17.5758     41.5232   1.0013254219e+02   6.6302885150e+01    0.3260058    0.1958821  -9.16   0.00189047    1.798    0.444
       201  -9.0829    199.2575    244.4578   9.2700967353e+01  -4.1578502639e+00    0.1732777    0.0980923  42.83  0.000953317    1.696    0.410
       202 -12.0582     21.4137     46.7942   1.0007399783e+02   6.4972230066e+01    0.5173804    0.4123278 -16.71  0.002762394    1.185    0.156
       203 -11.4396     33.6883     58.1660   9.8292669707e+01   6.1594520218e+01    0.6083612    0.3243451  -8.66 0.0006598037    2.694    0.629
       204 -10.7461     20.4571     55.4810   1.0309647699e+02   6.3273553971e+01    0.6502285    0.4337625  75.22  0.002828692    2.931    0.659
       205 -11.7342     27.3618     54.3822   9.9815275705e+01   6.2948748704e+01    0.8682576    0.5430298 -13.90  0.004171267    1.760    0.432
       206 -11.9240     40.5896     70.5213   9.9117328732e+01   5.8282134682e+01    0.8922211    0.2746989 -47.52  0.003477866    2.588    0.614
       207 -11.4760     32.4583     72.0033   1.0266871938e+02   5.8741361579e+01    0.5633759      0.27905  27.09  0.002245032    2.293    0.564
       208 -11.2594     40.9275     57.0397   9.4936120569e+01   6.1088168413e+01    0.4264209    0.3690908  77.50   0.00170587    1.721    0.419
       209 -11.5404     50.7779     61.1246   9.2278837542e+01   5.9112995798e+01    0.3443108    0.3239785  47.61  0.001126347    1.362    0.266
       210 -11.4901     46.1291     58.6737   9.3340241637e+01   6.0170872450e+01    0.5321633    0.2549307 -40.76  0.002498847    1.820    0.451
       211  -9.7972     24.4011     72.9863   1.0602632017e+02   5.9195004410e+01    0.3285998    0.1335146 -63.33   0.00145603    2.223    0.550
       212  -9.4669    152.7219     73.0343   6.4521814791e+01   3.6853828951e+01    0.4429885    0.1669122  39.73  0.001308679    3.545    0.718
       213  -9.9693    162.1361     70.6995   6.1745400894e+01   3.4935625247e+01    0.3263512    0.2831105 -77.69  0.001003727    1.293    0.226
       214  -9.0053    170.5784     77.7955   6.2079822788e+01   3.1610268576e+01    0.2143003     0.141803 -46.37 0.0003807502    1.544    0.352
       215  -9.9003    172.4674     68.5077   5.8991327054e+01   3.2728512732e+01    0.4583284    0.2905668  29.90  0.001726953    2.099    0.524
       216  -9.8307    171.8587     65.1582   5.8125153056e+01   3.3430465047e+01    0.5131295    0.4801744 -67.69   0.00278346    1.087    0.080
       217 -11.4546    219.9477     66.4202   5.0542163224e+01   2.1503077597e+01    0.6081386    0.3750166  58.97  0.002245114    1.689    0.408
       218 -10.9575     21.1958     65.6537   1.0549837815e+02   6.1050723704e+01    0.2671429    0.2213925  87.83 0.0004071001    1.560    0.359
       219  -9.1869     25.5892     65.4950   1.0368934538e+02   6.0748780792e+01    0.1981808    0.1593784 -21.24 0.0005650941    1.231    0.187
       220 -10.5775     59.5052     63.9801   8.9823401847e+01   5.7389819024e+01     0.537301    0.2329636 -39.65  0.001729413    2.151    0.535
       221  -9.9938     57.3182     61.2942   8.9775260827e+01   5.8232212575e+01    0.2517377    0.1916633 -26.26 0.0005597086    1.199    0.166
       222  -9.7243    192.5533     65.6047   5.4524579928e+01   2.8199966652e+01    0.2832216     0.241551 -71.70  0.000779872    1.219    0.180
       223  -9.7034     53.1709     66.0686   9.2922200433e+01   5.7793076231e+01    0.2635629    0.1867292  36.04  0.001094164    1.610    0.379
       224  -9.9715    202.7513     64.6507   5.2619350618e+01   2.5854990740e+01    0.3570333     0.227616  71.35 0.0001208512    1.720    0.418
       225  -9.7624    198.2906     62.9211   5.2855328962e+01   2.7209223483e+01    0.3411621    0.2252057 -58.12   0.00157194    1.656    0.396
       226 -11.4719    234.3632     61.2032   4.7371633997e+01   1.9012738180e+01    0.5585251    0.4291436  82.74  0.002745457    1.392    0.281
       227 -10.4169    159.2937     62.1644   5.9745569071e+01   3.7066509052e+01    0.5811843    0.2597705  46.04  0.002143927    2.285    0.562
       228 -10.8699    128.0348    242.0696   1.0613489544e+02   7.3870470942e+00    0.3401571    0.2953875  -8.46   0.00227167    1.508    0.337
       229 -11.3891    121.9190     59.6422   6.7809959328e+01   4.6519631314e+01     1.103805    0.5327644  36.60  0.004125938    2.391    0.582
       230 -11.0021    117.4992     56.2210   6.7831668354e+01   4.8098028261e+01      0.65718    0.4863401  41.73  0.002785375    1.309    0.236
       231 -11.7503    114.9813     49.2064   6.6036220769e+01   4.9796095473e+01    0.8605876    0.3810065  39.42  0.002121308    2.406    0.584
       232 -12.7804    119.6664     37.7103   6.0620202738e+01   5.0397094299e+01    0.8428386    0.6275054  83.84  0.003246019    1.853    0.460
       233 -12.4732    117.6623     43.3452   6.3193239646e+01   5.0069155126e+01      1.18157    0.5224232  59.21  0.004286894    2.581    0.613
       234 -11.7093    114.1065     38.6668   6.2412092168e+01   5.1549638461e+01    0.5502732    0.3264631 -28.35    0.0009386    1.748    0.428
       235 -11.6755    145.6929     46.9544   5.7780791144e+01   4.2799658846e+01     1.115513    0.4155498 -26.13  0.003715498    3.245    0.692
       236 -10.6587    136.3751     56.7757   6.3155188746e+01   4.3589247022e+01    0.6797506    0.4469095   1.41  0.002657363    2.237    0.553
       237 -10.4277    134.8372     50.8704   6.1540040033e+01   4.4886105001e+01    0.3446646    0.2796038 -70.40  0.001723126    1.538    0.350
       238 -10.8587    105.3732     58.2747   7.2048911645e+01   5.0397109382e+01    0.4821832    0.2843256  45.14  0.001790461    1.682    0.406
       239  -8.6721    219.6698     57.2938   4.8286483729e+01   2.2932094016e+01    0.1470024   0.09894915 -66.80 0.0004507396    1.631    0.387
       240 -10.3468    162.1835     45.1420   5.3906954224e+01   3.8905003724e+01    0.5388057    0.4215538  -2.33  0.002706977    1.551    0.355
       241  -9.5571     68.1838    240.5860   1.1751568226e+02   1.6357590033e+01    0.1554557     0.101705  33.18 0.0008013903    1.674    0.403
       242 -11.5191    156.7781     53.2014   5.7476102261e+01   3.9100501493e+01     1.090672    0.4672711 -44.68  0.003979338    2.560    0.609
       243 -11.0120    137.8233     33.5320   5.4941095960e+01   4.6567012699e+01    0.5417774    0.3637072 -60.81  0.001773354    1.965    0.491
       244  -9.2115    172.3075    239.3074   9.7078747239e+01   7.7794817861e-01    0.1245803   0.08749463  10.77 0.0007019522    1.611    0.379
       245 -10.8553    148.5894    237.7295   1.0152174118e+02   4.8382984591e+00    0.4282215    0.2223832  42.25  0.002043739    1.598    0.374
       246 -11.1638    155.8837     42.0164   5.4115234150e+01   4.0932225846e+01    0.3944079    0.3742722 -84.35  0.001160475    1.085    0.078
       247 -11.7133    153.1037     35.9982   5.2716315196e+01   4.2430055969e+01    0.3026013     0.292239 -56.69 0.0003886739    1.093    0.085
       248 -10.1347     68.3637     32.9926   7.4715480845e+01   6.1570250186e+01    0.4734388    0.3244073  39.14  0.002620941    1.490    0.329
       249  -9.4443     65.0866     28.4894   7.4025201343e+01   6.2786146087e+01    0.2210961    0.1459254  30.98  0.000637689    1.442    0.307
       250  -9.7662     59.5037     24.0060   7.4219788264e+01   6.4339439007e+01    0.2160437    0.1602525  -0.48 0.0004089029    1.224    0.183
       251 -10.2165     60.4403     19.9952   7.2005981155e+01   6.4729934106e+01    0.2699174    0.2285548 -50.15  0.001218997    1.737    0.424
       252 -10.1945     67.0062     54.5947   8.3731634227e+01   5.8130783451e+01    0.3202885    0.2134598 -47.08  0.001212544    1.548    0.354
       253 -10.9523    197.4975    232.0218   9.1084665064e+01  -2.1684440925e+00    0.2942787    0.1832808  31.42  0.001674909    1.347    0.258
       254 -11.4360     60.7827     36.4885   7.9126782897e+01   6.2256137130e+01    0.4652892    0.2737428 -41.88  0.001272746    1.750    0.429
       255 -11.2902     57.8867     30.3760   7.7700569796e+01   6.3663184161e+01    0.4696278      0.29369  -0.14  0.002371992    1.856    0.461
       256 -11.5531     48.8596     30.3613   8.1484561164e+01   6.4983864480e+01    0.6205913    0.2701487  30.85  0.002547679    2.387    0.581
       257  -9.0313      6.9809     54.9404   1.0872577021e+02   6.4240684255e+01    0.1416761    0.1084575 -45.84 0.0003900125    1.014    0.014
       258 -10.8724    244.8400     51.1211   4.3813600503e+01   1.8157931802e+01    0.4852383    0.2297732  81.29  0.002026337    2.895    0.655
       259 -10.8861    240.5242     50.0009   4.4021151073e+01   1.9248421098e+01    0.3479214    0.2812881 -26.79  0.001190722    1.347    0.258
       260  -9.5440    211.7054     53.2089   4.8314205685e+01   2.5406543975e+01    0.2462784    0.2072876  70.18  0.001378755    1.196    0.164
       261 -11.3243    201.5098     48.9595   4.8613660439e+01   2.8481426949e+01    0.7048726    0.3329564 -42.46  0.002966915    2.015    0.504
       262  -8.6447    215.6522     49.2986   4.6793191525e+01   2.5021484045e+01    0.1488397   0.09735922 -67.47 0.0004541958    1.682    0.406
       263 -10.8718    174.1816     48.0259   5.2630121706e+01   3.5453208768e+01    0.5660617    0.4354103  81.30  0.002859619    1.379    0.275
       264  -9.6007    176.7336     43.5850   5.0891292948e+01   3.5424729991e+01    0.3015283    0.2195915  86.59  0.001213694    1.514    0.339
       265 -10.4055     91.1024     47.7684   7.2667350584e+01   5.5081380935e+01    0.3025655    0.2234024 -36.37 0.0008162864    1.372    0.271
       266 -10.2258    247.4898    231.7013   8.1893760138e+01  -9.5278955718e+00    0.2126989    0.1539744 -23.92 0.0009958695    1.411    0.291
       267  -9.7158     23.5708    231.6464   1.2503124206e+02   2.3344311786e+01    0.1943901    0.1071215  47.05 0.0008314778    1.524    0.344
       268 -10.2077    242.3770    231.3411   8.2721762345e+01  -8.7804250064e+00    0.2521483    0.1325738  39.12   0.00140063    1.923    0.480
       269  -9.4567    108.3815    230.1657   1.0863551727e+02   1.2527325791e+01    0.1639442    0.1154635 -82.04 0.0005246246    1.690    0.408
       270  -9.6563     15.1449    233.6778   1.2661214786e+02   2.3827200321e+01    0.1977396    0.1270392 -82.23  0.001094299    1.419    0.296
       271  -9.4264    181.3233    228.3052   9.3637359620e+01   9.8803530959e-01    0.1308441   0.09007736   9.77 0.0007032682    1.641    0.391
       272 -10.0265    234.1741    223.0908   8.2747347931e+01  -6.5595843187e+00    0.1990418    0.1394588   6.31 0.0006146695    1.252    0.201
       273  -8.7863    209.4847    223.4829   8.7379474545e+01  -2.8432391292e+00    0.1302392    0.1032497  13.25 0.0008096184    1.056    0.053
       274  -9.5843      9.9780    217.9771   1.2671161434e+02   2.7360978016e+01     0.137923   0.09817963  79.37  0.000793959    1.062    0.059
       275  -9.1176    127.3767     49.7341   6.2970154852e+01   4.6846500856e+01    0.2062496    0.1405816 -17.20 0.0008335968    1.665    0.400
       276 -10.8608    138.1866     44.6161   5.8646037747e+01   4.4991438610e+01    0.6295496    0.2672705  40.11  0.002226733    2.732    0.634
       277  -9.2376    132.2892     45.3645   6.0260487985e+01   4.6321051190e+01    0.2791618    0.1791266  44.20 0.0008079779    1.494    0.330
       278 -10.1497     94.6055     76.2408   8.1502872357e+01   4.9139672393e+01    0.6043039    0.3869849  32.47  0.002119193    1.658    0.397
       279  -9.5478    234.2389     43.7311   4.3239400928e+01   2.1494333891e+01    0.3522275    0.1592999 -29.85   0.00152762    2.273    0.560
       280  -9.7200    231.5356     38.5734   4.2312351829e+01   2.2786197217e+01    0.3101602    0.1493573 -43.18  0.001449323    1.834    0.455
       281  -9.6757    228.4023     37.1866   4.2315787599e+01   2.3679650206e+01    0.3060596    0.1708347 -65.42  0.001435333    1.978    0.494
       282  -9.4207     94.9565     36.1774   6.6934244817e+01   5.6075294790e+01    0.2371169    0.2234651 -67.21  0.001405644    1.372    0.271
       283 -10.8831     93.5875     41.1977   6.9338154908e+01   5.5620145250e+01    0.7665026    0.4218724  55.40  0.003368671    2.153    0.536
       284 -10.1251     98.3111     41.6689   6.8054035222e+01   5.4575683325e+01    0.3804083    0.2605327  74.96  0.001429797    2.499    0.600
       285 -10.3932    189.1445     41.5222   4.8369303487e+01   3.2571825932e+01    0.5006921    0.2085212 -26.92  0.001164594    2.695    0.629
       286 -10.1348     86.2560     30.9494   6.7567162549e+01   5.8565769493e+01    0.4158747    0.2438734 -13.10  0.001943973    1.980    0.495
       287 -10.5297     81.6611     31.4655   6.9308271159e+01   5.9388713784e+01     0.405168    0.2958491 -60.58  0.002024128    2.270    0.559
       288 -10.6203     81.5505     40.0296   7.2854974410e+01   5.8145141988e+01    0.6865596    0.2900029  41.93  0.002855261    2.316    0.568
       289 -10.3884     77.8226     35.0028   7.2107898404e+01   5.9598206953e+01    0.6014205    0.3838016 -29.32  0.003135391    1.520    0.342
       290  -9.6736    193.7711     39.0117   4.7012367852e+01   3.1748239814e+01    0.2260923    0.1887606  71.41  0.000329202    1.149    0.130
       291 -10.1731    164.9912    212.2491   9.4358201334e+01   6.3814126153e+00    0.2696065    0.1880261  47.85 0.0009560738    1.414    0.293
       292 -11.1261    176.8756     36.1971   4.8704502991e+01   3.6365350986e+01    0.4562027    0.3538612  35.10  0.001616098    1.469    0.319
       293  -9.8987    172.0191     33.0075   4.8523773793e+01   3.8000376142e+01    0.3395692    0.2332748  74.52  0.001208068    1.446    0.308
       294 -10.6573    176.8766     29.8628   4.6855406211e+01   3.7150575349e+01    0.4608103      0.22461  56.38   0.00199828    1.888    0.470
       295  -9.2838    204.5296    208.5016   8.5699328134e+01   1.9912938448e-01    0.1336487    0.1130379  13.20 0.0008099439    1.005    0.005
       296  -9.6468    133.2445     36.9991   5.7136578289e+01   4.7245563743e+01    0.4074607    0.2697429 -70.22  0.001760712    2.319    0.569
       297  -9.5047    206.9241     37.0556   4.4758297859e+01   2.8766873593e+01    0.2096781    0.1941939 -81.46  0.000733704    1.037    0.036
       298  -9.7782    187.6252     55.4534   5.2513483151e+01   3.0983171909e+01    0.2739143    0.2448436  56.27   0.00101859    1.132    0.117
       299  -9.5825    153.3203    207.8962   9.6106659047e+01   9.2018132280e+00    0.2457991    0.1722352  47.04  0.001003131    1.347    0.258
       300  -9.6075     61.0520    206.8867   1.1589158243e+02   2.3941840762e+01    0.1914802    0.1538759  69.72 0.0005291707    1.036    0.035
       301 -12.1621    105.9323     32.9164   6.2442875658e+01   5.4166323073e+01    0.5348689    0.3178746  19.56  0.001341138    2.165    0.538
       302 -12.4057    113.1608     25.0442   5.7501453289e+01   5.3504792750e+01    0.8973626    0.4059286  54.04  0.003285445    1.989    0.497
       303 -10.5173    240.2425     32.2109   3.9971928838e+01   2.1657273777e+01     0.396621    0.3286664 -57.37  0.002510207    1.049    0.047
       304  -9.6929    238.5001    204.5443   7.8603313208e+01  -4.6852602559e+00    0.2583466    0.1138625 -33.78  0.001220906    2.199    0.545
       305  -9.0968    186.6861     32.6559   4.6242450716e+01   3.4332226875e+01    0.2042301    0.1257538  50.90   0.00053979    1.651    0.394
       306 -10.5787    189.5374     27.6914   4.4476789787e+01   3.4219760575e+01    0.3924993    0.2910495  21.36  0.001492136    1.817    0.450
       307 -10.9294      7.5283    192.5028   1.2572550327e+02   3.2820182613e+01    0.4302571    0.1627781 -55.72  0.002050371    3.156    0.683
       308  -9.3280    199.6943     24.6659   4.2399441539e+01   3.2057439869e+01    0.2404395     0.160365  29.42 0.0008495502    2.137    0.532
       309  -9.4001    221.7758     29.8170   4.1245226825e+01   2.6142622388e+01    0.1862328     0.176899 -48.55 0.0007222441    1.174    0.148
       310  -9.1324     99.5105     30.4460   6.3288982464e+01   5.5891680228e+01    0.2121139    0.1760423  53.00 0.0006278884    1.273    0.214
       311  -9.9275     98.1391     26.7642   6.2203489022e+01   5.6653250651e+01     0.258799    0.2257024 -32.35 0.0009318964    1.286    0.223
       312 -10.0132    230.6148     27.0612   3.9703978991e+01   2.4445224972e+01    0.3188461    0.1911645 -41.20  0.001029078    1.517    0.341
       313  -9.6114    250.5230     26.4341   3.7784619758e+01   2.0153050491e+01    0.2547862     0.111027 -33.08  0.001178451    2.154    0.536
       314  -9.5461    216.3729     32.8008   4.2562610279e+01   2.7041995422e+01    0.3026464    0.1989243  13.26  0.001363301    2.709    0.631
       315 -10.2529      4.4792    204.2873   1.2699330414e+02   3.0623109000e+01    0.2467136    0.1226541 -70.39  0.001163956    1.825    0.452
       316 -10.7302    211.3260     18.8570   3.9639495159e+01   2.9904051866e+01    0.2262471    0.1943706  88.82 0.0002672951    1.064    0.060
       317 -10.2041     86.0703     23.9526   6.4683320084e+01   5.9513368107e+01      0.19727    0.1660084  17.96            0    1.034    0.033
       318 -10.6932      6.1133    198.8203   1.2637797255e+02   3.1611304193e+01    0.3869009    0.1252544 -68.54  0.001906892    2.611    0.617
       319 -10.1998     16.6662    203.8816   1.2464235347e+02   2.9583559538e+01    0.2267999   0.07648452 -69.15  0.001101923    2.553    0.608
       320 -10.6654    245.6437    200.9094   7.6653900254e+01  -5.2624909762e+00     0.219285    0.1508845  17.97 0.0007164788    1.322    0.244
       321  -9.3288     45.0500     24.5651   8.0596265259e+01   6.6404059963e+01    0.2074936    0.1600065 -39.07 0.0006812374    1.471    0.320
       322  -8.6814    207.2815    201.3129   8.3838342724e+01   8.6350735150e-01    0.1357285   0.09416156   2.64 0.0003541991    1.571    0.363
       323  -9.2778    223.4960     22.0351   3.9205784712e+01   2.6676403572e+01    0.2032983    0.1550412  82.10 0.0006113821    1.233    0.189
       324 -10.4178    234.0863    196.9362   7.7952111176e+01  -2.9010998206e+00    0.3636799    0.2651172  10.22  0.001373113    1.258    0.205
       325  -9.7451     74.5228     19.5360   6.6579156571e+01   6.2299194114e+01    0.2501653    0.1774453  27.56 0.0006695847    1.266    0.210
       326  -8.8910     83.6212    195.8195   1.0974425159e+02   2.3195083326e+01     0.175722    0.1181022 -82.12 0.0005174078    1.573    0.364
       327  -8.5043    174.6869    194.3100   8.9179530664e+01   7.8474605722e+00    0.1342082    0.1112764  72.22 0.0004927102    1.629    0.386
       328  -8.8398      1.5004     20.6015   1.0087535985e+02   7.1240288788e+01    0.1133063    0.0827524 -31.01 0.0002226195    1.021    0.021
       329  -8.9176    194.5001     19.4272   4.1622023298e+01   3.3932454936e+01    0.2012504    0.1192294  82.72 0.0007276387    1.691    0.409
       330  -9.8508    169.8060    191.5042   8.9703309567e+01   9.2632591060e+00    0.3547406    0.2096951  27.18  0.001153505    1.832    0.454
       331  -9.2793     16.4146    191.7769   1.2388813778e+02   3.2174209293e+01    0.1517851   0.08991588 -70.57 0.0002261082    1.529    0.346
       332 -10.3846    186.3600     15.1636   4.1430149159e+01   3.6412822510e+01     0.252869    0.2113687  83.22   0.00033448    1.078    0.072
       333  -8.8116    174.2684     15.9733   4.3182824115e+01   3.9363692301e+01    0.1543844    0.1194937 -31.22 0.0004174554    1.401    0.286
       334 -10.1189    239.2687    185.3610   7.4752087511e+01  -2.0113617036e+00    0.4244297    0.2341488  -8.81  0.001879778    2.442    0.590
       335 -12.0080      4.7741    184.4834   1.2578155455e+02   3.4776508349e+01    0.5597371    0.4041461  77.11  0.002881041    1.088    0.081
       336 -10.3715    250.2908    178.8508   7.1529209400e+01  -2.8074113042e+00    0.4626236    0.1479034 -31.60  0.001755543    3.034    0.670
       337  -9.7019     27.9730    176.2681   1.2018332888e+02   3.4499657473e+01    0.2385286    0.1582428 -74.65  0.001103891    1.302    0.232
       338  -9.8025    231.0374    175.5277   7.4238655063e+01   8.9344382021e-01    0.4052268    0.1545466  39.12  0.001626986    2.662    0.624
       339 -10.1815     52.1405    173.7547   1.1433446503e+02   3.2427839050e+01    0.4661325    0.2067265 -88.13  0.001787746    3.167    0.684
       340  -9.8598    247.4368    173.9264   7.1014675134e+01  -1.6103612646e+00    0.4693309    0.1631903  30.91   0.00158744    4.249    0.765
       341  -9.7287     39.4970    173.5160   1.1728154994e+02   3.3933372460e+01    0.2078478    0.1741916  80.31 0.0009168872    1.040    0.039
       342 -10.5152     35.2633    170.0443   1.1791251850e+02   3.5188181106e+01    0.3999459    0.2284342  85.24   0.00204224    1.735    0.424
       343 -10.3830      8.6500    157.2645   1.2296364867e+02   4.0555965788e+01    0.3190163    0.1659218 -62.18 0.0009085709    1.704    0.413
       344 -11.6465      9.6467    166.9669   1.2351457471e+02   3.8261470009e+01     0.524433    0.3395816 -87.71  0.002168544    1.236    0.191
       345 -11.2720     13.7697    159.6481   1.2196821455e+02   3.9599975272e+01    0.4281908    0.2232363 -71.77  0.001427808    1.558    0.358
       346  -8.9902    197.8570    167.8496   7.9036749421e+01   8.3087629508e+00    0.1868595    0.1763161 -63.39 0.0008269596    1.305    0.234
       347  -8.6704    152.4239    166.5186   8.8726847312e+01   1.7569554804e+01    0.1478422    0.1423103  17.68 9.588796e-05    1.022    0.021
       348 -10.2464     18.7827    164.9853   1.2127008667e+02   3.7942718245e+01    0.2797661    0.2343249 -53.79  0.001701727    1.405    0.288
       349 -10.0057    205.1337    162.9949   7.6522861841e+01   7.7784981268e+00    0.3438983    0.2016672  34.77 0.0005745566    1.738    0.425
       350  -9.5498    209.2115    164.0130   7.5936325322e+01   6.8109735232e+00    0.2622701    0.1667616 -33.26  0.001252971    1.525    0.344
       351  -9.4735    188.6187    164.2189   8.0178312877e+01   1.0799658209e+01    0.2095656    0.1343564 -28.32 0.0006016739    1.673    0.402
       352 -10.4135     28.1574    161.7078   1.1874804934e+02   3.7842835942e+01    0.4082521    0.1477897 -67.29  0.001827599    2.253    0.556
       353  -9.7392     79.1018    160.3796   1.0580783456e+02   3.1987409944e+01    0.2862636    0.1793783 -85.54  0.001307782    1.908    0.476
       354  -9.4437    215.2480    158.3398   7.3530559039e+01   6.6557284865e+00    0.2790818    0.1642398 -25.79  0.001250979    1.777    0.437
       355  -9.4480    224.0566    157.1499   7.1614908518e+01   5.1919095356e+00    0.2641374    0.1800655 -56.68   0.00123768    2.062    0.515
       356 -10.0557     21.9858    155.5180   1.1961767427e+02   3.9862803259e+01    0.3025807    0.2200395  15.87  0.001782802    1.862    0.463
       357 -12.0872     22.7808    149.2656   1.1877541910e+02   4.1268875023e+01    0.5782585    0.2969552 -40.51  0.002247084    2.665    0.625
       358 -10.5314     15.8005    147.7330   1.2036852513e+02   4.2215036964e+01    0.2863252    0.2438851  68.43  0.001064756    1.195    0.163
       359 -11.6752     12.6216    139.2290   1.2031612282e+02   4.4467588177e+01    0.7346947    0.4089449 -83.17  0.003895133    1.536    0.349
       360 -10.6299    104.4976    154.1079   9.8114666398e+01   2.9400847548e+01    0.3717225    0.3253087 -64.32  0.002009448    1.124    0.110
       361 -10.8253     31.7921    153.2375   1.1694276398e+02   3.9493341774e+01    0.4554442    0.2972306  85.21  0.002559213    1.458    0.314
       362 -10.0216      3.4732    152.6413   1.2380043592e+02   4.2001009623e+01    0.3576052    0.1685917  80.56  0.001814462    2.091    0.522
       363 -11.2222      3.7791    147.3532   1.2329051586e+02   4.3199233088e+01    0.4657739     0.319553  41.29  0.002114843    1.623    0.384
       364 -11.6843      3.2206    139.5429   1.2274487641e+02   4.5051229984e+01    0.6254769    0.2795006 -76.13  0.003256092    1.750    0.429
       365 -11.1765     62.9989    150.7737   1.0851206186e+02   3.6545891481e+01    0.4219519    0.3217776  -5.00  0.001912949    1.918    0.479
       366 -11.2474     46.7441    148.1345   1.1243894582e+02   3.9158077768e+01    0.7063176    0.3366401 -61.66  0.003308365    1.811    0.448
       367  -9.1635     41.6448    149.0179   1.1389852300e+02   3.9501949975e+01    0.1841071    0.1681381  55.06 0.0006607373    1.206    0.171
