#   1 NUMBER                 Running object number                                     
#   2 MAG_AUTO               Kron-like elliptical aperture magnitude                    [mag]
#   3 X_IMAGE                Object position along x                                    [pixel]
#   4 Y_IMAGE                Object position along y                                    [pixel]
#   5 X_WORLD                Barycenter position along world x axis                     [deg]
#   6 Y_WORLD                Barycenter position along world y axis                     [deg]
#   7 A_WORLD                Profile RMS along major axis (world units)                 [deg]
#   8 B_WORLD                Profile RMS along minor axis (world units)                 [deg]
#   9 THETA_WORLD            Position angle (CCW/world-x)                               [deg]
#  10 FWHM_WORLD             FWHM assuming a gaussian core                              [deg]
#  11 ELONGATION             A_IMAGE/B_IMAGE                                           
#  12 ELLIPTICITY            1 - B_IMAGE/A_IMAGE                                       
         1 -14.2199     67.4473    147.4180   8.1486443556e+01   3.6740777160e+01     2.829084     1.499194  85.08    0.0130582    2.625    0.619
         2 -12.8759    204.7800     48.1679   2.6141149762e+01   2.7350320062e+01     1.079887     1.034538  14.82    0.0032211    1.056    0.053
         3 -13.3056    215.8574     39.2367   2.1912592693e+01   2.5666228585e+01     1.093373    0.8450341  27.56    0.0016288    1.466    0.318
         4 -11.6675      2.1901     22.6001   7.6143073372e+01   6.8809566713e+01    0.6186137    0.1461577 -59.11  0.002623803    3.298    0.697
         5 -12.4476    242.9631     14.5110   1.2046848876e+01   2.1748776189e+01    0.8975898    0.8325492 -41.54  0.004821681    1.071    0.067
         6 -11.1350     11.8375     11.2059   6.7772938194e+01   7.0244228116e+01    0.4123648   0.08059937 -45.23  0.001719136    3.213    0.689
         7 -11.3797      2.2361      4.0733   6.9481429034e+01   7.2082308854e+01    0.5195751    0.2841971 -32.39  0.003505906    1.425    0.298
         8 -10.4268    140.4799    221.4939   7.6858500063e+01   1.2076223825e+01    0.3190749    0.1571065 -62.24  0.001665568    2.828    0.646
         9  -9.1800    140.7874    249.7975   7.9970698779e+01   8.1178732336e+00    0.1540388    0.1024099  60.81 0.0009345358    1.358    0.264
        10 -10.0763     75.8335    246.1827   8.9726131089e+01   1.7813828162e+01    0.3925773    0.1326346 -62.10  0.002220229    3.362    0.703
        11 -11.1801     71.9178    243.1019   9.0098546511e+01   1.8771941625e+01    0.4910125    0.2340849 -77.08  0.003064448    2.293    0.564
        12 -14.8460     49.6104    181.5217   8.8914576272e+01   3.2049828306e+01     7.118498     1.645074  54.04  0.004606231    5.089    0.804
        13  -9.8118     71.1314    200.5918   8.6774214133e+01   2.5865324051e+01    0.1771668    0.1232084  85.57 0.0004474483    1.275    0.215
        14 -16.4474      5.7830    235.2122   9.9265190583e+01   2.7268996907e+01     1.852126    0.8825986  30.36  0.007916937    3.696    0.729
        15 -10.7753    192.1401    193.2721   6.3499331292e+01   7.1536435834e+00    0.6561948    0.3710163 -65.31   0.00243309    4.892    0.796
        16  -9.9137     85.0585    201.3828   8.4371574110e+01   2.3843863705e+01    0.2357171    0.1490888  84.43 0.0004411114    1.612    0.380
        17 -10.3812    119.0023    202.4752   7.8340341392e+01   1.8561510564e+01    0.1898342    0.1008652  46.14  0.001036242    1.604    0.376
        18  -9.4312    163.7333    193.0894   6.8707454600e+01   1.2413736008e+01    0.1645401    0.1604526  71.01  0.001121502    1.157    0.136
        19  -8.7579    185.2834    189.6556   6.4136281886e+01   8.9554170105e+00    0.1220455    0.1000419  79.96 0.0003447205    1.640    0.390
        20 -10.2219     99.1390    181.0548   7.9388202114e+01   2.5505380254e+01    0.2530602    0.2162375  55.27 0.0007065261    1.159    0.137
        21  -9.4042    181.6818    179.9713   6.3113782151e+01   1.1111918655e+01    0.1769578    0.1729338  29.25 0.0006794736    1.131    0.116
        22  -9.6905    120.6553    180.0951   7.5020761400e+01   2.2235307625e+01    0.2172017    0.1548338  60.22 0.0006170079    1.298    0.229
        23  -9.9739     71.0633    172.3923   8.3864150602e+01   3.1178411376e+01    0.2460714    0.1839004  45.75 0.0009152542    1.394    0.283
        24 -11.9162     75.5692    167.3845   8.2363357755e+01   3.1569443222e+01     1.144495    0.5098687  47.18  0.004851717    2.095    0.523
        25 -12.2174     77.7600    155.3113   8.0332570923e+01   3.3720387378e+01     1.085447    0.5868725  74.18 0.0009972062    2.496    0.599
        26  -9.9397    125.1249    245.1729   8.1991645979e+01   1.1094236964e+01    0.2909915   0.06196506 -51.95  0.001175057    6.038    0.834
        27 -10.3797    110.6858    167.3477   7.5142993052e+01   2.6302359151e+01      0.27023    0.2075569 -77.19  0.000648798    1.330    0.248
        28 -11.0676    230.3540    167.1572   5.1736365584e+01   3.5337892980e+00    0.2699841    0.2240834   8.39  0.001182449    1.098    0.089
        29 -15.3177      5.8870    140.9008   9.3927695489e+01   4.4294562688e+01     6.566788    0.8897906 -74.89   0.02124169    5.999    0.833
        30 -16.6394     12.2860    239.9166   9.8559047732e+01   2.5924225784e+01      1.19647    0.7896656  73.12  0.008685034    1.043    0.041
        31  -9.0835     88.2187    156.5168   7.8262196632e+01   3.1978495066e+01    0.2217774    0.1572611 -70.21 0.0006931204    1.341    0.254
        32 -10.7274    133.7650    145.6859   6.6472235865e+01   2.6491290951e+01     1.072589    0.2767099 -54.71  0.002874154    5.704    0.825
        33 -11.6055     85.8770    149.0708   7.7663238345e+01   3.3860846806e+01     0.552538    0.4635354 -12.04  0.002450186    1.836    0.455
        34  -8.5827    174.9749    149.4592   5.8514913890e+01   1.7530503919e+01    0.1914494    0.1228768  69.76 0.0004409422    2.315    0.568
        35 -11.4125     64.4529    167.0669   8.4573601770e+01   3.3088929749e+01    0.3325179     0.257652 -39.81  0.001876886    1.903    0.475
        36 -10.4122     32.1468    143.5024   8.8677246842e+01   4.1523554078e+01      0.42276    0.2880314  21.64   0.00273553    2.164    0.538
        37  -9.1904    110.0154    128.0312   6.8390903636e+01   3.4439004811e+01    0.2655988    0.2017433  18.10 0.0009371389    1.815    0.449
        38 -10.3799    101.2446    135.7581   7.1944121294e+01   3.4284320967e+01    0.5010142    0.3451231 -15.43  0.002238459    2.870    0.652
        39  -9.6628    105.8559    130.6325   6.9893184348e+01   3.4602394425e+01    0.2924103    0.2513524 -63.23  0.001457117    1.116    0.104
        40 -11.5946     87.6566    135.1232   7.5000648111e+01   3.6544508329e+01    0.2535717    0.2233378 -70.11 0.0003895735    1.080    0.074
        41 -15.9483      8.0934    207.8690   9.7729737388e+01   3.1521978662e+01      1.71104     1.041234 -84.50   0.01337221    1.351    0.260
        42  -8.5732     81.6749    128.3319   7.5237011376e+01   3.8882154160e+01    0.1362749   0.09368623  80.27 0.0007050848    1.707    0.414
        43  -9.7729     97.5025    123.3912   7.0472706316e+01   3.7530160279e+01    0.2536334    0.2193334 -22.25 0.0006328418    1.457    0.313
        44  -9.5728    116.7287    122.8740   6.5710894808e+01   3.4329517080e+01    0.2363407    0.1605365  -9.41 0.0009619136    2.894    0.654
        45 -11.2567     69.1785    162.8109   8.3108945498e+01   3.3339315843e+01     0.287654    0.2270832 -50.52 0.0007282674    1.557    0.358
        46  -9.2910    138.9785    120.3405   5.9887232704e+01   3.0548248246e+01    0.2260758    0.1969258 -68.52  0.000398396    1.221    0.181
        47  -9.0494    135.0000    120.9531   6.0954945215e+01   3.1228135377e+01     0.239185   0.08165832 -46.17 0.0008010441    2.933    0.659
        48 -10.8493     23.5738    118.8682   8.7830078480e+01   4.7497273650e+01    0.2919224    0.2337915  37.81  0.001814647    1.544    0.352
        49  -9.5953     70.2044    117.0271   7.6043649313e+01   4.2924716952e+01     0.398429    0.2181094  71.29  0.001690587    2.993    0.666
        50  -9.0460    106.9498    117.3082   6.6886545148e+01   3.7249115451e+01    0.1829608    0.1705701  56.28 0.0002579828    1.111    0.100
        51  -9.3963    205.4940    110.3364   4.3299095807e+01   1.7503421150e+01    0.2614051    0.2273154  46.63 0.0006095367    1.158    0.136
        52  -9.8994     29.7196    107.7962   8.4852556663e+01   4.9356858870e+01    0.2071198    0.1445634  51.33   0.00084363    1.614    0.381
        53  -9.7189    134.4421    105.2565   5.7283230083e+01   3.4531803636e+01     0.378515    0.1410701 -46.47  0.001312144    2.677    0.626
        54  -8.9221    187.5444    170.5206   6.0250032610e+01   1.1455001826e+01    0.1366994    0.1209579  32.92 8.928955e-05    1.014    0.014
        55 -10.0740     31.0513     95.4652   8.2600275722e+01   5.1916096229e+01    0.3286659    0.1393064  50.50  0.001548772    3.129    0.680
        56 -11.3001     18.9882     90.5738   8.5141263676e+01   5.3933159157e+01    0.4108727    0.2224075 -61.72  0.002271273    1.404    0.288
        57  -9.3313     92.4350     86.9112   6.3445660309e+01   4.6186172792e+01    0.2325217     0.188352  65.04 0.0006184007    1.472    0.321
        58  -8.4764    160.5376     85.4940   4.5769265452e+01   3.2548409768e+01    0.1539576    0.1487088   2.13 0.0003077762    1.016    0.016
        59 -11.8869     13.2410     60.1610   8.1449708208e+01   6.0762388528e+01     0.355583    0.2800591 -79.36 0.0009935111    1.299    0.230
        60 -12.1197    193.7340     55.6139   3.0186260090e+01   2.9161319227e+01    0.7458602    0.5410404  25.90 0.0009897316    1.586    0.369
        61  -9.8479    111.8922    239.9591   8.3604797396e+01   1.3780358738e+01    0.1764831    0.1371214 -80.70 0.0006854503    1.448    0.310
        62  -9.6252     63.0508    235.5493   9.0921467266e+01   2.1036531372e+01    0.1826757    0.1479395 -51.25  0.001444993    2.051    0.512
        63  -8.1965     80.2848     59.3036   5.9041461472e+01   5.3746378518e+01    0.1349167   0.09795073 -17.41 0.0001871177    1.559    0.359
        64  -9.9310    149.4063    229.7603   7.6334223679e+01   9.4427223078e+00    0.1345085    0.1112705 -34.64  0.000957966    1.659    0.397
        65 -16.1507     36.0131    190.2364   9.2078829510e+01   3.1915470306e+01     7.494205     3.350225  76.82   0.04134662    2.344    0.573
        66  -8.8108     60.2715     21.2161   5.1738895391e+01   6.3426532264e+01    0.1544961    0.1370231 -32.16 0.0005858159    1.284    0.221
        67  -8.9840    189.4651     15.1273   1.8372569224e+01   3.5419517144e+01    0.2541589    0.1841069  43.04 0.0008564107    1.389    0.280
        68  -8.4367    196.5391     14.5108   1.7230921097e+01   3.3612933167e+01    0.1422776    0.1369141  79.69 1.498694e-05    1.015    0.015
        69  -9.7088    110.0061    223.2769   8.2276847728e+01   1.6568082747e+01    0.1671932    0.1193377  54.56  0.001023453    1.107    0.096
