#   1 NUMBER                 Running object number                                     
#   2 MAG_AUTO               Kron-like elliptical aperture magnitude                    [mag]
#   3 X_IMAGE                Object position along x                                    [pixel]
#   4 Y_IMAGE                Object position along y                                    [pixel]
#   5 X_WORLD                Barycenter position along world x axis                     [deg]
#   6 Y_WORLD                Barycenter position along world y axis                     [deg]
#   7 A_WORLD                Profile RMS along major axis (world units)                 [deg]
#   8 B_WORLD                Profile RMS along minor axis (world units)                 [deg]
#   9 THETA_WORLD            Position angle (CCW/world-x)                               [deg]
#  10 FWHM_WORLD             FWHM assuming a gaussian core                              [deg]
#  11 ELONGATION             A_IMAGE/B_IMAGE                                           
#  12 ELLIPTICITY            1 - B_IMAGE/A_IMAGE                                       
         1 -11.7496    220.6771      2.5735   5.6327324218e+01   3.0228142467e+01    0.9112842    0.4669796  63.84  0.004203005    1.799    0.444
         2 -12.9411    194.5135     26.1711   6.4330500205e+01   3.3602496320e+01     1.651467     1.112383   3.61  0.007960583    2.755    0.637
         3 -13.1845    201.8913     20.9037   6.2198928896e+01   3.2487860873e+01     1.413495     1.281568 -11.94  0.007896897    1.496    0.331
         4 -12.3186    207.7443     14.0290   6.0001102924e+01   3.1913344348e+01    0.5580105     0.510874  39.94  0.001492493    1.460    0.315
         5 -11.6890     14.4484      3.1645   1.0317564426e+02   7.0905093788e+01    0.8730537    0.3250939  22.65  0.004641816    2.803    0.643
         6 -11.6601      2.3731     23.5221   1.1711262420e+02   6.9108836167e+01    0.7202576    0.1136528 -47.95  0.002867385    4.265    0.766
         7 -12.1651      2.3145      8.1373   1.1120986017e+02   7.1318821036e+01    0.9757096    0.3330232 -44.48  0.005265031    2.732    0.634
         8 -10.3356     12.3169     23.6905   1.1263528080e+02   6.8362389888e+01    0.1852233    0.1195353 -46.80  0.001248682    1.683    0.406
         9  -8.7955    181.6578      1.6856   5.9995969690e+01   3.9239496104e+01    0.1267177   0.08186678  47.47 0.0007047558    1.707    0.414
        10 -11.3247    149.6901    228.8343   1.1933844115e+02   4.6873309685e+00    0.5195134    0.2007135  41.26  0.002082112    2.295    0.564
        11  -9.7051    149.0804    249.4066   1.2247386899e+02   1.0723497411e+00    0.2417283    0.1724067 -82.20  0.001316955    2.000    0.500
        12 -11.2860    139.4310    246.9115   1.2404794226e+02   3.1416423103e+00    0.6038729    0.3037824 -65.42  0.002710846    2.865    0.651
        13 -13.7198     34.2762    246.2741   1.4390466112e+02   1.8988942139e+01     5.108801     2.059891  26.78   0.01792681    6.647    0.850
        14 -14.3533      8.7295    243.0074   1.4800530461e+02   2.2512048501e+01     8.195813     2.259433  30.60   0.02937966    6.929    0.856
        15  -9.6300    225.1885    199.7714   9.8809515296e+01  -3.5209129932e+00    0.2768814    0.2180499 -56.68 0.0006623613    1.627    0.385
        16  -9.5409    192.4081    193.6185   1.0412265952e+02   3.5506248868e+00    0.5162702    0.2665514 -64.73  0.001573349    4.778    0.791
        17 -10.7976     67.1275    191.0981   1.3194341079e+02   2.6636989418e+01    0.4220094    0.2645295 -41.65  0.002035142    2.199    0.545
        18 -10.9833     72.1618    184.4480   1.2988245218e+02   2.7483222975e+01    0.3162133    0.2432555 -48.97 0.0005819299    1.477    0.323
        19 -10.3777     81.1473    173.0871   1.2602214886e+02   2.8860151737e+01    0.2663978    0.2438081 -64.58  0.000353019    1.142    0.124
        20 -12.5731     68.5863    170.1458   1.2864059674e+02   3.1430812512e+01    0.5203182    0.2900234 -44.10  0.001450114    2.169    0.539
        21 -10.2818    105.3695    173.0907   1.2007767400e+02   2.4846609083e+01    0.6747659    0.1615554  45.71  0.001881943    4.314    0.768
        22 -12.1851     57.6974    130.4656   1.2475697503e+02   4.2529413491e+01     1.663518    0.5956705 -71.74  0.004371497    5.852    0.829
        23 -10.9393     73.2972    154.7072   1.2493243553e+02   3.4516222068e+01    0.7482719    0.4094414  79.46  0.002682449    3.346    0.701
        24 -12.2629     67.5728    144.2545   1.2458998128e+02   3.7884843116e+01    0.8094509    0.5824798  83.85  0.002734283    1.619    0.382
        25 -11.5800     31.9790    155.8186   1.3563175401e+02   3.9335056111e+01     0.512185    0.3074924 -68.42  0.002803532    1.375    0.273
        26  -9.3601    100.3729    148.9343   1.1672618137e+02   3.1565609090e+01    0.2898217    0.2765233 -75.75 0.0008838589    1.029    0.028
        27  -8.5351    102.8654    145.0233   1.1525720549e+02   3.2069980496e+01    0.3814954    0.2151069 -30.71  0.001380257    2.841    0.648
        28 -11.4379     89.1827    148.0282   1.1950676096e+02   3.3688127603e+01    0.3016264    0.2657588 -39.07 0.0005081006    1.235    0.190
        29  -9.2636     41.4870    148.0107   1.3213513685e+02   4.0206048594e+01    0.2075013    0.1129149 -66.24 0.0006091987    1.558    0.358
        30 -12.5799     31.8178    142.4436   1.3383606256e+02   4.2539595703e+01    0.9001959    0.3440138 -58.92  0.004009205    2.076    0.518
        31  -9.9591     98.5153    132.0725   1.1361709067e+02   3.5955064581e+01    0.3098322    0.2477341 -29.41 0.0007050884    1.430    0.301
        32  -8.7285    133.6274    143.4203   1.0693402990e+02   2.6492174309e+01    0.3113574    0.1403684 -61.81 0.0009534859    3.259    0.693
        33 -12.0084     41.9917    223.3466   1.4068141621e+02   2.2733063960e+01    0.3810699    0.3176643 -51.82 0.0008821806    1.657    0.397
        34  -8.8323    107.9189    122.6133   1.0881231866e+02   3.6462477546e+01    0.2034657    0.1835137  43.79 0.0003661968    1.150    0.131
        35 -10.6032    167.9101    113.0037   9.1312276801e+01   2.5659804664e+01    0.3830326    0.3135226 -84.20    0.0010269    1.416    0.294
        36 -11.6024     87.0417    164.6983   1.2315213504e+02   2.9968273496e+01     0.958376    0.5758699  54.87  0.001261765    1.800    0.444
        37  -9.0861    110.9609    135.2527   1.1095640271e+02   3.2919854150e+01    0.3200931    0.2417453  -2.64   0.00100266    1.942    0.485
        38 -11.2294      2.0000     59.5937   1.2785104107e+02   6.2880212454e+01    0.7314525   0.06655821 -60.02  0.001962067    7.857    0.873
        39  -8.8969    111.5964     44.0694   8.4933417737e+01   5.0699996650e+01    0.2514717    0.1857034  68.66 0.0009745087    1.663    0.399
        40 -10.8825    126.3243    248.4551   1.2685009694e+02   5.0631214085e+00    0.3117836     0.217547  32.57  0.001765923    1.493    0.330
        41 -11.5562     94.2693    248.1665   1.3306880218e+02   1.0286682260e+01    0.6403671    0.2450709  43.56  0.002185437    2.185    0.542
        42 -11.0933    107.0112    244.1695   1.3013519178e+02   9.0345986219e+00     0.387924     0.270663 -77.47  0.001517779    1.581    0.367
        43 -10.4157     94.8866    241.7762   1.3224381931e+02   1.1428934757e+01    0.2748072    0.1672245  84.72  0.001157586    1.961    0.490
        44 -14.9323      7.7177    203.1758   1.4559800012e+02   3.0835197915e+01     7.844869     1.278052 -73.31   0.02678304    4.689    0.787
        45 -14.0977     51.3233    211.7009   1.3773228561e+02   2.4077743670e+01     2.945202     1.202037  46.30   0.01387163    2.221    0.550
        46 -11.4146     51.5873    236.3117   1.4000384458e+02   1.8800160062e+01    0.4381456    0.2529042 -87.00  0.001889048    1.630    0.387
        47 -14.5996     18.9592    169.8212   1.4033977463e+02   3.7296887895e+01     6.655923     2.381938  89.21   0.02060059    5.354    0.813
        48 -10.3107    189.8944     15.6684   6.2386402061e+01   3.5898011061e+01    0.1913416    0.1868228 -14.00 0.0007350424    1.323    0.244
