#   1 NUMBER                 Running object number                                     
#   2 MAG_AUTO               Kron-like elliptical aperture magnitude                    [mag]
#   3 X_IMAGE                Object position along x                                    [pixel]
#   4 Y_IMAGE                Object position along y                                    [pixel]
#   5 X_WORLD                Barycenter position along world x axis                     [deg]
#   6 Y_WORLD                Barycenter position along world y axis                     [deg]
#   7 A_WORLD                Profile RMS along major axis (world units)                 [deg]
#   8 B_WORLD                Profile RMS along minor axis (world units)                 [deg]
#   9 THETA_WORLD            Position angle (CCW/world-x)                               [deg]
#  10 FWHM_WORLD             FWHM assuming a gaussian core                              [deg]
#  11 ELONGATION             A_IMAGE/B_IMAGE                                           
#  12 ELLIPTICITY            1 - B_IMAGE/A_IMAGE                                       
         1  -9.1047    142.2852     19.5774   2.9022332477e+02   6.7355573387e+00   0.02175617  0.009529476 -46.75    0.0018179    2.333    0.571
         2  -9.1630    202.0239     11.8371   2.8948066249e+02   6.4780455216e+00   0.01297491  0.009491671  -4.06  0.001363699    1.627    0.385
         3  -8.6478    211.4989      8.9100   2.8935272881e+02   6.4567979266e+00  0.009994105   0.00647363 -62.24  0.001013662    1.533    0.348
         4  -7.8450    139.6526      5.6921   2.9017054190e+02   6.9118172974e+00  0.007088582  0.004919512 -25.63  0.000628582    1.703    0.413
         5  -8.3973    109.2845      2.9994   2.9050864518e+02   7.1191630282e+00  0.009253018  0.008772321 -65.33  0.001027747    1.058    0.055
         6  -8.7891    131.4951    245.4914   2.9170172117e+02   4.1742798627e+00  0.006631283  0.006373369 -30.35 0.0004716887    1.039    0.037
         7 -11.4188    227.2558    219.6762   2.9043449784e+02   3.9195842964e+00   0.05980242   0.04084688 -45.82  0.006319054    1.470    0.320
         8 -12.4298    239.1243    221.0964   2.9030516070e+02   3.8342504973e+00    0.2249319   0.06804337 -40.77   0.01238376    5.699    0.825
         9 -12.7136    226.2424    197.3347   2.9031254793e+02   4.1848838492e+00     0.106874    0.0665632 -71.50   0.01057834    1.751    0.429
        10 -10.6977    245.2629    203.8707   2.9013075693e+02   3.9986133936e+00   0.03977562   0.02035969  54.75  0.002984938    2.625    0.619
        11 -11.2104    248.2772    214.5397   2.9015963860e+02   3.8572630848e+00   0.04694577   0.02382863 -71.82   0.00406598    2.308    0.567
        12 -11.6705    233.9380    246.3414   2.9051639005e+02   3.5712304914e+00   0.04299438   0.03251794 -32.77  0.003237317    1.424    0.298
        13 -11.5449    241.4599    238.7648   2.9038375221e+02   3.6155790930e+00   0.03417003   0.01910589 -44.64  0.001899769    1.845    0.458
        14 -12.5996    248.8214    241.8551   2.9031678353e+02   3.5370163047e+00    0.0989577   0.02413803 -65.40  0.005756222    4.908    0.796
        15 -11.7656    243.0266    246.1276   2.9040960065e+02   3.5210205624e+00    0.0349214   0.02010302 -51.10  0.002413066    1.688    0.408
        16  -9.1328    212.5038    250.5211   2.9079026972e+02   3.6469242565e+00   0.01799997  0.008230954  35.89  0.001570262    2.114    0.527
        17  -9.7219    210.5204    245.0445   2.9078058024e+02   3.7220157198e+00     0.022168   0.01080629 -49.57  0.001667622    2.007    0.502
        18  -8.6078    213.9909    240.5166   2.9071320731e+02   3.7544859082e+00   0.01338909  0.008087578 -48.17 0.0008851588    1.641    0.391
        19  -9.0348    200.4852    249.5839   2.9092427203e+02   3.7274377321e+00   0.01684739   0.01041067 -16.26  0.001528822    2.267    0.559
        20  -8.2785    150.7925    250.4291   2.9150680269e+02   4.0052936678e+00  0.009353194  0.006430421   6.44  0.000942287    1.701    0.412
        21  -8.2975    139.3562    250.3044   2.9163901652e+02   4.0728911476e+00  0.007111432  0.004921138 -25.14 0.0004410438    1.717    0.417
        22  -9.2763    146.5599    242.7278   2.9151006492e+02   4.1192672808e+00   0.01598333  0.006664823 -65.38  0.001282955    2.515    0.602
        23  -8.4909    169.0054    242.2123   2.9124605033e+02   3.9953637617e+00   0.01275878  0.007783409 -47.60  0.001261133    1.632    0.387
        24  -8.9760    201.7124    241.2905   2.9086046535e+02   3.8166498763e+00   0.01541454  0.007868425 -54.46  0.001414569    1.866    0.464
        25  -9.1874    195.2891    237.6509   2.9091334642e+02   3.8961366001e+00   0.01616057  0.009685659 -54.42  0.001602179    1.609    0.379
        26  -9.2919    189.5720    237.1866   2.9097700556e+02   3.9346496122e+00   0.01359504   0.01041987 -57.49 0.0007129854    1.279    0.218
        27  -8.8470    183.8825    237.6906   2.9104613543e+02   3.9617496308e+00   0.01221458  0.008878819 -47.82  0.001320698    1.363    0.266
        28  -9.7295    203.9865    234.2896   2.9079220446e+02   3.8847837730e+00   0.02326888   0.01465536 -63.81  0.002354264    1.592    0.372
        29  -7.9943    158.8136    237.6010   2.9133699816e+02   4.1079350867e+00  0.009256917  0.005911916  38.48 0.0005506728    1.566    0.361
        30  -8.8476     49.9271    235.6965   2.9259233888e+02   4.7590863691e+00  0.009361929  0.008549868  32.04 0.0005787737    1.101    0.092
        31  -9.9690    215.4267    232.4157   2.9064809844e+02   3.8402389183e+00   0.03453486   0.01975175  89.40  0.002885187    2.748    0.636
        32  -8.7376    212.6664    225.3282   2.9063778392e+02   3.9385487200e+00   0.01356952  0.008503792  75.08 0.0007395294    2.317    0.568
        33  -9.5217    173.5878    231.6261   2.9112956548e+02   4.0918223240e+00    0.0192377  0.008382923 -48.78  0.001618595    2.264    0.558
        34  -9.2151    195.3285    230.5049   2.9087018369e+02   3.9789123726e+00   0.01874389   0.01066019 -44.25  0.001781143    1.820    0.450
        35  -9.2558    186.1561    229.8256   2.9097272009e+02   4.0399448309e+00   0.01863833     0.012245 -71.89  0.001641387    1.645    0.392
        36  -8.5153    157.6184    230.8045   2.9131031721e+02   4.1938246734e+00   0.01062445  0.007811655 -44.66 0.0005930546    1.368    0.269
        37  -8.3340    132.7307    231.7451   2.9160535597e+02   4.3268908011e+00   0.01122235  0.004530212  38.27 0.0009042551    2.417    0.586
        38  -8.3064     14.4902    231.5038   2.9297988478e+02   5.0119367659e+00  0.006512766  0.006482499 -85.10 0.0008105202    1.020    0.020
        39  -9.0314    206.6097    224.4817   2.9070308942e+02   3.9834901998e+00   0.02035975   0.00933665 -64.15  0.001743059    2.216    0.549
        40  -9.6080    211.1136    217.6075   2.9060964767e+02   4.0372160701e+00   0.02719207   0.01222065 -37.27  0.002093403    2.946    0.661
        41 -10.8779    216.4015    207.5577   2.9048807949e+02   4.1232633502e+00    0.0552756   0.02372675 -38.90  0.004203707    3.005    0.667
        42  -9.1708    161.6952    226.0495   2.9123451865e+02   4.2254750984e+00   0.01443915  0.008915008 -59.37 0.0009424005    1.578    0.366
        43  -8.8721    149.6293    226.3426   2.9137657641e+02   4.2919105781e+00   0.01521886   0.01026616  87.24  0.001491499    1.930    0.482
        44  -9.8477    216.5710    222.1838   2.9057361542e+02   3.9524271437e+00    0.0259226   0.01173141 -61.19  0.002241251    2.151    0.535
        45  -9.2540    199.4785    224.4475   2.9078574867e+02   4.0252218574e+00   0.01638803   0.01207011  -9.92  0.001733021    1.619    0.382
        46  -8.4612    181.0079    224.7203   2.9100205173e+02   4.1290759467e+00  0.009555706  0.008615123  28.36 0.0007557268    1.114    0.102
        47  -8.3137    140.6515    222.6996   2.9145924248e+02   4.3861955146e+00  0.007058268  0.004933258 -25.16  0.000703785    1.688    0.408
        48  -9.2340    192.0329    220.2019   2.9084689574e+02   4.1176850228e+00   0.01397045  0.009859955 -69.64  0.001172779    1.479    0.324
        49  -7.8335    203.2508    217.3852   2.9069968197e+02   4.0853835110e+00  0.007083149  0.004683754 -36.14 0.0006954577    1.664    0.399
        50  -7.8318    178.8287    216.2603   2.9097682250e+02   4.2399825740e+00   0.01389005  0.007401221 -39.09  0.001230546    2.142    0.533
        51  -8.5925    168.4838    215.9594   2.9109530258e+02   4.3034012511e+00  0.009937127  0.006485579 -62.72 0.0007073755    1.524    0.344
        52  -9.5992    131.8142    212.5637   2.9150153250e+02   4.5551189538e+00   0.02031984  0.008643421 -63.58  0.001678959    2.368    0.578
        53  -9.1773    185.6799    212.1121   2.9087237597e+02   4.2484752221e+00   0.01617084   0.01057494 -46.06  0.001325074    1.536    0.349
        54 -10.0422    204.8951    207.4630   2.9062122213e+02   4.1910923041e+00   0.04009387   0.01376043 -48.18  0.002992418    2.918    0.657
        55  -8.9918    191.8089    208.6836   2.9078062453e+02   4.2527800869e+00   0.01523826  0.008900065 -57.42  0.001376909    1.652    0.395
        56  -9.0023    174.5697    207.2208   2.9097230486e+02   4.3696753698e+00       0.0169  0.005911578 -59.34  0.001298405    2.660    0.624
        57  -9.5212    124.1493    206.0048   2.9155155723e+02   4.6756861331e+00   0.01175196  0.009108697  25.14  0.001311596    1.301    0.232
        58  -9.5187    196.3296    204.8482   2.9070513428e+02   4.2711248126e+00   0.01801232   0.01507004  56.54  0.002047489    1.282    0.220
        59  -8.6585    197.3399    201.3213   2.9067229092e+02   4.3062335199e+00   0.01112286   0.00806082 -43.29 0.0008072724    1.401    0.286
        60  -9.5711    211.1785    200.6731   2.9050756926e+02   4.2335097307e+00   0.01917051   0.01234319 -61.71  0.001464546    1.535    0.349
        61  -8.9762    209.4766    194.9848   2.9049330251e+02   4.3094443007e+00   0.01855296  0.008888734  46.67  0.001573666    2.358    0.576
        62  -8.4527    184.4119    201.2489   2.9082215373e+02   4.3820184092e+00  0.008947246  0.006437786 -79.57 0.0005734215    1.571    0.363
        63  -9.0929    202.9282    197.1535   2.9058239404e+02   4.3222377937e+00   0.02219595  0.009783574 -66.42   0.00181653    2.426    0.588
        64  -8.7620    163.6660    199.6822   2.9105404145e+02   4.5204275786e+00  0.007102476  0.004908018 -27.18  0.000704831    1.695    0.410
        65  -7.9144    191.3071    198.3277   2.9072451280e+02   4.3759829909e+00  0.007044573  0.004885118 -29.48 0.0007037603    1.655    0.396
        66  -8.4992    177.7068    198.0156   2.9088078117e+02   4.4584396880e+00   0.01524886  0.006977743  50.48  0.001197664    2.799    0.643
        67  -8.5325    148.5169    195.0093   2.9120233597e+02   4.6624560147e+00  0.009781103  0.005769421  83.55 0.0008102519    2.681    0.627
        68  -8.5534    185.4955    192.0071   2.9075426823e+02   4.4830953941e+00   0.01006308  0.004646516 -41.21 -0.0002094036    2.490    0.598
        69  -8.5092    205.9779    190.6544   2.9050804573e+02   4.3800311791e+00  0.009739629  0.008715413  30.17  0.001165079    1.122    0.109
        70  -9.1229    210.2341    188.5359   2.9044589205e+02   4.3799433248e+00   0.01234344  0.009287445 -61.46  0.000867035    1.316    0.240
        71 -12.5374    247.9557    190.3739   2.9001864221e+02   4.1396608983e+00    0.1036443   0.03957302 -64.05  0.008110789    2.685    0.628
        72  -8.2322    191.0000    186.0142   2.9065440015e+02   4.5207933570e+00   0.01111916  0.003741275 -62.73 0.0008034782    2.950    0.661
        73 -12.3800    237.0562    200.4149   2.9020537293e+02   4.0863646530e+00    0.1369856   0.02226032 -60.64  0.007708226    5.089    0.803
        74  -8.5897    202.4112    182.7683   2.9050229572e+02   4.4923104132e+00  0.009916263  0.005768077 -50.79 0.0006612503    1.675    0.403
        75  -8.7598    199.4995    210.3550   2.9070123048e+02   4.1887847031e+00   0.01618404   0.01068381 -79.29  0.001065025    1.778    0.438
        76 -10.9200    247.5157    146.3409   2.8975976508e+02   4.6533253825e+00    0.0304396   0.02153106 -54.46  0.003286006    1.377    0.274
        77  -9.9065    241.1284    149.3867   2.8985224826e+02   4.6550970549e+00    0.0151995   0.01302525  55.10  0.000994938    1.236    0.191
        78  -9.7355    243.1008    155.0917   2.8986354714e+02   4.5774157136e+00   0.01483092   0.01129776  68.22 0.0009201097    1.545    0.353
        79  -9.6049    230.7908    153.1386   2.8999487867e+02   4.6716079864e+00   0.02040804   0.01070284  30.10   0.00189979    1.869    0.465
        80  -9.2178    225.4843    146.4868   2.9001666829e+02   4.7796541305e+00    0.0143251  0.006484013 -62.71  0.001219401    2.196    0.545
        81  -8.4882    241.0527    138.0020   2.8978483175e+02   4.7876727167e+00   0.01112424  0.007752268 -25.83  0.001132714    1.691    0.409
        82  -8.3172    215.6622    135.3257   2.9006392343e+02   4.9662814352e+00   0.00709643   0.00494466  61.78 0.0006097633    1.724    0.420
        83  -9.9679    236.0563    130.2998   2.8979668150e+02   4.9061081912e+00   0.01601597  0.009646147  51.48  0.001271397    1.907    0.476
        84  -9.2039    231.3009    129.6767   2.8984821678e+02   4.9409805815e+00   0.01552528   0.01250834 -75.66  0.001068157    1.315    0.240
        85  -8.4400    186.6107    128.2974   2.9035970620e+02   5.2165775068e+00   0.01244369  0.006539043 -67.94     0.001071    2.038    0.509
        86  -8.8347    218.6774    126.6620   2.8997689037e+02   5.0493338673e+00   0.01083857   0.00748153 -27.72    0.0010988    1.692    0.409
        87  -8.9319    200.9563    125.2702   2.9017464746e+02   5.1684345844e+00   0.01473856   0.00927344 -62.74  0.001485192    1.581    0.368
        88  -8.7359    232.3730    121.2520   2.8978519438e+02   5.0325242967e+00  0.009114668  0.006376511 -74.71 0.0008435933    1.565    0.361
        89  -8.3016    192.3702    118.2626   2.9023250888e+02   5.2996517630e+00  0.009249218  0.006357145 -77.04 0.0009254169    1.639    0.390
        90  -8.7783    242.5332    113.2881   2.8961928517e+02   5.0658574431e+00   0.01456561  0.009144942  51.77  0.001424261    1.810    0.447
        91  -7.7893    209.4773    113.5777   2.9000537587e+02   5.2546677566e+00  0.006553834  0.006366828 -20.75 0.0001662863    1.030    0.029
        92  -8.2418     26.0267    111.4876   2.9213037518e+02   6.3408774267e+00   0.00967441  0.005677275  -8.59 0.0008103658    2.592    0.614
        93  -8.3541    236.8110    107.4121   2.8965051428e+02   5.1673175534e+00  0.009601485  0.006412509   7.39 0.0008297983    1.772    0.436
        94  -8.0742    197.3118    107.3418   2.9010948720e+02   5.3977284573e+00  0.007138263  0.004859212 -29.81 0.0007046077    1.699    0.411
        95  -9.0589    228.4703    104.0500   2.8972729647e+02   5.2548350707e+00   0.01271604  0.008675875  44.79 0.0007403778    1.526    0.345
        96  -8.5381    246.6497    102.3399   2.8950569158e+02   5.1689296119e+00   0.01023422   0.00739269  63.79 0.0006923876    1.649    0.394
        97  -8.3517    205.5132     98.6299   2.8996177053e+02   5.4511916165e+00   0.01462012  0.008106046 -34.81  0.001298715    2.197    0.545
        98  -8.3048    234.6550     95.3049   2.8960286396e+02   5.3203283860e+00  0.007043249  0.004923873  60.01 0.0007041446    1.690    0.408
        99  -7.7272    196.2956     82.6628   2.8997315938e+02   5.6900534165e+00  0.006904854   0.00501843  65.64 0.0005962981    1.651    0.394
       100  -8.4993     43.9680     78.0000   2.9172080848e+02   6.6264851534e+00   0.01096961  0.003766182  26.37 0.0008013016    2.935    0.659
       101  -8.4276    158.0000     75.5427   2.9037633861e+02   5.9950852720e+00   0.01512462  0.003740432 -62.74 0.0009445453    4.014    0.751
       102  -8.3553     42.6702     74.3247   2.9171395968e+02   6.6766575617e+00  0.007044898  0.004954912  62.02 0.0007050272    1.701    0.412
       103  -8.7036    230.6066     71.8128   2.8950878050e+02   5.6163826686e+00  0.009462769   0.00640791 -78.92 0.0009474032    1.708    0.414
       104  -8.1129    215.5471     69.5412   2.8967030272e+02   5.7303516875e+00  0.006570201  0.006378356  66.50 3.628706e-05    1.060    0.057
       105  -8.5465    239.3324     68.0261   2.8938454739e+02   5.6095066132e+00  0.009466199  0.008263817 -60.15 0.0005165811    1.135    0.119
       106  -8.6613    245.1111     65.8210   2.8930410217e+02   5.6014286218e+00    0.0101019  0.008946052  66.72 0.0005042277    1.215    0.177
       107  -7.7977    223.3024     59.3691   2.8951893409e+02   5.8032019604e+00  0.007229926  0.004792295 -31.41 0.0007033188    1.744    0.427
       108  -7.8285    149.6648     52.6652   2.9033610399e+02   6.3089413497e+00  0.007196705  0.004871764 -28.03 0.0007052097    1.741    0.426
       109  -8.2888    195.3557     50.2035   2.8978907470e+02   6.0720710875e+00  0.009302883  0.006294348 -77.94 0.0006177723    1.693    0.409
       110  -8.0622    189.9834     44.4964   2.8981731894e+02   6.1694947151e+00  0.009220855  0.005643543 -10.60 -0.0001298668    2.360    0.576
       111  -8.1528      4.8042     41.6340   2.9196045357e+02   7.2744459571e+00  0.009744656  0.005755626  37.23 0.0009457209    1.679    0.404
       112  -8.3169    174.2447     40.1777   2.8997466748e+02   6.3110612055e+00   0.00950552  0.007741187  65.34 0.0009266261    1.376    0.273
       113  -8.1972    248.1789     38.1162   2.8910178149e+02   5.9047027990e+00  0.009159056  0.007603553  60.68 0.0004660529    1.315    0.240
       114  -8.6550    160.5012     34.0777   2.9009813798e+02   6.4616457633e+00   0.01013922  0.006474723 -62.27 0.0007742164    1.554    0.357
       115  -9.1541    164.0353     31.5709   2.9004188496e+02   6.4701890730e+00    0.0232018  0.009921729 -73.76  0.001588006    3.275    0.695
       116  -8.4686    218.5693     34.6899   2.8942557962e+02   6.1168790669e+00   0.00903372  0.006470048 -79.67 0.0008390842    1.585    0.369
       117  -8.8535    221.1662     23.6121   2.8932870284e+02   6.2301473167e+00  0.009464065  0.006370529   8.70 0.0009440524    1.730    0.422
       118  -9.0741    165.4868    249.1069   2.9132810504e+02   3.9356293050e+00   0.01055063  0.006472025 -62.35  0.001041525    1.616    0.381
       119  -8.7607    206.1132     20.3557   2.8948431621e+02   6.3555267028e+00   0.01038322  0.008218426   0.43 0.0005867319    1.409    0.290
       120  -8.7647    241.0842     18.1887   2.8906433660e+02   6.1769396316e+00   0.01023383  0.008872606 -25.21 0.0005830071    1.212    0.175
       121  -8.5332     42.7040     15.3478   2.9136021070e+02   7.3610296000e+00  0.006941158   0.00500793  66.00 0.0007033398    1.676    0.403
       122  -8.8351    175.6191     12.8092   2.8979407566e+02   6.6203836899e+00  0.009336458  0.006373518 -78.47 0.0008415325    1.681    0.405
       123  -8.1677     72.6515    249.3120   2.9240892822e+02   4.4697383289e+00  0.007096571  0.004911124  60.16 0.0007045977    1.716    0.417
       124  -9.6510    192.0342    245.5069   2.9099809997e+02   3.8237423286e+00   0.02222043   0.01503602 -43.22  0.002320822    1.513    0.339
       125  -9.6097     40.6805    246.7122   2.9276545575e+02   4.6842867083e+00    0.0214857  0.006527898  22.62  0.001400209    3.921    0.745
