#   1 NUMBER                 Running object number                                     
#   2 MAG_AUTO               Kron-like elliptical aperture magnitude                    [mag]
#   3 X_IMAGE                Object position along x                                    [pixel]
#   4 Y_IMAGE                Object position along y                                    [pixel]
#   5 X_WORLD                Barycenter position along world x axis                     [deg]
#   6 Y_WORLD                Barycenter position along world y axis                     [deg]
#   7 A_WORLD                Profile RMS along major axis (world units)                 [deg]
#   8 B_WORLD                Profile RMS along minor axis (world units)                 [deg]
#   9 THETA_WORLD            Position angle (CCW/world-x)                               [deg]
#  10 FWHM_WORLD             FWHM assuming a gaussian core                              [deg]
#  11 ELONGATION             A_IMAGE/B_IMAGE                                           
#  12 ELLIPTICITY            1 - B_IMAGE/A_IMAGE                                       
         1 -12.6011    134.5866    107.1433   4.4981739961e+01   3.3970842180e+01     2.285217    0.2933207 -46.15  0.004291088    8.631    0.884
         2 -14.1507    196.6320     34.0414   1.2265033761e+01   3.1294909778e+01     1.012811    0.8930355  70.13  0.003776046    1.164    0.141
         3 -11.7765    188.9285     14.7994   7.7841011611e+00   3.5393829881e+01     0.287601    0.2275039  59.66  0.001027377    1.317    0.241
         4 -11.9314    227.1207      9.5671   3.2359493308e+00   2.6984597169e+01    0.2747121    0.2419137 -68.09 0.0008136347    1.080    0.074
         5 -12.2062     77.1423      8.6854   2.6021295679e+01   6.4118503055e+01    0.5523574    0.2367444  66.15   0.00205253    3.226    0.690
         6 -11.1823    153.8868    234.0944   6.4205552736e+01   6.5121450518e+00    0.1982888    0.1654437   2.41 0.0007595012    1.267    0.210
         7 -12.4415    248.6515    247.3434   4.9283359743e+01  -7.4867551206e+00    0.4394429    0.2085026 -26.16  0.002853724    2.059    0.514
         8 -18.5347     55.0816    204.5021   8.1990128476e+01   2.5575430956e+01     6.956178     5.820596  63.29   0.03994552    1.046    0.044
         9  -9.9779    234.2848    191.0088   4.2535061518e+01   7.0679987482e-01    0.1676809    0.1313168  -8.25 0.0004172613    1.085    0.078
        10 -11.0092    158.6251    189.1866   5.6600286739e+01   1.2971888710e+01    0.2815209    0.2274746 -65.53 0.0007828803    1.665    0.399
        11 -12.9530    173.5250    172.9864   5.0554223408e+01   1.3218188012e+01    0.8027231    0.6030487 -28.26  0.004389988    1.390    0.281
        12 -12.0677    180.0170    166.7165   4.8006986923e+01   1.3146010684e+01    0.8332897    0.5002286 -60.10  0.002887424    2.805    0.643
        13 -10.2820     87.2576    234.0173   7.7652098085e+01   1.5912487747e+01    0.2310371    0.1488025  23.91  0.001366007    1.695    0.410
        14 -10.5914    165.9724    226.7669   6.0857498662e+01   5.8147188905e+00    0.1744464     0.135262  27.21 0.0005745733    1.033    0.031
        15 -10.3746     82.7625    229.6505   7.8187383214e+01   1.7269138774e+01    0.1797622    0.1358325  45.24  0.001075035    1.049    0.046
        16  -9.7694    187.9628    208.5703   5.3857214479e+01   5.1604971323e+00    0.1757359    0.1487525  -6.55 0.0004957058    1.163    0.140
        17 -10.7885     10.1317    166.3363   8.9862186113e+01   3.8454550191e+01     0.201332    0.1114081  21.88  0.001105229    2.095    0.523
        18  -6.9950     15.9539    163.3158   8.8210240726e+01   3.8658304274e+01    0.3927696    0.1808386  16.32  0.001837483    2.912    0.657
        19 -10.8618    138.8889    155.3710   5.4917188172e+01   2.2926738200e+01    0.2639903    0.2194573 -49.25 0.0003485363    1.285    0.222
        20 -14.0055    133.3468    146.1129   5.4407143529e+01   2.5909841491e+01     1.542562    0.6210325 -57.95  0.004994011    3.573    0.720
        21 -11.9981    143.2367    145.6513   5.1891475400e+01   2.4090361340e+01    0.4819904    0.3356914 -84.66  0.002020019    2.459    0.593
        22  -9.1790      6.2529    148.2726   8.9754280458e+01   4.2915098256e+01    0.1105357   0.08286698 -57.78            0    1.453    0.312
        23 -11.3744     13.0715    142.0407   8.7437108472e+01   4.3882898118e+01     0.557146    0.2779611 -79.02  0.002471022    1.746    0.427
        24 -11.6170      5.3030    138.5175   8.9365884683e+01   4.5287250373e+01    0.5289024    0.3397404  84.44  0.002335796    1.340    0.254
        25 -12.2313     11.5555    205.9699   9.1540278434e+01   2.9865050104e+01     0.285814    0.1680401  26.87  0.001774224    1.843    0.458
        26 -10.7748    126.6102    135.8863   5.3954639632e+01   2.9416949734e+01    0.2675323    0.2087031  50.88 0.0004779161    1.284    0.221
        27 -10.7709    122.1972    135.8121   5.5093212447e+01   3.0289491149e+01    0.2271401    0.2036276  74.27   0.00119949    1.203    0.169
        28 -10.4871    223.2573    131.3671   3.2568060464e+01   1.1052750315e+01     0.471115    0.1854068 -47.87  0.001691315    3.497    0.714
        29 -10.7366    160.4078    128.0636   4.3947915798e+01   2.4149781097e+01    0.3513317    0.2695439 -46.59  0.001743696    1.349    0.259
        30 -12.7438     93.9500    122.3525   6.0114336446e+01   3.8626452960e+01    0.6097417    0.3553508  29.76  0.002575541    1.920    0.479
        31 -11.6335    106.0711    119.2018   5.5834619724e+01   3.7148786341e+01    0.3162946    0.2659433   2.96 0.0006054884    1.447    0.309
        32 -11.1863     98.4587    115.8692   5.7303833501e+01   3.9348136260e+01    0.2626173    0.2431862  42.03  0.000282468    1.081    0.075
        33 -11.6485     98.8822    120.5994   5.8259485820e+01   3.8159096445e+01    0.4380477    0.2318753  53.61  0.001079482    2.225    0.550
        34 -11.0274    112.2283    115.0236   5.3070090684e+01   3.6912642888e+01    0.2590858    0.2155709  41.94 0.0003761683    1.190    0.159
        35 -11.1854     16.2284    202.2731   9.0381419572e+01   3.0182917246e+01    0.1290932    0.1209289 -65.97 0.0006311312    1.418    0.295
        36 -11.5344    111.6848    103.8605   5.0398989302e+01   3.9539669136e+01    0.5986454    0.3914905  73.10  0.001703782    2.416    0.586
        37 -12.8357    119.0735    110.8541   5.0104090161e+01   3.6465585704e+01    0.7038782     0.518435  58.40  0.002832148    1.490    0.329
        38 -12.6114    118.4854    104.1286   4.8524327491e+01   3.8072354170e+01     0.884091    0.5330628  73.83  0.002973043    3.307    0.698
        39 -10.3505    210.8661    198.7874   4.7958852168e+01   3.0849367276e+00    0.2052308    0.1633355   7.64 0.0004886228    1.037    0.036
        40 -11.6505     95.8975    111.4317   5.7033130424e+01   4.0861154202e+01    0.4069613     0.313663  -5.72    0.0014845    1.771    0.435
        41 -10.7399    191.9391    193.3789   5.0551570377e+01   6.7950576512e+00    0.6921834    0.3772477 -62.48  0.001985142    8.355    0.880
        42 -12.7968    135.8614    129.8060   5.0225464130e+01   2.8884490120e+01     1.657479    0.3055421 -51.20  0.003110762    9.394    0.894
        43  -9.6018    181.4876    197.9890   5.3380465405e+01   7.7588874424e+00     0.169599    0.1254002 -40.00 0.0009227488    1.536    0.349
        44 -10.7140    113.5982     94.3697   4.7253959212e+01   4.1235627946e+01    0.3066205    0.1905387 -44.64  0.001312084    1.616    0.381
        45 -10.7766    106.9856     93.2867   4.8908262802e+01   4.2853556394e+01    0.3553012    0.2576445 -70.59  0.001165137    1.748    0.428
        46 -10.1325    151.2012     87.1849   3.5422058723e+01   3.4173463294e+01    0.2129032    0.1833583 -75.90 0.0005091119    1.319    0.242
        47  -9.4361    115.1730     80.4353   4.2680783266e+01   4.3839864388e+01    0.2227556    0.1463981  60.38 0.0009394645    1.763    0.433
        48 -11.3837     73.4962     77.5076   5.5508059730e+01   5.2723411876e+01    0.3420393    0.2461376  50.75  0.001038644    1.542    0.351
        49 -10.1469      6.8350     75.7806   8.2376856602e+01   6.0489274615e+01    0.1875893    0.1472247 -55.80 0.0005030346    1.120    0.107
        50 -13.3983    162.8961     70.9008   2.8173612046e+01   3.4259714074e+01     1.039979    0.6626279  41.24  0.001054902    1.723    0.420
        51 -13.9444    176.3385     58.8312   2.2167242676e+01   3.2875310535e+01       1.2141     1.063564  25.52  0.004033439    1.309    0.236
        52 -12.5957    183.0044     51.8261   1.9080249549e+01   3.2261698992e+01    0.4806407    0.4452113 -61.21 0.0008642761    1.027    0.026
        53 -19.1078     42.5201     91.4276   7.0860750797e+01   5.3730419432e+01     18.65932    0.8878697 -63.53   0.02621314   18.508    0.946
        54 -10.4816     88.9338     71.0615   4.7961565665e+01   5.1311058770e+01    0.3387443    0.2099461  50.85 0.0008478529    1.751    0.429
        55  -9.8259    140.2720     69.3510   3.2609554175e+01   4.0085261762e+01    0.3077689    0.2164406 -79.30  0.001240055    2.044    0.511
        56 -10.6897     81.4087     67.9585   4.9587659279e+01   5.3412334042e+01    0.2664462    0.2024415  55.65 0.0004414475    1.497    0.332
        57 -11.2443     14.4582     58.8850   7.5789135469e+01   6.4073151048e+01     0.420688    0.2378506 -19.29  0.001744126    2.112    0.527
        58 -10.9509     21.1864     56.6611   7.1986751254e+01   6.4102403608e+01    0.3434376    0.1394714  24.79  0.001530167    2.633    0.620
        59 -10.0611     87.0418     58.2886   4.4213233919e+01   5.4289737665e+01    0.2065506    0.1873424  42.92 0.0004095924    1.121    0.108
        60 -12.2171    151.4023    196.1066   5.9278693793e+01   1.2970494258e+01    0.3317295    0.2278914 -39.03  0.001344201    1.642    0.391
        61 -10.7805     14.9302    196.1372   9.0359192647e+01   3.1564364551e+01    0.1461407     0.118767 -68.51 0.0007449524    1.436    0.304
        62 -11.9229     60.7380     21.4635   3.8778333475e+01   6.5820394788e+01    0.3099919    0.2446837  36.48 0.0008675221    1.226    0.185
        63  -9.3911     86.6645     34.2707   3.4832419641e+01   5.8613981892e+01    0.1362925    0.1143337 -86.87 0.0003096079    1.596    0.374
        64 -12.1555     83.3776    241.9501   7.9114570820e+01   1.5072025625e+01    0.2131953    0.1475219  38.95  0.001062915    1.163    0.140
        65 -10.6419    159.9525    249.1029   6.4914962676e+01   3.5685963159e+00    0.1674832     0.143946  16.95 0.0003574172    1.164    0.141
