#   1 NUMBER                 Running object number                                     
#   2 MAG_AUTO               Kron-like elliptical aperture magnitude                    [mag]
#   3 X_IMAGE                Object position along x                                    [pixel]
#   4 Y_IMAGE                Object position along y                                    [pixel]
#   5 X_WORLD                Barycenter position along world x axis                     [deg]
#   6 Y_WORLD                Barycenter position along world y axis                     [deg]
#   7 A_WORLD                Profile RMS along major axis (world units)                 [deg]
#   8 B_WORLD                Profile RMS along minor axis (world units)                 [deg]
#   9 THETA_WORLD            Position angle (CCW/world-x)                               [deg]
#  10 FWHM_WORLD             FWHM assuming a gaussian core                              [deg]
#  11 ELONGATION             A_IMAGE/B_IMAGE                                           
#  12 ELLIPTICITY            1 - B_IMAGE/A_IMAGE                                       
         1 -13.2804     66.9407    143.5887   1.2486615363e+02   3.8458303916e+01     2.834645     1.355064 -85.23  0.002984862    5.566    0.820
         2 -13.9803    203.0891     18.8972   6.1674122490e+01   3.2580033655e+01     1.459853     1.169941  -8.88   0.00658175    1.813    0.448
         3 -14.0065    209.4688     13.3669   5.9746287173e+01   3.1718335830e+01     3.209522     1.768604  30.83  0.001971853    4.400    0.773
         4 -12.3911      2.5137      7.6946   1.1072383752e+02   7.1729672382e+01     1.003109    0.2443561 -39.49  0.004834014    3.177    0.685
         5 -10.6692     17.3163      3.3622   1.0160662345e+02   7.0941168516e+01    0.1782515   0.09948132  -2.49  0.001138942    1.731    0.422
         6 -12.7750     39.1382    225.2101   1.4161360312e+02   2.3014123056e+01    0.3568223    0.3175173  74.70 0.0007594375    1.280    0.219
         7 -12.3950    140.2594    248.7046   1.2441986563e+02   2.9833020762e+00    0.5927711    0.3531875  43.77  0.003187774    1.416    0.294
         8 -12.3879    126.5536    247.9633   1.2702173135e+02   5.4184688260e+00    0.4816664    0.3956986 -54.30  0.002887159    1.442    0.306
         9 -14.5767     91.6717    247.2343   1.3371562399e+02   1.1180288704e+01     4.878331     3.587049  26.35  0.009264503    1.852    0.460
        10 -10.6749     68.6150    227.9431   1.3616725954e+02   1.8518615845e+01    0.2446412    0.1447852  64.72  0.001278945    1.565    0.361
        11 -11.7481     26.5323    214.2816   1.4310154224e+02   2.6824768523e+01    0.4178574    0.1620574 -79.81  0.001962215    2.377    0.579
        12 -14.5067     26.5232    244.0016   1.4530159426e+02   2.0681208955e+01     2.827533     1.007244  43.88   0.01478903    2.369    0.578
        13 -12.9775      5.5862    246.6499   1.4893508261e+02   2.2464799039e+01     1.482815    0.7088779  82.80  0.009117745    1.706    0.414
        14 -11.4920     84.0884    230.8147   1.3339875227e+02   1.5626184350e+01    0.3458153    0.2131824  49.73  0.001902576    1.417    0.294
        15 -10.7683    227.4045    203.3899   9.9494696670e+01  -4.2988900775e+00    0.2767056    0.2217996 -54.10 0.0005581536    1.565    0.361
        16  -9.2265    198.6501    203.3086   1.0508318342e+02   7.9849381517e-01    0.1366182    0.1121475  78.24 0.0007043901    1.711    0.416
        17  -9.9515    191.9857    192.9866   1.0444550645e+02   3.9926689906e+00    0.3247161    0.2010526 -66.99  0.001303265    2.721    0.632
        18 -11.6514     65.0850    192.5913   1.3283881538e+02   2.6893068875e+01     0.390381    0.2557882 -45.36  0.001940422    1.941    0.485
        19 -11.6584     70.3530    185.5768   1.3070499044e+02   2.7793836512e+01    0.3144235    0.2639153 -45.06 0.0007740922    1.455    0.313
        20  -8.5288    181.4865    192.4597   1.0654022271e+02   6.1259547459e+00    0.1446969     0.137095  17.54 6.825788e-05    1.033    0.032
        21 -11.1673     79.7650    173.8683   1.2673024211e+02   2.9196246889e+01     0.269563    0.2315883 -74.88 0.0004345063    1.071    0.066
        22 -13.2871     66.9975    171.2163   1.2943108492e+02   3.1714620594e+01    0.5318883    0.2897399 -44.93  0.001687218    2.215    0.548
        23 -10.3145    105.6411    173.4322   1.2033358419e+02   2.5014815649e+01    0.4434745    0.1362376  41.06  0.001439017    3.185    0.686
        24 -12.1884     86.7557    165.5587   1.2362000446e+02   3.0114032725e+01    0.8049176    0.5604813  58.37    0.0035086    1.502    0.334
        25 -11.1503    248.1342    248.9634   1.0394787096e+02  -1.4197745284e+01    0.3650261    0.2047023  26.08  0.002144893    1.604    0.376
        26  -9.5890    102.1742    145.8121   1.1584637712e+02   3.2303418515e+01     0.286942    0.1846478 -32.80  0.001051667    2.039    0.510
        27 -12.1866     88.1669    148.6039   1.2012547101e+02   3.4023653540e+01    0.3035186    0.2594947 -41.86 0.0004762348    1.259    0.205
        28 -11.0956     38.6298    146.5401   1.3288964609e+02   4.1204337616e+01    0.3516814    0.1757005  53.36  0.001439398    2.394    0.582
        29 -10.6907     58.0257    144.9879   1.2751419343e+02   3.9307401389e+01    0.2177585    0.1903913 -73.72 0.0006567417    1.010    0.009
        30 -12.2758     29.5441    143.8587   1.3486236364e+02   4.2764270038e+01    0.3905441       0.3326  -9.80  0.002505004    1.567    0.362
        31 -10.4488     68.6767    134.8512   1.2273171023e+02   4.0337860969e+01     0.219444     0.200388   6.33 0.0004978346    1.306    0.234
        32 -10.6619     97.8234    132.4116   1.1410664116e+02   3.6300863584e+01    0.3060338    0.2423531 -25.80  0.001003755    1.519    0.342
        33  -9.8138     44.3106    130.3439   1.2873364498e+02   4.4473276539e+01    0.1395261   0.08958039 -39.47 0.0004803887    1.702    0.412
        34  -9.7687    110.4798    135.5106   1.1137785881e+02   3.3244321917e+01    0.3342214    0.2307712 -15.41  0.001230599    2.361    0.576
        35  -9.4371    107.2690    122.8046   1.0925157226e+02   3.6838550260e+01    0.2102087    0.1940153 -69.37 0.0003680691    1.080    0.074
        36 -12.9293     62.6574    217.4835   1.3626251222e+02   2.1602757509e+01     1.136914    0.3762695  44.84  0.001555151    2.639    0.621
        37 -11.2302    168.0076    113.0028   9.1538585142e+01   2.5870932043e+01    0.3768644    0.3101867 -80.52 0.0008607086    1.380    0.275
        38  -9.7181    204.9160    110.8056   8.3571780515e+01   1.7726777669e+01      0.39115    0.1925549  42.90  0.001496095    2.393    0.582
        39  -9.9845     99.5104    149.4990   1.1731020714e+02   3.1882105454e+01    0.2939438    0.2622058 -33.89 0.0007685543    1.261    0.207
        40 -10.8574      1.6521     89.2113   1.3429274126e+02   5.7268012689e+01    0.3912566   0.07824638 -64.20  0.001465093    3.529    0.717
        41 -11.2980      2.3544     79.2793   1.3219589345e+02   5.9314667647e+01    0.5442603   0.09375161 -57.75  0.002141993    3.173    0.685
        42  -9.3287    109.2485     42.8795   8.5128498666e+01   5.1627636232e+01    0.1826048    0.1765312 -89.92 0.0004166478    1.222    0.182
        43 -15.9069      7.7333    199.1834   1.4553217307e+02   3.2039133438e+01      8.54331     1.466835 -72.23   0.02080603    4.219    0.763
        44 -14.9637     46.5636    215.6492   1.3931486069e+02   2.4143063632e+01     2.217752     1.641159 -86.99   0.01069471    1.144    0.126
        45 -11.0559     75.9840    229.3291   1.3485230025e+02   1.7154740246e+01    0.3903873    0.1717742  64.41    0.0016011    2.847    0.649
        46 -11.3039    189.7277     15.5037   6.2406208766e+01   3.6108152925e+01    0.2475088    0.2132721 -86.61 0.0007794637    1.054    0.051
