#   1 NUMBER                 Running object number                                     
#   2 MAG_AUTO               Kron-like elliptical aperture magnitude                    [mag]
#   3 X_IMAGE                Object position along x                                    [pixel]
#   4 Y_IMAGE                Object position along y                                    [pixel]
#   5 X_WORLD                Barycenter position along world x axis                     [deg]
#   6 Y_WORLD                Barycenter position along world y axis                     [deg]
#   7 A_WORLD                Profile RMS along major axis (world units)                 [deg]
#   8 B_WORLD                Profile RMS along minor axis (world units)                 [deg]
#   9 THETA_WORLD            Position angle (CCW/world-x)                               [deg]
#  10 FWHM_WORLD             FWHM assuming a gaussian core                              [deg]
#  11 ELONGATION             A_IMAGE/B_IMAGE                                           
#  12 ELLIPTICITY            1 - B_IMAGE/A_IMAGE                                       
         1 -17.9037    233.1079     74.0033   4.7736438252e+01   1.7862202619e+01     6.829974     5.062133 -38.79   0.02917671    1.261    0.207
         2 -12.6974    126.7592     25.6388   5.1842525580e+01   5.0215635171e+01     1.042072    0.7139468 -31.74  0.005488563    1.598    0.374
         3 -12.7428    164.4738     53.1310   5.2999767092e+01   3.7267797812e+01     1.654832     1.070633 -36.64  0.007864648    1.597    0.374
         4 -12.1019    148.1018     32.9285   4.9954722203e+01   4.4118503822e+01     1.027029    0.7610094  12.29  0.004535697    1.763    0.433
         5 -12.6944    151.6689     48.9591   5.4235921383e+01   4.1069210321e+01     1.184697    0.8537267 -58.21  0.005817074    1.580    0.367
         6 -13.7613    137.1944     44.8219   5.5990552289e+01   4.5226931106e+01     3.044675     1.191707 -42.08   0.01128389    2.773    0.639
         7 -12.0273    136.9530     31.7573   5.1763308657e+01   4.7015397599e+01     0.811176    0.4404703 -16.01  0.003471758    2.461    0.594
         8 -11.2781    141.9140     17.2223   4.6089093804e+01   4.7429422689e+01     0.481028    0.3514461 -30.68  0.002182331    1.527    0.345
         9  -9.9704    143.4218      9.0015   4.3217990142e+01   4.7854473779e+01    0.3855785    0.2308732  -8.91  0.001908392    2.216    0.549
        10  -9.5465    127.8022     10.1895   4.6306991426e+01   5.1553719113e+01    0.2693342    0.2595201  28.12 0.0009471505    1.139    0.122
        11 -11.7452    119.2820     10.0767   4.7933826176e+01   5.3599820507e+01    0.6935871    0.4541755  46.52  0.002845036    1.349    0.259
        12  -9.3244    236.7684      6.9018   3.2632083165e+01   2.5972737801e+01    0.1922762    0.1448828  75.71 0.0007871552    1.320    0.242
        13 -10.7290    125.3045     14.0369   4.8119007907e+01   5.1791669329e+01    0.3409643    0.2914282  47.78  0.001426336    1.061    0.058
        14  -8.5624    218.8038      1.3204   3.2779938036e+01   3.0488540242e+01    0.2144507   0.09823287  79.80  0.001065672    1.974    0.493
        15 -10.0079    232.7480    196.7378   7.4231151734e+01  -2.5987204941e+00    0.2684895    0.1665475  28.80 0.0009313077    1.572    0.364
        16  -7.7724    237.5302    250.5123   8.2709524745e+01  -1.0673368602e+01     0.116606   0.08674664   7.93 6.755231e-05    1.002    0.002
        17  -8.3267    208.6283    239.9590   8.6318620024e+01  -5.3577902044e+00    0.1615355    0.1350929   0.78 0.0004271113    1.119    0.106
        18  -9.0799    248.3183    195.1316   7.1180233432e+01  -4.6890963209e+00    0.2296221    0.1771408  31.55  0.001018394    1.399    0.285
        19  -9.1485     48.9983    190.9681   1.1425185621e+02   2.8778860526e+01    0.1875377    0.1650742  84.24            0    1.078    0.072
        20 -11.7130      8.7575    128.0556   1.1792849467e+02   4.7664291107e+01     1.231023    0.5472859  82.63  0.005249704    2.822    0.646
        21 -13.0183     25.5654    144.2797   1.1506068804e+02   4.2428264622e+01     1.364268    0.9814969 -43.40  0.007185591    1.557    0.358
        22 -12.6977     12.9352    144.1015   1.1846107596e+02   4.3503355098e+01     1.332843    0.8926942 -48.95  0.007876375    1.576    0.365
        23  -9.6666    149.4463    157.3678   8.3786640405e+01   2.0095365417e+01    0.3123212    0.2464296  69.09 0.0006323579    1.544    0.352
        24 -10.0322    191.9235    152.5962   7.3137892326e+01   1.2442654448e+01    0.5350669    0.2906846 -53.77  0.002128515    2.284    0.562
        25  -8.9926    204.3661    147.0537   6.9388890431e+01   1.1017019962e+01    0.4632453    0.3027034  75.07  0.001811503    2.985    0.665
        26  -9.8234    202.9903    151.3108   7.0604076442e+01   1.0484321550e+01    0.4144027    0.3236977  74.88  0.001706989    1.840    0.457
        27  -8.5504    217.8334    149.0741   6.7269055732e+01   8.0212647711e+00    0.3204516    0.1919602  38.61  0.001501727    1.777    0.437
        28 -11.8584     51.0733    136.6599   1.0672349520e+02   4.1706711601e+01     0.578539    0.4677478  21.84 0.0008963631    1.440    0.306
        29 -13.4571     63.1971    132.9872   1.0248252635e+02   4.1111756497e+01     1.932674     1.692065   6.70  0.006915223    1.348    0.258
        30  -8.9267    195.8797    143.3392   7.0247095260e+01   1.3445401540e+01    0.2345347    0.2021209 -51.88 0.0005506297    1.231    0.188
        31  -9.7889    203.3467    189.6779   7.8487558829e+01   3.3956372815e+00    0.2555451    0.2234688  76.96 0.0008313489    1.680    0.405
        32 -10.0822    143.1000    135.6632   8.0481355220e+01   2.6252599314e+01    0.3718602    0.2468174 -52.18  0.001611465    1.560    0.359
        33  -9.8654    143.8947    122.0133   7.6944148376e+01   2.9126212804e+01    0.3431597      0.26506  73.27  0.001324257    1.626    0.385
        34 -10.8056    160.9656    128.6613   7.4421893794e+01   2.3928913463e+01    0.5213873    0.4444321  76.24  0.002181912    1.373    0.272
        35 -10.7084    166.6734    115.6257   6.9838003486e+01   2.5388251436e+01      0.42643    0.4007737  12.33  0.002228837    1.122    0.109
        36 -10.0681    174.3708    114.5507   6.7855426810e+01   2.3854604993e+01    0.5205532    0.3442804 -78.20  0.001968434    2.600    0.615
        37  -7.9375    114.0370    176.5061   9.6312778877e+01   2.2477079576e+01    0.2088618    0.1398433  38.80 0.0003399371    1.439    0.305
        38  -8.6640     50.7636    175.1250   1.1209659276e+02   3.2283739829e+01    0.1878477    0.1550938  80.03 0.0002637475    1.079    0.074
        39 -10.0390    185.8661    169.3038   7.8009794775e+01   1.0370240404e+01    0.3488477      0.27518  83.70  0.001370777    1.948    0.487
        40  -8.2968     81.9993    105.0394   9.0507510928e+01   4.5181284362e+01    0.2099307    0.1979556 -39.50  0.001164027    1.011    0.011
        41  -9.8052    127.2067     91.2108   7.2994680724e+01   3.9437922864e+01    0.2688985    0.2272375 -61.76  0.001279737    1.308    0.235
        42  -9.8057    125.2483     87.9768   7.2583372290e+01   4.0534166056e+01    0.2996966    0.2466638 -53.88  0.001470914    1.291    0.226
        43 -10.2669     99.0530     85.9584   7.9727397971e+01   4.6424025378e+01    0.2221012     0.214104  -6.82            0    1.009    0.009
        44  -7.3785    110.6954     84.7340   7.5783776200e+01   4.4334756920e+01     0.149819    0.1182533   5.80 0.0002295322    1.528    0.345
        45  -9.7905    201.8478    166.0869   7.4018581643e+01   7.9289948994e+00    0.4268322    0.2939541 -71.92   0.00179966    2.692    0.629
        46  -9.4973    158.4139     75.3876   6.0704872737e+01   3.5131544160e+01    0.3355452    0.2235206 -47.85  0.001019463    1.558    0.358
        47 -11.7642    131.2389     69.8592   6.5454832026e+01   4.2633156793e+01    0.7849275     0.541048 -55.49  0.003558259    1.710    0.415
        48  -9.0245    207.4708    222.7004   8.3690327482e+01  -2.6738618713e+00    0.2293248    0.2040347  67.28 0.0007211479    1.748    0.428
        49 -10.5533    162.0343     62.2544   5.6133266034e+01   3.6459137338e+01    0.5941859    0.3598651 -34.99  0.002653964    1.714    0.417
        50 -10.2852    227.2312    216.0169   7.8781247701e+01  -4.6659708489e+00    0.2141025    0.1782507  -0.80  0.001402622    1.057    0.054
        51  -8.8758    195.4646    216.8416   8.5050532233e+01   1.4316498629e-01    0.2532701    0.1554167  38.86   0.00107582    1.529    0.346
        52  -8.9441    196.8312    212.1012   8.3949151829e+01   6.9326092530e-01    0.2132939    0.1692914  25.78 0.0003411197    1.124    0.110
        53  -9.4250    197.5548    207.4345   8.2972107684e+01   1.3467640895e+00     0.246244    0.2006141   3.63  0.001454103    1.150    0.130
        54 -10.3479    123.9397     47.1586   5.9895572825e+01   4.8063372622e+01     0.394441    0.2680492 -84.54  0.001188872    2.437    0.590
        55  -8.6211    206.1733    164.1187   7.2740249611e+01   7.4787200442e+00    0.2138058    0.1796113  -4.75 0.0004811466    1.186    0.157
        56 -10.7000    168.0577     33.5418   4.6696440640e+01   3.9060475837e+01    0.5035018    0.4211455  31.54  0.002828409    1.401    0.286
        57 -10.2834    159.5962     33.5384   4.8087235578e+01   4.1175700793e+01    0.3089102    0.2543535 -14.25 0.0007823338    1.443    0.307
        58  -9.5952    106.2183     62.6765   7.0074017946e+01   4.9516783645e+01     0.544055     0.191036 -39.58  0.001880094    2.895    0.655
        59 -10.1630    110.3447     51.3571   6.4975357733e+01   5.0525841595e+01    0.4569052    0.1894305 -33.15  0.001728807    2.581    0.613
        60  -8.5541    123.9618    205.9869   9.8707296619e+01   1.4317992695e+01     0.194659    0.1764774  49.64            0    1.017    0.017
        61  -9.4400    224.0012    204.0468   7.7211178767e+01  -2.3743888435e+00    0.1993632    0.1670177   0.48 0.0004397588    1.008    0.008
        62 -10.2731    164.6110    202.1996   8.8964410769e+01   7.9671041510e+00    0.2448164    0.2387419  17.66 0.0003623032    1.112    0.100
        63  -8.7673    186.7301    187.1628   8.1417746716e+01   6.8078280028e+00    0.2225888    0.1820803  42.54  0.000510151    1.260    0.206
        64 -10.2445    193.4724    195.9816   8.1696487240e+01   4.0097917637e+00    0.6145921    0.3831944 -65.34  0.002510302    3.219    0.689
        65  -9.6285    190.7950    191.3668   8.1375457299e+01   5.3061414925e+00    0.3999658     0.288458 -71.39  0.001656127    2.409    0.585
        66  -8.5337    116.7895    199.8830   9.9440073848e+01   1.6811149920e+01    0.1924539     0.183301  15.44 0.0003438573    1.166    0.142
