#   1 NUMBER                 Running object number                                     
#   2 MAG_AUTO               Kron-like elliptical aperture magnitude                    [mag]
#   3 X_IMAGE                Object position along x                                    [pixel]
#   4 Y_IMAGE                Object position along y                                    [pixel]
#   5 X_WORLD                Barycenter position along world x axis                     [deg]
#   6 Y_WORLD                Barycenter position along world y axis                     [deg]
#   7 A_WORLD                Profile RMS along major axis (world units)                 [deg]
#   8 B_WORLD                Profile RMS along minor axis (world units)                 [deg]
#   9 THETA_WORLD            Position angle (CCW/world-x)                               [deg]
#  10 FWHM_WORLD             FWHM assuming a gaussian core                              [deg]
#  11 ELONGATION             A_IMAGE/B_IMAGE                                           
#  12 ELLIPTICITY            1 - B_IMAGE/A_IMAGE                                       
         1 -12.2007    208.6597     43.5649   7.2066046319e+01   2.7822639092e+01     2.505989    0.3827061 -32.83  0.007357044    4.202    0.762
         2 -12.5155    215.9141     28.5823   6.7131392752e+01   2.7871981759e+01    0.8198414    0.3756875 -26.95 0.0007337475    1.951    0.487
         3 -12.1095    225.1648     27.9631   6.6076334521e+01   2.5877920003e+01    0.4771207    0.2760123 -20.41  0.001114321    1.667    0.400
         4 -16.7854    241.3526     15.3988   6.1590881619e+01   2.3690141570e+01     3.849725     1.838181 -29.34   0.01971337    1.746    0.427
         5  -9.9385    193.0729     31.6185   7.0550886277e+01   3.2892992656e+01    0.7371215    0.4120958 -73.26  0.001614969    2.601    0.616
         6 -11.2783    113.7694     30.4201   8.4649296008e+01   5.3013144010e+01    0.9858235     0.675029 -44.88  0.003590447    1.619    0.382
         7 -10.1913     96.9890     29.4669   8.9071599055e+01   5.7113778628e+01     0.795541    0.4422515 -57.01  0.002898292    3.147    0.682
         8 -10.5456    152.1249     30.5511   7.6330689013e+01   4.3308940747e+01    0.5032994     0.389406 -63.48  0.001715079    1.498    0.332
         9  -9.0465    190.2025     16.2713   6.6273001588e+01   3.5227244771e+01    0.5827934    0.2687455 -65.19  0.002162545    3.143    0.682
        10  -9.8485     20.8150     15.6016   1.1839560484e+02   7.2503643602e+01    0.5956075    0.2905056  46.17  0.002418975    3.519    0.716
        11  -8.5750    152.1810     10.1541   6.8965178308e+01   4.5511720572e+01    0.2809044    0.1977581  68.27 0.0009663583    1.378    0.274
        12  -9.3277    168.2556      9.0506   6.6470347240e+01   4.1444186231e+01    0.5011532    0.2622132 -73.72  0.001944184    2.587    0.613
        13  -7.8286     28.8531     10.8334   1.1053774636e+02   7.2557257028e+01    0.1555797    0.1480838 -18.72 0.0003618177    1.290    0.225
        14  -8.7463    179.7280      9.2606   6.5233985162e+01   3.8503966930e+01    0.2319182    0.1850093 -54.24 0.0005972127    1.249    0.200
        15  -9.2252    134.9243      8.2620   7.0931231836e+01   5.0203850504e+01    0.2801079    0.2351995 -48.27  0.001010336    1.281    0.219
        16  -8.4335    141.6151      7.8150   6.9670651379e+01   4.8493859327e+01    0.2963762    0.1957578 -53.12  0.001015595    1.710    0.415
        17  -9.3360    160.3927      4.6573   6.5923684490e+01   4.3866159234e+01     0.361663    0.2309151 -36.66  0.001024084    1.561    0.359
        18  -9.3832    176.2029      3.1521   6.3659261562e+01   3.9933255536e+01    0.3499558    0.2203286 -30.36  0.001476155    1.542    0.352
        19  -8.0656    155.9535      4.9522   6.6582460775e+01   4.4995962215e+01    0.2323551    0.1536753 -57.53  0.001048721    1.669    0.401
        20  -7.5758     71.3479      5.6714   8.5783988954e+01   6.6010075199e+01    0.1339177    0.1087658 -62.27 0.0007049462    1.758    0.431
        21  -8.8882    108.1711      3.4019   7.3976348094e+01   5.7551146990e+01    0.3646989    0.2500634 -71.08  0.001212092    1.990    0.498
        22  -8.5306    101.5727      3.3862   7.5479857738e+01   5.9205398926e+01    0.3037225    0.2027551 -55.10  0.001209508    1.948    0.487
        23  -7.9299     92.7478      3.7771   7.7921992284e+01   6.1326470451e+01    0.1845132    0.1649312 -56.47 0.0006915157    1.348    0.258
        24  -8.3440    181.7997      2.6640   6.2952598423e+01   3.8563393593e+01    0.2897576    0.1606332 -34.52  0.001391309    1.703    0.413
        25  -8.7200    126.5952      2.4260   6.9963590190e+01   5.2897827361e+01    0.3330488    0.2057567 -63.85  0.001482303    2.095    0.523
        26  -7.8847    148.0040      2.4787   6.6727743882e+01   4.7284131118e+01    0.2202113    0.1329764  71.20  0.001032578    1.592    0.372
        27  -7.6350     79.0000      2.0097   8.1035934170e+01   6.4725665502e+01    0.2168601   0.07600608 -22.52 0.0007916723    2.868    0.651
        28  -8.1652    135.2005      1.3684   6.8136103437e+01   5.0734826749e+01    0.2032447    0.1300755  84.53 0.0006756177    1.708    0.415
        29  -7.3030     70.3028      1.3102   8.3616327852e+01   6.6731730495e+01    0.1448713   0.09243143  22.20 0.0003149262    1.608    0.378
        30  -7.4333    225.6580    130.3022   9.1462462821e+01   1.2564382393e+01    0.1198961    0.1042745 -55.86 0.0006366827    1.677    0.404
        31  -8.5836     54.9557    250.5779   1.4292645766e+02   1.8531442724e+01    0.1501099   0.07499178  35.07 0.0003692697    1.527    0.345
        32  -7.8708    196.4940    126.0395   9.5639259769e+01   1.8516638854e+01    0.1881225     0.115087 -53.13 0.0008078126    2.464    0.594
        33  -7.3872    127.4908    124.5264   1.1079235335e+02   3.2168582327e+01    0.1463593    0.1386528   8.92 0.0004726456    1.012    0.012
        34  -9.2065    165.9765    121.2164   1.0073881547e+02   2.5309735403e+01    0.5577236    0.1570411 -42.59  0.001718998    3.694    0.729
        35  -8.0465    149.3807    120.7771   1.0444267718e+02   2.8699156978e+01    0.2042494    0.1357365 -29.87 0.0009386487    1.577    0.366
        36  -7.9989    135.2654    120.8008   1.0792725594e+02   3.1457849465e+01    0.2235049    0.1847051 -63.90 0.0008897696    1.464    0.317
        37  -9.0939    249.2489    118.5214   8.5268755060e+01   1.0110439134e+01    0.2939073    0.1673677 -52.46  0.001311744    3.173    0.685
        38  -9.0258    242.8461    116.8831   8.5818874425e+01   1.1396200574e+01    0.1974712    0.1794091  -7.89 0.0004044191    1.198    0.165
        39  -8.6457    214.7789    117.3653   9.0329440999e+01   1.6367436187e+01    0.1905311    0.1178063  34.04 0.0009481527    1.666    0.400
        40  -9.2735    204.2858    112.2904   9.0939387223e+01   1.9138260492e+01    0.2575438    0.1994384 -65.84  0.001026432    2.006    0.502
        41 -10.1650    221.5770    111.7505   8.7885614988e+01   1.5898687015e+01    0.4498205    0.2334528  48.69  0.001784905    2.123    0.529
        42  -8.3378    233.2665    110.4313   8.5762613421e+01   1.3930865549e+01    0.4245482    0.1382593 -41.37  0.001510652    3.507    0.715
        43  -8.7900    235.9713    101.2615   8.3227114105e+01   1.4664580878e+01    0.2819863    0.1606908 -26.36  0.001258633    1.512    0.339
        44  -9.3298    237.4763    105.4943   8.4000302840e+01   1.3830215131e+01    0.2401867    0.1515555 -16.47 0.0007062887    1.456    0.313
        45  -8.6480    234.0051    105.0377   8.4397558712e+01   1.4521424510e+01    0.3014614    0.2116462  -1.83 0.0008272449    1.440    0.305
        46  -8.9543    199.9837    109.7594   9.1092490794e+01   2.0379169813e+01    0.4212025    0.1615928 -39.54  0.001590542    2.578    0.612
        47  -8.7246    214.2102    110.2062   8.8725370467e+01   1.7518919423e+01    0.1806799    0.1602836 -43.35  0.001063138    1.333    0.250
        48 -10.0206    245.2162    108.1378   8.3513790336e+01   1.2116529673e+01    0.4385387    0.2627449  22.09  0.001713741    1.972    0.493
        49  -7.7480    177.5461    108.5164   9.5114654580e+01   2.5170056846e+01    0.1475673    0.1340651  -3.55 0.0006140238    1.004    0.004
        50  -8.6856    217.6080    105.2525   8.6971691755e+01   1.7579230849e+01    0.2331224    0.2039774 -12.00  0.001370048    1.037    0.036
        51  -9.1942    146.4840    104.5263   1.0104051030e+02   3.2420148797e+01    0.4077539    0.2892348 -59.19  0.001219973    1.825    0.452
        52  -9.1588    197.2061    104.9211   9.0391598786e+01   2.1692775435e+01    0.2712408    0.1885636  -7.88 0.0007367495    1.553    0.356
        53  -9.9129    139.5459    103.2463   1.0242410618e+02   3.4118570051e+01    0.3150196     0.297278  49.41  0.001372155    1.149    0.129
        54  -7.6637     23.6550    103.3055   1.3892751952e+02   5.1491809965e+01    0.1357899   0.08610907  62.57 0.0007041982    1.692    0.409
        55  -8.1133    162.4137    102.2957   9.6731178509e+01   2.9457113622e+01    0.2046166    0.1386118 -43.80 0.0007523446    1.540    0.351
        56  -9.9049    247.4616     98.6965   8.1053284427e+01   1.2927764997e+01    0.4605295    0.2990696   5.55  0.002273295    1.757    0.431
        57 -11.0478    242.0150     94.5451   8.0812500454e+01   1.4435790010e+01    0.5386873    0.2900683 -31.72  0.002742629    1.580    0.367
        58  -8.8360    166.8236    100.5054   9.5284281765e+01   2.8829770468e+01    0.4213107    0.2417006 -62.37  0.001412499    3.671    0.728
        59  -8.8606     40.0477     98.9556   1.3258658744e+02   5.1170992665e+01    0.3546324      0.23413 -85.11  0.001820247    1.583    0.368
        60  -9.9058    228.1009     96.5235   8.3237146473e+01   1.6777465215e+01    0.4664207    0.3323019  -0.44  0.001393423    1.465    0.318
        61 -10.4317    219.5049     89.6336   8.2818934131e+01   1.9414034094e+01    0.6156262    0.2855743 -24.37  0.001973193    2.078    0.519
        62  -8.4535    169.0031     95.9021   9.3572912941e+01   2.9161874058e+01    0.3494952    0.1795799 -31.87  0.001416647    1.927    0.481
        63  -9.6870    144.4924     95.9968   9.9211580125e+01   3.4482584124e+01    0.5774838    0.3566441  64.64  0.002276731    2.425    0.588
        64  -7.7170     95.9958     95.2412   1.1266234105e+02   4.4334406805e+01    0.1932013    0.1257247  37.31 0.0007342232    1.570    0.363
        65  -9.0447    210.3984     92.9701   8.5087631181e+01   2.0789266348e+01    0.3173128     0.233936  20.29  0.001111249    1.468    0.319
        66  -8.0105    176.4143     93.2230   9.1308537356e+01   2.7995305003e+01    0.2173466    0.1311695 -43.10 0.0009494573    1.723    0.420
        67  -9.9289    184.8891     90.5936   8.8936130521e+01   2.6569233433e+01    0.3947234    0.2106048 -25.63  0.001646495    1.913    0.477
        68 -10.4174     44.8039    247.8829   1.4460494991e+02   1.9946707425e+01    0.2595747    0.1471696  57.00  0.001892412    1.444    0.308
        69  -9.1504     31.5076    249.4956   1.4701693670e+02   2.0960855409e+01    0.1224108    0.0852434 -70.43 0.0009869883    1.793    0.442
        70  -7.7942    102.7998    231.6021   1.3257985986e+02   1.6030594642e+01     0.163283   0.07843193  41.23 0.0005257523    1.624    0.384
        71 -12.0361    244.1528     48.7735   6.9524845809e+01   1.9622506192e+01    0.2950204    0.2454666 -36.66 0.0002647936    1.071    0.066
        72 -11.1737     45.1396    221.7166   1.4319523585e+02   2.4139922906e+01    0.8959733     0.379797  48.13  0.005253794    1.826    0.452
        73  -9.6284    226.6528     89.9255   8.1836539308e+01   1.7954512665e+01    0.2865868    0.2029914  42.09  0.001021161    1.524    0.344
        74  -9.6677    189.0594     87.8667   8.7419647878e+01   2.6088619878e+01    0.4298816     0.177839 -39.88  0.001303141    2.364    0.577
        75  -9.4119    148.7611     87.5110   9.5758682118e+01   3.5141972462e+01    0.2778668    0.2017346 -71.68 0.0009031995    2.131    0.531
        76  -7.7782    165.3004     87.6572   9.2065467907e+01   3.1407691519e+01    0.1508042    0.1191486 -65.74 0.0003503141    1.675    0.403
        77  -8.8348    158.6117     65.7728   8.6924610795e+01   3.6628393370e+01    0.4546307    0.2099509 -43.87  0.001686868    2.316    0.568
        78 -10.7090    168.9942     75.7087   8.7824955636e+01   3.2566974122e+01     0.666311    0.4340562 -57.02  0.002527689    2.035    0.509
        79 -11.0029    157.2982     78.8688   9.1239562962e+01   3.4747083325e+01     1.174133    0.2548796 -34.66   0.00304575    4.558    0.781
        80 -10.4448    160.6410     73.6501   8.8936844147e+01   3.4855389164e+01    0.4877852    0.3986574 -32.11  0.001797426    1.188    0.158
        81  -7.9719    106.9622     86.9927   1.0695552163e+02   4.4111471705e+01    0.2431974      0.19353 -89.45  0.001132273    1.769    0.435
        82  -9.3169    207.1048     82.7091   8.2957917030e+01   2.2960891884e+01    0.4315747    0.1801914 -34.32  0.001736301    2.139    0.532
        83  -7.6622    211.6239     83.2330   8.2386803780e+01   2.1931495838e+01     0.197787    0.1232449 -18.96 0.0009386879    1.580    0.367
        84  -8.6197    227.1683     82.2284   7.9853543746e+01   1.8887024338e+01    0.2015794    0.1661911  -2.60  0.001179612    1.173    0.147
        85  -8.7218    224.0164     79.5168   7.9610510058e+01   1.9883514023e+01    0.3366043    0.2162762  57.32  0.001060615    1.795    0.443
        86  -8.8167    216.2420     78.0690   8.0350367564e+01   2.1682950864e+01    0.2113959    0.1834919  -8.28 0.0005436996    1.077    0.071
        87 -11.6286    218.7940     73.2955   7.8745111105e+01   2.1794747941e+01    0.6333622    0.2902322 -38.73  0.002739912    2.013    0.503
        88  -8.0737     57.3095     82.6712   1.2290140984e+02   5.3253465179e+01    0.1422918    0.1081644  74.74 0.0007040485    1.663    0.399
        89  -9.2686    182.4615     81.4892   8.6878158928e+01   2.8556531249e+01    0.2543639    0.2005735  64.55 0.0008468986    1.494    0.331
        90  -9.2336    163.9986     79.7084   9.0039763197e+01   3.3059680953e+01    0.2120105    0.1934156  40.01 0.0004855896    1.123    0.110
        91  -8.6060     82.2265     78.2307   1.1251716150e+02   5.0588347524e+01    0.2745493    0.2393076  86.64   0.00104568    1.405    0.288
        92 -10.7521    233.4435     74.3761   7.7061767403e+01   1.8662753377e+01    0.4143584    0.2711765  59.02 0.0008827352    1.795    0.443
        93  -9.1907    184.8524     78.0649   8.5471331379e+01   2.8550326215e+01    0.2238916    0.1938454 -46.71  0.000741401    1.236    0.191
        94  -8.6164    147.5155     77.5015   9.3060828545e+01   3.7241723012e+01    0.1532129     0.146161  -6.14 2.502987e-05    1.015    0.015
        95  -9.9060    202.6831     71.5576   8.0657988299e+01   2.5509012521e+01    0.5563044    0.2228322 -37.03   0.00208021    2.266    0.559
        96  -8.0534    229.2344     78.0440   7.8526014323e+01   1.9026796768e+01    0.2535095    0.1689773  -8.94  0.001249745    1.572    0.364
        97  -8.6543    212.0778     72.8269   7.9583519980e+01   2.3283967943e+01    0.4525572    0.1903595 -21.71  0.001706172    2.593    0.614
        98  -9.0157    181.2710     71.6656   8.4286301082e+01   3.0352875583e+01    0.3697065    0.1712201  52.55  0.001464903    2.202    0.546
        99  -9.1852    174.2163     71.1951   8.5460846989e+01   3.2068713447e+01    0.4312703    0.2522551  78.42  0.001568207    3.101    0.678
       100  -9.8606    163.2072     70.7938   8.7526727574e+01   3.4722243448e+01    0.4504478    0.2961024 -55.44  0.001947728    1.923    0.480
       101  -8.1813    104.9994     72.1001   1.0296934843e+02   4.7643637833e+01    0.2267183    0.2181736  -1.76 0.0004516527    1.026    0.025
       102  -8.3410    196.0129     70.7431   8.1491813874e+01   2.7115663566e+01    0.2090428    0.1886649 -55.82 0.0005887157    1.229    0.186
       103  -9.4514    191.3797     70.3121   8.2134297027e+01   2.8229331316e+01    0.4849231    0.2013776 -24.98  0.001771927    2.527    0.604
       104  -9.5696    187.5059     66.5836   8.1717501375e+01   2.9664057547e+01    0.3373829    0.3200595 -29.01  0.001132126    1.060    0.056
       105  -8.6034    111.5789     70.1043   1.0028674444e+02   4.6674249072e+01    0.2888579    0.2595222 -41.27 0.0008839704    1.127    0.113
       106  -8.4664    232.3045     68.6566   7.5777325183e+01   1.9616473657e+01    0.2604847    0.1755455 -10.46 0.0007036392    1.525    0.344
       107  -8.6597    225.1982     67.7236   7.6441688921e+01   2.1189107558e+01    0.2341758    0.1664571 -18.35            0    1.311    0.237
       108  -9.3590    169.5444     67.4179   8.5224896363e+01   3.3760002731e+01    0.3005491     0.254475 -17.28 0.0009663267    1.154    0.133
       109  -8.1042    150.1638     67.4161   8.9285769278e+01   3.8372860114e+01    0.2099557    0.1505296  66.52 0.0006379341    1.672    0.402
       110  -8.1515    208.7887     65.7854   7.8170932839e+01   2.4955716643e+01    0.2097301    0.1799169   8.58 0.0009026437    1.207    0.172
       111  -8.7083    175.3164     76.0774   8.6686237367e+01   3.1043452321e+01    0.2193774    0.1874449 -30.35  0.001152287    1.125    0.111
       112 -10.4003    174.5175     61.1548   8.2378179239e+01   3.3526309627e+01    0.5108732       0.4461 -33.07  0.002302259    1.113    0.101
       113  -8.0275    196.8241     58.6410   7.7942268914e+01   2.8621280050e+01    0.2074173    0.1425701  59.37 0.0006242601    1.562    0.360
       114  -9.8943    199.9842     62.1526   7.8462094117e+01   2.7419573248e+01    0.4990636    0.3098701  26.26 0.0003401003    2.067    0.516
       115  -8.4039    201.2872     58.2932   7.7184004850e+01   2.7643085111e+01    0.2100971    0.1833285   6.36 0.0001677618    1.185    0.156
       116  -9.5060    166.0059     62.5359   8.4409186524e+01   3.5363048453e+01     0.380425     0.209945 -29.73  0.001595387    1.761    0.432
       117  -9.6517    164.9389     52.7115   8.1493689341e+01   3.7092510965e+01    0.5039676    0.3285318  72.23  0.002181851    1.866    0.464
       118 -10.0503    174.2910     53.3912   8.0021084603e+01   3.4704308363e+01    0.7447104    0.4297121  74.76  0.003034086    2.335    0.572
       119  -9.6694    186.5592     59.4452   7.9787398194e+01   3.0907407551e+01    0.4929421    0.2973217  19.54  0.002011044    2.390    0.582
       120  -9.4607    161.0575     60.1256   8.4628678718e+01   3.6930950140e+01    0.3994284    0.3166885   7.33  0.001398696    1.407    0.289
       121  -7.5569     80.4687     62.4986   1.0813188849e+02   5.4372696071e+01    0.1494223     0.137076 -21.16 0.0008096981    1.027    0.027
       122  -7.5014    193.5045     60.5365   7.8994936444e+01   2.9130161003e+01    0.1437429    0.1336474 -10.28 0.0001804129    1.031    0.030
       123  -7.6298     65.4780     59.4682   1.1294727877e+02   5.7531069774e+01    0.1429777    0.1340546 -38.59 3.679173e-05    1.065    0.061
       124  -7.8252     90.5339     57.9579   1.0288250432e+02   5.3430891334e+01    0.2291372    0.1425382 -41.01 0.0005923939    1.550    0.355
       125  -8.6332    216.4551     48.2121   7.2394327822e+01   2.5508550382e+01    0.3499938    0.2261211 -15.68  0.001761517    1.575    0.365
       126  -9.0884    216.0816     56.5332   7.4680095641e+01   2.4561390151e+01     0.258781    0.2250531 -33.42 0.0002933681    1.062    0.059
       127 -10.6951    219.4478     52.2940   7.3127124076e+01   2.4354194925e+01    0.3850454    0.3013356 -46.65  0.000224016    1.263    0.208
       128  -8.4990    149.9494     56.9769   8.5919668350e+01   4.0127569339e+01    0.2541748    0.1811022  18.24  0.001135106    1.699    0.412
       129  -8.0022    144.8137     57.5969   8.7267330747e+01   4.1278719366e+01    0.2136827    0.1497262  68.70 0.0009465839    1.721    0.419
       130  -7.5191     86.2909     55.6425   1.0353927528e+02   5.4722995504e+01    0.1467134    0.1200593 -77.08 0.0006785704    1.687    0.407
       131  -9.6567    182.6810     55.6349   7.9287882674e+01   3.2362823418e+01    0.5256532     0.333618 -53.46  0.001877574    1.855    0.461
       132  -7.8983      2.5104     53.4780   1.4040737214e+02   6.4960880821e+01     0.127105    0.1024278 -63.40 0.0003268199    1.004    0.004
       133  -8.3407    143.2712     51.0241   8.5359358694e+01   4.2695460434e+01    0.2215968    0.1908007 -28.47 0.0006269242    1.144    0.126
       134  -8.9544    193.3133     45.9123   7.4760232532e+01   3.1115087121e+01    0.3356465     0.213888 -23.33 0.0009559022    1.519    0.342
       135  -9.6253    105.0696     44.8334   9.3055378130e+01   5.2806078937e+01    0.5785301    0.3292706 -62.39  0.001930788    3.615    0.723
       136  -8.1949    154.0119     46.5247   8.1546939117e+01   4.0697489180e+01    0.2314139    0.1481523  58.94  0.001032793    1.595    0.373
       137  -8.1905     90.4786     44.9713   9.7891432029e+01   5.5942456809e+01     0.232956    0.1965515  35.37 0.0006047557    1.193    0.161
       138  -8.9023     84.8942     43.0379   9.9093571600e+01   5.7436605250e+01    0.3573398    0.1930698 -58.20  0.001256913    3.229    0.690
       139  -7.3742    132.6460     42.7450   8.4813643444e+01   4.6580480012e+01    0.1577722    0.1098966  28.28 0.0003131373    1.606    0.377
       140  -9.0438    195.7155     40.7284   7.2906466436e+01   3.1186534279e+01    0.2295008    0.2165194 -48.82 0.0003341965    1.059    0.056
       141  -8.6590    189.1123     38.9322   7.3266023026e+01   3.2991713121e+01    0.3617422    0.1916322 -30.55 0.0008928618    1.745    0.427
       142 -10.9687    123.3256     36.2810   8.4588081997e+01   4.9835145291e+01    0.6288556    0.4275715 -31.32  0.001653884    1.461    0.316
       143  -9.3886    172.6667     37.8617   7.5358722361e+01   3.7180483473e+01    0.4461064     0.294309 -85.86  0.001351742    2.031    0.508
       144  -8.6930     87.8654     35.4953   9.4795896082e+01   5.8158242400e+01    0.2886772    0.1852008  50.66 0.0008275576    1.662    0.398
       145  -8.5974     89.8431     32.1611   9.2625672217e+01   5.8284823804e+01    0.3059944    0.2316957  -0.09 0.0007151854    1.441    0.306
       146  -8.1252     73.1323     37.4551   1.0124285294e+02   6.0748882878e+01    0.2347891    0.2017756 -51.61 0.0009651456    1.339    0.253
       147 -10.7798     28.3613    207.8497   1.4581089441e+02   2.8198056070e+01    0.5224144    0.4105448  63.89  0.002515184    1.061    0.057
       148  -8.5884    161.0608     34.1003   7.6009432109e+01   4.0583286084e+01    0.2604418    0.2164378 -24.13 0.0008690165    1.192    0.161
       149  -8.8443     68.8818    205.5835   1.3720404014e+02   2.4445879662e+01    0.2340139    0.1143254  60.57  0.001204495    2.291    0.564
       150  -8.2570    114.9868     21.9941   8.0754614597e+01   5.3831070953e+01    0.2643823    0.2365878  30.32 0.0008311343    1.058    0.055
       151  -7.4232    178.4264    201.5195   1.1384245172e+02   1.0115515190e+01     0.120903   0.09958103  20.86  0.000177301    1.098    0.090
       152 -11.1320     61.4109    199.1889   1.3828567124e+02   2.6471337559e+01    0.5997984    0.2486791  28.64  0.002965045    2.305    0.566
       153  -8.1932     91.6901     38.4333   9.4743310557e+01   5.6844813748e+01    0.4899982    0.2261708  63.20  0.001443424    4.597    0.782
       154  -9.2139    140.9479     30.9793   7.8605982033e+01   4.6121211008e+01     0.244983    0.1759685 -61.81  0.001131951    1.719    0.418
       155  -8.7190    135.5511     30.9074   7.9690604254e+01   4.7507542369e+01    0.2733044    0.2251426 -67.45 0.0006085223    1.437    0.304
       156  -7.9520    201.4663     28.1343   6.8536246702e+01   3.1269763880e+01    0.2003482    0.1264195 -26.43 0.0008140697    1.486    0.327
       157 -11.8717    229.8080     59.8677   7.3856220977e+01   2.1222304989e+01     1.170317     0.736267 -79.24  0.003258308    2.534    0.605
       158  -8.2225    162.9641     27.3638   7.3402113032e+01   4.0907966304e+01    0.2095127    0.1819452  59.76 0.0009618695    1.147    0.128
       159  -9.0322    155.8863     25.2180   7.3793325562e+01   4.2975083633e+01    0.3899253    0.2893822 -73.24  0.001838484    1.606    0.377
       160  -8.4681     84.3710     24.8160   9.1116620664e+01   6.0615577850e+01     0.337728    0.1960516 -49.17  0.001216389    2.234    0.552
       161  -9.9933    174.9118     23.6877   7.0441346664e+01   3.8276654074e+01    0.2892801    0.2499276 -40.15  0.000352276    1.138    0.121
       162  -7.5035    174.5250     19.5021   6.9134718076e+01   3.8819755823e+01    0.1979967    0.1360799  87.15 0.0007227122    1.617    0.382
       163  -8.5659    194.5605     23.3117   6.7901669470e+01   3.3443322734e+01    0.2310288    0.1822287  74.48 0.0008066158    1.317    0.241
       164  -7.8989    180.9708     21.4524   6.8941819356e+01   3.6990512219e+01    0.2016406    0.1366234  71.53 0.0005133296    1.511    0.338
       165  -8.5996    164.2814     19.3739   7.0480042620e+01   4.1452280508e+01    0.2782438    0.2119893 -39.08 0.0008457655    1.309    0.236
       166  -8.1236    103.1748     19.0948   8.2527824922e+01   5.7090887448e+01    0.2366077    0.1859284  24.97 0.0009587378    1.262    0.208
       167 -12.0882     46.7606    183.6506   1.4032393453e+02   3.1070187705e+01     1.039679    0.6959442  67.49  0.006540817    1.405    0.288
       168  -7.8747    168.9895     17.7375   6.9280001603e+01   4.0413097798e+01    0.2603491    0.1483375 -45.48 0.0004655597    1.810    0.448
       169  -7.7077    166.6795     14.7005   6.8566856430e+01   4.1311722243e+01    0.2150473     0.181539  71.62 0.0006700495    1.174    0.148
       170  -8.4977    155.2987     17.7175   7.1225274553e+01   4.3949124225e+01    0.3673218     0.197265  76.55  0.001536562    2.079    0.519
       171  -8.4331     65.9883    188.1404   1.3630000592e+02   2.8071083262e+01    0.1920964     0.137982  57.29 0.0008300932    1.271    0.213
       172  -8.5695    139.0354     16.5375   7.3469073108e+01   4.8306447352e+01    0.3191145    0.1402871 -54.10  0.001048514    3.510    0.715
       173  -8.6667    177.2365     15.0511   6.7361205013e+01   3.8582911098e+01    0.2620833    0.1982109  89.59 0.0007846758    1.400    0.286
       174  -8.1600     68.4934     15.0856   9.2184655249e+01   6.5361381360e+01    0.2115436    0.1295567 -30.26  0.001024945    1.576    0.365
       175  -9.8080     52.1285    174.1981   1.3826912534e+02   3.2444325295e+01    0.2741989    0.1915702  57.71 0.0009159829    1.302    0.232
       176  -9.1662    248.7898    168.8426   9.5666310081e+01   4.0207300455e+00    0.3181968    0.1289866 -30.37   0.00159523    2.222    0.550
       177  -8.7027    227.9926    168.5110   9.8965535103e+01   7.0919794800e+00    0.1811011    0.1091297  34.17 0.0007929745    1.588    0.370
       178  -8.7766     60.6684    167.1028   1.3548306012e+02   3.2992062010e+01    0.2257222    0.1495386  45.26 0.0008148216    1.363    0.267
       179  -8.5085    203.5662    163.7156   1.0236143854e+02   1.1578546361e+01    0.1658462     0.117608 -36.32 0.0008570782    1.558    0.358
       180  -7.5943     57.5301    156.9949   1.3518696423e+02   3.5544522713e+01    0.1791491    0.1190595 -72.30 0.0003910283    1.500    0.333
       181  -8.1509    144.6334    156.0975   1.1314312332e+02   2.2874199880e+01    0.2472574    0.1779905  44.31 0.0008522854    1.392    0.282
       182 -10.3584    178.4094    150.7194   1.0467180713e+02   1.7870890940e+01    0.4949937    0.4447623  62.85  0.002151014    1.519    0.342
       183  -8.1791     94.0106    152.5104   1.2501401291e+02   3.1776904933e+01     0.198774   0.09782172  53.15 0.0008094426    2.453    0.592
       184  -7.8387    108.4103    187.2970   1.2651097590e+02   2.2746733222e+01     0.218289    0.1281606  50.04  0.000750344    1.718    0.418
       185  -7.7943     80.4614     11.4507   8.5718999343e+01   6.3318988830e+01    0.1400906    0.1280024  12.21 0.0001603601    1.046    0.044
       186  -7.9470     80.7568    148.9471   1.2797691073e+02   3.4430387924e+01    0.2222435    0.1456168  75.17  0.001075425    1.967    0.492
       187  -8.5761     65.9987    144.5867   1.3137695635e+02   3.7328821322e+01    0.2642909    0.1469529  89.23  0.001156553    2.449    0.592
       188 -10.2047    233.7088    128.5105   8.9776253304e+01   1.1422974299e+01    0.5237626    0.3114162 -49.95  0.002433026    2.627    0.619
       189  -9.2081    248.3992    132.6756   8.8449036088e+01   8.4669316208e+00    0.3304814    0.2866691 -29.46  0.001498186    1.378    0.274
       190 -10.7919    242.9368    138.2686   9.0449202671e+01   8.6299676965e+00    0.6238045    0.3908551 -19.30  0.002458649    1.361    0.265
       191  -9.4193    239.0827    134.8449   9.0313998041e+01   9.6918789863e+00    0.2894459     0.235912 -24.19  0.001493066    1.240    0.194
       192  -8.9133    196.8068    139.6830   9.8656606852e+01   1.6327490897e+01    0.2882591    0.1994929 -54.19  0.001410368    2.168    0.539
       193  -8.4163    198.6664    135.8457   9.7456763271e+01   1.6582494140e+01    0.2978194    0.1893303  36.18 0.0007628768    1.537    0.350
