#   1 NUMBER                 Running object number                                     
#   2 MAG_AUTO               Kron-like elliptical aperture magnitude                    [mag]
#   3 X_IMAGE                Object position along x                                    [pixel]
#   4 Y_IMAGE                Object position along y                                    [pixel]
#   5 X_WORLD                Barycenter position along world x axis                     [deg]
#   6 Y_WORLD                Barycenter position along world y axis                     [deg]
#   7 A_WORLD                Profile RMS along major axis (world units)                 [deg]
#   8 B_WORLD                Profile RMS along minor axis (world units)                 [deg]
#   9 THETA_WORLD            Position angle (CCW/world-x)                               [deg]
#  10 FWHM_WORLD             FWHM assuming a gaussian core                              [deg]
#  11 ELONGATION             A_IMAGE/B_IMAGE                                           
#  12 ELLIPTICITY            1 - B_IMAGE/A_IMAGE                                       
         1 -14.2143    218.3246      5.5289   3.9453711848e+01   2.8333508972e+01     2.324114     1.285764  64.67   0.00741538    1.859    0.462
         2 -15.0809    193.0717     35.0417   5.1572360355e+01   3.1867077137e+01      3.38374     1.879337  18.10   0.01262654    2.601    0.616
         3 -16.0393     70.0042    145.7519   1.0657340383e+02   3.7356320428e+01     8.289309      3.39918  73.98    0.0228013    7.828    0.872
         4 -12.5020    247.4824    246.8124   8.8039437485e+01  -1.8277365305e+00    0.4717264    0.2855106  12.10  0.003903278    1.415    0.293
         5  -9.9756     43.4332    236.8037   1.1830930871e+02   2.5073748264e+01   0.09699317   0.07580045  79.12 0.0004613181    1.346    0.257
         6 -10.3025     61.7205    220.0350   1.1447494925e+02   2.5487605421e+01    0.1261875   0.09628334  68.48 0.0005280482    1.162    0.140
         7  -9.7231     73.1227    218.1267   1.1240994548e+02   2.4436748219e+01    0.1346073    0.1024093  56.63 -0.0009232552    1.085    0.078
         8  -8.5396     50.0955    216.7123   1.1626478307e+02   2.7278973282e+01    0.2316671    0.1712336   7.95  0.001610577    2.808    0.644
         9 -11.8776     55.3354    211.9735   1.1509790486e+02   2.7423464188e+01    0.4051432    0.1749972  64.32   0.00247604    2.132    0.531
        10 -13.3763     57.2073    201.4815   1.1411972930e+02   2.8863318986e+01    0.3712498    0.2721981 -79.75  0.001945854    1.490    0.329
        11 -12.1045     38.6490    212.0149   1.1798894829e+02   2.9214627411e+01    0.3149155      0.11731  60.30  0.001906818    2.149    0.535
        12 -10.1587    174.6464    212.6999   9.4592809526e+01   1.1144912035e+01    0.1106314    0.0693692  22.63 0.0007037364    1.700    0.412
        13 -11.7445     68.0558    207.1326   1.1254571811e+02   2.6700974140e+01    0.2320328    0.1775233  36.71 0.0004500863    1.455    0.313
        14  99.0000     73.0190    205.8685   1.1156704071e+02   2.6298216327e+01    0.4690032    0.2777739  26.33  0.002911724    2.340    0.573
        15  -8.1814     43.6683    209.9479   1.1701838244e+02   2.9011175358e+01    0.3659846    0.0944749  59.45  0.001658367    3.820    0.738
        16 -11.3751     43.8761    205.5870   1.1675348874e+02   2.9678259009e+01    0.1549599     0.127358 -82.28  0.001325971    1.457    0.314
        17 -11.7357    193.6470    195.7378   8.9168544831e+01   1.0122788245e+01    0.9408528    0.5378137 -59.72  0.004255115    4.961    0.798
        18 -12.1583    203.5594    199.5748   8.8126067108e+01   8.1727048981e+00    0.4741067    0.2010124  33.81  0.002534869    2.036    0.509
        19 -10.8977     32.8625    206.0770   1.1871761020e+02   3.0741407575e+01     0.155886    0.1198531  77.00  0.001339291    1.220    0.180
        20 -11.3657     96.9805    201.1709   1.0683434617e+02   2.3941005095e+01    0.3660522    0.2884895 -19.14  0.001839037    2.315    0.568
        21  -9.6011     62.9940    205.1656   1.1331749974e+02   2.7606733883e+01      0.16061    0.0975711  59.57 0.0006595399    1.267    0.211
        22  -9.9496     87.5724    202.9112   1.0870277673e+02   2.4920908939e+01    0.1849158     0.130828  33.30 0.0008378919    1.541    0.351
        23 -11.9307    152.5766    198.0583   9.6479602714e+01   1.6271506384e+01    0.3380889    0.2225997 -56.34  0.002213043    2.060    0.514
        24 -10.6133     44.6103    199.0110   1.1626016417e+02   3.0663819589e+01    0.1555323    0.1501339 -36.91  0.001357203    1.699    0.411
        25 -12.3722     33.1768    198.3006   1.1829655470e+02   3.1973483325e+01    0.3270603    0.1385217  33.73  0.001977231    2.329    0.571
        26  -9.7459    159.5349    196.0814   9.5003232473e+01   1.5447150612e+01    0.1409252    0.1146219 -45.24  0.001020796    1.569    0.363
        27 -10.0276     82.4810    195.2639   1.0898512829e+02   2.6784056085e+01    0.2392464    0.1415127  59.53  0.001578139    1.434    0.303
        28 -10.6539    207.5036    193.9368   8.6656711959e+01   8.1470311571e+00    0.1466222    0.1068467 -22.83  0.001028757    1.579    0.367
        29 -11.0955     96.9671    191.9152   1.0594962499e+02   2.5383315697e+01    0.2602092    0.2242371  19.53  0.000870962    1.576    0.365
        30 -10.9119    100.1701    187.8938   1.0493079825e+02   2.5580140809e+01    0.2084954    0.1575954  68.76  0.000692209    1.236    0.191
        31  -9.0271     78.3129    193.1978   1.0959113342e+02   2.7654519417e+01    0.0934775   0.07326648  34.29            0    1.464    0.317
        32 -13.0357     67.6091    187.5424   1.1116460331e+02   2.9936068374e+01    0.5743407     0.518064  60.03  0.004546361    1.285    0.222
        33 -10.5033    169.0388    235.8912   9.8180239176e+01   9.4754991092e+00    0.1462169    0.1195115  34.19 0.0003775118    1.166    0.142
        34 -11.9413     61.3614    234.6921   1.1535535914e+02   2.3439935006e+01     0.167996    0.1127033  59.59 0.0004735255    1.091    0.083
        35 -12.0093    140.7855    199.0577   9.8688263348e+01   1.7941463745e+01    0.2733861    0.1714086 -61.35  0.001739929    2.186    0.543
        36 -11.3754    141.9102    189.4748   9.7287258195e+01   1.9100705754e+01     0.235374     0.170957 -84.81  0.001484559    2.027    0.507
        37 -10.7643    153.9610    185.3022   9.4529528853e+01   1.7770706831e+01    0.2290303    0.1689521 -74.92  0.001433229    2.044    0.511
        38 -11.1639    128.7006    184.5800   9.9114793391e+01   2.1875100678e+01    0.1867924    0.1360408  86.62  0.001183262    1.796    0.443
        39 -11.4754     99.3942    180.8772   1.0432882050e+02   2.6837686523e+01    0.2357646    0.1905463  44.43 0.0005752083    1.183    0.154
        40 -10.6550    204.3510    176.0482   8.4319389270e+01   1.0606190776e+01    0.3516922    0.2164226 -43.37  0.001862008    2.185    0.542
        41  -9.8153     69.7486    177.3215   1.0987651459e+02   3.1440627571e+01    0.3033626    0.1029358  51.57  0.001114581    2.519    0.603
        42  -9.4256    197.7237    177.0441   8.5589541319e+01   1.1596199031e+01    0.1689855     0.135909  26.06  0.001160733    1.028    0.028
        43 -11.1983    158.2239    237.0965   9.9993525043e+01   1.0838656866e+01    0.2905334    0.2143775  63.99  0.001957803    1.689    0.408
        44  -8.9351     72.0262    231.0877   1.1342094542e+02   2.2722386317e+01    0.1339613   0.07713161  60.51 0.0004309469    1.379    0.275
        45  -9.3628    220.4783    228.5060   8.9516307979e+01   3.0353297294e+00    0.1460098   0.09155047 -41.51  0.001033732    2.580    0.612
        46 -10.9489    230.2449    166.5898   7.8527178088e+01   7.3341155967e+00    0.2011085    0.1344366 -32.82  0.001178963    1.759    0.431
        47 -10.2688    161.8650    166.6484   9.0257331078e+01   1.9092354948e+01    0.1967438    0.1780627 -62.03 0.0003548081    1.365    0.267
        48 -10.5466    236.7070    158.5531   7.6061085758e+01   7.0902413901e+00    0.2246504   0.09541257  40.97 0.0008650462    2.033    0.508
        49 -12.4563     95.3604    153.2846   1.0181467264e+02   3.2311934413e+01     0.515973    0.4362962 -16.12  0.001699799    1.803    0.445
        50 -10.3769    187.3147    154.3939   8.3447363285e+01   1.6274303975e+01    0.3225228    0.1384631  40.82  0.001477303    2.061    0.515
        51 -10.1205    113.2881    151.2544   9.7618613075e+01   2.9880644207e+01    0.2602882    0.1642563  74.41  0.001263064    2.090    0.522
        52 -11.7095    133.9868    146.0584   9.2351596768e+01   2.7282303218e+01     1.023842    0.2870738 -55.24  0.003123906    5.697    0.824
        53 -10.6630    174.2980    148.6964   8.4775682786e+01   1.9476884472e+01    0.2779681    0.2387451 -79.17  0.001111762    1.592    0.372
        54 -11.2289    143.8563    145.8162   9.0250532795e+01   2.5553250326e+01    0.3746623    0.1963812 -60.29  0.001663054    2.758    0.637
        55  -9.9601    112.4653    141.9631   9.6339468285e+01   3.1732926723e+01    0.2156665    0.1588189  63.88 0.0006692692    1.346    0.257
        56 -10.0178    107.4592    145.5071   9.8017957292e+01   3.1888830902e+01    0.1994632    0.1368215  68.49 0.0005874077    1.567    0.362
        57 -11.6297    107.3013    138.9988   9.7022119730e+01   3.3151593680e+01    0.5355006    0.3510506 -35.45  0.002465716    2.191    0.543
        58 -12.4349     95.2769    138.9259   9.9779867268e+01   3.5088154755e+01    0.2979235    0.2326504  42.19 0.0004063922    1.279    0.218
        59 -11.3424    105.7064    131.1307   9.6070549396e+01   3.4948552482e+01     0.393549    0.3239294 -43.12  0.002359071    1.431    0.301
        60 -11.2223    135.7517    127.9033   8.8596669844e+01   3.0195805323e+01    0.5883995     0.162674 -48.29  0.001962582    3.950    0.747
        61 -10.9228    114.6311    129.8537   9.3757010610e+01   3.3675131619e+01    0.2935244    0.2647546   4.38 0.0006073808    1.407    0.289
        62 -10.3552    161.6978    128.4598   8.3214430977e+01   2.5049960850e+01     0.373515    0.2819232  81.00  0.001917966    1.887    0.470
        63 -11.2055    102.1786    125.7508   9.5967113522e+01   3.6610702173e+01    0.2525967    0.2265474 -12.67 0.0006433757    1.485    0.327
        64 -11.1358    120.0914    123.2654   9.1234187278e+01   3.3979186644e+01    0.4633996    0.2982954 -18.15  0.001907581    3.212    0.689
        65 -10.1931    109.9500    118.9491   9.2804019431e+01   3.6650933232e+01    0.1971617    0.1815969  72.38 0.0003449261    1.005    0.005
        66 -10.3773    167.7896    112.7037   7.8470866755e+01   2.6393472577e+01    0.3437881    0.2729153 -79.36  0.001526749    1.747    0.428
        67  -9.8981    134.7659    111.9182   8.5420713846e+01   3.3355252390e+01    0.3342012    0.1161882 -47.38  0.001187937    3.026    0.670
        68 -11.6199    118.5009    110.6702   8.8999149237e+01   3.6752392470e+01    0.5521327    0.3442014  62.93  0.002070721    1.897    0.473
        69 -10.2293    205.4906    110.2027   7.0873136322e+01   1.8767400628e+01    0.2943583    0.1814023  40.91   0.00088262    1.554    0.356
        70  -9.8949    134.5969    105.5191   8.3976828943e+01   3.4601591434e+01    0.3818201    0.1371626 -44.53  0.001369342    2.860    0.650
        71  -8.9586    131.0151     96.7721   8.2680350350e+01   3.7015972532e+01    0.1862506    0.1171284  48.36 0.0003457331    1.572    0.364
        72  -9.5958    183.1430     83.1168   6.7867550314e+01   2.7684216746e+01    0.2364607    0.1978004  14.41  0.001230296    1.251    0.200
        73 -11.7789    160.6661     62.0342   6.5925057229e+01   3.6447867771e+01    0.8275476    0.5028924  86.78  0.001017664    2.950    0.661
        74 -12.2911    162.7548     55.6601   6.3437808381e+01   3.6926510058e+01    0.8584956    0.5516099  81.44  0.001235757    2.196    0.545
        75 -19.5004     17.7994    143.5909   1.1845392460e+02   4.3501737436e+01     16.45477     4.927707 -85.64   0.07351543    3.222    0.690
        76 -13.2034    177.9935     49.2271   5.8536637751e+01   3.3964049978e+01    0.8609977    0.7057803  35.21 0.0009003411    1.265    0.210
        77  -9.8948     50.8779    225.6848   1.1659662563e+02   2.5864664413e+01    0.1185356   0.06849226  57.82 0.0004940687    1.226    0.184
