#   1 NUMBER                 Running object number                                     
#   2 MAG_AUTO               Kron-like elliptical aperture magnitude                    [mag]
#   3 X_IMAGE                Object position along x                                    [pixel]
#   4 Y_IMAGE                Object position along y                                    [pixel]
#   5 X_WORLD                Barycenter position along world x axis                     [deg]
#   6 Y_WORLD                Barycenter position along world y axis                     [deg]
#   7 A_WORLD                Profile RMS along major axis (world units)                 [deg]
#   8 B_WORLD                Profile RMS along minor axis (world units)                 [deg]
#   9 THETA_WORLD            Position angle (CCW/world-x)                               [deg]
#  10 FWHM_WORLD             FWHM assuming a gaussian core                              [deg]
#  11 ELONGATION             A_IMAGE/B_IMAGE                                           
#  12 ELLIPTICITY            1 - B_IMAGE/A_IMAGE                                       
         1 -13.3277    151.2104      8.5102   6.8169079652e+01   4.6003674633e+01    0.6011667    0.4215595 -56.12  0.001894484    1.663    0.399
         2  99.0000    199.8832     53.3411   7.2867478977e+01   2.8667790751e+01     4.531202      1.62646  57.74   0.01696142    2.571    0.611
         3 -14.4988    140.3491      7.4093   6.9614010567e+01   4.8655631344e+01     5.699719     1.162061 -40.10   0.01752328    5.843    0.829
         4 -16.5843    206.4173    127.8690   9.0284238787e+01   1.3842321865e+01     6.560804     4.394108  75.93   0.02769798    2.110    0.526
         5 -14.8367    178.9750     79.1109   8.3244033427e+01   2.9641569606e+01     4.274086     2.568597  84.94   0.01603238    2.639    0.621
         6 -17.2690    246.5322     42.8282   6.4546131503e+01   1.9272084277e+01     8.676663     2.421519 -30.81   0.02290107    5.479    0.817
         7 -14.4339    222.2568     27.5164   6.3781520273e+01   2.6835102240e+01     1.720399    0.6462485  65.12  0.007353413    2.391    0.582
         8 -17.1466    218.3130     16.8766   6.1804898691e+01   2.9045616178e+01     12.28594          nan  61.66   0.02857633    8.408    0.881
         9  -6.8054    189.1130     12.8942   6.4117877547e+01   3.6444430842e+01    0.3620025    0.1607208 -29.09  0.001537417    2.561    0.610
        10 -12.5152    195.5981      8.5067   6.2285185150e+01   3.5341432374e+01    0.3038895    0.1997943 -54.77  0.001287726    1.534    0.348
        11 -10.9290    199.9388      6.8297   6.1412279526e+01   3.4478484735e+01    0.2009689    0.1553635 -38.94  0.001050871    1.442    0.307
        12 -12.5198    207.8498      6.1620   6.0441240450e+01   3.2677605234e+01    0.3946578    0.1762404 -38.20  0.001930204    2.242    0.554
        13 -11.9590    208.9002      1.5012   5.9284478421e+01   3.2906925340e+01     0.230183    0.1578279  72.83  0.001009684    1.258    0.205
        14 -10.5765    107.1829      7.1499   7.6036716537e+01   5.6067039683e+01    0.1587083    0.1463929  85.22 0.0006301395    1.324    0.245
        15 -12.2556     56.7639      2.7152   8.8402904120e+01   6.5787471705e+01    0.4167626    0.1240379  40.57  0.001887048    2.858    0.650
        16  -9.3437    111.4662    113.5368   1.0873744480e+02   3.8014205092e+01    0.1500585    0.1442714 -46.21 3.587822e-05    1.020    0.020
        17 -10.3749    208.5350    198.5362   1.0519161503e+02  -9.6080677801e-02    0.1373274    0.1274082  14.21 1.706944e-05    1.021    0.021
        18 -12.8663     68.3530    144.9632   1.2726735834e+02   3.7771015542e+01     2.751529     1.418921  78.33  0.007784157    4.530    0.779
        19 -12.4659    120.2630    103.2403   1.0364529260e+02   3.8514129773e+01    0.5617204    0.3472666 -36.33   0.00242283    1.711    0.415
        20 -10.4885    139.8258    103.7976   9.8733685139e+01   3.4184155961e+01    0.2341758     0.214533   7.04 0.0006585669    1.216    0.178
        21 -10.8458    111.9189    104.0045   1.0612168702e+02   4.0028050384e+01    0.2330349    0.2247658 -37.54 0.0006165376    1.013    0.013
        22 -11.5188    144.5894     99.1758   9.6300607065e+01   3.4060486871e+01    0.3418915    0.2891462 -27.40 0.0005335456    1.272    0.214
        23 -13.4653    181.2286     68.4983   7.9954921962e+01   3.0896671692e+01    0.9272594    0.4644367  35.15  0.003162692    3.321    0.699
        24 -11.1716    131.8605     96.0306   9.8609839792e+01   3.7554517736e+01    0.3281268    0.2808557 -44.64  0.000598612    1.160    0.138
        25 -10.0601    113.3193     95.0371   1.0327445477e+02   4.1653785434e+01    0.2072423    0.1900519 -38.28 0.0003981546    1.061    0.058
        26 -11.8714    137.6516     88.6226   9.5050241162e+01   3.7742590253e+01    0.3620762     0.319462  80.07 0.0008203064    1.259    0.206
        27 -13.0470    149.9598     81.8762   9.0167537885e+01   3.6174116638e+01    0.3732529    0.3116954 -43.67 0.0007781116    1.214    0.176
        28 -11.1190    154.0126     77.9844   8.8133408646e+01   3.5918622042e+01    0.2696872    0.2243636 -39.66 0.0007836889    1.228    0.186
        29 -14.1122     66.8977    163.3473   1.3066218839e+02   3.3570978921e+01    0.9263901    0.6973921  64.46  0.001480262    1.340    0.254
        30 -11.4151    249.1504     77.3134   7.1700247135e+01   1.3465877704e+01    0.3596544    0.2742135 -10.29  0.001868078    1.966    0.491
        31 -10.2800    135.0000    120.4924   1.0432011961e+02   3.1634907409e+01    0.4932667   0.08780345 -46.10  0.001114647    5.526    0.819
        32 -12.7527    137.1668     68.5067   8.9246199803e+01   4.1535689704e+01    0.9182304    0.3792961 -43.93  0.002829512    2.562    0.610
        33 -11.4896    146.0266     55.1245   8.3164129531e+01   4.1617574984e+01     0.323695    0.2489189 -54.82 0.0002919421    1.457    0.314
        34 -12.7077    144.3110     65.0144   8.6523891799e+01   4.0458148758e+01    0.6025769    0.3983675 -34.01  0.002424128    1.586    0.370
        35 -10.1369    216.9682     72.1518   7.4956376354e+01   2.1589398435e+01    0.2321236    0.1706389 -67.15 0.0008653485    1.383    0.277
        36 -11.5690    168.7484     69.8706   8.2720018813e+01   3.3747448211e+01    0.4202389    0.3331544  80.18  0.001015391    1.358    0.264
        37 -13.7366    162.8063     66.7737   8.3045846527e+01   3.5719444037e+01    0.5036465    0.3894012 -18.34  0.002484042    1.548    0.354
        38 -12.4066    141.5399     58.3313   8.5133729809e+01   4.2183445768e+01    0.5187736    0.3940887  33.73  0.001994458    1.399    0.285
        39 -11.8301    118.8419     63.9703   9.2459394313e+01   4.6374483610e+01     0.413306    0.2516905 -57.10  0.001604747    2.277    0.561
        40 -11.5135    130.7770     65.8470   8.9992383054e+01   4.3439658696e+01     0.285551    0.2477666 -26.64  0.001029743    1.191    0.161
        41 -11.1476    121.6594     68.5492   9.3152785046e+01   4.4987722488e+01    0.3716172    0.2481827 -42.59  0.001462678    1.541    0.351
        42 -11.8304    230.2412    166.8969   9.4580365913e+01   1.4490784687e+00    0.3669387    0.2162143 -51.37  0.001638171    1.949    0.487
        43 -13.0950    161.4259    128.2419   9.9872342861e+01   2.4057091304e+01    0.6542625    0.5145282  42.10  0.002121844    1.311    0.237
        44 -10.6516    205.6684     64.4190   7.4773792826e+01   2.5551445071e+01    0.2663867    0.2418979 -86.45 0.0008225982    1.018    0.018
        45  -9.9994    220.0196     57.8117   7.1082744664e+01   2.3139139856e+01    0.1867503    0.1554274 -74.90 0.0002874145    1.100    0.091
        46 -12.4176    124.9141     56.1898   8.8424239394e+01   4.6312426196e+01    0.4302671    0.3334884 -47.70  0.002268184    1.426    0.299
        47 -11.7709    152.3734    119.7829   9.9874663223e+01   2.7945885450e+01     0.468947    0.2973562 -27.57  0.001868669    2.034    0.508
        48 -10.8204    227.2424     50.8647   6.8520949706e+01   2.2483851047e+01    0.2684554     0.248575 -74.71   0.00165841    1.125    0.111
        49 -10.8595    134.0000    147.0542   1.1087010657e+02   2.5797833739e+01    0.6758823    0.1615948 -52.77  0.001675247    4.861    0.794
        50 -11.6704    217.2608     49.0058   6.9360500737e+01   2.5102907377e+01    0.4513901    0.3289688   6.00  0.001799875    2.406    0.584
        51 -10.4586    144.4343    146.4382   1.0819795156e+02   2.3755649875e+01    0.3648127    0.2429509  86.53  0.001392341    2.439    0.590
        52  -9.7178    165.0298     45.9369   7.6660270673e+01   3.8344187809e+01    0.2302815    0.1653392 -24.94 0.0007863975    1.603    0.376
        53  -9.7300    167.5829     43.0362   7.5377191369e+01   3.8114761724e+01    0.1874953    0.1685437 -52.21 0.0005956148    1.169    0.144
        54 -11.3502    149.7357    141.3396   1.0575968083e+02   2.3767073694e+01    0.4262844    0.2897197  85.04  0.001666014    2.301    0.565
        55 -10.6208    205.0309     36.8579   6.8034961158e+01   2.9729393648e+01    0.4282886      0.17219  65.68  0.001337218    2.292    0.564
        56 -11.0353    134.5114    125.4987   1.0569343760e+02   3.0619239790e+01    0.3997763    0.2957782  51.42  0.001304748    1.384    0.278
        57 -12.0337    196.3803     30.7500   6.7664323586e+01   3.2620701320e+01    0.2476809    0.1956571 -65.50  0.001154136    1.233    0.189
        58  -9.4512    203.7096     29.9343   6.6515833268e+01   3.0942854523e+01    0.4090367    0.1958176 -66.42   0.00138725    2.854    0.650
        59 -11.5791     86.0324     26.9027   8.8874406190e+01   5.8252083574e+01    0.3483302    0.2564932 -54.49  0.001957421    2.040    0.510
        60 -12.1461     95.1680     23.5007   8.4996795124e+01   5.6907990175e+01    0.3916111    0.2359713 -44.05  0.002032314    2.132    0.531
        61 -12.3440    134.6436    107.8797   1.0113542557e+02   3.4466712440e+01     2.042967    0.3408366 -43.69  0.004531521    6.004    0.833
        62 -11.4587    136.0000    129.5339   1.0630665858e+02   2.9391335093e+01    0.5919539     0.211156 -49.99   0.00179067    2.851    0.649
        63 -11.9020    152.8850     19.3841   7.1088579524e+01   4.4540321092e+01    0.2111243    0.2078467  44.90 0.0003067078    1.133    0.117
        64 -13.6254     55.4847    174.9035   1.3498407782e+02   3.2364681527e+01    0.5667355    0.4907895 -46.58  0.001384356    1.429    0.300
        65 -10.0557     91.9861     13.0000   8.1927345315e+01   5.8623730500e+01    0.1954983    0.1258368  20.73  0.001101639    1.581    0.368
        66 -14.8719      9.9441    204.6765   1.4728330206e+02   3.0795373480e+01     1.677149    0.9599962  85.70  0.008001061    1.388    0.280
        67 -15.4872     29.4348    195.6455   1.4283335030e+02   3.0735062130e+01     2.010273     1.410119 -41.21  0.003631309    2.198    0.545
        68 -14.2723     62.3042    169.1330   1.3261530138e+02   3.2824981973e+01    0.8005125    0.6308211  73.53  0.002558318    1.212    0.175
        69 -11.9574    192.4861    194.2719   1.0758163379e+02   3.7296374350e+00     1.061937    0.5398864 -65.76   0.00281986    6.636    0.849
        70 -11.4956    122.0119    113.1877   1.0581284128e+02   3.5988376736e+01    0.3950561    0.2721924 -86.53  0.001590042    2.313    0.568
