#   1 NUMBER                 Running object number                                     
#   2 MAG_AUTO               Kron-like elliptical aperture magnitude                    [mag]
#   3 X_IMAGE                Object position along x                                    [pixel]
#   4 Y_IMAGE                Object position along y                                    [pixel]
#   5 X_WORLD                Barycenter position along world x axis                     [deg]
#   6 Y_WORLD                Barycenter position along world y axis                     [deg]
#   7 A_WORLD                Profile RMS along major axis (world units)                 [deg]
#   8 B_WORLD                Profile RMS along minor axis (world units)                 [deg]
#   9 THETA_WORLD            Position angle (CCW/world-x)                               [deg]
#  10 FWHM_WORLD             FWHM assuming a gaussian core                              [deg]
#  11 ELONGATION             A_IMAGE/B_IMAGE                                           
#  12 ELLIPTICITY            1 - B_IMAGE/A_IMAGE                                       
         1 -12.0983      2.0723     24.6849   1.0555469405e+02   7.0344596794e+01    0.3846672     0.149939 -57.60  0.001459577    2.164    0.538
         2 -12.3048      5.8190     16.2046   1.0040061147e+02   7.1646211340e+01    0.5043738    0.3623922  28.90  0.001343778    1.826    0.452
         3 -12.4400    116.9391     22.2372   5.9400517613e+01   5.3236410990e+01    0.3006522    0.2486222 -17.21 0.0005588917    1.256    0.204
         4 -11.0968    182.2164     18.9145   4.6450400018e+01   3.7106984806e+01    0.3309875    0.2612725   0.26  0.001284486    1.583    0.368
         5 -11.6871    166.3056     17.9680   4.8417701858e+01   4.1334521228e+01    0.3930198    0.2636995  40.98 0.0004335739    1.593    0.372
         6 -11.8070    172.9906     12.9739   4.5919835144e+01   4.0126706648e+01    0.3956717    0.2973644  65.78  0.002147145    1.206    0.171
         7 -11.3417    176.0504     10.6692   4.4821946687e+01   3.9569262475e+01    0.2693137    0.2383191  86.45 0.0007133912    1.040    0.039
         8 -10.6786     70.4009     11.9139   6.8553275966e+01   6.4189410683e+01    0.2510434    0.1637596  40.22 0.0004793978    1.441    0.306
         9 -10.7626     65.5469     15.2242   7.1897421186e+01   6.4650078503e+01    0.3869489    0.2996892  23.33  0.002162484    1.164    0.141
        10 -11.0425    116.8058     15.1199   5.6646764659e+01   5.4049077189e+01    0.3321061    0.2362766  38.28 0.0008516489    1.302    0.232
        11 -11.3500    133.2071     12.8340   5.2323977682e+01   5.0304292389e+01    0.2710001    0.2441112 -23.36 0.0003321954    1.210    0.174
        12 -11.2056    209.5751     13.8084   4.1842056813e+01   3.0720039200e+01    0.2832466    0.2297606 -33.86 0.0009820383    1.310    0.237
        13 -10.7291    139.4864     13.6425   5.1433097877e+01   4.8655633541e+01    0.4049113    0.1991178  44.98  0.001755397    1.946    0.486
        14  -9.5849     26.4357     13.4488   8.8284345651e+01   7.0354511685e+01    0.2505137   0.09579385 -41.33  0.001228209    2.263    0.558
        15  -9.1934     22.8144     13.0593   8.9951400677e+01   7.0782918804e+01    0.2400773   0.08010215 -48.03  0.001017469    3.305    0.697
        16 -10.9872    148.5385     12.3716   4.9408508856e+01   4.6487499619e+01     0.481861    0.1744632  51.02  0.001842881    2.427    0.588
        17 -10.5321    219.1137     11.5280   4.0333576598e+01   2.8631486766e+01    0.2613437    0.2161172  81.84 0.0007037757    1.133    0.118
        18  -9.9214     97.8746     10.8054   5.9564761193e+01   5.8791978765e+01    0.2931611    0.1517869 -35.46  0.001154538    2.137    0.532
        19 -11.3774     14.4679      9.7893   9.2832116270e+01   7.2059970047e+01     0.395074    0.1946398 -39.48  0.002341329    1.615    0.381
        20  -9.5037     37.7582      9.7502   8.0897307966e+01   6.9562248257e+01    0.1414251    0.1254475  -3.34 0.0005247743    1.300    0.231
        21 -10.2616      5.1948      9.3274   9.7797026081e+01   7.2844773119e+01    0.2167895    0.1518079 -27.02  0.001570593    1.049    0.047
        22 -10.5078    164.9476      8.4054   4.5616875306e+01   4.2655274686e+01    0.3207519    0.2003111 -71.20  0.001510768    1.905    0.475
        23 -11.6138     87.1741      6.1826   6.0491521401e+01   6.1521986748e+01    0.2662732    0.2549444  64.04            0    1.312    0.238
        24 -10.5282     88.6070      1.7215   5.8054155798e+01   6.1629437860e+01    0.4125962    0.1313439  51.99  0.001685584    2.551    0.608
        25  -9.2643     79.1595      9.1983   6.4321628609e+01   6.2835099850e+01    0.1972834    0.1480065 -61.46  0.001055066    2.234    0.552
        26 -10.4357    185.3330      8.7380   4.3116759992e+01   3.7374875327e+01    0.2266194    0.1760124  71.96 0.0003883838    1.164    0.141
        27 -10.7492    194.9717      8.2736   4.1903451709e+01   3.4966229135e+01    0.1940371    0.1626376  85.19 0.0003900294    1.066    0.062
        28 -10.4052    145.9700      8.2032   4.8414062693e+01   4.7538065497e+01    0.2455586    0.1266779  42.78  0.001085331    1.949    0.487
        29 -10.2922    128.1993      8.1855   5.1578820868e+01   5.1980080659e+01    0.1778042    0.1563129 -76.60 0.0003413347    1.314    0.239
        30 -10.6620    107.4704      3.5085   5.4103539218e+01   5.7318492530e+01    0.4023688    0.1899094  27.92  0.001691365    2.532    0.605
        31 -10.5290    103.9057      7.8137   5.6744423411e+01   5.7744683482e+01    0.3012786    0.1789246  35.42 0.0004692536    1.587    0.370
        32 -11.5083    109.3304      6.9276   5.5083370187e+01   5.6589661068e+01    0.5896789      0.25792  41.42  0.001844819    2.128    0.530
        33 -10.6365     73.9347      8.2246   6.5571644638e+01   6.3943068967e+01    0.2417498    0.1455667  30.28 0.0009079098    1.541    0.351
        34 -10.4622     49.1878      7.7816   7.4749408414e+01   6.8214227238e+01    0.4622789    0.1753143  29.66  0.001935258    3.146    0.682
        35 -11.7101    208.5259      4.0156   3.9424072269e+01   3.2006263366e+01    0.4789885    0.2961119 -58.57  0.002513063    1.562    0.360
        36 -10.3847    119.7850      6.8772   5.2770595717e+01   5.4136610537e+01      0.24876    0.1765454 -42.99  0.001330161    1.652    0.395
        37 -10.2176     18.5038      2.4535   8.6890812447e+01   7.2776498926e+01     0.187183    0.1609866 -10.10 0.0008099884    1.328    0.247
        38 -10.3456     24.7635      6.8469   8.5851089786e+01   7.1506369381e+01    0.2119557    0.1778548 -42.31 0.0008594022    1.650    0.394
        39 -10.1798     20.5147      5.9904   8.7657586175e+01   7.2071397810e+01    0.2535383    0.1496377 -29.18 0.0009836325    1.358    0.263
        40 -10.7330    171.2369      5.9950   4.4037595914e+01   4.1261897103e+01    0.1846252    0.1728327  86.22 0.0003579398    1.056    0.053
        41 -11.0235    134.2234      5.6017   4.9508789720e+01   5.0723656983e+01    0.3387227    0.1938136  46.82  0.001647759    1.582    0.368
        42 -10.8173    131.4730      1.9167   4.8657460046e+01   5.1716227227e+01    0.3515118    0.2130061  76.62 0.0008138563    1.731    0.422
        43  -9.6327     32.6676     12.2325   8.4590227809e+01   6.9841667148e+01    0.1651068    0.1296499 -33.93 0.0006937165    1.372    0.271
        44 -10.0302     62.0267      6.1487   6.8773431169e+01   6.6322329740e+01    0.2027628    0.1799166  59.81  0.000808445    1.614    0.380
        45 -11.1235     38.2897      3.7773   7.7512963297e+01   7.0267853690e+01    0.3712257    0.2782332 -33.35  0.001760123    1.522    0.343
        46 -10.3914    142.2294      3.8895   4.7539130816e+01   4.8867344746e+01    0.2837275    0.1688859   1.19  0.001332532    2.163    0.538
        47 -11.7933    195.1461      3.4654   4.0579381874e+01   3.5396917156e+01    0.5517954    0.2097791  65.63   0.00211781    2.256    0.557
        48 -10.4212    184.7963      4.1819   4.1883587967e+01   3.7954163347e+01    0.1817658    0.1473167  46.97 0.0003625002    1.327    0.247
        49 -11.3137    160.5559      2.7254   4.4432784186e+01   4.4301746873e+01    0.3680149    0.2879407  71.11  0.001068161    1.136    0.120
        50 -10.3192     30.9489      3.3130   8.0816091843e+01   7.1274423292e+01     0.187522    0.1401154 -32.91  0.000542065    1.468    0.319
        51 -10.0003    248.9099      2.8848   3.5946401166e+01   2.2665357141e+01    0.1731273    0.1585183  80.52  0.000342434    1.267    0.211
        52 -10.2838    218.2932      2.4413   3.8167937163e+01   2.9784005695e+01    0.2484009    0.2096185 -76.93 0.0007943815    1.008    0.008
        53 -11.0344     74.5693      1.9744   6.2342663740e+01   6.4445094368e+01    0.4074214    0.2001779  53.22  0.001585106    2.002    0.500
        54  -9.6874     81.6968      2.0346   6.0172651098e+01   6.3029214277e+01    0.2221456    0.1713535  56.67  0.001342678    1.409    0.291
        55 -10.4929     49.4035      2.4654   7.1870083983e+01   6.8802615479e+01    0.2737081    0.1646491  22.92  0.001179774    1.550    0.355
        56 -10.5878    180.7635      1.9728   4.1706402734e+01   3.9188535378e+01    0.2567952    0.1771276  72.81  0.001383883    1.285    0.222
        57 -11.3501    115.8236      1.9377   5.1652859033e+01   5.5501917244e+01    0.2909563    0.1706482  61.07  0.000336416    1.534    0.348
        58  -9.7129    167.2706      1.3666   4.3133643360e+01   4.2698054623e+01    0.1889258    0.1174924  82.12 0.0005424201    1.551    0.355
        59  -9.9339    148.2415      1.4065   4.5755383158e+01   4.7556002607e+01    0.2454524    0.1134426  64.49 0.0006130736    1.841    0.457
        60 -10.7303     11.3260      1.6831   9.0531980133e+01   7.3556506519e+01    0.2101743    0.1619187  44.79 0.0004326954    2.343    0.573
        61 -10.5289     72.8929    215.9551   1.1715741177e+02   2.0896516507e+01    0.2664307    0.1654141 -81.14  0.001390607    1.620    0.383
        62 -10.3042    187.0042    250.2590   9.9472856044e+01  -2.7018808237e+00    0.1750312    0.1361106  32.61  0.001201482    1.027    0.026
        63 -11.4678    127.4901    248.2290   1.1012302683e+02   6.9897155460e+00    0.3195474    0.2789186 -71.56  0.001376411    1.399    0.285
        64 -10.9434    115.8419    249.2796   1.1236585920e+02   8.6158082565e+00    0.3044345    0.2074713  60.25  0.001309511    1.316    0.240
        65 -10.2980    111.8495    246.4932   1.1280861841e+02   9.6711399419e+00    0.2015074    0.1655175 -60.08   0.00082904    1.526    0.345
        66 -10.5599     38.8603    249.2386   1.2578299051e+02   1.9074457961e+01    0.2141128    0.1530553 -85.66  0.001011904    1.377    0.274
        67 -10.0779     30.9474    250.3827   1.2712948699e+02   1.9782738606e+01    0.1577762    0.0945721  61.85  0.001139848    1.184    0.156
        68 -10.2824     26.3417    249.6932   1.2783173007e+02   2.0412492101e+01    0.1877001   0.08401912  52.65 0.0006525881    1.612    0.379
        69  -9.5410     16.4846    250.5180   1.2942283666e+02   2.1327053406e+01    0.1694506    0.0919516  56.10 0.0007035539    1.321    0.243
        70 -11.3985     11.0024    250.4195   1.3026616351e+02   2.1908903147e+01    0.3463885    0.1664093  59.82 0.0006852667    1.456    0.313
        71 -10.3671     58.3334    215.8730   1.1997983460e+02   2.2859493438e+01    0.1920276    0.1446942  53.28 0.0003660121    1.201    0.167
        72 -10.5767    111.7403    213.4874   1.0907504757e+02   1.5517713881e+01    0.2368429    0.2045239  61.94 0.0002530385    1.035    0.034
        73 -11.5407      8.4856    210.2720   1.2883351311e+02   2.9525822415e+01    0.3171542    0.1621603 -72.17  0.001938186    1.799    0.444
        74  -9.3533      1.5258    212.9835   1.3018161781e+02   2.9640560239e+01    0.1609912   0.08053964 -85.74 0.0007673402    1.599    0.375
        75 -11.1951    126.1092    210.4729   1.0572062355e+02   1.3704209198e+01    0.4644658    0.3370596  -0.78  0.001859182    2.451    0.592
        76  -9.8882    117.9387    211.5132   1.0754792569e+02   1.4877445630e+01    0.1860902    0.1649731  67.60 0.0004499532    1.073    0.068
        77 -10.1928     29.2393    212.5968   1.2521736215e+02   2.6963025798e+01    0.1310886    0.1025124  37.53 0.0003331766    1.582    0.368
        78 -10.1681    144.3548    208.7026   1.0169123321e+02   1.0872882957e+01    0.3026626     0.165532 -66.47  0.001139593    2.754    0.637
        79  -9.3665     47.2557    210.4453   1.2166270790e+02   2.5326257272e+01    0.1669343   0.08789837  51.09 0.0002639813    1.593    0.372
        80 -10.7294     39.3677    209.8268   1.2312570074e+02   2.6382846504e+01    0.2076731    0.1918232  -9.35  0.001514532    1.796    0.443
        81 -10.7286     18.1980    207.8193   1.2694688483e+02   2.9067060859e+01    0.2805079    0.1496304  66.19 0.0009500182    1.515    0.340
        82 -11.2771     22.8258    208.3750   1.2612949272e+02   2.8484381198e+01    0.3214465    0.2022755  51.41   0.00188845    1.392    0.282
        83  -9.4212    155.5119    209.4718   9.9517225063e+01   8.7598817133e+00     0.134455    0.1164233  39.76 4.020724e-05    1.015    0.014
        84  -9.3118     80.1663    209.3332   1.1503464646e+02   2.1184018376e+01    0.1890965   0.09128657  48.83 0.0009454755    1.773    0.436
        85 -11.0965     67.0293    207.4813   1.1750193545e+02   2.3394560862e+01    0.3085889    0.1848607 -71.66 0.0005724751    1.642    0.391
        86  -9.6490     63.5700    207.5048   1.1819863316e+02   2.3853154545e+01     0.226192    0.1044408  58.35 0.0008484545    2.044    0.511
        87 -10.6499     59.1380    208.0878   1.1913635311e+02   2.4315502781e+01    0.4367823    0.2162388  74.79  0.001802272    2.277    0.561
        88  -9.3981     47.5127    217.9676   1.2220272527e+02   2.3801381110e+01    0.1690858    0.1280472  55.92 0.0004585108    1.190    0.160
        89 -11.0495     35.2700    203.8864   1.2346820126e+02   2.8054873975e+01    0.2721309    0.1745287 -78.86  0.001151699    1.394    0.282
        90 -11.0389     32.8551    199.1378   1.2358212628e+02   2.9302006041e+01     0.312557    0.2064146  53.67  0.001025193    1.334    0.250
        91  -9.6025      1.4541    204.1302   1.2977304462e+02   3.1380069649e+01    0.1557878   0.08112538 -87.33 0.0004414036    1.507    0.337
        92 -10.5581    121.5553    199.9785   1.0519211223e+02   1.6504401782e+01    0.3423347    0.2347191 -81.72  0.001160661    1.818    0.450
        93 -10.8051     96.8963    200.0821   1.1047555668e+02   2.0544007286e+01    0.3966424    0.1705284  40.54  0.001238169    2.119    0.528
        94  -9.8232     88.7646    200.1569   1.1221170013e+02   2.1783641634e+01    0.3652181    0.1504354  29.96  0.001218918    3.563    0.719
        95 -10.3662     40.0617    198.5267   1.2210828606e+02   2.8622205784e+01    0.4442368    0.1511501  60.61  0.001813055    3.335    0.700
        96 -10.9079      5.8951    199.9791   1.2875652663e+02   3.1814562293e+01    0.1642773    0.1205921  74.49 0.0003429104    1.057    0.054
        97 -10.1652     62.3962    198.3124   1.1754125129e+02   2.5912429812e+01    0.1929181    0.1633647  63.20 0.0002562035    1.135    0.119
        98 -10.6493     12.5779    197.3976   1.2736669313e+02   3.1723829808e+01    0.2717675    0.1477363 -66.53   0.00169143    1.813    0.448
        99 -10.8860    108.3715    194.2318   1.0721840523e+02   1.9895161241e+01    0.3921333    0.1964873 -62.07  0.001799538    2.169    0.539
       100 -10.5170     82.6224    195.2778   1.1293586323e+02   2.3723385112e+01    0.2155704    0.1924001  73.80 0.0002795235    1.100    0.091
       101  -9.6182    141.9806    203.5860   1.0140347684e+02   1.2233715709e+01     0.208575    0.1853368 -26.46  0.000748953    1.356    0.262
       102 -10.4140     95.4858    194.5640   1.1006852863e+02   2.1910582969e+01    0.2224879    0.2024562  53.73  0.001409371    1.162    0.139
       103 -10.0932     63.7638    193.3918   1.1674887710e+02   2.6775714231e+01    0.2788053     0.225443  28.63 0.0007760475    1.589    0.371
       104  -9.3123     44.5396    194.0502   1.2082247668e+02   2.9046029240e+01    0.1639195    0.1021334 -78.15 -4.048256e-06    1.432    0.302
       105  -9.4664      6.1512    193.7505   1.2836471243e+02   3.3060860881e+01    0.2266279   0.09603576  83.67  0.001214357    2.074    0.518
       106  -9.9467    100.1250    192.3571   1.0876180754e+02   2.1635467925e+01    0.2016312    0.1693591 -62.55 0.0004011351    1.290    0.225
       107  -9.2064     52.4741    193.0263   1.1908688555e+02   2.8305564136e+01    0.1623002   0.08743525 -50.44 0.0008088005    2.441    0.590
       108 -10.9567     59.0340    190.4633   1.1744825500e+02   2.8026128652e+01    0.3153979     0.182238 -68.13  0.000919937    1.642    0.391
       109  -9.6827     37.8891    192.2804   1.2203014899e+02   3.0187552467e+01    0.1551652    0.1300472  73.20 0.0003655844    1.133    0.117
       110 -11.3462     91.2448    188.7662   1.1023485572e+02   2.3804737479e+01     0.323533    0.2441919  73.73 0.0007591583    1.268    0.211
       111  -9.5670    170.3123    200.0473   9.4932244383e+01   7.7312169312e+00    0.1719996    0.1704494 -23.54   0.00034112    1.153    0.133
       112  -9.8994     79.7439    188.4724   1.1273522012e+02   2.5603553615e+01     0.260418    0.1081232  43.68  0.001055125    2.171    0.539
       113 -10.7760    105.3901    185.8998   1.0667918369e+02   2.2142523746e+01    0.2663239    0.2280439  81.57 0.0004739023    1.114    0.102
       114 -10.5303     15.7374    182.8412   1.2580514091e+02   3.4480744022e+01    0.2271093    0.1543483  88.27  0.000479532    1.141    0.123
       115 -10.1633     55.1342    180.5846   1.1725049517e+02   3.0688922471e+01    0.2558832    0.1622718  78.89  0.001188938    1.517    0.341
       116  -9.2476    131.6496    179.3313   9.9691976135e+01   1.8909853656e+01      0.15122    0.1063941  73.31 6.759417e-05    1.772    0.436
       117  -9.2682    120.7541    178.9655   1.0211000692e+02   2.0970653352e+01    0.1867895    0.1719481 -79.57 0.0003470326    1.110    0.099
       118 -11.9784     31.9886    176.5626   1.2191120989e+02   3.4245700612e+01    0.3415371    0.2187576 -54.03  0.000730244    1.825    0.452
       119  -9.8875     92.1057    177.3314   1.0845450462e+02   2.6171050612e+01    0.2198579     0.173555 -59.94 0.0005969937    1.319    0.242
       120 -10.5593     46.9106    177.3326   1.1872490850e+02   3.2414594160e+01    0.3024614    0.1572274  53.10  0.001585105    1.803    0.445
       121  -9.4005      3.7407    178.2006   1.2791225157e+02   3.6525579350e+01    0.1985179   0.07372624  67.39 0.0009372461    2.688    0.628
       122  -9.1609     24.1787    176.3532   1.2356475462e+02   3.5083469480e+01    0.1482522    0.0916946  52.30 0.0002296285    1.505    0.336
       123  -8.7412    199.2878    175.2997   8.4356540886e+01   6.5630679788e+00    0.1419721    0.1047169   5.89 0.0002283283    1.557    0.358
       124  -9.0469     34.6829    185.6971   1.2213516755e+02   3.1956431597e+01    0.1084149   0.08684387 -52.53 0.0002871394    1.622    0.384
       125 -11.9900     78.8503    174.0223   1.1106373257e+02   2.8936677944e+01    0.2611777    0.2203146  80.23 0.0003295018    1.048    0.046
       126 -10.7957     76.5234    170.5684   1.1113478046e+02   3.0061606732e+01    0.2274134    0.1952553  80.53 9.311765e-05    1.019    0.019
       127  -9.7297     17.6286    174.9179   1.2483568870e+02   3.6021922148e+01    0.1798739    0.1136983 -69.50 0.0008171267    1.439    0.305
       128 -10.3525     44.5011    169.4805   1.1844239312e+02   3.4465906126e+01     0.302083    0.2031565  -1.54   0.00149585    3.016    0.668
       129 -10.6618     46.6400    166.1665   1.1758718609e+02   3.4976636611e+01    0.2784115     0.193933  44.30 0.0006832369    1.474    0.321
       130  -9.2886      2.6539    166.1331   1.2735773548e+02   3.9218428067e+01    0.1640413   0.07745405 -70.06  0.000440951    1.738    0.425
       131  -9.2063      5.1463    168.6545   1.2700469605e+02   3.8470549926e+01    0.1429267    0.1046688  44.27 0.0003605974    1.503    0.335
       132  -9.6257    185.8626    164.8808   8.4942487698e+01   1.1106232063e+01    0.2153525    0.1869253   5.87 0.0002789951    1.185    0.156
       133 -10.2514     24.6062    162.7818   1.2229585723e+02   3.8073658583e+01    0.1838991    0.1534351  60.04 0.0003160959    1.240    0.194
       134  -9.4306     75.3094    161.9398   1.1020024251e+02   3.2228905752e+01    0.1929461    0.1604424 -78.68 0.0005192371    1.100    0.091
       135  -9.7004    140.0119    160.9099   9.4334203266e+01   2.1221681466e+01    0.2221762    0.2064507  51.05 0.0004584385    1.031    0.030
       136 -11.4101     37.1674    159.0489   1.1901880971e+02   3.7668645700e+01     0.545024     0.229256  51.21  0.001937173    2.405    0.584
       137 -10.8436     30.0822    154.2454   1.2018569509e+02   3.9502097469e+01    0.3793588    0.2337024  52.18    0.0016875    1.614    0.381
       138  -9.8098    113.9744    158.2765   1.0008478204e+02   2.6761001302e+01    0.1980895    0.1761647  52.26 0.0001991518    1.097    0.089
       139  -9.4252     65.7285    158.0006   1.1198319666e+02   3.4487165816e+01    0.2198139    0.1362579  38.33  0.001130164    1.698    0.411
       140  -9.3827    113.2401    153.4299   9.9352429526e+01   2.8001581540e+01    0.2026254    0.1326051  53.12 0.0005590249    1.553    0.356
       141  -8.8674    107.6928    152.7251   1.0060604511e+02   2.9162756392e+01    0.1371578    0.1170732 -12.21 0.0002110461    1.548    0.354
       142  -9.5773     45.9030    151.4847   1.1601742863e+02   3.8479883370e+01    0.1900373    0.1451723 -78.24 0.0002977368    1.114    0.102
       143 -11.6107      5.6727    147.6757   1.2531684844e+02   4.3098663609e+01    0.2546347    0.1825147  77.18            0    1.202    0.168
       144  -9.1650      4.6914    142.6873   1.2513001951e+02   4.4301727409e+01    0.1923503   0.09239309 -74.31  0.000332802    1.597    0.374
       145  -9.9087      2.0167    139.9898   1.2553923271e+02   4.5100572637e+01    0.1784316    0.1338906  89.95 0.0006502568    1.049    0.047
       146 -10.6965     13.6576    143.3743   1.2304174231e+02   4.3470771630e+01    0.3228702     0.260885 -73.11  0.001785135    1.159    0.137
       147  -9.3063     17.2976    140.6705   1.2188298563e+02   4.3803069187e+01    0.1869966    0.1121593  72.13 0.0006614649    1.649    0.394
       148 -10.5927     23.6890    143.7801   1.2062641842e+02   4.2533461169e+01    0.3820927    0.1396447  53.47  0.001621972    3.140    0.682
       149 -10.0539     34.4583    137.1566   1.1710795685e+02   4.3087019036e+01    0.2346802    0.1410463 -78.58  0.001136959    1.448    0.309
       150 -10.6230    236.0422    137.0535   6.9117463236e+01   5.8493414399e+00     0.218428    0.1990374 -18.66 0.0006718853    1.041    0.040
       151  -9.9996     23.6754    136.6640   1.1984061899e+02   4.4201560359e+01     0.254438    0.1216707  84.47  0.001093769    2.414    0.586
       152  -9.5004     49.8886    136.1904   1.1288655276e+02   4.1670823248e+01     0.177978    0.1468306 -45.86 0.0007475276    1.358    0.264
       153 -10.8429     41.9711    131.2954   1.1430218256e+02   4.3722243056e+01    0.4204675    0.2231693 -53.71  0.002101497    1.754    0.430
       154 -12.1463     28.1769    131.8324   1.1808466060e+02   4.4943685547e+01    0.3070179     0.255044  68.49  0.002022915    1.226    0.184
       155 -10.3541      7.8017    133.4234   1.2353023166e+02   4.6204180795e+01    0.1383654    0.1140348 -17.33 0.0009465084    1.721    0.419
       156 -10.5489     17.5631    131.1922   1.2079985613e+02   4.5993261121e+01    0.2419686    0.1388233 -53.05  0.001361053    1.705    0.413
       157  -9.7355     12.7496    131.0446   1.2203068277e+02   4.6397118192e+01    0.1675504    0.1214715 -77.72  0.001082334    1.077    0.072
       158 -10.5255      3.4766    130.9248   1.2437993365e+02   4.7073573577e+01     0.180471   0.09135365 -76.92 0.0003915034    1.516    0.340
       159 -10.4183     33.7687    129.4164   1.1626595827e+02   4.4998157444e+01    0.2346752    0.1845355 -61.98 0.0008115736    1.174    0.148
       160  -9.4158     91.5758    126.4810   9.9616945151e+01   3.8153859732e+01    0.1464221    0.1354467 -56.20 7.173743e-05    1.071    0.066
       161  -9.4543     38.7891    126.5453   1.1447926626e+02   4.5191242541e+01    0.1498379    0.1155025  58.60 0.0003388034    1.382    0.276
       162  -9.5719     30.0429    125.3376   1.1672624817e+02   4.6318817307e+01    0.1628214    0.1439616 -85.22 0.0002398963    1.099    0.090
       163  -9.4046     69.2829    123.0469   1.0523399633e+02   4.2391451059e+01    0.1936568    0.1646716 -66.36 0.0002837699    1.054    0.051
       164 -10.3179      6.5277    122.4288   1.2274657682e+02   4.8833290796e+01    0.3198966    0.1433731  70.47  0.001471272    2.807    0.644
       165  -9.6772      2.5112    122.9854   1.2386320524e+02   4.8960429522e+01    0.1730497   0.09188464 -77.91 0.0009829176    1.454    0.312
       166 -10.8170    237.6966    121.0244   6.5129411911e+01   8.1804464400e+00    0.2108941    0.1784087 -26.41  0.000870991    1.073    0.068
       167  -9.3326     30.6790    121.3284   1.1598725156e+02   4.7217076059e+01    0.1318565   0.08592595  74.38 0.0007048269    1.689    0.408
       168 -10.9360     10.4280    117.2025   1.2110606148e+02   4.9788966828e+01    0.2872877    0.2083029  31.80  0.001882186    1.690    0.408
       169 -10.9156     14.8774    114.0409   1.1946942835e+02   5.0219810234e+01    0.4139137    0.2730938  77.33  0.002459742    1.578    0.366
       170 -11.2641     19.4536    110.2701   1.1763830578e+02   5.0771175397e+01     0.409729    0.2328865 -51.29  0.002284576    1.606    0.377
       171  -9.9018     21.9768    120.7343   1.1834243023e+02   4.8103571735e+01    0.2194149    0.1448279 -71.27 0.0003301964    1.211    0.174
       172 -10.8435     19.9939    117.7685   1.1850748728e+02   4.8961485776e+01     0.274339    0.1796297  28.51  0.001234582    1.859    0.462
       173  -9.8268     93.0835    118.6602   9.7465749754e+01   3.9766766664e+01     0.249806     0.197546 -68.54 0.0005904649    1.273    0.215
       174 -11.2365     55.1875    117.8413   1.0834262134e+02   4.5478429967e+01    0.2205783    0.2162795 -86.38 0.0003029251    1.149    0.130
       175  -8.9949    123.4580    120.9850   8.9628341945e+01   3.3512122368e+01    0.2169811    0.1500579 -50.52 0.0001332901    1.424    0.298
       176 -10.5089      3.8209    116.1016   1.2279723901e+02   5.0467938672e+01    0.3102987    0.1933497  -6.01  0.001826888    2.454    0.592
       177  -9.6454    108.8244    114.6789   9.2059059234e+01   3.7858352448e+01     0.203331    0.1894733  58.75 0.0005029049    1.109    0.098
       178 -11.0789     61.3245    113.1285   1.0560793004e+02   4.5851548674e+01    0.3440666    0.2067303 -49.45 0.0009608882    1.546    0.353
       179 -10.7262      3.9663    111.5415   1.2224907396e+02   5.1512899182e+01    0.3436282    0.1311005 -62.99  0.001426792    1.922    0.480
       180 -10.0514      3.5167    106.9833   1.2184542815e+02   5.2591588111e+01    0.2644581   0.09816996 -61.84  0.001306466    1.959    0.489
       181 -10.1475     31.7888    111.1795   1.1412589805e+02   4.9537750051e+01     0.170808    0.1255175 -51.87 0.0002235868    1.272    0.214
       182  -9.7584     93.2434    108.5259   9.5012209574e+01   4.2134097133e+01     0.267323    0.1903352 -52.24 0.0005788294    1.317    0.241
       183 -11.2236     35.9662    106.1533   1.1201526543e+02   5.0349845210e+01    0.5233195    0.3459683 -69.28  0.002939572    1.294    0.227
       184  -8.6768     84.9865    108.0000   9.7341037646e+01   4.3641791463e+01    0.2307806   0.08457846  36.97 0.0008032016    2.948    0.661
       185  -9.6339      8.4868    106.9541   1.2040135043e+02   5.2301036420e+01    0.1874015   0.09624909 -74.85 0.0007767397    1.553    0.356
       186  -9.3477     62.7862    104.8357   1.0341372172e+02   4.7648878174e+01    0.1835732    0.1540767 -87.04 0.0004415896    1.274    0.215
       187 -11.2181     47.2011    102.9744   1.0791364740e+02   4.9963956831e+01    0.4817452    0.2068261 -65.50  0.002039809    2.157    0.536
       188 -11.4380     41.8687     98.7942   1.0877487398e+02   5.1517755573e+01    0.2623107    0.2559384  23.70 0.0003364639    1.214    0.176
       189 -10.2290     29.3342    103.5006   1.1360596514e+02   5.1576426950e+01    0.2780453    0.1470426 -69.12  0.000601866    1.598    0.374
       190 -10.4625     24.6242    117.2052   1.1711903740e+02   4.8723049652e+01    0.2692514    0.1613557 -47.20 0.0009498275    1.692    0.409
       191 -11.8223    174.8663    102.8519   7.2327301598e+01   2.5744602684e+01    0.2662437    0.2593544 -13.05 0.0002556465    1.034    0.033
       192  -9.3053    141.8695    100.8008   7.9489075264e+01   3.3969631116e+01    0.2047629     0.181224 -72.56 0.0003250696    1.248    0.199
       193 -10.5510      8.8797     99.2515   1.1925608707e+02   5.4062641272e+01    0.2790263    0.1871786  75.34 0.0007567597    1.644    0.392
       194 -10.6841      3.8862     98.0005   1.2060951635e+02   5.4639442309e+01    0.3761067    0.1794121 -69.43 0.0008634967    1.570    0.363
       195  -9.1767    106.5224     97.4820   8.8201418506e+01   4.2228836455e+01    0.1525854    0.1444098 -30.75 4.876777e-05    1.048    0.046
       196  -9.1781     58.2300     96.0190   1.0287305663e+02   5.0317935114e+01    0.1864216    0.1018727 -57.07 0.0005865706    1.596    0.373
       197  -9.8119     54.6123     94.9774   1.0381394600e+02   5.1005752042e+01    0.3343969     0.112804 -57.16  0.001263272    2.501    0.600
       198  -9.6594     23.0591     95.6887   1.1425119118e+02   5.3921488643e+01    0.1616147    0.1451047 -61.73 0.0003345888    1.120    0.107
       199 -10.6166     46.3693     94.0245   1.0631203647e+02   5.2168779038e+01    0.2641478    0.1922536  27.41  0.000627906    1.608    0.378
       200 -10.7519     31.0417     94.0120   1.1135583473e+02   5.3662121190e+01    0.4027301    0.2099402  58.47  0.001810844    2.893    0.654
       201 -11.1409     21.2793     87.7228   1.1341490335e+02   5.5902987377e+01    0.2190078    0.2016789  85.34 0.0002857244    1.228    0.186
       202 -10.8702     27.4923     87.0348   1.1118242304e+02   5.5581482734e+01    0.4377322    0.2128707 -50.30  0.001449473    1.696    0.410
       203 -10.3801     30.8150     84.1883   1.0945751370e+02   5.5958612621e+01    0.2419984    0.1819322 -30.40 0.0008128342    1.412    0.292
       204 -10.1783      1.6710     92.9866   1.2062164357e+02   5.5904752165e+01    0.2077145    0.1323177 -86.34 0.0005029698    1.444    0.307
       205 -10.7399    105.2973     90.8636   8.6683211144e+01   4.3931915162e+01    0.3172424    0.2369072  35.51  0.001528087    1.420    0.296
       206  -9.1392     17.4713     91.4396   1.1533468628e+02   5.5315399932e+01    0.1247572   0.09862924 -62.74 0.0008068042    1.016    0.015
       207  -9.1849    117.5253     90.4391   8.3015810122e+01   4.1542253829e+01    0.1564246    0.1448509  -7.52 0.0001069205    1.128    0.114
       208 -10.5654      7.2224     89.5395   1.1836171191e+02   5.6394017503e+01    0.2382419    0.1797594 -79.26  0.000666493    1.178    0.151
       209 -10.2094     88.0033     88.1041   9.1192961528e+01   4.7717400270e+01    0.2800814    0.1920627 -47.97 0.0003998732    1.358    0.264
       210  -9.0707     74.2631     89.3630   9.5964602516e+01   4.9649258421e+01    0.1481539    0.1014447 -29.73 0.0006983341    1.640    0.390
       211 -10.9438    123.6693     86.6941   8.0183556147e+01   4.1011590019e+01    0.3231854    0.2741068 -50.91 0.0005256198    1.199    0.166
       212  -9.4655     43.4502     88.2473   1.0600773931e+02   5.3823896448e+01    0.1833424    0.1161631 -70.78 0.0007126635    1.599    0.375
       213  -9.4943     63.9467     86.7422   9.8689350786e+01   5.1721102003e+01    0.1834559    0.1745688  -7.67 0.0005719902    1.137    0.120
       214 -10.3014     11.0764     85.4414   1.1643691250e+02   5.7105779687e+01    0.2759327    0.1529477 -78.91  0.001501229    1.709    0.415
       215  -9.9704      2.2886     86.4192   1.1949646399e+02   5.7367037291e+01    0.2281416    0.1206714 -69.37  0.001306191    1.436    0.303
       216 -10.2061    155.0805     85.0025   7.1689896184e+01   3.4030818171e+01    0.2287686    0.2277702 -10.05 0.0003709208    1.003    0.003
       217 -11.3911     50.6899     82.9881   1.0226096562e+02   5.4237658410e+01    0.4040856    0.2794412   8.36  0.001097942    1.841    0.457
       218 -10.6312     44.4061     79.9862   1.0371744230e+02   5.5614438363e+01    0.3230223    0.1980814  33.15  0.001365753    1.878    0.468
       219  -9.1061     17.3162     85.2929   1.1430768193e+02   5.6740734364e+01    0.1269348    0.0745117 -42.86 0.0007009153    1.600    0.375
       220  -9.6500     95.3530     81.9927   8.7080360747e+01   4.7742762517e+01     0.201601    0.1755512 -43.06 0.0004985107    1.091    0.084
       221 -10.0935     73.2993     80.3096   9.3758703077e+01   5.1822122137e+01    0.4202567    0.1824464 -36.27  0.001537163    2.770    0.639
       222 -10.1693     20.0361     81.3331   1.1262460415e+02   5.7455987420e+01    0.2119257    0.1551836  88.96 0.0007579508    1.549    0.354
       223  -9.3320     56.9975     81.2576   9.9618384739e+01   5.3869557684e+01    0.1753518    0.1634274 -32.13 0.0002310266    1.088    0.081
       224  -9.3712      2.4925     80.5106   1.1852447131e+02   5.8690594965e+01     0.170503   0.09933569  36.81 0.0009894723    2.151    0.535
       225  -8.9292    152.3040     77.3000   7.0013093634e+01   3.6167952553e+01    0.1584733    0.1235531  14.90 0.0002419572    1.589    0.371
       226 -10.3682     63.6041     75.9656   9.5838069515e+01   5.4176412961e+01    0.3798835    0.2487331  25.61  0.001367376    1.745    0.427
       227 -11.1323     52.7422     75.4695   9.9557421141e+01   5.5683131948e+01    0.3023131    0.2608364  -6.50 0.0004236725    1.257    0.204
       228  -9.7261     83.3355     74.8993   8.8766357523e+01   5.1379229238e+01    0.3599085    0.1983736 -23.19  0.001074694    2.827    0.646
       229  -9.7516     29.1432     74.5329   1.0790889206e+02   5.8289040961e+01    0.3668538   0.08442131 -53.33  0.001374714    2.925    0.658
       230 -10.5930     18.7001     73.6245   1.1153116932e+02   5.9287593746e+01    0.3474972    0.2190081 -35.19   0.00204718    1.573    0.364
       231 -10.0418    174.9715     75.0336   6.4417273891e+01   3.0906246931e+01    0.4837738    0.2686827  74.25  0.001478692    2.676    0.626
       232  -9.0527     93.1900     74.2038   8.5338204422e+01   4.9780593944e+01    0.1897378     0.170509 -70.09 0.0003224186    1.296    0.228
       233  -9.6458     69.0337     73.6401   9.3248942457e+01   5.3909015677e+01    0.1832406    0.1716519  -7.25 0.0006517264    1.103    0.094
       234  -8.8852     44.7179     73.3151   1.0188576760e+02   5.7072564004e+01    0.1228167   0.09991478 -89.98 0.0004060814    1.576    0.366
       235  -9.6941    199.9636     71.6297   5.8835070617e+01   2.5187936168e+01    0.2046337    0.1863103  71.00 0.0003866061    1.117    0.105
       236 -10.3465    137.9184     72.0902   7.1864721188e+01   4.0622306363e+01     0.223315    0.2183893 -67.50 0.0003430462    1.072    0.067
       237 -11.7865     52.7915     69.4327   9.7827663213e+01   5.6995083224e+01    0.2500058    0.2151411 -41.66  0.000347102    1.024    0.023
       238 -10.8106     44.6801     69.1954   1.0077423414e+02   5.7979317393e+01    0.3587762    0.2106408 -19.10  0.001416373    2.293    0.564
       239 -10.2184      1.2896     69.2997   1.1705471101e+02   6.1240830843e+01    0.2158703    0.1012634 -54.78 0.0002816727    1.552    0.356
       240 -12.1459      5.8764     59.2536   1.1331869170e+02   6.3202626468e+01    0.4510007     0.393798  73.73  0.001140524    1.459    0.315
       241 -10.5114      1.3925     65.4817   1.1631318231e+02   6.2071895863e+01    0.1960172    0.1117777 -74.92 4.804441e-06    1.592    0.372
       242 -10.8734      1.5185     62.0263   1.1559652646e+02   6.2815982069e+01    0.2548847    0.1339647 -60.36 0.0004226613    1.392    0.282
       243  -9.5556    106.2612     66.8999   7.8875673457e+01   4.8679918721e+01    0.2085489    0.1933993 -11.84   0.00113877    1.035    0.034
       244  -9.8322     56.9300     66.7250   9.5488485113e+01   5.7054007011e+01    0.2423167    0.1734003 -64.08  0.001201134    1.602    0.376
       245  -9.1936     17.9380     66.9924   1.1035934138e+02   6.0807616053e+01    0.1393274     0.117888 -44.86 0.0005371704    1.098    0.089
       246 -10.1539     89.0918     71.9281   8.5928991753e+01   5.0994666211e+01     0.218583     0.197143 -25.80 0.0003751777    1.034    0.033
       247 -10.0370     91.2148     66.4993   8.3447769474e+01   5.1702121975e+01    0.2637884    0.1425429  45.92   0.00112876    2.010    0.502
       248  -9.4894     75.5622     66.1198   8.8594888195e+01   5.4481314092e+01    0.2178837    0.1895186  43.53 0.0006059303    1.312    0.238
       249 -10.2516     16.8092     60.4966   1.0926704090e+02   6.2293059073e+01    0.2575164    0.1816148  74.56  0.001496185    2.109    0.526
       250 -10.3436     31.3584     58.5791   1.0293511430e+02   6.1568451646e+01    0.2646378    0.2062989  86.33 0.0003573225    1.857    0.462
       251 -10.6782     21.8136     63.8980   1.0813174898e+02   6.1208281432e+01    0.3699722    0.1816207 -59.29 0.0009434643    1.646    0.392
       252 -12.1452     24.0473     57.5163   1.0558957072e+02   6.2404871574e+01    0.4308573    0.2911426 -45.19 0.0008391475    1.177    0.150
       253 -10.8501     30.0155     53.2793   1.0192581575e+02   6.2790842995e+01    0.4421072    0.2043513  35.16  0.001798524    2.613    0.617
       254 -10.9620     32.0736     64.6463   1.0433272335e+02   6.0210862157e+01    0.2740177    0.2205448  12.74  0.001760359    1.436    0.304
       255 -10.4447     14.5558     65.0259   1.1120990401e+02   6.1458881087e+01    0.2189589    0.1469322 -23.29  0.001350634    1.621    0.383
       256 -11.7285     79.7996     69.8652   8.8356534901e+01   5.3022508230e+01    0.2374143     0.221179 -12.08 0.0002771567    1.055    0.052
       257  -9.5022     63.9718     69.3016   9.3715899513e+01   5.5560565042e+01    0.1836912    0.1692865  -7.80 0.0004080558    1.112    0.101
       258 -10.9759     71.0506     60.4856   8.8303775996e+01   5.6325722875e+01    0.4925294    0.2599772  38.19  0.002265367    2.046    0.511
       259  -8.7618     98.6659     60.6857   7.9069837269e+01   5.1390540617e+01    0.1522303    0.1113853   3.07 0.0007046302    1.687    0.407
       260  -9.4475     59.7136     58.8061   9.1909660606e+01   5.8317593505e+01    0.3014949    0.1855468 -16.24   0.00140677    2.123    0.529
       261  -9.0128    238.4372     58.4577   4.9855060677e+01   1.7994833986e+01      0.13897    0.1240212 -53.65 7.385701e-05    1.012    0.012
       262  -9.1939     85.6284     57.5078   8.2181609512e+01   5.4453629624e+01    0.1425695    0.1256241 -20.04 0.0007960324    1.042    0.040
       263 -10.7310     38.8895     57.0499   9.9458537949e+01   6.1165784987e+01    0.2000638    0.1770222   5.11 0.0006128607    1.245    0.197
       264  -9.4288    249.9567     56.2547   4.7986115877e+01   1.5740637214e+01    0.1824483    0.1586828 -56.17 0.0003505556    1.017    0.017
       265 -10.1117    118.8598     54.8966   7.1091720527e+01   4.8118387241e+01     0.271278     0.202498  -9.86 0.0006730402    1.536    0.349
       266 -10.1970    122.4658     52.0186   6.9102448507e+01   4.7771561582e+01    0.3809455    0.2046371  44.47    0.0012368    1.829    0.453
       267 -10.8292     93.0669     54.6594   7.8699909199e+01   5.3588796318e+01     0.315031    0.2082793 -28.79 0.0002801569    1.506    0.336
       268 -10.9025     94.3307     49.7203   7.6471158867e+01   5.4209828682e+01    0.4299891    0.2399856  32.10  0.001243512    1.995    0.499
       269  -9.9983     52.2536     54.1187   9.3195943509e+01   6.0234503687e+01    0.2329055    0.1733869 -60.23 0.0008563334    1.571    0.363
       270 -10.0551    151.1739     53.2962   6.2648794535e+01   4.0579242870e+01    0.2485188    0.2093502  -9.00  0.000543808    1.312    0.238
       271  -9.6342    145.2775     54.0606   6.4207184010e+01   4.1939451828e+01    0.2085688    0.1898789 -23.75 0.0005737111    1.126    0.112
       272  -9.2351    191.6938     53.6507   5.5149514417e+01   3.0110689569e+01    0.1528968    0.1155137  23.44 0.0007042473    1.704    0.413
       273  -8.9632    177.0409     53.4917   5.7602746865e+01   3.3908422762e+01    0.2306337    0.1103487  40.38 0.0008097253    2.632    0.620
       274  -9.8807     75.3619     52.8329   8.4052849266e+01   5.7103072895e+01    0.2094657    0.1892665  29.45 0.0009537061    1.204    0.170
       275 -11.6668     42.0266     51.8304   9.6520979573e+01   6.1894881056e+01    0.3779135    0.2236218 -35.11  0.000541042    1.513    0.339
       276  -9.9016     39.1427     46.8905   9.6043051914e+01   6.3180974078e+01    0.1797955    0.1643488 -46.02 0.0006421524    1.248    0.199
       277 -10.3608     21.1300     40.5430   1.0174935574e+02   6.6083527217e+01    0.4821123    0.1889201  15.21  0.002204657    3.305    0.697
       278 -11.8707     17.2126     46.9455   1.0547547537e+02   6.5098824447e+01     0.691797    0.3129262 -32.75  0.003198311    2.195    0.544
       279 -11.8264      6.7075     50.0810   1.1083712723e+02   6.5097083829e+01     0.363342    0.3114053   9.30  0.002697665    1.431    0.301
       280 -11.9661     12.4167     43.7639   1.0665417249e+02   6.6059891905e+01    0.3357767    0.1621879 -44.00 0.0003744135    1.580    0.367
       281 -11.1622     14.0829     39.5090   1.0461751463e+02   6.6797815865e+01    0.2463222    0.1978333 -28.81 0.0006013853    1.121    0.108
       282 -10.2093    199.4276     51.9262   5.3449563749e+01   2.8395278560e+01    0.2524882    0.2017101  57.76 0.0007737743    1.263    0.208
       283 -10.1319     60.9319     51.9455   8.9070001136e+01   5.9494045778e+01    0.1989338    0.1791549 -20.90 0.0005557056    1.071    0.066
       284 -11.7217     62.0370     44.2847   8.5800246670e+01   6.0754467467e+01     0.339868    0.2274482 -39.82 0.0004654861    1.376    0.274
       285 -10.5337     65.6901     49.2364   8.6274950407e+01   5.9305202971e+01    0.3127901     0.201122 -29.99  0.001131553    1.467    0.318
       286 -10.1952     67.5502     44.2455   8.3681651536e+01   5.9919638101e+01    0.2906889    0.2080412  13.34 0.0007887781    1.506    0.336
       287 -11.3701     14.8791     35.8093   1.0305355762e+02   6.7462203782e+01    0.4481147     0.325415  49.28  0.002837135    2.135    0.532
       288  -9.9601     47.3225     47.0393   9.2699651870e+01   6.2221815141e+01    0.3687437    0.1912956 -20.70   0.00112213    2.713    0.631
       289 -10.0813     31.8201     47.8579   9.9466612731e+01   6.3723599386e+01    0.1844812    0.1563459 -12.14  0.000812187    1.182    0.154
       290  -9.6527    114.5004     46.9195   6.9418818729e+01   5.0408618063e+01     0.211394     0.142476 -29.55 0.0003861749    1.496    0.332
       291  -9.8413     26.2672     45.9976   1.0125049793e+02   6.4589714718e+01     0.315638    0.1115768 -48.74  0.001444732    2.144    0.534
       292  -9.0898    165.0359     45.9969   5.7497720274e+01   3.8127837516e+01     0.174234    0.1705536 -47.36 0.0003396936    1.053    0.051
       293  -9.8449    123.7186     45.0085   6.6266983437e+01   4.8585857382e+01     0.342765    0.1836173  45.78   0.00141161    1.796    0.443
       294 -11.9238    103.5837     39.1636   6.9597040660e+01   5.3999936391e+01    0.4334578    0.2513226 -25.37 0.0004785214    1.796    0.443
       295  -9.2032     42.5071     44.5024   9.3785461855e+01   6.3270048048e+01    0.1278865    0.1065734 -29.41 -0.0001155253    1.035    0.034
       296  -9.7597     33.2096     43.3784   9.7361102496e+01   6.4468980028e+01    0.2147143    0.1953531  56.03  0.001454273    1.558    0.358
       297 -10.2768     38.2249     40.6358   9.4203141478e+01   6.4473813164e+01    0.3745282    0.2020146   6.00  0.001786536    2.586    0.613
       298  -9.6458    200.0745     43.1792   5.0917829301e+01   2.9478782195e+01    0.2099931    0.1924472  44.09 0.0004037883    1.202    0.168
       299  -9.0381     53.0090     42.7018   8.8772833454e+01   6.2309381762e+01    0.1706603    0.1456972 -13.68 0.0003050962    1.051    0.049
       300  -9.3598     91.4338     40.7606   7.3958624216e+01   5.6256395214e+01    0.1928567    0.1272757 -19.11 0.0008320832    1.596    0.373
       301  -9.2345    152.1594     40.1577   5.8105305427e+01   4.2269877137e+01    0.1957518    0.1690542 -62.20 0.0003742678    1.265    0.209
       302  -9.2672    128.4986     40.4710   6.3436685927e+01   4.8119383552e+01    0.1490376     0.135809  27.42 6.797713e-05    1.056    0.053
       303 -11.2502      5.3186     38.6687   1.0838489913e+02   6.7489427862e+01    0.3962454    0.3190308  49.64  0.002798864    1.797    0.444
       304  -9.9731      4.3245     32.3467   1.0695070246e+02   6.8777801438e+01    0.2230861    0.1472751 -37.88 0.0007267364    1.167    0.143
       305  -9.8330     82.4956     38.9991   7.6224674941e+01   5.8241955168e+01    0.1971517    0.1733748  14.13 0.0004138251    1.073    0.068
       306 -10.0294     85.9894     37.0032   7.4238771864e+01   5.7898600123e+01    0.2035155    0.1778398  -0.26  0.001196308    1.028    0.028
       307  -9.7651     30.9891     38.6312   9.6654409645e+01   6.5589275999e+01    0.3168713    0.1334852 -52.77  0.001013048    2.220    0.550
       308 -10.0000    117.7828     38.0914   6.5256700494e+01   5.0989288023e+01     0.393149     0.245251  81.83  0.001515431    2.927    0.658
       309  -9.1188     97.2975     38.6965   7.1299971094e+01   5.5392726217e+01    0.1313824    0.1131425 -69.41 0.0002381506    1.583    0.368
       310 -11.7088    136.1836     35.8509   5.9999591524e+01   4.6883959661e+01    0.2751896    0.2490472  25.63 0.0002476943    1.097    0.088
       311  -9.7755    132.3001     36.6331   6.1157461068e+01   4.7733952845e+01    0.2202993    0.1971658  81.47 0.0005553355    1.244    0.196
       312  -9.9280    128.5993     35.2136   6.1506762306e+01   4.8827219034e+01    0.2183247    0.2031708  83.49 0.0004527433    1.198    0.165
       313 -10.4448     40.7527     34.8744   9.0894232203e+01   6.5240628059e+01    0.3038319    0.2062267 -33.08  0.001359603    1.230    0.187
       314 -10.2045    208.5035     35.6494   4.7731153448e+01   2.8363466443e+01    0.2785181    0.1922407  18.20  0.001278888    2.207    0.547
       315 -12.3284    194.2988     35.0105   4.9439831760e+01   3.2050176347e+01    0.3762094     0.262066  63.99 0.0003832656    1.376    0.273
       316  -9.6783    176.5511     36.4890   5.2539032890e+01   3.6449331998e+01    0.2644224    0.1409398  78.94  0.001031149    2.283    0.562
       317 -11.1492     56.5238     33.4777   8.3650663119e+01   6.3423288984e+01    0.5553054    0.2913663  36.27  0.001496349    2.011    0.503
       318  -9.7422     78.4124     34.3121   7.5721392624e+01   5.9720462266e+01     0.183728    0.1211711 -39.67 0.0006720531    1.577    0.366
       319  -9.4606    153.7050     33.3611   5.5543783141e+01   4.2780867612e+01    0.1531369    0.1086766 -63.61 0.0007031499    1.706    0.414
       320 -11.0020    142.5359     32.0424   5.7302713390e+01   4.5795058816e+01      0.36834    0.2732775  11.98 0.0009577656    1.610    0.379
       321  -9.4354    118.6069     33.2598   6.3223501311e+01   5.1466925271e+01    0.1410189     0.112702 -83.51 0.0006969593    1.700    0.412
       322  -9.2475     55.5234     29.4472   8.2343035104e+01   6.4221292793e+01    0.1296774    0.1069385  -9.80 5.421077e-05    1.012    0.012
       323  -9.7106    233.0852     31.9991   4.3996393727e+01   2.2863881500e+01    0.2017605    0.1761632 -69.69 0.0003923497    1.017    0.017
       324 -12.0965    107.6696     28.8847   6.4398429332e+01   5.4543433654e+01    0.4037671    0.3151855 -23.09  0.002208035    1.300    0.231
       325 -11.5478    221.3596     28.8294   4.4447958022e+01   2.6062648496e+01    0.4734681    0.2560794 -36.15  0.001494294    1.743    0.426
       326 -10.1588    206.0820     31.0758   4.6804725474e+01   2.9558534370e+01    0.2108694    0.1893969 -75.31 0.0003558742    1.020    0.020
       327 -10.4482     33.2268     29.5719   9.2145461277e+01   6.7004820371e+01    0.3782884    0.3168411  85.03  0.002313635    2.269    0.559
       328 -10.2939     25.0246     30.6673   9.6418678270e+01   6.7612781079e+01    0.2692054    0.1680624  21.04  0.001478466    1.766    0.434
       329 -10.4497    159.0126     29.8658   5.3421413882e+01   4.1852156751e+01    0.2239126    0.2090451 -30.31 0.0003111742    1.139    0.122
       330 -10.7643     71.9807     29.2031   7.5856229583e+01   6.1628830338e+01    0.2347301    0.1767331 -21.00 0.0009700967    1.222    0.181
       331 -10.2140     19.2326     29.1410   9.8609186293e+01   6.8383401339e+01     0.193944    0.1453752 -33.64 0.0005021757    1.028    0.027
       332  -9.3218     14.0186     29.2000   1.0117061506e+02   6.8768370160e+01     0.139378   0.08669937  12.88 0.0008702533    1.788    0.441
       333 -10.1402    211.9871     28.0738   4.5301446731e+01   2.8457511193e+01    0.2060014    0.1867844 -76.35 0.0003889255    1.016    0.016
       334  -9.9766    181.9018     27.6365   4.9064887510e+01   3.6177276966e+01    0.2410938    0.2038672 -10.45  0.001130266    1.376    0.273
       335 -10.7755     38.7910     27.1403   8.8577509147e+01   6.6798479147e+01    0.2715737    0.2380386 -64.24  0.001780665    1.746    0.427
       336 -10.7297    165.7103     26.2047   5.1108941352e+01   4.0557761071e+01    0.3529429    0.2229231  86.10   0.00158634    1.843    0.458
       337  -9.7814     99.2458     26.7069   6.5883005056e+01   5.6667484148e+01    0.2488026    0.2150629  89.47 0.0009677646    1.587    0.370
       338 -11.1289     48.2311     26.0095   8.3903644854e+01   6.5789506479e+01    0.3077185    0.2872246  53.26  0.001405747    1.608    0.378
       339  -9.2680    139.7950     26.1663   5.5804526745e+01   4.7209422667e+01    0.1945031    0.1525509  36.94 0.0003827396    1.264    0.209
       340 -11.0117    165.6153    248.4797   1.0313194043e+02   9.1639159672e-01    0.2749831    0.1908597  63.46   0.00164921    1.858    0.462
       341 -10.9711      7.9041     21.7884   1.0149702676e+02   7.0530361155e+01    0.5241272    0.1475333  22.36  0.002395899    3.874    0.742
       342 -10.6602     18.8348    246.6247   1.2887847524e+02   2.1751120365e+01     0.273902   0.08391888  46.20  0.001543351    2.284    0.562
       343 -11.4660     18.5388     23.6077   9.6784258376e+01   6.9426578955e+01    0.2656711    0.1706963 -41.33 0.0007023651    1.259    0.206
       344 -11.0819    153.7056     23.0027   5.2096509057e+01   4.4035697770e+01    0.2624984    0.2302687  37.59 0.0003033404    1.156    0.135
       345 -11.2388     15.7942    243.8365   1.2923353180e+02   2.2555757358e+01    0.2310412    0.1217083  59.15 0.0009416125    1.360    0.265
       346 -10.1127     61.5469     23.4297   7.7250854208e+01   6.4210756470e+01    0.3078152     0.198294   3.10  0.001631691    1.731    0.422
       347 -10.2934    230.1015     22.7604   4.2049548994e+01   2.4711236005e+01    0.2115209    0.1346149  47.37  0.001067549    1.924    0.480
       348 -10.2859    169.9762     23.3026   4.9525489861e+01   3.9787698846e+01    0.2017683    0.1756956  72.67 0.0003748931    1.067    0.063
       349  -9.7559    124.8673     23.2118   5.7921683505e+01   5.1236281795e+01    0.1973978    0.1863043  89.56 0.0003943973    1.196    0.164
       350 -10.3064    109.4116     20.8127   6.0708004257e+01   5.5140915533e+01     0.425453    0.2405645   7.38  0.001380923    2.509    0.601
       351 -10.9129    105.0259     20.9381   6.1905599855e+01   5.6114062299e+01    0.2730241    0.2302873  87.11 0.0003470052    1.565    0.361
       352 -10.8310     26.5649     21.7558   9.2021501459e+01   6.9015035226e+01    0.3193535    0.1883998 -10.46  0.001060312    1.827    0.453
       353 -10.9151    176.0621     21.5136   4.8075117885e+01   3.8410540994e+01    0.3947328    0.1451889  49.99  0.001437811    2.709    0.631
       354 -10.4909    132.9534     21.9395   5.5694517306e+01   4.9405191198e+01    0.3196535     0.195576 -87.83  0.001312649    2.578    0.612
       355 -11.0390      4.6849    246.4331   1.3107775580e+02   2.3222980074e+01     0.179218    0.1319984  76.50 0.0006400096    1.179    0.152
       356  -9.9143     41.0500     21.5016   8.5053106714e+01   6.7430894429e+01    0.2020411    0.1133754  35.54 0.0007246825    1.964    0.491
       357 -10.4726     36.3229     21.0476   8.7025444138e+01   6.8075990633e+01    0.2167074    0.1615651  11.64 0.0005703489    1.301    0.232
       358  -9.7396    190.0371     20.2453   4.5818030264e+01   3.4942062707e+01      0.19966    0.1665807  79.86  0.000348076    1.106    0.096
       359 -10.2566    211.0084    245.5034   9.4477607324e+01  -5.8108197367e+00    0.1665765    0.1376247  10.39 0.0004902642    1.139    0.122
       360 -10.0515    148.6703    246.0508   1.0595331491e+02   3.9763788436e+00    0.1623232    0.1363354  45.28 0.0004139882    1.070    0.066
       361  -9.1739     66.4798    246.4204   1.2092823989e+02   1.6136354604e+01    0.1130925    0.0835397  61.85 0.0001523276    1.021    0.020
       362 -10.2448    199.2312     18.3181   4.4167348891e+01   3.2813144168e+01    0.2402125    0.2091053  52.38   0.00140163    1.244    0.196
       363 -11.3953    201.9112    244.4182   9.5943927688e+01  -4.2795537131e+00    0.2309666    0.1832918  11.77 0.0002859306    1.176    0.150
       364 -10.1648     73.1401    244.1243   1.1958162118e+02   1.5646397417e+01    0.1959727    0.1396665  83.23 0.0007860117    1.314    0.239
       365 -10.1576     45.8689     17.2703   8.0912307084e+01   6.7429293301e+01    0.2578076    0.1917907  54.39  0.001501088    2.231    0.552
       366 -10.1013    192.9183     17.0733   4.4568575238e+01   3.4558481476e+01    0.2060006    0.1822155  89.21 0.0004017217    1.022    0.022
       367 -10.1029    230.1148     15.9499   4.0406221665e+01   2.5507048110e+01    0.2056592    0.1477669 -63.39 0.0003285572    1.255    0.203
       368 -11.3109     76.0989    241.0469   1.1880236572e+02   1.5781555981e+01    0.3594088     0.187338  61.68 0.0005731136    1.705    0.413
       369  -9.3346    112.4692     15.4952   5.7813809856e+01   5.5024207749e+01    0.1394748    0.1211774  32.41  1.54575e-05    1.033    0.032
       370 -10.8439     31.8174    244.1311   1.2665546547e+02   2.0771965590e+01    0.1700681    0.1470589  64.69  0.001403278    1.386    0.279
       371 -10.9957     34.0672    239.2461   1.2600708711e+02   2.1386484007e+01    0.2261041     0.178155  50.57 0.0003659087    1.368    0.269
       372 -11.8822     20.5170    242.1409   1.2839662152e+02   2.2359167319e+01    0.4168378    0.1394463  54.21  0.002351885    2.151    0.535
       373  -9.8499    102.6586     14.1459   5.9718090703e+01   5.7394870542e+01    0.1808967    0.1199724  -4.74            0    1.640    0.390
       374 -10.1517     88.7375     13.6429   6.3389753893e+01   6.0433873750e+01    0.2261215    0.1502419  51.14 0.0002492016    1.474    0.322
       375 -10.2132     22.6217    238.2512   1.2785929481e+02   2.2828506790e+01      0.18454    0.1398774  68.14 0.0004752709    1.142    0.124
       376  -9.8735     91.6870    242.1446   1.1607338790e+02   1.3391930066e+01     0.199848     0.123762  53.46 0.0004854623    1.269    0.212
       377 -11.1443    218.5040     18.9072   4.2239278148e+01   2.7950180725e+01      0.28422    0.2152304 -76.96   0.00160572    1.233    0.189
       378  -9.4066    154.9219     13.4650   4.8732900711e+01   4.4743834590e+01     0.207029    0.1279026  67.40 0.0004186541    1.483    0.326
       379  -9.9890    134.1972    240.7879   1.0802036083e+02   7.1068234209e+00    0.1549805    0.1308604  25.94 0.0004684004    1.325    0.245
       380  -8.9313     80.6482     13.7456   6.5947274278e+01   6.2046992791e+01    0.1368106   0.08533321  24.44 0.0002006398    1.600    0.375
       381  -9.7286     51.5251     13.0307   7.6406000130e+01   6.7196393801e+01    0.1890808    0.1073127 -29.61  0.001040568    1.621    0.383
       382 -10.6620    109.7459    239.9005   1.1251301386e+02   1.1085841520e+01    0.3297352    0.1962009  73.31  0.001268466    2.070    0.517
       383  -9.8618     55.1393    240.9257   1.2250469801e+02   1.8561162881e+01    0.1735139    0.1077254  69.55 0.0005226017    1.313    0.239
       384  -9.8707     97.6259    244.2599   1.1518830236e+02   1.2165649813e+01     0.140252    0.1065206 -58.32 0.0008585213    1.662    0.398
       385  -9.7513     60.4588     17.8330   7.5087714331e+01   6.5162938810e+01    0.3683219    0.1275671  33.99  0.001428408    3.278    0.695
       386 -10.1761    246.5840    239.6927   8.7386400649e+01  -1.0337052587e+01    0.2015035   0.09892534 -24.08  0.001138922    2.130    0.530
       387  -9.3660    206.6567    239.7267   9.4380341196e+01  -4.4246560364e+00    0.1376277     0.111245 -35.90 0.0009283164    1.555    0.357
       388 -10.3573    137.9671    239.6863   1.0717585011e+02   6.6770602739e+00    0.1842463    0.1620147  23.86 0.0005500306    1.288    0.223
       389 -11.4270    143.8291    237.7288   1.0582034651e+02   6.0373192842e+00    0.4536865    0.1698916  41.75  0.002058594    2.143    0.533
       390 -10.0363    119.7440    240.6207   1.1071860522e+02   9.4199127933e+00    0.1759288   0.08968239  48.31 0.0006685563    1.583    0.368
       391  -9.8303    168.0369    237.8736   1.0125207590e+02   2.0458249109e+00    0.1845524    0.1478762  52.92 0.0006472161    1.282    0.220
       392 -10.4932    104.4343    237.4988   1.1325694902e+02   1.2304667893e+01    0.3418899     0.236147 -32.09  0.001911379    2.630    0.620
       393 -10.3560    100.9743    236.4977   1.1380361975e+02   1.3000436950e+01    0.1709256    0.1446599  78.86 0.0003672172    1.178    0.151
       394  -9.5775     44.9903    237.1926   1.2401510231e+02   2.0480623533e+01     0.356984   0.09026864  54.04   0.00153843    3.267    0.694
       395 -11.2093      5.0197    237.5179   1.3067113814e+02   2.4754165676e+01    0.2382457    0.1195481  61.05 0.0003588501    1.425    0.298
       396 -10.2406      3.5246    233.4847   1.3074351274e+02   2.5621907891e+01    0.1750979    0.1319786 -55.12  0.001338616    2.115    0.527
       397  -9.4858    220.6761    237.7065   9.1553653788e+01  -6.3323289433e+00    0.1228444   0.07634703  13.62 0.0004147147    1.617    0.382
       398 -11.8244     12.5953    234.7906   1.2933450557e+02   2.4495234575e+01    0.4466008    0.1920025  75.03  0.002229454    1.960    0.490
       399 -11.1474     16.0243    233.0000   1.2868624836e+02   2.4472016092e+01    0.3878423    0.1524078  54.50  0.002322274    1.886    0.470
       400  -9.7977    133.1253    234.6804   1.0748358666e+02   8.2706433757e+00    0.1860929    0.1551217  80.33 0.0005905422    1.341    0.254
       401 -10.0440    230.7403    232.8362   8.8990015882e+01  -7.2604160896e+00    0.1986845    0.1285912  22.54 0.0004062665    1.283    0.221
       402  -9.5813     62.9732    237.4759   1.2086951694e+02   1.8175840982e+01    0.1581677    0.1192457  71.19 -6.592851e-05    1.068    0.064
       403 -10.6901    146.0882    231.8596   1.0462532450e+02   6.6045274448e+00    0.3047054    0.1461388  38.99  0.001085711    1.760    0.432
       404 -11.7138     46.5969    230.0928   1.2325379976e+02   2.1593485998e+01    0.3205212    0.1630891  65.28 0.0006687984    1.681    0.405
       405 -10.2689     73.4108    226.2387   1.1801494482e+02   1.8847119032e+01    0.3344794    0.1550053  59.17  0.001319964    2.008    0.502
       406  -9.3702     14.4850    227.5067   1.2867244551e+02   2.5641951132e+01    0.1084342   0.07546003  72.22 -9.523001e-07    1.001    0.001
       407 -10.4646      2.5188    225.2664   1.3056101626e+02   2.7222490002e+01    0.2676707    0.2004003 -61.74  0.001803842    1.856    0.461
       408 -10.1467    164.7169    225.5281   1.0011950585e+02   4.4825477492e+00    0.2043447    0.1824654  25.61 0.0002197301    1.112    0.101
       409 -11.4426     28.8446    230.8693   1.2641183349e+02   2.3500673519e+01    0.2768218    0.2027965  39.89 0.0006266295    1.587    0.370
       410  -9.3904    206.4070    224.8963   9.2073365383e+01  -2.4266905627e+00    0.1471663    0.1109392 -66.57 0.0008024236    2.471    0.595
       411  -9.5444    108.9481    225.0004   1.1102356046e+02   1.3821889266e+01     0.170493    0.1501955   5.16 0.0005429822    1.616    0.381
       412 -10.0590    125.1304    224.1176   1.0772383924e+02   1.1380156874e+01    0.1820161    0.1578382  33.89 0.0004595864    1.234    0.190
       413  -9.6716     38.8973    223.3242   1.2417112540e+02   2.3786529076e+01    0.1481491    0.1168933  62.30 0.0005592419    1.168    0.144
       414  -9.6108      8.7841    223.6056   1.2944261227e+02   2.6936045936e+01    0.1457095   0.06960624  52.08 0.0005031747    1.631    0.387
       415 -10.1406     88.9263    221.6857   1.1458754864e+02   1.7493117603e+01     0.179712    0.1315624  53.77  0.000540834    1.130    0.115
       416  -9.9042    175.0254    226.7999   9.8312919851e+01   2.5349959175e+00    0.1934598    0.1840171 -16.08 0.0006813123    1.232    0.189
       417  -8.7952    144.3116    221.7045   1.0359058554e+02   8.5916591852e+00    0.1283734   0.09065568  64.35 0.0003256199    1.596    0.373
       418  -9.3471    110.1664    220.8060   1.1029068243e+02   1.4397733878e+01    0.1554298    0.1412308  34.11  0.000414836    1.291    0.225
       419  -9.4099     84.1855    220.7211   1.1541579149e+02   1.8370416553e+01    0.1421423    0.1315056  63.12 0.0009959439    1.255    0.203
       420  -9.5154     54.4572    221.0918   1.2114598330e+02   2.2333448652e+01    0.1614544    0.1004864 -79.39 0.0004457288    1.530    0.346
       421  -9.7147    228.7901    220.0774   8.7182867061e+01  -5.3695403304e+00    0.1692138    0.1487447  17.38  0.000275872    1.214    0.176
       422 -10.5313     14.7116    216.8732   1.2808450355e+02   2.7636471672e+01    0.2957356    0.1081452 -70.63  0.001611159    2.454    0.593
       423 -11.5042     91.6728    216.6508   1.1350723906e+02   1.8046809780e+01    0.6785981    0.2287714  47.63  0.002774207    2.502    0.600
       424  -9.4783     39.0605    217.9880   1.2377396503e+02   2.4799822042e+01    0.1520222     0.125962 -60.47 0.0006326608    1.630    0.386
       425  -9.5033    137.0997    217.1008   1.0439450744e+02   1.0622748698e+01    0.2160422    0.1453012  18.16  0.001084716    2.103    0.525
