#   1 NUMBER                 Running object number                                     
#   2 MAG_AUTO               Kron-like elliptical aperture magnitude                    [mag]
#   3 X_IMAGE                Object position along x                                    [pixel]
#   4 Y_IMAGE                Object position along y                                    [pixel]
#   5 X_WORLD                Barycenter position along world x axis                     [deg]
#   6 Y_WORLD                Barycenter position along world y axis                     [deg]
#   7 A_WORLD                Profile RMS along major axis (world units)                 [deg]
#   8 B_WORLD                Profile RMS along minor axis (world units)                 [deg]
#   9 THETA_WORLD            Position angle (CCW/world-x)                               [deg]
#  10 FWHM_WORLD             FWHM assuming a gaussian core                              [deg]
#  11 ELONGATION             A_IMAGE/B_IMAGE                                           
#  12 ELLIPTICITY            1 - B_IMAGE/A_IMAGE                                       
         1 -10.6516    149.3123     41.8095   5.7081563514e+01   4.2751247380e+01    0.4849242     0.248684 -44.71  0.001314179    2.144    0.533
         2 -11.1027     42.7570     19.5690   8.1015182572e+01   6.7276005783e+01    0.5001755    0.2786479  23.85  0.001794596    1.830    0.454
         3 -11.7749     10.9023      2.5396   8.8827194222e+01   7.3262694370e+01    0.4398055    0.2103979  16.83  0.002558883    2.180    0.541
         4 -10.7519     17.3635      6.1917   8.7078651907e+01   7.2137175809e+01    0.2784985    0.2014928 -34.52  0.001019631    1.357    0.263
         5 -12.3548     41.0812     11.1926   7.7727348397e+01   6.8676299927e+01    0.4727522    0.3751587 -25.93 0.0005225136    1.308    0.236
         6 -11.2775     20.6032     17.6348   9.0825620118e+01   7.0070525436e+01    0.4372649    0.3990735 -22.19  0.002835713    1.395    0.283
         7 -10.4957     26.6956     14.0950   8.6078683591e+01   7.0015515718e+01    0.2198391    0.1666104 -26.53  0.001509173    1.169    0.144
         8 -11.9515     23.2792      8.0617   8.4862939221e+01   7.1267376344e+01    0.5788622     0.371185 -49.53  0.002626115    2.225    0.551
         9 -11.3782     35.6567     14.9813   8.2118201964e+01   6.8852347464e+01    0.2746086    0.1818389  13.02 0.0003586508    1.440    0.306
        10 -11.8604     31.1217     13.0378   8.3363795240e+01   6.9677181773e+01    0.4450629     0.211451 -28.25  0.000345406    1.896    0.473
        11 -12.5438     25.7189      2.9663   8.0924381420e+01   7.1695852916e+01    0.2547641    0.2006219  25.37  0.000485359    1.482    0.325
        12 -11.9048     31.7107      1.9643   7.7350328069e+01   7.1093839322e+01    0.2754778    0.1861782   5.85 0.0006861825    1.274    0.215
        13 -11.3010     60.9941     23.9525   7.5359525802e+01   6.3975069361e+01    0.4794236    0.2597416 -45.44  0.002308477    2.365    0.577
        14 -12.2906    128.8594     22.2365   5.4591209973e+01   5.0216125967e+01    0.5465311    0.2694775 -20.87  0.001120857    2.271    0.560
        15 -11.7369     93.5438     24.3038   6.4329536664e+01   5.7924839774e+01    0.7099801    0.4672467  54.17  0.001562529    1.598    0.374
        16 -11.9716    170.9442     18.6758   4.6034878102e+01   4.0148430840e+01    0.4178044    0.2820351  56.26 0.0002934769    1.385    0.278
        17 -10.6412    165.1554     17.3411   4.6472925123e+01   4.1747921687e+01    0.2862435    0.2442781  -6.44 0.0007559764    1.347    0.258
        18 -10.4069      6.5863      8.3430   9.4178350760e+01   7.2727415014e+01    0.2123963    0.1599032 -43.21  0.001084389    1.419    0.295
        19 -10.8766      9.7688     15.8564   9.5769875183e+01   7.1266039871e+01    0.2670824    0.1509989 -23.27  0.001248115    1.531    0.347
        20 -11.7776      4.0627     18.1864   9.9820177103e+01   7.1252258437e+01    0.3616884    0.2961935 -14.28   0.00242808    1.213    0.176
        21 -10.4238      5.4486     13.5382   9.7147027367e+01   7.1959317930e+01     0.190756    0.1345678 -30.70 0.0005476322    1.039    0.037
        22 -10.8074     61.9762     16.0947   7.1363221466e+01   6.4870397791e+01    0.3941258    0.2215951   1.00  0.001736112    2.282    0.562
        23 -10.5299     81.1883      6.7356   6.0384894405e+01   6.2380854139e+01    0.3609059    0.1854479 -22.49   0.00181666    1.971    0.493
        24  -9.8431     73.4575     10.5416   6.4618774516e+01   6.3485020012e+01     0.301302    0.1965214  23.20  0.001605585    1.440    0.306
        25 -11.3022     74.6967      4.5803   6.1406362012e+01   6.3859509814e+01    0.4252276    0.2802213 -23.05   0.00177675    1.546    0.353
        26 -12.2072     76.2580     15.7430   6.6071998343e+01   6.2373077359e+01    0.8059619    0.3620897  41.43   0.00375724    2.039    0.510
        27 -10.4756     76.6373     10.7772   6.3675302333e+01   6.2857396639e+01    0.2904371    0.1922866  36.14   0.00127131    1.340    0.254
        28 -10.5391    158.0780     13.8645   4.6453748205e+01   4.3883533822e+01    0.4543511     0.195207 -48.65    0.0017791    2.845    0.648
        29  -9.5494     50.2026     11.9358   7.4093267488e+01   6.7270039451e+01    0.2071271    0.1179956  -4.52 0.0008807078    2.007    0.502
        30 -11.2127    118.2586     11.5665   5.2896846943e+01   5.3838316624e+01    0.5257416    0.2200293 -38.64  0.001886022    2.730    0.634
        31 -10.2478     55.0264     11.8319   7.2050211702e+01   6.6535121850e+01    0.4064294    0.1634995 -29.12  0.001188402    2.366    0.577
        32 -10.6255     99.7309     12.5124   5.7683945673e+01   5.7939430283e+01     0.311629    0.2042574  40.48 0.0009008631    1.353    0.261
        33 -11.2693    132.3827     10.7857   4.9764913204e+01   5.0541833531e+01    0.4123361    0.2922392  56.51  0.001025154    1.251    0.201
        34 -12.1915    235.6941      9.7199   3.6748020466e+01   2.5548358034e+01     0.629487    0.1380496  68.44  0.002268816    3.917    0.745
        35 -10.6648    164.8490      7.1418   4.3398751319e+01   4.2833702739e+01    0.4420463    0.1711978 -21.19   0.00176603    2.979    0.664
        36 -10.9884    145.4823      7.7695   4.6447533973e+01   4.7604691344e+01    0.3246199     0.278937 -22.79  0.001081599    1.287    0.223
        37 -11.0412    236.8754      2.4999   3.5049507803e+01   2.6053747040e+01    0.2695305    0.1595955 -35.45  0.001533116    1.627    0.385
        38 -10.9965    241.0320      2.2660   3.4701787815e+01   2.5168185036e+01    0.2364496    0.1634871 -68.49  0.000415997    1.244    0.196
        39 -11.1801    247.4732      8.4870   3.5585292217e+01   2.3114645669e+01     0.259914    0.1544092 -81.05  0.001141321    1.625    0.384
        40  -9.9985     67.1676      7.8263   6.5497411457e+01   6.4932952617e+01    0.1715824    0.1407234  11.30 0.0002967694    1.018    0.017
        41 -10.9159     92.6424      5.6469   5.6636578554e+01   6.0122987720e+01     0.432676    0.2262978  22.96  0.001943176    2.203    0.546
        42 -10.0718    175.3506      5.9677   4.1711082313e+01   4.0320126228e+01    0.1760753    0.1678741 -73.69 0.0004292611    1.097    0.089
        43 -10.3988    228.7927      5.1741   3.6262993814e+01   2.7580591831e+01    0.1585861    0.1394841  64.02 0.0005134761    1.297    0.229
        44 -10.7990    113.0020      2.8251   5.0635357825e+01   5.5838122287e+01    0.2537306    0.2057084 -67.13 0.0005057614    1.583    0.368
        45 -11.1354    241.3123      9.8236   3.6333596313e+01   2.4299180139e+01    0.2139122     0.154908  89.65 0.0005237955    1.278    0.217
        46  -9.4071    223.5972    201.7587   8.2486136985e+01  -1.6722250233e+00    0.1655555    0.1174896 -42.17   0.00058585    1.670    0.401
        47 -10.5936    250.2265    246.7397   8.5582591446e+01  -1.1301066258e+01    0.2153562    0.1409778 -10.05  0.001465793    1.369    0.269
        48 -10.1266     72.6899    249.9249   1.1839908169e+02   1.4150636571e+01    0.1759377    0.1639488 -41.52   0.00135072    1.619    0.382
        49 -12.1400     29.1484    248.5245   1.2577998537e+02   1.9625591182e+01    0.6898309    0.2753012  65.64  0.003850459    2.241    0.554
        50 -10.6196      5.7069    235.3845   1.2899543384e+02   2.4377569474e+01    0.2877311    0.1665448  52.66   0.00168049    1.379    0.275
        51 -13.4276      6.7779    244.5928   1.2921515333e+02   2.2616674296e+01      1.07406    0.7209446  27.83  0.007130483    2.132    0.531
        52 -12.0828     21.9936    248.9132   1.2696965303e+02   2.0321690619e+01    0.3885184    0.2104876  50.68   0.00167423    1.425    0.298
        53 -10.8666     17.4942    247.4792   1.2762826295e+02   2.1040491816e+01    0.1820812    0.1303616  87.33 0.0005532291    1.245    0.197
        54 -10.3288    175.4089    202.6805   9.2086384030e+01   6.4089459007e+00    0.2350314    0.1897982  39.51 0.0005108055    1.159    0.137
        55  -9.6315     34.3821    201.3586   1.2178544934e+02   2.8176495003e+01     0.147841    0.1239423 -56.40 0.0007183082    1.532    0.347
        56  -9.8653    215.6065    194.6523   8.2639705371e+01   7.3627113699e-01    0.2049336    0.1402468   4.27 0.0006540211    1.596    0.374
        57 -10.5818     15.6893    192.9856   1.2489691293e+02   3.1828029767e+01    0.2587506    0.1622168  32.00  0.001041246    1.878    0.468
        58  -9.6201    211.4659    188.4599   8.2234320141e+01   2.4381959476e+00    0.1391291    0.1164449   5.39 0.0008071261    1.078    0.072
        59  -9.3668      1.6045    188.2155   1.2736704217e+02   3.4067979295e+01    0.1508815   0.08191731 -73.40 0.0005562694    1.565    0.361
        60  -9.3990     61.6320    184.8387   1.1444027980e+02   2.8556147396e+01    0.1859448    0.1085885 -83.69 0.0009455514    1.736    0.424
        61  -9.9608    167.1978    183.6121   9.0348736880e+01   1.1383099974e+01    0.2039062    0.1271976  30.94 0.0007021221    1.633    0.387
        62 -11.2640     16.0040    182.7858   1.2412107742e+02   3.3995678779e+01    0.4185497    0.1889163  82.95  0.002115492    2.160    0.537
        63  -9.8603    244.4494    178.4678   7.4202692470e+01  -1.5840189050e+00    0.2315154    0.1101688 -23.90  0.001016524    2.238    0.553
        64 -10.1731    224.0278    178.5319   7.7875935279e+01   1.8500590408e+00    0.2305422    0.1795754 -42.48  0.000366801    1.456    0.313
        65 -10.2495     46.5536    177.7977   1.1705943695e+02   3.1979588686e+01    0.2392396    0.2091074  60.48  0.001454159    1.178    0.151
        66  -9.3365     70.1841    177.6188   1.1161486184e+02   2.9058488868e+01    0.1636928    0.1268999  22.91 0.0004718798    1.635    0.388
        67  -9.8247    200.7545    176.2281   8.1893140577e+01   6.4408795743e+00    0.2029414    0.1567827   3.32  0.001067617    1.368    0.269
        68 -11.0935     18.0526    173.2010   1.2295254454e+02   3.5930499005e+01    0.3504857    0.2061878  71.44   0.00206607    1.548    0.354
        69 -11.9028     36.0694    164.3384   1.1805267906e+02   3.6219287763e+01    0.6629965    0.3681627  85.23  0.003403093    1.834    0.455
        70 -11.3002     39.7929    163.4221   1.1707288116e+02   3.6042017981e+01     0.279895    0.1933848 -59.33  0.001097338    1.424    0.298
        71 -11.5196     36.9226    157.8374   1.1713771621e+02   3.7652129009e+01    0.2624462    0.1883613  85.54 0.0003448958    1.255    0.203
        72  -9.6476     67.1960    165.1700   1.1067073985e+02   3.2345929658e+01    0.1936468    0.1423613  72.10 0.0008695982    1.360    0.265
        73 -11.9673     49.8274    162.2442   1.1452337962e+02   3.5201264957e+01    0.7258974     0.471531  43.99  0.003979996    1.569    0.363
        74  -9.1324    200.3540    162.7181   7.9139501016e+01   8.9349197615e+00    0.1374277    0.1177841  84.61 0.0007016068    1.659    0.397
        75 -10.3669     18.7420    158.6646   1.2154757255e+02   3.9175239499e+01    0.2086286    0.1510312 -81.04  0.000245021    1.112    0.100
        76 -11.9125     21.5127    156.5159   1.2069500964e+02   3.9431089962e+01    0.4900537    0.3520486  62.37  0.002023322    1.346    0.257
        77 -10.3287     11.6736    153.5505   1.2273930708e+02   4.0936231359e+01     0.244313    0.1854997  -8.08  0.001565377    2.020    0.505
        78 -10.2273    177.9845    151.4063   8.1331203407e+01   1.5585633874e+01      0.27373    0.2584974 -83.34  0.001142332    1.231    0.188
        79 -10.3242     18.0663    146.8087   1.2056821980e+02   4.1990470898e+01     0.266518    0.1897719 -23.19  0.000958559    2.089    0.521
        80 -11.3890     11.9757    145.9545   1.2197611049e+02   4.2672267767e+01    0.3358941    0.2348439  69.32   0.00130487    1.367    0.269
        81 -10.0177     41.5753    146.1989   1.1455768754e+02   3.9937012849e+01     0.199653    0.1579275  57.74 0.0003626027    1.300    0.231
        82  -9.7363    220.3850    144.1634   7.1156558063e+01   8.3375785757e+00    0.2013401    0.1259628 -44.42 0.0007802211    1.633    0.388
        83 -10.5234      2.7746    143.5188   1.2398458183e+02   4.3896897885e+01    0.2340636    0.1312021 -75.92  0.001381935    1.375    0.273
        84 -10.4565     49.2564    141.9594   1.1195752394e+02   4.0121038276e+01    0.2017601    0.1976719   7.72 0.0001929934    1.257    0.205
        85 -10.2970     19.6773    140.1027   1.1945920356e+02   4.3438583303e+01    0.2458963   0.09830309 -80.41  0.001071795    2.359    0.576
        86 -10.1937    207.1341    146.2118   7.4132652572e+01   1.0608463161e+01    0.2229849    0.1922808   6.11  0.000763898    1.164    0.141
        87 -11.0441      9.0818    137.7217   1.2190216665e+02   4.4806647100e+01     0.372851    0.1332361 -72.75 0.0009802234    2.156    0.536
        88  -9.7581     56.5176    139.1743   1.0958207663e+02   3.9947294629e+01    0.2483895    0.1591822  51.52  0.001271693    1.678    0.404
        89 -10.6115      3.1209    136.0351   1.2323915359e+02   4.5604394442e+01    0.3277101    0.1548894 -52.79  0.001746806    2.057    0.514
        90 -10.3658     21.4706    135.9323   1.1852491154e+02   4.4281429318e+01    0.2349385    0.1818147  67.78   0.00149933    1.307    0.235
        91  -9.2630    122.7066    135.3438   9.0902664488e+01   3.0353724257e+01    0.1561174    0.1208563  88.23 0.0004262611    1.661    0.398
        92 -10.0589    249.7278    134.0213   6.3863562233e+01   4.4816815354e+00     0.195253    0.1588135 -26.16 0.0005152406    1.059    0.055
        93 -10.2125    107.2360    133.2832   9.4553885672e+01   3.3726471661e+01    0.2565949    0.2308252 -15.77  0.001356459    1.267    0.210
        94 -10.2320     79.9275    133.0433   1.0203317353e+02   3.8283880367e+01    0.2156153    0.1993485 -60.66 0.0004633656    1.053    0.051
        95  -9.9575     55.4079    132.9254   1.0887732550e+02   4.1604604549e+01    0.3065877    0.1609817  42.54   0.00123531    2.041    0.510
        96 -11.0220     37.7410    130.5694   1.1343316051e+02   4.4103060648e+01    0.2815447    0.2599211 -86.35 0.0006760762    1.117    0.105
        97 -11.1017     38.3355    127.0543   1.1274697116e+02   4.4896926442e+01     0.209404     0.198475 -56.29 0.0003347989    1.182    0.154
        98 -10.9624     73.9446    129.3642   1.0300537875e+02   4.0051291024e+01    0.3213151    0.2379346  61.04  0.001652288    1.518    0.341
        99  -9.5461    113.6713    129.6985   9.2011147758e+01   3.3389879592e+01    0.1531342    0.1209555 -11.83 0.0003137008    1.645    0.392
       100 -10.4515     13.6455    126.2715   1.1948905611e+02   4.7178616851e+01    0.2313476    0.1705558  39.29 0.0008266697    1.584    0.369
       101 -11.4425     10.5613    122.8542   1.1993436055e+02   4.8201517464e+01    0.4164115    0.2116344  47.99  0.002218564    2.231    0.552
       102 -11.0323      2.2729    124.3001   1.2232724920e+02   4.8389560362e+01    0.3770643    0.1410701 -66.40  0.001487768    1.952    0.488
       103 -10.1001    219.9831    124.4957   6.6654774239e+01   1.1896695034e+01    0.2052945    0.1459453  47.17 0.0004792216    1.516    0.341
       104 -10.8484     21.8428    121.2648   1.1659156136e+02   4.7755686478e+01    0.2637518    0.2050755  24.72  0.001179274    1.595    0.373
       105  -9.6797     33.2908    121.2971   1.1331811209e+02   4.6772196866e+01    0.1700259    0.1327404  84.23 0.0007447702    1.291    0.226
       106  -9.7439     25.4992    108.5389   1.1365423515e+02   5.0512379310e+01    0.2306439    0.1100764 -79.77   0.00102838    2.232    0.552
       107 -11.1552     22.4796    107.4185   1.1440232816e+02   5.1016516286e+01     0.469581    0.1240404 -65.33  0.001793332    2.812    0.644
       108  -9.6556     15.7293    119.6558   1.1811053303e+02   4.8599971666e+01    0.1484768    0.1180193 -35.21 0.0001911876    1.477    0.323
       109 -11.4593     17.7136    114.5640   1.1687022835e+02   4.9668598982e+01    0.3856024    0.2711122 -55.13  0.001651723    1.267    0.211
       110  -9.9198     11.5680    112.5062   1.1838605561e+02   5.0580957463e+01    0.2186901    0.1495368 -74.42 0.0005002579    1.169    0.145
       111 -12.7795     14.9020    109.0303   1.1693435755e+02   5.1181035931e+01    0.6481144    0.4711058 -74.84  0.004082769    1.132    0.117
       112  -9.8204    219.9373    116.8387   6.4824754527e+01   1.3261783980e+01    0.2518722    0.2082514  55.55  0.001334253    1.354    0.261
       113  -9.4693    214.1538    115.6036   6.5548693942e+01   1.4717127524e+01    0.2011887    0.1366403  36.59 0.0006569211    1.639    0.390
       114  -9.4153     71.6785    115.7052   1.0088298500e+02   4.3693637049e+01    0.1436242    0.1055107 -28.57 0.0004519015    1.615    0.381
       115  -9.7269     35.0563    114.0865   1.1165487158e+02   4.8352075580e+01    0.2068462    0.1435757  77.02 0.0008683237    1.667    0.400
       116 -10.8771    249.0502    112.4737   5.9107065882e+01   8.0985020504e+00    0.2638242    0.1690482 -45.92 0.0006809452    1.498    0.333
       117  -9.8078      2.9830    112.6820   1.2087687541e+02   5.1063268012e+01    0.1894671    0.1274365 -73.15 0.0004144639    1.140    0.123
       118 -11.9791      2.8493    106.3362   1.2016063532e+02   5.2552877113e+01     0.336095    0.2682688 -76.83 0.0007823146    1.063    0.059
       119  -9.5112     94.6966    112.3323   9.3239622065e+01   4.0902230000e+01    0.1509435    0.1174271  86.62 0.0004199554    1.657    0.397
       120 -12.8512     55.3024    110.4183   1.0478171135e+02   4.7100816254e+01    0.3087491    0.2750034 -59.51 0.0005037625    1.023    0.023
       121 -11.6412     36.2126    109.1477   1.1045977876e+02   4.9435042004e+01    0.4166091    0.2606129  78.69  0.001453204    2.090    0.521
       122  -9.4494    103.8357    108.0844   8.9496095064e+01   4.0265910058e+01    0.2051136    0.1724358 -23.65 0.0003293224    1.290    0.225
       123  -9.6480     91.5011    107.9925   9.3115745789e+01   4.2467929205e+01    0.2246431    0.1389827 -51.15 0.0003818418    1.506    0.336
       124 -10.1023     62.0400    106.9166   1.0193974829e+02   4.7111167815e+01    0.2319752     0.154934 -30.78  0.001126068    1.760    0.432
       125 -10.6148    243.9392    104.5105   5.8022692672e+01   1.0397914731e+01    0.2214852    0.1840119 -13.65 0.0007115832    1.254    0.203
       126 -10.9080    247.1558    102.1530   5.7006594320e+01   1.0137609875e+01    0.2516364    0.2128118  68.94  0.001011073    1.409    0.290
       127  -9.6103    223.3003    103.9475   6.1109877527e+01   1.4792392900e+01    0.2095563    0.1703909 -34.48 0.0004567145    1.126    0.112
       128 -10.6451     36.2409    102.3606   1.0921626710e+02   5.1059942521e+01    0.3252511    0.2317356  -3.47  0.001760357    1.845    0.458
       129 -11.0569    157.7046     82.3365   6.7965913105e+01   3.4024817231e+01     1.001317    0.4271039  35.38  0.002963625    3.725    0.732
       130 -12.0545    158.7407     89.7305   6.9889612155e+01   3.2371734329e+01    0.5267412    0.3720231 -23.98  0.002327616    1.584    0.369
       131 -11.3297    162.4626     92.1700   6.9744008879e+01   3.1016645500e+01    0.3487689    0.2742039 -29.59 0.0003405108    1.296    0.229
       132 -12.7291    164.8781     86.1338   6.7477510241e+01   3.1589965535e+01     1.724336    0.7978516 -28.64  0.005910828    2.640    0.621
       133  -9.4332     79.3278    101.6444   9.5259546749e+01   4.5924065937e+01    0.1490394    0.1135182  84.38 0.0007045484    1.777    0.437
       134 -11.8342      3.0550     99.5131   1.1922722423e+02   5.4130429219e+01    0.4273784    0.2307056  85.21 0.0005280401    2.064    0.516
       135 -10.2254    145.5154    100.5017   7.6121152352e+01   3.3281619180e+01    0.2607047    0.2174713  32.08 0.0008879127    1.262    0.208
       136 -10.9364    143.7990     97.6087   7.5731829853e+01   3.4269768532e+01    0.4836319    0.2199415  50.04  0.001731506    2.298    0.565
       137  -9.8285     91.4605    100.5055   9.1202949442e+01   4.4216544631e+01    0.1492666    0.1385186 -42.75 3.850014e-05    1.003    0.003
       138 -10.9776     62.1280     98.9253   1.0009495374e+02   4.9003740838e+01     0.334852     0.294309  26.48  0.001040069    1.281    0.219
       139  -9.0936     21.2961     91.3563   1.1207578934e+02   5.4898117795e+01    0.1367815   0.07422698 -43.81 0.0004357643    1.697    0.411
       140 -10.7557     16.7313     98.0332   1.1471668376e+02   5.3653605944e+01    0.2481823    0.2131046 -46.53   0.00168573    1.186    0.157
       141 -10.6072     20.5243     95.7353   1.1310768917e+02   5.3928184515e+01    0.3374165    0.1525169 -67.49  0.001626561    1.817    0.450
       142  -9.3638     10.3081     99.2902   1.1694449913e+02   5.3771304444e+01    0.1253408   0.07345334 -46.46 0.0003698738    1.578    0.366
       143 -10.2782     39.7714     97.0715   1.0702798555e+02   5.1981518485e+01    0.2672042    0.1892915  80.89   0.00141836    1.811    0.448
       144  -9.9302    250.0471     95.7235   5.5113297707e+01   1.0589454522e+01    0.1849598    0.1708085 -42.26 0.0006154705    1.071    0.066
       145 -10.4783     66.6582     97.5230   9.8284938181e+01   4.8731331302e+01    0.3539627    0.1811634 -51.74  0.001207326    1.710    0.415
       146  -9.4333     77.4809     95.0212   9.4144971358e+01   4.7747607406e+01    0.2232244    0.1325505 -51.86 0.0004987096    1.539    0.350
       147  -9.3552    109.2892     94.3683   8.4161997138e+01   4.2318007643e+01    0.1594819    0.1179662 -13.80  0.000702358    1.709    0.415
       148 -10.2178     31.6564     93.0701   1.0892331310e+02   5.3673012665e+01    0.1867104    0.1668737 -79.87 0.0003448355    1.175    0.149
       149 -11.5009     11.1877     90.9858   1.1537811817e+02   5.5653885639e+01    0.3827658    0.2578762  44.66  0.001303331    1.833    0.455
       150 -10.2927    103.9993     91.9977   8.5043502410e+01   4.3861127085e+01    0.2264122    0.2080572 -24.45            0    1.062    0.059
       151 -10.2182     47.3163     91.6945   1.0333233742e+02   5.2469529533e+01    0.2754705    0.1365036 -41.68  0.001239112    1.964    0.491
       152 -10.5940     25.7997     91.2209   1.1053486319e+02   5.4589510289e+01    0.2589505    0.2329109 -60.18  0.001014263    1.105    0.095
       153 -10.8196     23.0554     86.6755   1.1059209337e+02   5.5857239637e+01    0.2975242    0.1810271 -43.04 0.0008158808    1.491    0.329
       154  -9.8378      1.9543     91.4734   1.1846577631e+02   5.6046111448e+01    0.2653759    0.1280122  89.24  0.001264527    2.456    0.593
       155 -10.0216    109.3399     91.3161   8.3264175012e+01   4.2972361143e+01    0.1583011     0.119483  -4.87 0.0007048317    1.705    0.413
       156  -9.9041     92.0237     91.7541   8.8635217538e+01   4.6105344153e+01    0.1848984    0.1276361  38.04 0.0003845447    1.542    0.351
       157  -9.7331     36.8010     91.2872   1.0681748315e+02   5.3628150044e+01    0.2519023    0.1543975  46.63    0.0013033    2.034    0.508
       158 -10.2009     97.4386     88.9361   8.6146065636e+01   4.5758662274e+01    0.3454383     0.183543 -32.60  0.001338525    2.213    0.548
       159  -9.1331     82.9864     88.9701   9.0720133026e+01   4.8254387720e+01     0.181484    0.1536009 -43.76  0.000721629    1.086    0.079
       160 -10.5604    112.5006     86.3952   8.0881301182e+01   4.3387915978e+01    0.3652456     0.205562 -51.43  0.001144874    1.899    0.473
       161 -11.0849     67.1869     84.8900   9.4829783473e+01   5.1566297350e+01    0.3667787    0.2326482 -29.86   0.00122382    1.747    0.428
       162 -10.9861      4.4205     84.9199   1.1666083305e+02   5.7425928768e+01    0.3044437    0.2027393 -45.60  0.001363908    1.348    0.258
       163  -9.9180     88.0597     83.5356   8.7508469590e+01   4.8603415099e+01     0.218856    0.1961972 -73.49 0.0003802193    1.303    0.232
       164 -11.0171     43.3748     82.8567   1.0260880118e+02   5.4931984859e+01    0.4244486    0.2192872  40.83  0.002012593    2.345    0.574
       165  -9.6918    119.4846    101.9967   8.3403162538e+01   3.8594918056e+01    0.2445104    0.1486894 -42.84  0.001027752    1.594    0.373
       166 -10.3107    132.8799     83.0435   7.4233002307e+01   3.9690911494e+01    0.2606924    0.2310085  79.70 0.0007411274    1.319    0.242
       167  -9.4417    117.6162     83.2021   7.8441402843e+01   4.2990988812e+01    0.2273079    0.1404375 -31.29 0.0009509823    1.729    0.422
       168 -10.4796     74.5456     82.7307   9.1727246201e+01   5.0972592760e+01    0.2679587    0.2001262 -37.45  0.001397792    1.241    0.194
       169  -9.8092     15.7934     58.7991   1.0712160807e+02   6.2586297661e+01    0.2527809     0.196543  62.82  0.001264851    1.840    0.457
       170 -10.7902      3.1341     78.8460   1.1610636387e+02   5.8870328603e+01    0.3190078    0.2391182 -59.88  0.001657516    1.017    0.017
       171 -12.5578     16.3920     67.9287   1.0907175619e+02   6.0564709784e+01    0.3587781    0.2145641 -50.75 0.0003633065    1.290    0.225
       172 -11.5460     21.7473     66.6230   1.0668918297e+02   6.0480841674e+01    0.5724034    0.3563563  88.26  0.001925695    2.623    0.619
       173 -11.6214     12.8580     79.0890   1.1270774144e+02   5.8286263266e+01    0.7006565    0.1965802 -63.79  0.002435432    2.619    0.618
       174 -12.0795      8.1353     74.0128   1.1344515942e+02   5.9702531187e+01    0.6192662    0.2857267  24.03  0.003288957    2.613    0.617
       175  -8.8016     62.2928     82.3175   9.5806609141e+01   5.2813399067e+01    0.1436433    0.0974478 -27.42 0.0004802313    1.602    0.376
       176 -11.1288     31.2929     81.2828   1.0655506641e+02   5.6438221792e+01    0.4169969    0.1982284 -37.06  0.001430614    2.197    0.545
       177  -9.1529    146.3391     81.6527   7.0422074661e+01   3.6857529950e+01    0.1633417    0.1241393 -76.13  0.000704689    1.786    0.440
       178 -10.3569     21.6927     81.0232   1.0993635636e+02   5.7257999963e+01     0.449177    0.1914908 -37.08   0.00184684    2.516    0.602
       179 -10.6002     18.6613     79.6504   1.1074095261e+02   5.7784669625e+01    0.2716708    0.1544105 -47.28 0.0008595647    1.454    0.312
       180 -10.5188     21.0740     76.9858   1.0931228626e+02   5.8220796417e+01    0.2313481     0.165563  39.42 0.0006234531    1.743    0.426
       181  -9.4176    150.1513     79.1590   6.8758457198e+01   3.6425384551e+01    0.2019421    0.1808175 -71.89 0.0003303043    1.248    0.198
       182  -9.9151    111.9801     79.2843   7.8844441245e+01   4.4962248567e+01    0.2060452    0.1988216 -16.84 0.0005687356    1.028    0.027
       183 -10.5491     54.0545     74.0659   9.6429103211e+01   5.5694880812e+01    0.2958295    0.2428987 -61.83 0.0009765595    1.288    0.224
       184 -11.6250     58.4352     74.7563   9.5038326577e+01   5.4992736667e+01    0.5902525    0.3997683 -77.05  0.001891476    2.239    0.553
       185 -11.5808     62.0663     71.7554   9.2838664877e+01   5.5159389201e+01    0.4296921    0.3350842 -59.59  0.001740327    1.380    0.276
       186 -10.8502     90.2518     75.2439   8.4251544885e+01   4.9977479914e+01    0.4889408    0.3472524 -55.12  0.001475434    1.545    0.353
       187 -10.2758     93.7293     73.9552   8.2721818170e+01   4.9611192562e+01    0.2239902    0.1886859 -14.50  0.001184263    1.204    0.169
       188 -12.2250     45.0626     75.3580   1.0008323452e+02   5.6444366834e+01    0.3177476    0.2670556  53.88 0.0004564693    1.513    0.339
       189  -9.0250    121.9807     76.0000   7.4966372153e+01   4.3492195644e+01    0.2477376   0.08702305  47.31 0.0007958856    2.897    0.655
       190 -10.0201     75.0537     75.1674   8.9302780552e+01   5.2535901607e+01    0.2289132    0.1825368 -17.08 0.0009921739    1.304    0.233
       191 -12.5238    150.2339     72.0149   6.6553117064e+01   3.7710412204e+01    0.3594542    0.3092346 -39.90 0.0004550793    1.162    0.139
       192  -9.9515    145.5110     73.5020   6.8122910448e+01   3.8573434403e+01    0.2620109     0.210652 -23.05  0.001033408    1.305    0.234
       193  -9.3384    137.7772     74.5743   7.0352001157e+01   4.0196413434e+01    0.2113046    0.1502233  63.18 0.0009377508    1.625    0.384
       194 -11.4257    101.9847     72.4651   7.9653178240e+01   4.8340196602e+01    0.4323608    0.3177781  69.77  0.001631638    1.992    0.498
       195  -9.8898    128.9317     71.7210   7.1720737879e+01   4.2759805256e+01     0.208419    0.1904108  40.01 0.0003130696    1.098    0.090
       196 -10.9068     77.6181     71.4187   8.7248306577e+01   5.2917924877e+01    0.3621913    0.2669743  38.96   0.00189304    1.479    0.324
       197 -10.7354     77.2147     64.2316   8.5032441086e+01   5.4443011504e+01    0.4465517    0.2677858 -39.60  0.002133692    1.536    0.349
       198  -8.9004    187.3029     75.7332   5.9997311919e+01   2.7999395943e+01    0.1495196    0.1158601 -72.82 0.0001511475    1.526    0.345
       199 -11.5888    167.5784     70.0205   6.2175286962e+01   3.3820947928e+01    0.2627928    0.2276522  58.53 0.0003069184    1.164    0.141
       200 -11.3765     50.1993     68.4119   9.6216470898e+01   5.7382451399e+01    0.3694223    0.2564332  -0.32   0.00146531    1.724    0.420
       201 -11.1112     51.0837     63.4203   9.4364103326e+01   5.8332084766e+01    0.3788591    0.2480164 -53.67  0.001022497    1.468    0.319
       202 -11.5396     46.1658     57.1266   9.4282860839e+01   6.0207912422e+01    0.3986989    0.2494031  33.97 0.0009138551    1.829    0.453
       203  -9.9559    144.4801     69.5139   6.7119990786e+01   3.9536383493e+01    0.1530231    0.1478727  10.30 2.968657e-05    1.027    0.027
       204 -10.0893     68.5768     68.1489   8.9373632717e+01   5.4994025165e+01    0.3841649    0.1197484 -46.19  0.001351038    2.849    0.649
       205 -10.6180     36.9258     68.0289   1.0116636276e+02   5.8887136921e+01    0.3500129    0.2174097 -37.86  0.001525008    1.435    0.303
       206  -9.9571    180.3835     67.8153   5.9030516946e+01   3.1024922446e+01    0.2101395    0.1857563 -25.88  0.001095754    1.165    0.142
       207 -11.0892     94.3425     66.0286   7.9911347962e+01   5.1071476349e+01    0.4705282    0.2564407 -35.91  0.001203615    1.794    0.442
       208  -9.3737     43.0000     67.9586   9.8816684057e+01   5.8286688750e+01    0.2227982   0.06522104 -54.87 0.0002790448    2.936    0.659
       209 -10.2799     31.2925     67.3797   1.0316874691e+02   5.9547429953e+01    0.3200546    0.1926547 -59.12  0.001735885    1.474    0.321
       210 -11.9279      3.6822     65.0310   1.1335195456e+02   6.1919322833e+01    0.4626214     0.347826  77.65  0.002147913    1.710    0.415
       211 -11.7236      5.3023     58.9717   1.1142477717e+02   6.3154416637e+01    0.2700081     0.216565 -70.79 0.0003424565    1.265    0.209
       212 -11.6364    155.2718     60.7586   6.1922568376e+01   3.8406479423e+01    0.5134523    0.3396821  18.22  0.002118724    2.183    0.542
       213  -9.6027    109.7551     63.7073   7.4394607876e+01   4.8434093359e+01    0.2351293    0.1142161 -48.13 0.0008870855    2.349    0.574
       214 -10.9181     84.1711     61.6433   8.1757529106e+01   5.3768187527e+01    0.4049255    0.2813808  40.20    0.0020525    1.524    0.344
       215 -10.4673     86.3907     58.3725   7.9864301050e+01   5.3990614126e+01    0.3494458    0.2800153 -73.25  0.001775064    1.856    0.461
       216 -11.9578     11.2150     62.5406   1.0986645328e+02   6.2063276113e+01    0.2181785    0.1723672 -48.35 0.0002856761    1.034    0.033
       217 -10.0689    201.3636     61.5404   5.3695773848e+01   2.6871928625e+01    0.2545758    0.1773939 -28.38 0.0005142174    1.484    0.326
       218  -9.6501    121.3299     62.3166   7.0654728193e+01   4.6176354394e+01    0.1569263    0.1149943  11.90 0.0003445299    1.682    0.405
       219 -10.3123     69.2311     60.9359   8.6757887292e+01   5.6356831491e+01    0.3154108     0.142936 -36.85  0.001249683    2.155    0.536
       220 -10.4393     32.7429     44.1204   9.5510997416e+01   6.4211364707e+01    0.4021285    0.2185434  -1.74  0.001884562    2.502    0.600
       221 -11.1014     29.8380     60.8696   1.0197460074e+02   6.1076661623e+01    0.5879138    0.2747448   8.57  0.002440263    3.050    0.672
       222 -12.9772     37.5106     50.3215   9.5581353248e+01   6.2519184105e+01    0.7858064     0.563828 -22.51  0.003274484    1.299    0.230
       223 -10.8555     26.7356     49.5473   9.9910252017e+01   6.3690464339e+01    0.4413625    0.2150156 -61.18  0.002126921    2.213    0.548
       224  -9.1725    102.8734     60.3753   7.5300508197e+01   5.0460865776e+01    0.2000693    0.1312292  31.91 0.0004317576    1.617    0.382
       225 -10.5895     63.8060     59.9989   8.8434735427e+01   5.7345487472e+01    0.2246992    0.1921191  11.79 0.0005926793    1.202    0.168
       226 -11.1056     58.3930     58.7608   9.0055783028e+01   5.8347303307e+01    0.2669732    0.2633936  48.46  0.001719225    1.291    0.225
       227 -10.6515    147.0681     56.8988   6.2489223656e+01   4.1044570559e+01    0.2362164    0.2133653 -32.63  0.000286813    1.122    0.109
       228 -11.7931     75.3781     56.1293   8.2869287574e+01   5.6310408268e+01    0.2450269    0.2172522 -27.62 0.0002988974    1.082    0.076
       229 -11.2717     70.6429     50.9382   8.2694964060e+01   5.8039104586e+01    0.4897053    0.3571616  65.00  0.002404164    2.330    0.571
       230 -11.9487    129.6793     49.0617   6.3944641638e+01   4.6451582314e+01    0.6916329    0.4118907  -5.51  0.002222925    2.601    0.616
       231 -10.4571     99.0946     55.8579   7.4865128719e+01   5.2028572896e+01    0.3180718    0.1855274  35.59  0.001078757    1.785    0.440
       232 -10.1972     61.7685     54.0080   8.7127684084e+01   5.8807889451e+01    0.3891924    0.1462193 -43.87  0.001563344    2.385    0.581
       233  -9.4076    183.8622     60.3498   5.6255222350e+01   3.1360210139e+01    0.2148519    0.1294874  49.82 0.0009373624    1.687    0.407
       234  -9.0194    213.5067     54.4837   5.0044469124e+01   2.5011726294e+01    0.1414845    0.1305457 -62.39 5.734824e-05    1.002    0.002
       235  -9.7273    120.0250     52.9785   6.7791012168e+01   4.8055371520e+01    0.2310036    0.1687475  18.29 0.0003421495    1.585    0.369
       236 -10.7308     87.4897     52.2572   7.7287176871e+01   5.4896523987e+01    0.3458976    0.2559936 -16.74  0.001799052    1.377    0.274
       237 -10.8930      5.7973     51.9499   1.0957031380e+02   6.4619855392e+01     0.323211    0.1993924 -40.78  0.001701215    1.306    0.234
       238  -9.9972      3.8495     47.2609   1.0922837453e+02   6.5692524251e+01     0.210539    0.1278442 -27.12 0.0009240118    1.570    0.363
       239 -10.8851     12.2800     51.3406   1.0664894531e+02   6.4381102401e+01    0.2617078    0.2172882 -60.48 0.0005881726    1.233    0.189
       240 -11.1244     12.3116     44.1474   1.0461056688e+02   6.5850305982e+01    0.4292147    0.2540229 -37.52  0.002611203    1.363    0.266
       241 -10.7441    103.8692     48.8719   7.0873672097e+01   5.2237397681e+01    0.4929307    0.2064027 -33.74  0.001897973    2.396    0.583
       242  -9.2022     99.6588     51.7277   7.3195513239e+01   5.2628769851e+01    0.1477644    0.1062221  12.66 0.0003979071    1.611    0.379
       243  -9.6817     17.0619     51.5419   1.0465685394e+02   6.4027818651e+01    0.1522715    0.1156137   7.93 0.0003667009    1.500    0.333
       244 -10.8024     78.2253     47.3628   7.8625857866e+01   5.7411651989e+01    0.5022248    0.2242597 -34.99  0.001743009    2.168    0.539
       245  -9.9344     53.2431     50.0530   8.9040427308e+01   6.0730634119e+01    0.2181267    0.1820573  12.48  0.000813012    1.232    0.188
       246 -11.8227    232.7796    245.0580   8.8298382279e+01  -8.7789160787e+00    0.5925687    0.1789131 -29.01   0.00242125    4.194    0.762
       247 -10.3399    156.3450     46.7662   5.7271727991e+01   4.0296245593e+01    0.3586052    0.2558557 -26.19  0.001037032    1.480    0.324
       248 -11.6195     91.6570     43.8947   7.2772808131e+01   5.5510331163e+01    0.8750393    0.3577629 -49.05  0.002937483    3.824    0.738
       249  -9.6306    166.9296     48.7480   5.5861401683e+01   3.7354397050e+01    0.2781529    0.1342116  60.62 0.0007140313    2.041    0.510
       250 -10.7628    113.2419     45.7905   6.7059525513e+01   5.0709920694e+01    0.3820986     0.302807 -39.08  0.001724826    1.328    0.247
       251 -10.1394    109.4665     46.5377   6.8388441228e+01   5.1419586955e+01    0.2704987    0.1936641  43.52 0.0008686373    1.359    0.264
       252 -10.7123    119.9536     47.0239   6.5700557903e+01   4.9015314976e+01    0.2133813    0.1980387  18.57  0.000330455    1.016    0.016
       253 -10.4791    142.9728     45.7686   5.9734347793e+01   4.3750939487e+01     0.307964    0.2419697 -87.75  0.000976289    1.594    0.373
       254  -9.6143     85.8932     45.4087   7.5244685397e+01   5.6362831696e+01    0.2260807    0.1567669 -26.66 0.0007024755    1.388    0.280
       255 -10.1397    130.0966     55.2796   6.5974409170e+01   4.5367751083e+01    0.3039743    0.2064817 -31.07 0.0006558602    1.492    0.330
       256 -10.1085     51.1024     44.9732   8.8045152422e+01   6.1960504068e+01    0.2247835    0.1602904 -28.20 0.0003864699    1.222    0.182
       257 -11.6862     51.4419     40.2544   8.6102267652e+01   6.2767470947e+01    0.4156079    0.2130595  36.71 0.0002952583    2.147    0.534
       258 -10.4177    221.6154     43.2663   4.6140744446e+01   2.4678221421e+01    0.2338354    0.1693216 -23.09 0.0009540441    1.544    0.352
       259  -9.9905    174.7171     44.2816   5.3126509375e+01   3.6030247736e+01    0.2576123    0.1765189  67.26  0.001235509    1.456    0.313
       260  -9.4783     62.2919     40.6920   8.1927638402e+01   6.1147970829e+01    0.1834578    0.1358389 -10.37 0.0003410839    1.306    0.234
       261 -10.4404     65.4842     41.5257   8.1029157702e+01   6.0514719940e+01    0.2682908    0.2019594   6.12 0.0007320864    1.334    0.251
       262 -11.1201     71.0224     41.2397   7.8840587117e+01   5.9671978105e+01     0.348332    0.2853721 -65.38 0.0002756274    1.849    0.459
       263 -11.8319     69.1883     38.0499   7.8240735346e+01   6.0499115781e+01    0.4537461      0.26469 -14.71   0.00139242    2.091    0.522
       264 -12.3302     27.7001     38.0301   9.5600084042e+01   6.5847941479e+01    0.4602662    0.2891971 -33.53  0.001264096    1.305    0.234
       265 -11.3681     24.5054     35.4314   9.6125767655e+01   6.6620298506e+01    0.2602591    0.1888666  -0.88 0.0006577102    1.389    0.280
       266 -10.3256      7.0343     41.4282   1.0620869391e+02   6.6709856073e+01    0.2487889    0.1079688 -49.45 0.0005796281    1.652    0.395
       267  -9.2087    163.2271     42.0387   5.4467346697e+01   3.9236687348e+01    0.1813878    0.1215568 -28.76 0.0004462384    1.561    0.359
       268 -10.3086    109.5405     41.1829   6.6380042451e+01   5.2219597689e+01    0.3275513    0.2223981  81.60  0.001390863    2.602    0.616
       269 -10.4076    105.2355     34.5684   6.5065443165e+01   5.4102553427e+01    0.2745201    0.2259634 -70.42 0.0005882692    1.706    0.414
       270 -10.6803     96.3313     39.8688   6.9746586855e+01   5.5205531438e+01     0.731554    0.1970768 -40.10  0.002319448    3.908    0.744
       271 -11.3202    100.7818     37.6003   6.7524818587e+01   5.4622027041e+01    0.4587325    0.2988802  12.29 0.0005952979    1.909    0.476
       272 -10.7513     98.2759     31.5694   6.5888450996e+01   5.5994763980e+01    0.3252653    0.2358418  29.15  0.001117023    1.331    0.249
       273 -11.4257    101.4141     29.0234   6.3965080740e+01   5.5668515626e+01    0.3718662    0.3048617 -44.69  0.001240431    1.443    0.307
       274 -10.4919     40.4407     41.0030   9.1037592079e+01   6.3986748105e+01    0.5420358     0.265836  38.25  0.002663132    2.484    0.597
       275 -10.5452     42.1993     36.7866   8.8656356431e+01   6.4544687176e+01    0.3057881    0.2590303  71.34  0.001839857    2.082    0.520
       276  -9.5198     38.3587     34.7304   8.9533834595e+01   6.5353516266e+01    0.1912394    0.1117716 -44.02 0.0004961916    1.551    0.355
       277 -10.3357    120.2536     40.1422   6.3138271692e+01   4.9967031437e+01    0.2685755    0.1931474  87.86  0.001066309    2.137    0.532
       278 -10.4982    188.0860     39.3095   4.9554524992e+01   3.3348851072e+01    0.1971258    0.1693229  80.69 0.0003284754    1.133    0.117
       279 -11.4299     81.4407     35.6098   7.2872442610e+01   5.8740540309e+01    0.5144789    0.3396403 -10.94  0.002605294    1.654    0.395
       280 -10.9947     77.7361     33.2178   7.3166312747e+01   5.9775785590e+01     0.626008    0.3416086  -1.66  0.002412591    3.204    0.688
       281  -9.0210    123.6869     38.6731   6.1744892855e+01   4.9379358696e+01    0.1519849    0.1052812  21.54 0.0007042441    1.667    0.400
       282 -11.2674     57.3663     34.3460   8.1300810993e+01   6.2943039702e+01    0.3237754    0.2866423 -53.83  0.002029971    1.552    0.356
       283 -11.4823     37.6446    244.0125   1.2409939931e+02   1.9485284781e+01    0.4539219    0.2528726 -86.08  0.002989142    1.675    0.403
       284 -10.6702     35.5060    239.5051   1.2419496327e+02   2.0543061388e+01     0.246507    0.1946886 -59.50  0.001837985    1.735    0.424
       285 -10.2883    147.5094    245.5185   1.0406243207e+02   3.9874561169e+00    0.1223604   0.09928283  38.25 5.621096e-05    1.020    0.019
       286 -11.7287      9.5862     33.6394   1.0258991452e+02   6.8081881743e+01    0.5228602    0.3147307  25.94  0.002634983    2.007    0.502
       287 -10.8020     17.4343     31.0454   9.7876388525e+01   6.8016422587e+01    0.3608646    0.2123222  16.75    0.0021871    1.866    0.464
       288 -11.2906     74.2968    233.3275   1.1671113579e+02   1.6912647412e+01    0.2282113    0.1705324  61.54  0.000698687    1.078    0.072
       289 -10.5065     22.3908     25.7075   9.3377199929e+01   6.8553579812e+01    0.3782173    0.2274404 -36.10  0.001450389    1.318    0.241
       290 -11.7629     74.9989    240.2666   1.1718624374e+02   1.5548723107e+01    0.5470416    0.4426078 -28.23  0.003603682    2.110    0.526
       291 -10.3019     88.8976    241.2108   1.1468962965e+02   1.3477282813e+01    0.1949575    0.1475879 -35.90  0.001221733    2.090    0.522
       292  -9.1574     50.3210    240.3099   1.2165505965e+02   1.8675523844e+01   0.09226881   0.08787993 -40.95 0.0004933666    1.646    0.392
       293 -10.1209    195.4625    238.7150   9.4042333891e+01  -2.5052154143e+00    0.2449117    0.1662708  21.32  0.001271302    1.321    0.243
       294  -9.8693    135.2172    238.1661   1.0549757277e+02   7.0804816989e+00    0.2414669    0.0900688 -45.64  0.001040493    3.437    0.709
       295 -11.9302     30.0261    233.9741   1.2481440986e+02   2.2169511597e+01    0.4305157    0.1879336  88.51  0.002141457    2.277    0.561
       296  -9.9435     24.2271    232.3009   1.2572463896e+02   2.3101531315e+01    0.1693294    0.1423561  80.55 0.0006375018    1.250    0.200
       297  -8.8901    198.2848     34.3470   4.6748625299e+01   3.1463411834e+01    0.1375769    0.1063954  27.47 0.0007018835    1.650    0.394
       298 -11.4422    192.9547     32.9437   4.7077772523e+01   3.2959633729e+01     0.294161    0.2510916  37.65 0.0003349247    1.334    0.250
       299 -10.8818    247.2246     33.1344   4.1030715940e+01   2.0253984124e+01    0.2282572    0.1706419 -89.30 0.0004513662    1.328    0.247
       300  -9.7439    166.9768     32.4990   5.0853731456e+01   3.9542696683e+01    0.2229255    0.1353535  65.64  0.000902991    1.584    0.369
       301 -10.9946     49.0636     30.5673   8.3149906544e+01   6.4729337249e+01    0.4073098    0.2494133 -21.87   0.00164401    1.558    0.358
       302  -9.3061     44.3066     31.3272   8.5521403294e+01   6.5225694825e+01    0.1304868    0.1075099 -16.96 0.0003051027    1.045    0.043
       303  -9.3582    177.2985     31.6769   4.8965849147e+01   3.7039292758e+01     0.147423    0.1021667 -65.06 0.0005031337    1.626    0.385
       304 -11.2121    152.1918     47.1101   5.8220780912e+01   4.1281048771e+01    0.4194245    0.3129857   4.33  0.001171964    1.676    0.403
       305 -12.0326     23.3834     41.9712   9.8932431543e+01   6.5473100280e+01    0.4591365    0.3369206 -89.96  0.002539544    2.548    0.607
       306  -9.3130    139.2529     30.3740   5.5291706070e+01   4.6735668267e+01    0.1458806    0.1038437  20.80 0.0003194874    1.644    0.392
       307 -10.2298    160.0006    235.9950   1.0039847078e+02   3.4939122820e+00    0.1928546    0.1400258  10.01 0.0005939939    1.667    0.400
       308 -11.1210    112.0074     24.9941   5.9540555564e+01   5.3835836443e+01    0.3331334    0.2153697 -28.89 0.0004685904    1.604    0.377
       309  -9.3833    108.7044     24.6619   6.0257253039e+01   5.4618140733e+01    0.1409544    0.1299012  26.51 0.0003212695    1.046    0.044
       310 -10.5695    214.7152     26.7978   4.2791874150e+01   2.8420885391e+01    0.2535759    0.2077141 -83.32 0.0007777733    1.141    0.124
       311 -10.1488    152.0004     27.7727   5.1951638565e+01   4.3888672241e+01      0.19114    0.1108712  62.25 0.0004866742    1.616    0.381
       312 -10.6469     70.4580     26.1598   7.2756735752e+01   6.2084251165e+01    0.2514391    0.2128515  13.45 0.0007549376    1.070    0.065
       313  -9.4900    184.1197     26.3611   4.6434829275e+01   3.5968182227e+01    0.1937211    0.1238858  83.45 0.0003958939    1.660    0.398
       314 -11.2113    132.2019     25.7683   5.5150003021e+01   4.9006527953e+01    0.6428183    0.3093365  28.40     0.001403    3.166    0.684
       315 -12.1355    226.4160    245.7349   8.9518969363e+01  -7.9730048404e+00    0.6434909    0.3294176   5.05   0.00303432    2.946    0.661
       316  -9.8594    177.4956    234.9268   9.6869535908e+01   8.5739850181e-01    0.1650824     0.122722 -36.02   0.00102183    1.563    0.360
       317  -9.7612     98.9749     20.3493   6.1133771760e+01   5.7255183654e+01    0.2056198    0.1655924 -12.27  0.001189473    1.241    0.194
       318  -9.8885    108.2669     17.7805   5.7647505602e+01   5.5500219811e+01    0.2874745    0.1721891  42.66 0.0008108136    1.510    0.338
       319 -10.7320    104.4065     25.3238   6.1659854511e+01   5.5487720143e+01    0.4542568    0.2890717  79.67 0.0007383765    2.759    0.638
       320 -11.0722    103.9434     20.9050   6.0012742937e+01   5.6112946693e+01    0.3625492    0.2926384  72.20   0.00140068    1.519    0.342
       321 -10.0618     87.0516     24.5235   6.6409967613e+01   5.9211888926e+01    0.2314628    0.1831708 -48.97  0.001136105    1.649    0.394
       322 -10.4457     82.7518     20.3498   6.5986296260e+01   6.0578851060e+01    0.3932058    0.2677833  71.46  0.001153663    2.470    0.595
       323  -9.3147     16.5431     26.5419   9.6610242211e+01   6.8901297907e+01    0.1198422   0.08938225 -28.86 0.0001075868    1.015    0.014
       324 -10.4830     10.1674     25.1674   9.9303554368e+01   6.9616780145e+01    0.2561597    0.1582137 -15.15 0.0006927213    1.547    0.353
       325  -9.2777    119.2390     25.3865   5.7919224775e+01   5.2129175938e+01    0.1430305   0.09884869  16.99 0.0006923973    1.645    0.392
       326 -10.2853    120.3315     21.2313   5.6101281253e+01   5.2351723594e+01    0.3253052    0.2252201   6.97 0.0008327313    1.674    0.403
       327 -10.2802    236.4128     24.2191   3.9994030324e+01   2.3727024042e+01    0.1905326   0.09798234 -44.93 0.0006127576    1.699    0.411
       328 -10.0667     34.5670     23.1027   8.6392746426e+01   6.7742110516e+01    0.2468396    0.1435143  15.85 0.0009087291    1.821    0.451
       329  -9.5355    185.6112     21.7617   4.4928327713e+01   3.6126876075e+01    0.1968169    0.1166706 -41.81  0.000948446    1.681    0.405
       330 -10.7528    155.3690     21.3842   4.9288547330e+01   4.3774320316e+01    0.3742554    0.2259192 -63.07 0.0008818613    2.171    0.539
       331  -9.6996     55.4099     22.2707   7.6834885049e+01   6.5085911612e+01    0.2086262    0.1301397  -1.24 0.0007350965    1.783    0.439
       332  -9.9940    109.9746    243.4507   1.1094852497e+02   1.0047943935e+01    0.2204293    0.1537296  81.37  0.001058869    1.691    0.408
       333 -10.1928    161.9122     20.1485   4.7837529012e+01   4.2264004440e+01     0.203802    0.1880773  69.81 0.0002756949    1.002    0.002
       334  -9.7357    167.3595    233.7492   9.8651612657e+01   2.6608722709e+00    0.1551388     0.115302 -29.27 0.0008020927    1.597    0.374
       335  -9.0028    139.3004     20.3542   5.1817577414e+01   4.7884169479e+01    0.1483209   0.09738066  29.89 5.149265e-05    1.702    0.412
       336 -10.7557    153.8396    233.7108   1.0128052478e+02   4.8451209126e+00    0.1965259    0.1670146 -19.65 0.0009069433    1.409    0.290
       337 -10.7016     86.4145    233.0867   1.1438165146e+02   1.5292204085e+01    0.2602927    0.1171211  52.26 0.0009905085    1.954    0.488
       338 -11.6134     73.9826    236.8434   1.1707943002e+02   1.6306088805e+01    0.3091981    0.2548282  13.26  0.002065033    1.853    0.460
       339 -11.0123      4.9867    226.7804   1.2873104646e+02   2.6044410601e+01    0.3855109    0.1409597  66.02   0.00208427    2.350    0.574
       340  -9.8250    190.5582    226.6485   9.3083937272e+01  -8.0762628932e-03    0.2076267     0.119794 -33.57 0.0008449647    1.958    0.489
       341  -9.4422    130.6679    227.3280   1.0501151727e+02   9.6481069060e+00    0.1311658     0.088502  64.95 0.0007051611    1.715    0.417
       342 -11.0946    120.2810    226.3546   1.0697033282e+02   1.1469198230e+01    0.1963256    0.1752616  80.29 0.0007424745    1.178    0.151
       343  -9.9781     66.0516    226.1665   1.1764692457e+02   1.9358536705e+01      0.16443     0.150545  62.57 0.0006216791    1.254    0.203
       344 -10.0230    141.7366    221.1441   1.0193380561e+02   8.9377008928e+00    0.2413345    0.1574131  17.76   0.00121011    2.043    0.510
       345  -9.1391     41.6812    220.7030   1.2183254188e+02   2.3415660702e+01   0.09787662   0.08783825 -50.49 0.0005784258    1.614    0.380
       346  -9.6315    173.8144    219.6278   9.5235427429e+01   3.8362062501e+00    0.1944122    0.1061966  46.22 0.0009518747    1.767    0.434
       347  -9.4625    146.5812     15.5064   4.8848921172e+01   4.6590856692e+01    0.1372456    0.1240094  49.84 6.988716e-05    1.044    0.042
       348  -9.9768     50.8828     15.4509   7.5519960514e+01   6.6710209976e+01    0.2340289    0.1682453  51.67  0.001356861    2.040    0.510
       349  -9.2059     77.6801    219.0056   1.1469731196e+02   1.9195365316e+01    0.1827152   0.07616112 -45.96 0.0007039033    4.203    0.762
       350 -11.3365      9.5402    217.0518   1.2747023785e+02   2.7489263427e+01     0.290373    0.1616382  62.72  0.001148321    1.412    0.292
       351 -11.5777    240.6916    211.8597   8.1264914777e+01  -5.7495414528e+00    0.5158232    0.3496281 -19.07  0.003154035    1.360    0.265
       352  -9.7932     15.1439     14.1190   9.2104797704e+01   7.1124142104e+01    0.1692675    0.1164822 -24.26 0.0003709906    1.106    0.096
       353 -11.6561     30.2716    215.9980   1.2363774353e+02   2.5616496154e+01     0.378039    0.2338633  18.71  0.002165382    2.698    0.629
       354  -8.8116    201.6903    215.6532   8.9119308205e+01  -1.7316322132e-01    0.1346334   0.09015123   4.50  0.000704488    1.706    0.414
       355  -9.5744    194.5198    215.4825   9.0474686194e+01   1.0348009538e+00    0.1309911    0.1106372  18.85 -8.876003e-05    1.004    0.004
       356  -9.3964    136.9726    215.7790   1.0214522403e+02   1.0690424106e+01    0.1816654   0.09575454  39.47 0.0008717483    1.668    0.400
       357 -10.2084    123.4450    222.2980   1.0581460739e+02   1.1704785558e+01    0.2075727    0.1232889 -51.40 0.0006900291    1.941    0.485
       358 -10.9124     21.4699    212.4459   1.2504565150e+02   2.7242863285e+01    0.3170666    0.1391215  50.92   0.00181115    1.886    0.470
       359 -10.1640    208.9560    212.0480   8.7103706718e+01  -8.2018581137e-01    0.1979909    0.1626399  10.49 0.0004849643    1.049    0.047
       360  -9.3967     76.3291    212.3016   1.1428387509e+02   2.0722265469e+01    0.1105949   0.09883182 -20.46 0.0006486475    1.646    0.392
       361  -9.9800      2.0313    212.0323   1.2854671627e+02   2.9160128007e+01    0.1682662    0.1196416  76.84 0.0008107207    1.006    0.006
       362 -12.4269      4.7120    207.2912   1.2782752311e+02   2.9867569272e+01    0.6935087    0.2380735  87.11  0.003283429    2.860    0.650
       363 -10.6744     10.7720    208.6489   1.2679485408e+02   2.9043552504e+01    0.2012973    0.1554291 -81.70 0.0005150316    1.274    0.215
       364 -11.1896     19.0722    202.8294   1.2488664167e+02   2.9442026976e+01    0.3636644    0.2023005 -76.62   0.00225831    1.557    0.358
       365  -9.8128     37.9178    217.4911   1.2230734713e+02   2.4480051164e+01    0.1601854     0.100701  41.57 0.0007467667    1.548    0.354
