#   1 NUMBER                 Running object number                                     
#   2 MAG_AUTO               Kron-like elliptical aperture magnitude                    [mag]
#   3 X_IMAGE                Object position along x                                    [pixel]
#   4 Y_IMAGE                Object position along y                                    [pixel]
#   5 X_WORLD                Barycenter position along world x axis                     [deg]
#   6 Y_WORLD                Barycenter position along world y axis                     [deg]
#   7 A_WORLD                Profile RMS along major axis (world units)                 [deg]
#   8 B_WORLD                Profile RMS along minor axis (world units)                 [deg]
#   9 THETA_WORLD            Position angle (CCW/world-x)                               [deg]
#  10 FWHM_WORLD             FWHM assuming a gaussian core                              [deg]
#  11 ELONGATION             A_IMAGE/B_IMAGE                                           
#  12 ELLIPTICITY            1 - B_IMAGE/A_IMAGE                                       
         1 -13.3884     74.0963     45.2940   1.9058776534e+01   5.9772495784e+01     1.051536    0.7260876  47.17  0.004279139    1.372    0.271
         2 -15.1338     10.4951      8.9397   3.6726372665e+01   7.7417357331e+01     2.137664     1.503514 -11.71   0.01265291    1.482    0.325
         3 -12.4324    176.0619     15.6568   3.4966129378e+02   3.9628038847e+01    0.4032439    0.2798171 -82.91 0.0009817514    1.276    0.216
         4 -12.8634    167.9812     15.7807   3.5037492572e+02   4.1406333194e+01    0.4019967    0.2599239  77.88  0.001207207    1.461    0.316
         5 -10.7262     38.8230     11.8966   1.8013339786e+01   7.2315286807e+01    0.2044817    0.1580897  27.25 0.0006982923    1.255    0.203
         6 -12.7809    146.2135      9.4009   3.5059475854e+02   4.7099752614e+01    0.6450368    0.2368337  89.49   0.00244149    3.247    0.692
         7 -13.8719     16.1830     20.3569   3.8687162661e+01   7.4668410386e+01    0.8960133    0.6391486   3.62  0.005114723    1.439    0.305
         8 -12.2347     65.0374      6.1817   3.6500482938e+00   6.7245702651e+01    0.3449869    0.2897495  45.51 0.0008375548    1.131    0.115
         9 -10.9494     81.8073      5.7812   3.5897112797e+02   6.3254441570e+01    0.2853205    0.2048607  43.00  0.001505319    1.441    0.306
        10 -12.8841    153.4813      3.8409   3.4828853144e+02   4.5931682614e+01     0.437155    0.2773403  83.36  0.001842174    1.399    0.285
        11 -12.2434    145.1564      2.6529   3.4865323722e+02   4.7994059137e+01    0.4249351    0.1773044  72.70  0.001998596    2.108    0.526
        12 -11.5059     68.0603    175.4825   5.3375059492e+01   2.9158502338e+01    0.3090527    0.2509041  34.16 0.0007595854    1.156    0.135
        13 -11.2298    219.4257    174.0826   1.8731419095e+01   7.9611897078e+00    0.2382177    0.1894134 -41.47  0.001653051    1.326    0.246
        14 -12.8481     13.6360    163.2503   6.9087583713e+01   3.8121519380e+01     1.106629    0.2143903  23.91  0.003441314    3.949    0.747
        15 -12.9144     24.0134    147.5017   6.4329886662e+01   4.1528314288e+01    0.7115152    0.3275031  83.27  0.002658752    2.568    0.611
        16 -10.4385    160.9944    148.6714   2.4443442683e+01   2.0784531094e+01    0.2145757    0.1076432  59.47 0.0006351487    4.303    0.768
        17 -10.9453     36.8405    145.2907   5.9592087970e+01   4.0887972535e+01    0.2506146    0.1690435  46.55  0.001178401    1.439    0.305
        18 -10.7142      9.5814    141.7225   6.8921942328e+01   4.4261139036e+01    0.2017451    0.1253822  83.15 0.0009452883    1.561    0.359
        19 -10.9233    174.3905    140.1863   2.0037348734e+01   2.0193570791e+01    0.1974013    0.1174246 -51.02 0.0009522067    1.688    0.408
        20 -12.7967     14.7997    135.4131   6.6496654904e+01   4.5631977886e+01     0.600006    0.5594584 -10.51   0.00346673    1.197    0.165
        21 -10.8324    216.0000    134.9934   1.2080189723e+01   1.4589487003e+01    0.2081298   0.05790484 -40.43 0.0007999664    2.925    0.658
        22 -10.3245    237.4718    132.0123   8.6350515115e+00   1.2060361908e+01     0.186214   0.08975496 -38.52  0.001032722    1.594    0.373
        23 -11.6037     68.0705    128.9076   4.5933928066e+01   4.1334672059e+01    0.3635378    0.2943211 -18.21  0.001476849    1.479    0.324
        24 -10.2804    132.7984    126.8778   2.6134586832e+01   3.0353966907e+01    0.2017137    0.1746003  88.50 0.0004540586    1.341    0.255
        25 -10.3853     39.2281    126.1526   5.6083128946e+01   4.5929133397e+01    0.2171384    0.1667438  64.64 0.0006355547    1.356    0.263
        26 -10.5950     20.5413    126.0161   6.3337614667e+01   4.7800669126e+01    0.2295459    0.1384078 -79.03  0.001028124    1.598    0.374
        27 -12.3548     74.6838    122.5052   4.2321726245e+01   4.1983251767e+01    0.5478025    0.4335187  33.25  0.002031224    1.271    0.213
        28 -10.2954    203.3346    122.6605   1.1489684640e+01   1.8552265434e+01    0.1283731   0.09183022 -65.37 0.0003876087    1.752    0.429
        29 -12.2153     67.9718    120.0589   4.4176998800e+01   4.3700073778e+01    0.3509831    0.3275627 -88.73 0.0005864855    1.075    0.070
        30 -10.6231    157.5130    120.0500   1.9000359408e+01   2.7083743627e+01     0.217932    0.1309771 -45.29 0.0005685416    1.539    0.350
        31 -10.0530    220.2970    119.6537   8.4837808778e+00   1.6391205459e+01    0.1224085   0.08255486 -58.70 0.0004929593    1.675    0.403
        32 -10.7807     60.4411    122.7476   4.7469763616e+01   4.4119076625e+01    0.2936579    0.2174737  58.08 0.0007416002    1.449    0.310
        33 -11.2463     53.6416    117.7809   4.9059253059e+01   4.6426590481e+01    0.2761023    0.2325891  39.18 0.0004725178    1.182    0.154
        34 -12.4397     23.6454    115.6293   6.0776071221e+01   5.0440285563e+01    0.3364669    0.2825231  46.48 0.0004836278    1.200    0.167
        35 -11.6429    208.2239    113.8796   8.9682008819e+00   1.9210306447e+01     0.493162    0.1465911 -36.13  0.001810594    3.255    0.693
        36 -11.9461    222.4014    113.3383   6.9574442523e+00   1.7056379647e+01    0.2431091    0.1792242  17.19  0.001477708    1.981    0.495
        37 -10.8369     75.9965    114.3201   4.0045276915e+01   4.3888621865e+01    0.2269531    0.2083909  39.04  0.001169546    1.092    0.084
        38 -11.8951     39.6717    111.8797   5.3521672463e+01   4.9830577324e+01    0.5693592    0.3570644 -56.14  0.001630686    1.532    0.347
        39 -12.2809     38.7989    105.1972   5.2637527867e+01   5.1766627253e+01    0.5684364    0.4124632  68.75  0.002186812    1.564    0.361
        40 -10.2901    188.2281    110.2607   1.1199557871e+01   2.3234163517e+01     0.219784   0.08791564 -48.64 0.0008832678    2.402    0.584
        41 -12.1844    136.5533    108.5996   2.0866521385e+01   3.3528575776e+01    0.2611226    0.2520902 -22.52 0.0003517823    1.107    0.096
        42 -11.1312    115.8396    107.3067   2.5792249065e+01   3.8030440099e+01    0.3042893    0.2442012 -34.62  0.001209286    1.345    0.257
        43  -9.8545    223.2989    106.6475   5.5086197149e+00   1.7948485003e+01    0.1244194   0.07917466 -58.37 0.0007036445    1.694    0.410
        44 -11.1865     86.3786    101.8859   3.3370189972e+01   4.5134323218e+01    0.3057705    0.2245435  65.13 0.0006177845    1.598    0.374
        45 -12.1951     10.8068     98.7810   6.4139150579e+01   5.6113707895e+01    0.4254994    0.3409342 -29.74  0.001140705    1.316    0.240
        46 -10.4245    160.0000     96.9852   1.3013200049e+01   3.1028257890e+01    0.2366987   0.07484404 -41.64 0.0007981106    2.913    0.657
        47 -10.9066    146.9838    112.0011   1.9339917097e+01   3.0733897442e+01    0.1772137    0.1689309 -56.05   0.00091458    1.017    0.017
        48 -10.6401      1.4608     94.9989   6.8070383141e+01   5.7674377075e+01     0.220789    0.1287891 -78.81  0.001028816    1.588    0.370
        49 -11.8597     24.6827     92.5489   5.6603903381e+01   5.6717162922e+01    0.4323085    0.2815138 -70.45  0.001455608    1.488    0.328
        50 -11.1775     52.5832     89.9005   4.3199561334e+01   5.3975349823e+01    0.2678635    0.2088273  16.96 0.0007013998    1.400    0.286
        51 -11.1836      2.5722     86.8170   6.6587519423e+01   5.9846781015e+01    0.2542989     0.232518  11.36 0.0006003974    1.175    0.149
        52 -11.3685    145.1721     90.5335   1.4314015596e+01   3.5340033027e+01    0.2834538    0.1980862 -45.83  0.001399845    1.349    0.259
        53 -11.2861     63.7321     81.5272   3.6120185621e+01   5.4227696413e+01    0.4563566      0.29114 -24.62  0.001811488    2.294    0.564
        54 -12.2996     17.0753     62.9844   5.4206961607e+01   6.5131671437e+01    0.5556306    0.2572536  22.36 0.0009767493    2.142    0.533
        55 -12.7701     11.0188     76.4609   6.0584785873e+01   6.2131850002e+01     0.943854    0.2293796 -54.07   0.00289133    3.171    0.685
        56 -13.3227     12.8393     69.4295   5.8185644731e+01   6.3836604384e+01    0.6214189    0.5307319 -40.87  0.002082461    1.106    0.096
        57 -10.9095    107.3398     79.9733   2.0530444930e+01   4.5733726030e+01    0.2680394    0.2205429  43.58 0.0005529154    1.260    0.207
        58 -11.3891     33.8196     76.5705   4.8518484287e+01   5.9950372739e+01    0.3481007     0.262557 -82.34  0.001239255    1.508    0.337
        59 -10.9005     56.1198     76.1133   3.7733316188e+01   5.6831037208e+01    0.2389424    0.2071885 -14.11  0.001235859    1.285    0.222
        60 -11.9213     44.5130     70.2161   4.1328106684e+01   6.0081298934e+01    0.4899461    0.3408214  29.92  0.002370578    1.435    0.303
        61 -11.9230    138.4783     79.5891   1.2755670118e+01   3.8858883184e+01    0.3282058    0.2537069 -48.06  0.000595936    1.234    0.189
        62 -11.3162     25.8103     68.1544   5.0539513706e+01   6.2989337560e+01    0.2643847      0.21123  -6.99   0.00112536    1.326    0.246
        63 -10.6528    250.5317     56.0419   3.5290768235e+02   2.0739582070e+01    0.1616284   0.08187123 -39.12 0.0003607516    1.478    0.323
        64 -10.7030     62.2214     55.6622   2.7964648672e+01   6.0270267419e+01    0.3142521    0.2152001  51.27 0.0009521107    1.491    0.329
        65 -11.2425    198.0248     54.0024   3.5701700716e+02   3.0249391433e+01    0.1904547    0.1533159 -57.49 0.0003214459    1.005    0.005
        66 -11.3101     14.6717     53.7198   5.3194775957e+01   6.7612424499e+01    0.2971453    0.2336736 -20.52  0.001163966    1.260    0.206
        67 -12.2264     86.9143     51.4071   1.7046537220e+01   5.5830649054e+01    0.8415064    0.2751878  47.04  0.002806036    2.988    0.665
        68 -10.8100    183.6008    245.6068   3.5937954362e+01   1.2327974895e+00    0.2017393    0.1626738   7.62 0.0009039183    1.186    0.157
        69 -11.3984     68.6142     55.7684   2.5336711393e+01   5.8974892591e+01    0.4147818    0.2961124  24.51     0.001956    1.687    0.407
        70 -11.8114      4.4483     49.9355   5.9004768784e+01   6.9268014770e+01    0.4534343    0.2734323  25.76   0.00175161    1.703    0.413
        71 -12.4973     54.7081     45.4448   2.7220818019e+01   6.3737709848e+01     0.616235    0.4499364  -9.35  0.002106589    1.859    0.462
        72 -10.5186    151.9687     48.4760   1.4202878518e+00   4.0936978558e+01    0.1972132    0.1080182 -83.32 0.0005805372    2.504    0.601
        73 -11.0837     16.0191     46.6634   5.0127744041e+01   6.9155354719e+01    0.1929733    0.1678651   6.68 0.0006404209    1.121    0.108
        74 -11.8324     29.6276     42.0861   3.9488505151e+01   6.8579571234e+01    0.6440375    0.3959314   9.27  0.002974729    2.016    0.504
        75 -10.4689    189.6426     43.3129   3.5534337988e+02   3.3389707747e+01    0.1382747   0.07745577 -63.90 0.0007043714    1.742    0.426
        76 -10.6422    151.6141     33.7692   3.5721526270e+02   4.3039652722e+01    0.2480892    0.1279693 -29.06   0.00114165    2.152    0.535
        77 -10.7881     15.1434     34.1265   4.6098918106e+01   7.2028786776e+01      0.19769    0.1615101 -20.79  0.000308093    1.157    0.136
        78  -9.8885    117.2807     31.2851   1.8885108483e+00   5.1636093670e+01    0.1303677    0.1036284  38.09 0.0001869062    1.518    0.341
        79 -12.1740     77.5484     32.2466   1.2301322372e+01   6.1101622706e+01    0.5747927    0.3778455 -29.13  0.002846079    1.743    0.426
        80 -10.8553    163.6692    243.3385   3.9403768275e+01   3.5831001287e+00    0.1056563   0.08563462  44.26 0.0007051898    1.739    0.425
        81 -11.2328     33.1779     27.1664   3.0231681577e+01   7.0950439522e+01    0.2352983       0.2104   9.95 0.0007087125    1.045    0.043
        82 -10.8234    227.2383     26.1404   3.4851518459e+02   2.8245311636e+01     0.269701    0.1322088 -66.43  0.001557588    1.888    0.470
        83 -11.0780     94.5384     23.2766   3.6841458370e+00   5.8246549254e+01    0.2776122    0.1949294 -72.31 0.0007426861    1.627    0.385
        84 -11.6930    107.5880     21.8226   2.9711416889e-01   5.5203339265e+01    0.2401386    0.2033266  78.05 0.0003024517    1.054    0.051
        85 -12.0057    155.0266     20.2603   3.5288382955e+02   4.3874329610e+01     0.326482    0.2379348  56.68  0.001407352    1.548    0.354
        86 -11.0423     81.3021    239.0726   5.6816757566e+01   1.3447990264e+01    0.2375752    0.2292447  21.18  0.001674252    1.160    0.138
        87 -12.2401    240.0497    232.5937   2.4791627669e+01  -2.2119339440e+00    0.3341054    0.2522351  40.45  0.002488303    2.438    0.590
        88  -9.7378    191.6456     13.2651   3.4791865986e+02   3.6562085774e+01    0.1280858    0.0678018 -63.92 0.0005224692    1.625    0.385
        89 -12.3171    136.8495    218.9689   4.1700745247e+01   1.0663566110e+01    0.4005333    0.2535556 -71.84  0.001966135    2.744    0.636
        90 -10.1874     98.6610    219.6707   5.0651020489e+01   1.5240274895e+01    0.1361382     0.094396 -14.20 0.0007051809    1.736    0.424
        91 -10.0095     62.7671    216.9900   5.9353875675e+01   2.0031966654e+01    0.1556847    0.1116829 -72.19 0.0004378869    1.576    0.365
        92  -9.7999    208.2632     10.6891   3.4631273188e+02   3.3492904035e+01     0.120885   0.06138566 -56.82 0.0003197744    1.535    0.348
        93 -10.6223     82.3122    202.6557   5.2775863544e+01   2.0880694835e+01    0.1455659   0.09592043  56.98 0.0007046387    1.706    0.414
        94 -10.4733    186.2733    193.8519   2.7736354763e+01   8.8747025757e+00    0.1833693    0.1485395 -47.48  0.001122084    1.456    0.313
        95 -10.3250     40.4925    192.5346   6.3224974089e+01   2.8122517942e+01    0.1397669    0.1228235  49.53 0.0004454095    1.013    0.013
