#   1 NUMBER                 Running object number                                     
#   2 MAG_AUTO               Kron-like elliptical aperture magnitude                    [mag]
#   3 X_IMAGE                Object position along x                                    [pixel]
#   4 Y_IMAGE                Object position along y                                    [pixel]
#   5 X_WORLD                Barycenter position along world x axis                     [deg]
#   6 Y_WORLD                Barycenter position along world y axis                     [deg]
#   7 A_WORLD                Profile RMS along major axis (world units)                 [deg]
#   8 B_WORLD                Profile RMS along minor axis (world units)                 [deg]
#   9 THETA_WORLD            Position angle (CCW/world-x)                               [deg]
#  10 FWHM_WORLD             FWHM assuming a gaussian core                              [deg]
#  11 ELONGATION             A_IMAGE/B_IMAGE                                           
#  12 ELLIPTICITY            1 - B_IMAGE/A_IMAGE                                       
         1 -12.1626    206.7260     16.9919   3.7622733743e+01   3.1979647042e+01    0.7723384     0.314373 -35.67  0.003539681    2.289    0.563
         2 -14.8391    177.9671     78.9292   5.8363002156e+01   3.0232122598e+01     5.275653     3.058774 -71.74   0.00575034    3.478    0.713
         3 -14.9271    218.8503     77.6711   5.1114544047e+01   2.1056039124e+01     9.585081     3.037647 -50.31   0.02798648    4.484    0.777
         4 -12.8221    248.6386      5.9910   3.1736955972e+01   2.4070796708e+01    0.7537698    0.4134263 -12.25  0.003659656    3.341    0.701
         5 -12.6979    220.6263     36.1032   4.0773667096e+01   2.6587580057e+01     1.334177    0.5430307 -38.32  0.005946703    2.181    0.541
         6 -12.7227    197.5599     78.5954   5.4715163221e+01   2.5702136273e+01     1.262879    0.9468468 -14.59  0.004673057    1.584    0.369
         7 -12.7110    233.6365     23.0061   3.6486590711e+01   2.5318559170e+01     1.463058    0.8312827  -3.19  0.006011468    4.110    0.757
         8 -12.3451    213.9380     23.6281   3.8497078018e+01   2.9593766980e+01      1.01496    0.6042859  36.01  0.004886194    2.542    0.607
         9 -15.6580    239.7823     46.3549   4.1108584519e+01   2.1108712182e+01     7.157614     4.967653  42.10    0.0170442    1.907    0.476
        10 -10.8982    162.5244     29.8162   4.6824075931e+01   4.1144046134e+01    0.6355028    0.3086889 -27.01  0.002778988    2.223    0.550
        11 -10.7318    145.8900     28.7358   4.9381161594e+01   4.5335202478e+01    0.3486384    0.2478721  -3.74   0.00178016    1.715    0.417
        12 -12.3580    134.0658     19.0895   4.8404524921e+01   4.9237331045e+01    0.8195576    0.4489418 -11.49  0.002882756    2.296    0.564
        13 -10.7765     92.2815     15.9720   5.6972762597e+01   5.9038743253e+01    0.6241592    0.2477609 -27.06  0.002531941    2.599    0.615
        14  -8.9771     79.1706     16.3817   6.1114158937e+01   6.1653524825e+01    0.1697574    0.1178766  55.28 0.0004711836    1.613    0.380
        15 -11.8192    120.3382      9.1463   4.7587258008e+01   5.3424080004e+01    0.7509279     0.492986 -52.28  0.002487483    1.968    0.492
        16 -10.5493    128.9358     10.1333   4.6281202699e+01   5.1313071382e+01    0.4320464     0.178577 -13.11  0.001717193    3.225    0.690
        17  -9.9337    216.0472      8.9948   3.4850628184e+01   3.0701611731e+01    0.3598755    0.1831376 -16.70  0.001469123    2.804    0.643
        18  -9.7036    115.9622     12.5238   4.9742980575e+01   5.4135925165e+01    0.3034197    0.2112057  53.64  0.001165061    1.259    0.206
        19  -9.1799    205.7997      6.1526   3.5086963003e+01   3.3303380131e+01    0.2637586    0.1586829  -6.08  0.001255048    2.586    0.613
        20 -14.2903    242.1739     74.4356   4.7196371642e+01   1.6629223295e+01      2.06677     1.116194 -41.21  0.004986439    1.589    0.371
        21  -9.7262    235.9529      3.4251   3.2071764718e+01   2.6948119266e+01    0.3543685     0.191798  54.43  0.001952923    2.190    0.543
        22 -10.7537    136.8476      2.7544   4.2409281397e+01   5.0042874332e+01    0.4056656    0.2432271  20.55  0.001619334    2.096    0.523
        23  -8.8915    147.9878      3.2962   4.0899648501e+01   4.7319545131e+01    0.2228954    0.1613246   8.02  0.001120081    1.698    0.411
        24  -8.3318    171.9488      2.9336   3.7709349312e+01   4.1565605187e+01    0.2054209    0.1317509 -63.80 0.0008259847    1.686    0.407
        25 -11.7490     23.7040    165.6334   1.1828154509e+02   3.7078391368e+01    0.4467163    0.3086828  60.96  0.002697477    1.418    0.295
        26 -10.1300    242.6523    164.8805   6.7228684119e+01   1.8389828581e+00    0.2382913     0.199624  37.26  0.001446141    1.398    0.285
        27  -8.3913    208.8996    165.3982   7.3539973594e+01   7.5862900421e+00    0.1863745     0.126553  65.24  0.000801636    2.566    0.610
        28  -9.6924    240.3393    247.9884   8.3081264077e+01  -9.6820743716e+00    0.1634761     0.120744   1.18 0.0006033009    1.056    0.053
        29  -8.8490    136.5652    242.4013   1.0209657829e+02   6.0336650336e+00    0.2619829   0.08068217  46.37 0.0009643729    3.348    0.701
        30  -8.5067    233.3194    240.3316   8.3073458717e+01  -7.8302661164e+00    0.1258024    0.0746114   2.25 0.0007048485    1.693    0.409
        31  -8.2404    211.4600    237.4533   8.6614805376e+01  -4.4388296518e+00    0.1232372   0.09850752  12.06 4.656426e-05    1.037    0.036
        32 -11.7224     20.1561    154.5490   1.1806266320e+02   4.0011680500e+01    0.4973042    0.3502252 -57.55  0.003025844    1.365    0.267
        33 -10.1742    204.8604    154.2761   7.1910764832e+01   1.0372020956e+01    0.4391863    0.3007297 -58.88  0.001131086    2.029    0.507
        34  -9.0723    210.2330    219.6039   8.3832212646e+01  -1.6793700591e+00    0.2112218    0.2027569 -58.03  0.001291767    1.574    0.365
        35 -10.3068    192.1812    152.1876   7.4023517305e+01   1.3220060060e+01    0.5129782    0.2797429 -55.59  0.001963817    2.593    0.614
        36  -9.0106    154.9130    152.9226   8.2536989023e+01   2.0474714743e+01    0.2264308    0.2237244 -42.65 0.0004695955    1.083    0.077
        37 -10.2472    133.8177    145.8527   8.6177648782e+01   2.6181472045e+01     1.204926    0.3062847 -53.35  0.002920334    5.294    0.811
        38  -9.0737    173.5833    150.1969   7.7598100344e+01   1.7317618597e+01    0.2252635    0.1391809 -30.95 0.0009567137    1.718    0.418
        39  -9.6326    222.6094    145.1751   6.6506309935e+01   8.6741193227e+00    0.2070149    0.1945336  43.52 0.0004208075    1.256    0.204
        40 -10.5810    179.4798    143.8303   7.4822306177e+01   1.7418819214e+01    0.3752107    0.2659498 -49.53  0.001748421    1.497    0.332
        41 -10.5483    146.8418    144.3398   8.2556066429e+01   2.3956134887e+01    0.5082144    0.2677422  47.97  0.001987371    2.040    0.510
        42  -8.7862    192.2955    144.0984   7.2150621022e+01   1.4766285437e+01     0.218384    0.1989729  29.18 0.0004144115    1.131    0.116
        43  -9.7398    195.9539    143.0391   7.1151997993e+01   1.4236273784e+01    0.2658524    0.2211231  52.81 0.0004832401    1.378    0.274
        44  -9.5168    158.9529    142.9473   7.9299807632e+01   2.1806912239e+01    0.2443459    0.1986073 -87.47  0.001137113    1.699    0.411
        45 -10.1205    211.3286    136.3356   6.6577411754e+01   1.2431427490e+01    0.3304845    0.2075914 -13.25  0.001403713    2.109    0.526
        46 -11.0621    178.8326    135.3553   7.2954669052e+01   1.9265949229e+01    0.6279289    0.3745733 -66.23  0.002182388    3.190    0.687
        47 -10.6570    137.1309    129.3891   8.1457504084e+01   2.9253257310e+01    0.6968564    0.4031425 -57.70  0.001463225    2.063    0.515
        48 -10.3846    160.5597    128.2950   7.5379330607e+01   2.4594007416e+01    0.4069051    0.2851578 -48.76  0.001834785    1.460    0.315
        49 -11.6847     66.4065    143.7579   1.0416392091e+02   3.7805096246e+01     1.832186     1.105787  25.17   0.00829294    1.937    0.484
        50  -8.8066    172.7043    120.9029   7.0729735766e+01   2.3503672859e+01    0.2617325      0.21041  30.07 0.0005976108    1.317    0.240
        51  -8.9673    135.2940    119.5599   7.9459304436e+01   3.1825093757e+01    0.2862657    0.2090976 -50.09 0.0008042591    1.385    0.278
        52  -9.8657    135.2870     99.0641   7.3894502786e+01   3.6245750445e+01    0.3377258    0.2800604 -69.34 0.0006871656    1.466    0.318
        53 -10.3582    134.7548    111.6145   7.7508053368e+01   3.3684715828e+01    0.8768852    0.3899845 -36.27  0.003019136    2.484    0.597
        54  -8.8981    134.6889    104.4692   7.5572778390e+01   3.5237347789e+01    0.4424379    0.1553666 -39.54  0.001379486    2.922    0.658
        55 -10.9717    216.5977    114.0775   6.0359649373e+01   1.5389414205e+01    0.7389953    0.3816843 -26.06  0.002959009    2.227    0.551
        56 -12.1602    123.2730    103.4103   7.8376781077e+01   3.7866595924e+01     1.332175    0.6916691 -61.12  0.004408607    3.128    0.680
        57 -10.0764    222.8280    106.0261   5.7382332388e+01   1.5508696682e+01    0.4281998    0.2502816 -54.73  0.001878547    2.020    0.505
        58  -9.2069    141.9789    105.6668   7.4010880078e+01   3.3406256417e+01    0.2835807    0.2261503 -71.40  0.001305048    1.594    0.373
        59 -10.4176    167.4292    115.9662   7.0644930302e+01   2.5662162146e+01    0.5291111    0.3615709  31.41  0.002330345    1.643    0.391
        60  -9.7622    149.4069    102.7611   7.1348152606e+01   3.2367817279e+01    0.3991179    0.2886377  22.90  0.001318504    1.662    0.398
        61  -8.3465     83.8837    103.4934   9.0255593410e+01   4.5112310608e+01    0.1949604    0.1477652  33.22 0.0003308069    1.406    0.289
        62 -10.2815    230.1051    213.2011   7.8948753724e+01  -3.6906617028e+00      0.20267    0.1708564  -6.34 0.0002300439    1.137    0.121
        63 -10.4565    159.8880     98.0733   6.7555113634e+01   3.0935470915e+01    0.5748811    0.3372114  34.45  0.002301722    1.999    0.500
        64 -10.5409    167.6344     93.9046   6.4663637609e+01   2.9954267925e+01    0.8294704    0.3640313 -43.35  0.003018148    2.256    0.557
        65 -11.1755    176.0036     90.3877   6.1925814575e+01   2.8664180917e+01    0.6976104    0.4264849  37.67    0.0029646    1.859    0.462
        66 -10.0766    142.9731     93.4014   7.0292038425e+01   3.5699650276e+01    0.3256154    0.3034181  84.14 0.0007082221    1.218    0.179
        67  -8.7106    198.1641    213.9807   8.5204117502e+01   1.0693748255e+00    0.1791666    0.1647103  20.62 0.0002744239    1.226    0.184
        68 -11.4410    158.1701     88.8758   6.5351076409e+01   3.3098505460e+01    0.3618198    0.2765694 -25.06 0.0007075297    1.378    0.274
        69  -9.0295    199.3934    209.1964   8.4104078509e+01   1.6467758795e+00    0.2342318    0.1779253  34.86  0.000986347    1.301    0.231
        70 -10.2907    101.0093     84.0328   7.9261087785e+01   4.6430461676e+01    0.2274417    0.2041572 -29.85 -0.003769674    1.059    0.056
        71 -12.3181     36.9150    156.6960   1.1402580491e+02   3.7981566237e+01    0.6100236    0.4917492 -63.92  0.001535794    1.161    0.139
        72 -12.2943     44.5569    153.1185   1.1157481994e+02   3.8069588180e+01    0.9156004    0.5414156 -71.95  0.003077149    1.516    0.340
        73 -10.3199    132.9814     82.3495   6.9566355679e+01   4.0104421074e+01    0.3142751    0.1902128  33.61  0.001179424    1.858    0.462
        74 -10.1137    116.9095     77.8411   7.2560837594e+01   4.4473456186e+01    0.3441761    0.2260785   3.73  0.001367095    2.347    0.574
        75 -11.1748    135.0247     60.3079   6.2074931452e+01   4.3555404492e+01    0.3749599    0.3001056 -45.69  0.001913875    1.336    0.252
        76  -9.2891    125.0000     57.9967   6.3831613442e+01   4.6236376432e+01     0.239222   0.08335487 -34.63 0.0004075764    2.916    0.657
        77  -8.1195     72.5761     58.5075   8.0448097545e+01   5.6513670563e+01    0.1406155    0.1225423 -14.52 8.140603e-05    1.012    0.012
        78 -10.1208    150.8526     54.4500   5.6610448481e+01   4.0709850427e+01    0.3881647    0.2505029  42.80  0.001627037    1.566    0.361
        79 -10.5226    178.8698     51.1932   5.0379888301e+01   3.4375454004e+01    0.5644103    0.4283126  46.18   0.00220596    1.367    0.268
        80 -13.3345    229.2112     66.4126   4.6968160792e+01   2.0533799284e+01    0.9843898    0.7038411  47.82  0.005366944    1.612    0.380
        81  -9.2304    201.2554     31.1600   4.1771528491e+01   3.1637571926e+01    0.2185646    0.1962158  16.40 0.0007361389    1.380    0.275
        82 -11.7384    204.1240     38.0697   4.3183486402e+01   3.0110452379e+01    0.5172913    0.2006728 -35.51  0.001544193    2.391    0.582
        83  -9.1014    200.2470    205.0067   8.3169417891e+01   2.1962761764e+00    0.1818007    0.1563948  -9.38 0.0003576118    1.091    0.083
        84  -9.9904    103.2909     43.9595   6.4851507560e+01   5.3184439540e+01    0.3728942    0.1792249 -35.87  0.001007895    2.116    0.528
        85 -10.7069    123.0284     39.2477   5.7847823529e+01   4.9472112316e+01    0.3191046    0.2041242 -15.90  0.001506502    1.790    0.441
        86 -10.5386    110.6581     37.8774   6.0518307959e+01   5.2453684330e+01    0.3837687    0.2151876  -4.03  0.001525138    2.739    0.635
        87 -10.6112    167.8791    200.3409   8.9056960394e+01   8.4623407374e+00    0.4091226    0.3255192 -89.38  0.001459048    1.997    0.499
        88  -8.3842    227.7910    200.1754   7.6951938482e+01  -1.3985079996e+00    0.3118743    0.1411587 -16.22 0.0007309676    4.146    0.759
        89 -10.8524    128.5000     25.4026   5.1714407660e+01   4.9890512501e+01    0.3584643    0.2448289  67.11  0.001021078    1.504    0.335
        90 -10.2499    192.0099    193.0075   8.2586098087e+01   5.6303655405e+00    0.5954771    0.3296845 -62.85  0.001984867    4.749    0.789
        91 -10.0228    179.1571     23.8556   4.2633456216e+01   3.7762472954e+01    0.4023185    0.3382034  89.92  0.002221706    1.139    0.122
        92  -9.0828    158.9653     23.8509   4.5589101438e+01   4.2689329909e+01    0.2462017    0.2140168  33.44 0.0009389534    1.226    0.184
        93 -11.9948     50.5153    150.4602   1.0961096938e+02   3.8071231340e+01    0.6563897    0.4419285 -72.42  0.001838358    1.349    0.259
        94  -9.0917    200.7499    173.9668   7.6979084230e+01   7.5118081398e+00     0.290847    0.1924078 -14.68   0.00127112    1.731    0.422
        95 -10.3368    210.5421    187.1393   7.7704926754e+01   3.4869678528e+00    0.4855952    0.3075866  44.24  0.002446117    1.760    0.432
        96  -9.4247    143.6913     18.5083   4.6450809908e+01   4.6975333540e+01    0.2247283    0.1241273 -24.57  0.001018208    1.986    0.496
        97 -10.5983    132.4926     30.8820   5.2767434548e+01   4.8310331701e+01    0.3431256     0.229303 -29.82  0.001488926    1.584    0.369
        98  -8.5332     52.0205    189.3793   1.1403368189e+02   2.8640453109e+01    0.1639778    0.1411358  55.03 0.0003000607    1.149    0.130
        99  -8.7868    189.1677    184.8087   8.1576354665e+01   7.6053400476e+00    0.1932546    0.1854744   9.80 0.0003839732    1.161    0.139
       100 -10.1383    220.2192    184.1793   7.5246614050e+01   2.3662024555e+00    0.2231613    0.1929759  29.19 0.0007129569    1.259    0.206
       101 -11.7905      3.1856    175.0301   1.2376200523e+02   3.6570515865e+01    0.5639762    0.2974059  80.03  0.002946926    1.707    0.414
       102 -12.4821      5.9037    170.2432   1.2282023754e+02   3.7454201969e+01     0.765026    0.4191861  72.27  0.003846613    1.725    0.420
       103 -10.5253    227.9315    174.7794   7.1893810133e+01   2.6448889676e+00    0.4150767    0.3736156  -0.91  0.002573591    1.124    0.110
       104 -10.2901    236.6415    174.8541   7.0336229422e+01   1.2039499221e+00    0.5164981    0.3363976  62.23   0.00175398    3.089    0.676
       105 -10.6789    230.9551    167.8156   6.9897105554e+01   3.2965147539e+00    0.4593938    0.2301678 -46.30  0.002005499    2.277    0.561
       106  -8.2166     53.4380    173.8437   1.1193603365e+02   3.2082137040e+01    0.1641001    0.1117204 -58.46 0.0003545278    1.427    0.299
       107  -8.7914    214.0666    168.8208   7.3261529039e+01   6.0487739156e+00    0.2480213    0.1604246  45.61  0.001216934    1.744    0.427
       108  -9.3205    159.4648    158.3239   8.2649005074e+01   1.8425086538e+01    0.2946629    0.2577512 -72.25  0.001515464    1.384    0.277
