#   1 NUMBER                 Running object number                                     
#   2 MAG_AUTO               Kron-like elliptical aperture magnitude                    [mag]
#   3 X_IMAGE                Object position along x                                    [pixel]
#   4 Y_IMAGE                Object position along y                                    [pixel]
#   5 X_WORLD                Barycenter position along world x axis                     [deg]
#   6 Y_WORLD                Barycenter position along world y axis                     [deg]
#   7 A_WORLD                Profile RMS along major axis (world units)                 [deg]
#   8 B_WORLD                Profile RMS along minor axis (world units)                 [deg]
#   9 THETA_WORLD            Position angle (CCW/world-x)                               [deg]
#  10 FWHM_WORLD             FWHM assuming a gaussian core                              [deg]
#  11 ELONGATION             A_IMAGE/B_IMAGE                                           
#  12 ELLIPTICITY            1 - B_IMAGE/A_IMAGE                                       
         1 -18.2928    240.6301    137.2955   2.2056407261e+01   8.6388380480e+00     7.143017     1.092873 -39.98   0.02227363    5.217    0.808
         2 -16.6973     40.4803     83.0772   5.9799345792e+01   5.7846954617e+01      2.78969     1.968267  63.75   0.01210833    1.602    0.376
         3 -15.7415      5.0006     67.5499   7.4780219530e+01   6.5256333580e+01      2.12291    0.6525062 -76.45  0.007615833    3.039    0.671
         4 -14.1486      5.9358     29.8411   6.4761243743e+01   7.4371822810e+01    0.6256313    0.3883165 -51.93  0.002386628    1.431    0.301
         5 -14.4572     16.1253     32.3898   5.7722037904e+01   7.2921319547e+01     1.119553    0.4706639 -39.70  0.004672492    2.554    0.608
         6 -13.9106    105.2082     19.7221   1.1444976878e+01   5.6579226718e+01     0.553988    0.4551286  61.57   0.00303414    1.163    0.140
         7 -12.8188     32.6940      9.0550   3.1863742194e+01   7.4827383163e+01     0.514625    0.3212431 -15.59  0.002609958    2.019    0.505
         8 -14.6246     15.7013     15.4460   4.9226635419e+01   7.6409102056e+01    0.9763815    0.6007656 -13.21  0.004047218    2.128    0.530
         9 -14.3002     19.1118      3.3208   3.7413508014e+01   7.7974666961e+01    0.9035059    0.4110045  38.49  0.004384905    2.103    0.524
        10 -13.9308     31.4295      1.9156   2.7174410166e+01   7.6009397117e+01     0.497237    0.2444654  54.12  0.002291993    2.059    0.514
        11 -13.8253     58.7731     14.6274   2.2234588230e+01   6.8702735524e+01    0.5343473    0.3308769 -49.52  0.002612588    1.922    0.480
        12 -13.7197      2.2572     10.0808   5.8960463595e+01   7.8821760509e+01    0.7561654     0.214771 -58.72   0.00302263    3.291    0.696
        13 -16.6056    236.0866     63.2219   7.2661480407e+00   1.9820060903e+01     2.337128    0.8356624 -46.63  0.009007956    2.241    0.554
        14 -13.6622     94.1518     11.9734   1.0308164214e+01   6.0321807919e+01     0.622723     0.491178   7.21    0.0033764    1.589    0.371
        15 -14.5289    149.6220    213.7867   5.1247406447e+01   9.9880639475e+00     0.788869    0.2934093  38.15  0.003498028    2.367    0.577
        16 -13.6679    166.9353    249.7836   5.2599369231e+01   2.4412394628e+00    0.9502391    0.1824682  30.42  0.003342076    4.713    0.788
        17 -13.5395    114.6949    249.0302   6.2733057038e+01   8.9160596497e+00    0.4958829    0.2271499  32.34  0.002631545    1.673    0.402
        18 -13.5344     85.9378    249.4065   6.8779034475e+01   1.2396816157e+01    0.3944491    0.1732249  37.27  0.002099478    1.671    0.401
        19 -13.3424     59.5408    250.3168   7.4465698917e+01   1.5352747507e+01     0.414024    0.1263333  29.95  0.001629179    2.544    0.607
        20 -15.6429     51.5487    242.1595   7.5690018886e+01   1.7727838272e+01     1.698318    0.3851596  45.31   0.00688478    2.994    0.666
        21 -13.1514      3.7008    207.1308   8.5107231987e+01   2.9727940441e+01    0.4225772    0.2514208  73.19  0.002007938    1.451    0.311
        22 -15.4270      7.2064    236.7032   8.5140384378e+01   2.3330281338e+01     1.147683    0.4990538  77.86  0.004231489    2.222    0.550
        23 -14.3801      7.8328    219.9310   8.4521134574e+01   2.6635456960e+01    0.7108763    0.3613944  83.89  0.003311628    1.897    0.473
        24 -15.9405     21.5240    221.3698   8.1400172358e+01   2.5029353777e+01     1.534344    0.8955826 -75.03  0.008953301    1.893    0.472
        25 -15.2618     36.5585    239.3368   7.8829503538e+01   1.9905520964e+01    0.8560191    0.4445623  77.66  0.003651543    2.084    0.520
        26 -15.5974     28.2368    233.7422   8.0411378858e+01   2.1857531595e+01     0.983331    0.6246982 -80.82   0.00464606    1.754    0.430
        27 -12.1096    104.4696    204.9540   6.0064353883e+01   1.8095491316e+01     0.286846    0.1795303  34.93  0.001203314    1.369    0.269
        28 -13.7441    123.0119    212.0721   5.6719033351e+01   1.4065613002e+01    0.8166845      0.35081  36.84  0.003757445    1.954    0.488
        29 -13.6722    111.1415    210.6009   5.9215607080e+01   1.6038914823e+01    0.7080963    0.4074175  49.07  0.003603249    1.737    0.424
        30 -12.5585     69.3539    206.2590   6.8758528425e+01   2.2698420874e+01    0.3972939    0.1690977  44.04  0.001778693    1.935    0.483
        31 -14.7253    130.7754    197.9648   5.3020990651e+01   1.5535261947e+01     1.055595    0.7649518  50.11  0.005919111    1.446    0.308
        32 -13.7571     70.4343    197.2290   6.7582906219e+01   2.4510617012e+01     0.887817    0.2929797  39.61  0.003497899    2.371    0.578
        33 -12.7269     93.2859    202.8541   6.2493453818e+01   2.0129333008e+01    0.4355204    0.2597429  37.77  0.001613629    1.417    0.294
        34 -13.7654     84.4387    199.7348   6.4310735373e+01   2.2037025576e+01    0.8337238    0.3128909  39.34   0.00311522    2.162    0.537
        35 -13.4047    148.6240    200.2646   4.9470320970e+01   1.2433345130e+01    0.4649746    0.3857333  -8.87  0.002509542    1.250    0.200
        36 -13.4326     22.5967    184.4261   7.9258139965e+01   3.3161062965e+01    0.5136867     0.375816  64.14  0.001887978    1.150    0.130
        37 -13.3216     26.8687    196.1969   7.8817674327e+01   2.9972390522e+01    0.5830649    0.2833346  42.76  0.002247685    1.620    0.383
        38 -13.1323     19.9034    191.4312   8.0374695427e+01   3.1775504968e+01    0.5268878    0.3334746  76.27   0.00237228    1.440    0.305
        39 -14.7389    207.0596    189.7310   3.6642242533e+01   5.7669814240e+00    0.4875926    0.3960917 -23.79  0.003283436    1.152    0.132
        40 -14.6575    203.2974    180.5115   3.5694774159e+01   7.6470702334e+00     1.117484    0.7187681   1.20  0.006237334    1.865    0.464
        41 -13.0513     60.5373    190.3698   6.9468643175e+01   2.7367316645e+01    0.4479097    0.2928275  43.99  0.001499173    1.295    0.228
        42 -14.1559    101.0315    186.8658   5.8507154996e+01   2.2347662912e+01    0.7371687    0.6304578  75.93  0.004276312    1.265    0.210
        43 -14.3478    164.7165    183.5954   4.3428501058e+01   1.2903410443e+01    0.7932824    0.5324336 -28.12  0.003453194    1.598    0.374
        44 -14.4652     25.7926    172.2669   7.7566862885e+01   3.5800537058e+01    0.8414293    0.4849972 -82.79  0.002970421    1.686    0.407
        45 -12.4709      2.4886    176.1280   8.4383233908e+01   3.6965633091e+01    0.3771415    0.2293888 -81.70  0.002064424    1.577    0.366
        46 -12.0916      8.5626    170.6672   8.2439834202e+01   3.7802619539e+01    0.2967004    0.1837055  56.65 0.0009973061    1.342    0.255
        47 -13.4109      2.8993    169.7550   8.4019639830e+01   3.8488444670e+01    0.3738282    0.2927972  59.53    0.0011143    1.044    0.042
        48 -13.3654    101.4966    159.1221   5.4069552651e+01   2.8506284364e+01    0.6210629    0.3567788 -66.27  0.002670603    2.000    0.500
        49 -12.2883    130.2691    161.0001   4.7016452102e+01   2.3043881120e+01    0.3482169    0.2081267  38.91  0.001604303    1.598    0.374
        50 -16.5078     11.9653    148.7638   8.0171337170e+01   4.3089782021e+01     2.254182    0.8484397  26.37  0.009299955    2.494    0.599
        51 -14.1719    248.6003    240.3651   3.7943302044e+01  -5.0859325840e+00     0.654298    0.2150746 -29.42  0.003700465    2.760    0.638
        52 -15.4165     24.0926     69.9920   6.4745089259e+01   6.3141581364e+01      1.53038    0.8575707 -62.24   0.00585981    1.630    0.386
        53 -17.6207     14.5099    120.0626   7.6973976042e+01   5.0547638720e+01     3.802497     2.348084  17.72   0.01407478    1.810    0.447
        54 -16.1559     14.4310     97.1070   7.4402606495e+01   5.6790788086e+01     2.276537     1.133402  35.59   0.01019718    1.980    0.495
        55 -12.6387      6.7693    159.4288   8.2413149158e+01   4.0765425929e+01    0.4894582    0.1432323  40.33  0.001941112    2.575    0.612
        56 -13.5793    186.7983    153.2160   3.3522287884e+01   1.4607287808e+01    0.4934943    0.3688503  54.40  0.002781115    1.621    0.383
        57 -15.8358     90.4221    136.4544   5.3062808293e+01   3.5923318001e+01     1.235146    0.9705898 -58.95  0.005650561    1.297    0.229
        58 -15.0451    211.8958    125.1595   2.3604415988e+01   1.4985375124e+01     1.038258    0.9374861  75.15  0.006804401    1.368    0.269
        59 -14.3019    200.8404    133.7645   2.7129723024e+01   1.5495138368e+01     1.020585    0.7181269  78.07  0.005150323    2.387    0.581
        60 -15.3204    190.1515    118.6846   2.5629995924e+01   2.0000752479e+01      1.60992    0.9688994 -38.45  0.006943234    1.511    0.338
        61 -16.4429    103.8195    111.6322   4.3470405630e+01   3.9424573062e+01     2.775834    0.9300618  44.69  0.008750296    2.930    0.659
        62 -16.1608    111.8284    125.3978   4.4462907283e+01   3.4539903682e+01      1.62567     1.134732  35.13   0.00740384    1.524    0.344
        63 -13.7166    173.5350    112.7058   2.7177530786e+01   2.4360340863e+01    0.5188034    0.3232208 -42.24  0.002484932    1.493    0.330
        64 -14.5401    144.0590    235.0697   5.5193002920e+01   7.3496564175e+00     1.068848    0.4126819  35.35  0.005201932    2.107    0.525
        65 -14.0275      2.5884     36.0983   6.9522135376e+01   7.3153318845e+01    0.6519172    0.3262855 -61.02  0.003257463    1.731    0.422
        66 -15.3166     91.6010    228.4845   6.5662742026e+01   1.5363763616e+01     1.054987    0.8302349  58.50  0.004779574    1.287    0.223
        67 -13.2537    158.5528    234.7919   5.2301880017e+01   5.5378677200e+00     0.349361    0.2302666  34.66  0.002139741    1.351    0.260
        68 -12.8100     46.4836     36.9922   4.0372501984e+01   6.7611748319e+01    0.2790115    0.1974025  23.79  0.001396937    1.610    0.379
        69 -13.3697    189.4543     29.1918   3.2583181921e+00   3.3982051720e+01     0.247046    0.2138661  47.35  0.001508733    1.506    0.336
        70 -14.2785    122.4850    231.0601   5.9171000151e+01   1.0822687612e+01    0.6346918    0.4116913  -1.60  0.003427695    2.131    0.531
        71 -12.5968     29.8377     26.3198   4.4826307908e+01   7.2419212523e+01    0.3767347    0.1794628  31.39  0.001669339    2.194    0.544
        72 -14.0796    175.3934    222.6711   4.7448198210e+01   5.1506460214e+00    0.5429918    0.3073239  17.44  0.002508207    1.772    0.436
        73 -15.3863    176.8780    211.3689   4.5512929136e+01   6.6243595290e+00      1.02636    0.5894042  43.35  0.004996738    1.939    0.484
        74 -17.1419    238.4133    202.3096   3.3774016227e+01   2.3988949315e-01     2.007363     1.312127 -33.15   0.01189865    1.454    0.312
        75 -14.6230     12.4813    214.4193   8.3249223773e+01   2.7364236270e+01      1.03791    0.3616399  74.36  0.004450614    2.963    0.662
        76 -15.1328    200.5529    213.2332   4.1526645283e+01   3.2985991345e+00      1.06748    0.4679764 -30.90  0.005554619    2.360    0.576
        77 -14.2188    161.9593    215.0094   4.8932705759e+01   8.0845052399e+00    0.4128572    0.2653544  26.56  0.001934965    1.365    0.267
        78 -11.8827     65.4778    216.4802   7.0632071782e+01   2.1063589877e+01    0.3238702    0.1399978  56.56  0.001404649    2.473    0.596
