#   1 NUMBER                 Running object number                                     
#   2 MAG_AUTO               Kron-like elliptical aperture magnitude                    [mag]
#   3 X_IMAGE                Object position along x                                    [pixel]
#   4 Y_IMAGE                Object position along y                                    [pixel]
#   5 X_WORLD                Barycenter position along world x axis                     [deg]
#   6 Y_WORLD                Barycenter position along world y axis                     [deg]
#   7 A_WORLD                Profile RMS along major axis (world units)                 [deg]
#   8 B_WORLD                Profile RMS along minor axis (world units)                 [deg]
#   9 THETA_WORLD            Position angle (CCW/world-x)                               [deg]
#  10 FWHM_WORLD             FWHM assuming a gaussian core                              [deg]
#  11 ELONGATION             A_IMAGE/B_IMAGE                                           
#  12 ELLIPTICITY            1 - B_IMAGE/A_IMAGE                                       
         1 -14.3610    199.8653     17.1070   6.4711840390e+01   3.3109177251e+01     2.602531     1.576661  32.32    0.0100142    2.369    0.578
         2 -13.7332    204.7684     10.0792   6.2282000638e+01   3.2617403044e+01     1.361087    0.7592621  49.81  0.001450242    1.983    0.496
         3 -13.6917      7.1647      9.7660   1.1775935276e+02   7.3086883785e+01     1.645344    0.7578849 -34.12  0.009687229    1.753    0.430
         4 -10.3630    222.9567    244.4930   1.1276002859e+02  -6.4818620476e+00    0.1839284    0.0908064  37.00 0.0008388102    1.616    0.381
         5  -9.0862    205.3089    250.3308   1.1664811909e+02  -4.4883261580e+00    0.1173564     0.074937  15.40 0.0007040999    1.666    0.400
         6  -9.8410    184.0067    250.4855   1.2039925816e+02  -1.1997479441e+00    0.1830979   0.09146229  39.53 0.0004555509    1.548    0.354
         7 -10.7930    152.7592    243.8673   1.2517188876e+02   4.7112556008e+00    0.2118719    0.1822336  56.11  0.001491149    1.169    0.144
         8 -11.5327    145.8531    240.7222   1.2605426207e+02   6.2998747370e+00    0.3109131     0.181642  49.83 0.0006832503    1.431    0.301
         9 -11.1311    143.6322    249.3236   1.2748191968e+02   5.3735074245e+00    0.2677469     0.182033  74.37  0.001113746    1.950    0.487
        10 -11.8753    149.3599    247.9902   1.2629091885e+02   4.6567321568e+00    0.6258641    0.2273043  47.60  0.002903167    2.287    0.563
        11 -10.3071    135.7067    250.6893   1.2906221888e+02   6.4208579175e+00    0.2056017    0.1684663 -86.16 0.0001721841    1.488    0.328
        12 -10.9638    132.3281    249.0653   1.2949161102e+02   7.1932892168e+00    0.3171305    0.1872448  59.78  0.001462164    1.692    0.409
        13 -11.6050     96.6083    239.0468   1.3496154626e+02   1.4275937798e+01    0.4628267    0.2875895  88.41  0.002332689    1.860    0.462
        14 -11.3314    104.2428    237.9007   1.3344633969e+02   1.3327821183e+01    0.6099097    0.2755301  59.42  0.002977951    2.307    0.567
        15  -9.2843     92.4519    232.5090   1.3510378275e+02   1.6024795931e+01    0.2221123    0.1089964 -75.41   0.00114729    2.496    0.599
        16 -12.0285     99.3717    246.4874   1.3515811124e+02   1.2624041012e+01    0.6056879    0.5087084  53.19  0.004487445    1.191    0.161
        17 -11.1567    114.9445    249.9829   1.3270891560e+02   9.7344582323e+00    0.5383756    0.2371299  38.94    0.0028108    1.969    0.492
        18 -11.5022    109.9257    247.6240   1.3337519461e+02   1.0867136632e+01    0.4499069    0.3229459  47.04  0.002442136    1.141    0.124
        19 -10.6907    121.9442    245.1307   1.3094812493e+02   9.4224950445e+00    0.3643253    0.1572596  54.54  0.001784244    2.199    0.545
        20 -12.2485    126.5126    240.9496   1.2965524337e+02   9.3696362565e+00    0.5399005    0.3664062 -60.31  0.002393654    1.809    0.447
        21 -11.4250     90.1925    237.0707   1.3595105848e+02   1.5556550964e+01    0.4979564    0.2996105  55.16  0.003089491    1.311    0.237
        22  -9.5249     83.6271    242.1883   1.3759231123e+02   1.5614751851e+01     0.249178    0.2042011 -35.19  0.001584945    2.117    0.528
        23 -10.2336     87.4303    250.6337   1.3763005352e+02   1.3665633201e+01    0.4606725    0.1487495  36.89  0.001764945    3.228    0.690
        24 -10.7417     88.0208    247.4756   1.3726161776e+02   1.4102384698e+01    0.2666587    0.1731674  31.25   0.00111308    1.920    0.479
        25  -9.3421     83.5200    238.4241   1.3728755783e+02   1.6278892289e+01    0.2050467    0.1282812  54.88 0.0004726381    1.232    0.188
        26  -9.8764     86.2987    237.3001   1.3668342932e+02   1.6078573550e+01    0.2146127    0.1580082  80.41 0.0005346658    1.277    0.217
        27  -9.8047     72.6421    250.6961   1.4019132281e+02   1.5691134893e+01    0.5837348   0.09035545  38.76  0.001854818    6.081    0.836
        28 -14.6861     25.4691    154.9705   1.4154474817e+02   4.0563564159e+01     2.846352     1.624179 -45.01   0.01300411    2.382    0.580
        29 -12.4250    135.2719    236.7284   1.2753889008e+02   8.6395155620e+00    0.4092236    0.3585097 -67.07  0.001325852    1.389    0.280
        30 -12.1921     42.5944    237.5053   1.4444575775e+02   2.1784642164e+01    0.4744864    0.2561691  67.11  0.001389865    1.474    0.322
        31 -10.6742    165.7683    241.6472   1.2250843889e+02   2.9174925107e+00    0.3147477    0.1521193  33.56 0.0008652639    1.945    0.486
        32 -10.1705    173.1259    239.8309   1.2091961407e+02   1.9713840299e+00    0.2309352    0.1788313 -52.82 0.0008518755    1.690    0.408
        33 -10.7533    115.8465    240.0789   1.3152916304e+02   1.1183617290e+01    0.2133874    0.1572674  62.07  0.000611053    1.188    0.158
        34 -10.5398    165.8593    235.5626   1.2167722596e+02   3.7810381762e+00    0.2446165    0.2053239 -56.83  0.001397302    1.523    0.343
        35  -9.9739    162.0762    232.6634   1.2198801098e+02   4.8425019958e+00     0.201611    0.1281467  51.60 0.0006584514    1.453    0.312
        36 -11.6442     81.0296    246.2506   1.3839061846e+02   1.5289429692e+01    0.6032074    0.3029914 -86.30  0.003331111    2.483    0.597
        37 -10.8993     70.2182    235.6202   1.3945537857e+02   1.8613735497e+01    0.3921848    0.1922761  54.89  0.002271923    1.612    0.380
        38 -10.9579     98.3229    231.0758   1.3386246929e+02   1.5402669043e+01    0.3457805    0.2571375 -85.60  0.001308238    1.419    0.295
        39  -9.7968     93.7643    217.6302   1.3333972617e+02   1.8543536527e+01    0.2739937    0.1678723 -83.61  0.001530244    1.844    0.458
        40 -10.8220     92.7720    226.0703   1.3440914753e+02   1.7131307548e+01    0.2927178    0.1817459  53.39 0.0004086072    1.296    0.228
        41 -12.1192     98.6707    223.5247   1.3301306753e+02   1.6704538599e+01    0.4901037    0.2815067  39.75  0.001767646    1.613    0.380
        42 -11.8971    136.1617    227.8096   1.2627271423e+02   9.9452648106e+00    0.4279291    0.3137458 -17.98   0.00239289    2.319    0.569
        43 -11.7423    121.8985    232.6993   1.2958421147e+02   1.1454382314e+01    0.3503154     0.286828  62.10  0.001350367    1.095    0.087
        44 -10.8982    180.3406    229.1774   1.1807788681e+02   2.2874928331e+00     0.398285    0.2787623 -85.51  0.002012387    2.976    0.664
        45 -10.8978    156.6213    231.5917   1.2286895433e+02   5.9195906287e+00    0.2386105    0.1987731  31.72 0.0004890432    1.163    0.140
        46 -11.0722    141.8004    230.7453   1.2556754064e+02   8.5281039311e+00    0.3211841    0.2450765 -15.27  0.001102771    2.061    0.515
        47 -12.3777    109.9536    230.2852   1.3157951629e+02   1.3755924791e+01    0.8802766    0.2933084  43.81  0.003105889    2.376    0.579
        48 -10.9153    165.3941    227.1130   1.2058795444e+02   5.1253436367e+00    0.4062152    0.2586357 -66.41  0.002151331    2.455    0.593
        49  -9.6128    155.9650    223.5085   1.2188129637e+02   7.3016452796e+00    0.2519068    0.1030508  45.46 0.0007669473    2.047    0.511
        50  -9.9741    160.6539    223.7739   1.2101651284e+02   6.4548954470e+00     0.243551    0.2046263   8.85 0.0007410344    1.410    0.291
        51  -9.2751    164.6116    220.6019   1.1979451995e+02   6.2737053340e+00    0.2609339    0.1214717 -35.37 0.0008711324    3.130    0.681
        52 -10.4913     84.5473    229.7815   1.3632128298e+02   1.7663597681e+01    0.2415431    0.1919273  36.93 0.0008820037    1.470    0.320
        53  -9.2819    150.2721    229.5848   1.2380372215e+02   7.2986709361e+00    0.2574285   0.09711841  45.75  0.001136045    2.188    0.543
        54 -10.7537     79.8755    228.5096   1.3707763455e+02   1.8560832338e+01    0.4006075    0.2970583 -32.81    0.0022821    2.589    0.614
        55  -9.9544     78.6737    224.6925   1.3695522554e+02   1.9432724814e+01    0.2459918    0.1891753  21.46  0.001531882    1.985    0.496
        56 -10.6929     77.8080    221.1042   1.3678680315e+02   2.0225901760e+01    0.3166529    0.1605331  60.04  0.001131953    1.783    0.439
        57  -8.9715    197.9994    227.9923   1.1464403086e+02  -4.9613506780e-01    0.1493009     0.125681  24.66  0.001000433    1.052    0.050
        58  -9.8738    190.8993    228.0551   1.1595470603e+02   6.7581785591e-01     0.183282    0.1489021  32.81 0.0003210296    1.018    0.018
        59  -8.4943     71.2709    228.3031   1.3865992919e+02   1.9794521206e+01   0.09362985   0.09187046 -70.90 0.0002728991    1.533    0.348
        60 -11.1423    132.5659    224.6935   1.2657201782e+02   1.1066711097e+01    0.2516172    0.2163147 -15.10  0.001063389    1.649    0.394
        61 -10.4020    149.6972    222.7721   1.2299101459e+02   8.4946078618e+00    0.2958346    0.2217157   6.54  0.001670871    1.940    0.485
        62 -10.8621    117.3640    224.3469   1.2948204803e+02   1.3618827722e+01    0.2225496    0.1899696  55.04 0.0002851762    1.080    0.074
        63  -8.9271     73.4706    225.4748   1.3800572193e+02   2.0014673058e+01    0.1210434   0.09055884  65.36 0.0003854747    1.032    0.031
        64  -8.9704    220.0076    223.6568   1.0999684162e+02  -3.5150634831e+00    0.1672503    0.1289978  26.81  0.001093548    1.063    0.059
        65 -11.9109    142.1073    221.4589   1.2428960137e+02   1.0008266285e+01    0.3549474    0.3006123  48.37  0.002315677    1.028    0.028
        66 -11.3380    138.1039    214.1989   1.2408723773e+02   1.1944708155e+01    0.5582258    0.3009624  36.52  0.001808693    1.767    0.434
        67 -10.5048    105.1435    219.1451   1.3126816800e+02   1.6503697899e+01    0.3081524    0.1966479  76.60  0.000395068    1.764    0.433
        68  -9.9251    101.2999    216.0564   1.3167660474e+02   1.7680211642e+01     0.245944    0.1651048  54.87   0.00107003    1.239    0.193
        69 -10.2878    102.0438    212.0023   1.3105974866e+02   1.8330383609e+01    0.3835029    0.1967698  63.62  0.001364543    2.203    0.546
        70  -9.6993     88.8652    220.0891   1.3455451300e+02   1.8815803495e+01    0.3991967    0.1820731 -44.90  0.001664307    4.151    0.759
        71 -10.7174    110.3647    222.4929   1.3062829286e+02   1.5069022520e+01    0.2640247    0.2376332 -46.79 0.0006984531    1.480    0.325
        72 -14.3629     27.3015    247.5188   1.4753431553e+02   2.1785941402e+01     1.185574     0.786275  56.17  0.009183685    1.191    0.161
        73  -9.6963     30.8334    218.5348   1.4533767150e+02   2.6645679857e+01    0.2717432    0.1000696  61.14  0.001201489    2.382    0.580
        74 -10.3455    245.8317    219.1524   1.0478965469e+02  -6.9781402935e+00    0.1732716    0.1175546   9.86 0.0007228595    1.341    0.255
        75 -10.6480     88.1772    213.1936   1.3397073857e+02   2.0228925880e+01    0.2709805    0.2259085 -87.11 0.0006205956    1.209    0.173
        76 -10.7494    131.6252    212.0138   1.2508721230e+02   1.3447896440e+01    0.2449302    0.2070083  64.76  0.000359496    1.116    0.104
        77  -9.6412    135.4563    207.8963   1.2373503497e+02   1.3532064522e+01    0.3295629    0.2128335  27.46  0.001628564    1.870    0.465
        78  -9.2964    152.1233    211.8842   1.2095426114e+02   9.8979400630e+00    0.1967023    0.1585644  60.23 0.0005484382    1.236    0.191
        79  -9.6696    108.8239    207.9762   1.2919438655e+02   1.8015423181e+01    0.2312283    0.1493626 -65.34  0.001286386    1.700    0.412
        80  -8.9865    197.7090    208.0112   1.1144960776e+02   2.4051407693e+00    0.1676098    0.1498127  18.22 0.0002344739    1.070    0.066
        81 -10.6988    174.7127    206.1112   1.1556762146e+02   6.8178830567e+00    0.3410036    0.2310822 -23.42   0.00120394    1.947    0.486
        82 -11.5136     92.8988    205.0888   1.3211364614e+02   2.1099256864e+01    0.6384781    0.2962067  47.60  0.001768206    1.837    0.456
        83 -11.7813    247.5842    205.0249   1.0200511387e+02  -5.5256844298e+00    0.4500889      0.27263  25.95  0.002608282    1.501    0.334
        84  -8.4628    183.3093    206.3080   1.1391894147e+02   5.2341291703e+00    0.1315873   0.09566773  12.72 0.0003352999    1.617    0.381
        85  -9.4019    125.9074    205.7171   1.2538552827e+02   1.5587808463e+01    0.1912319    0.1483943  51.91 0.0004914652    1.100    0.091
        86  -9.2021    113.6996    204.2901   1.2771602535e+02   1.7923747289e+01      0.32802    0.1685665 -72.95  0.001466328    2.649    0.622
        87 -10.5714    115.2509    200.2757   1.2685375910e+02   1.8444937334e+01    0.2306141     0.214312  62.25 0.0002398534    1.134    0.118
        88 -10.2627    119.9913    199.4582   1.2574374246e+02   1.7799341681e+01    0.4344072    0.2145497  57.64  0.001907418    2.211    0.548
        89  -9.7105    149.4610    204.3740   1.2035602378e+02   1.1684546718e+01    0.2745019    0.2083501  -4.56  0.001130274    1.982    0.495
        90 -10.7295    102.7240    202.7703   1.2980084500e+02   2.0014846014e+01    0.4285732    0.2314342  57.10  0.002130102    1.767    0.434
        91  -9.6970    100.3607    198.2674   1.2972704406e+02   2.1292860042e+01    0.3298441    0.2532876  -0.79  0.001723882    2.385    0.581
        92 -10.3464     98.7855    195.4195   1.2969636288e+02   2.2122752788e+01    0.4619353    0.2605025  26.67  0.002008171    2.603    0.616
        93  -9.2731     76.0394    203.3352   1.3537699022e+02   2.3948087105e+01    0.3039023    0.2029019  28.57  0.001699048    1.959    0.490
        94 -10.4394    166.9734    203.2308   1.1663306560e+02   8.7054275543e+00    0.1984592    0.1626941  27.19 0.0003035657    1.203    0.169
        95 -10.5923    169.7830    200.2086   1.1556953290e+02   8.7044232045e+00    0.2286372    0.1963302  31.03  0.000340951    1.090    0.082
        96  -9.6642    133.0383    202.9493   1.2351878073e+02   1.4867830129e+01    0.2001746    0.1722701  60.32 0.0003222128    1.056    0.053
        97  -9.8129     37.5553    202.6189   1.4299810210e+02   2.9024698333e+01    0.2505415    0.1534721 -87.44  0.001300753    1.404    0.288
        98  -8.9062    224.9711    202.5403   1.0547273955e+02  -1.5241997917e+00    0.1815439    0.1104778  37.29 0.0003701961    1.470    0.320
        99 -10.5495    196.9804    200.5888   1.1030001344e+02   3.6647288361e+00     0.315788    0.2127833  49.45  0.001706246    1.511    0.338
       100  -9.2371     86.2702    199.2870   1.3281500681e+02   2.3273467578e+01    0.1967635    0.1603858  75.97 0.0001798657    1.066    0.062
       101 -10.0037     85.9778    195.9868   1.3249000628e+02   2.3994222394e+01    0.1929459    0.1590249  70.44  0.001217626    1.012    0.012
       102  -8.9764    158.7516    199.4343   1.1767652021e+02   1.0871594298e+01    0.1852648     0.117669  35.10 0.0004312246    1.504    0.335
       103  -9.9839    134.1587    197.9398   1.2254198587e+02   1.5614027206e+01    0.2017317    0.1636834  68.86 0.0002970057    1.238    0.192
       104 -11.9482     69.9070    194.7029   1.3573639538e+02   2.6584325424e+01    0.4301556    0.3371491 -27.21  0.001942557    2.222    0.550
       105 -12.0557     74.6802    187.8275   1.3395367461e+02   2.7365291808e+01    0.3703023    0.2851663  61.52  0.001001428    1.125    0.111
       106 -10.4004    112.9849    193.8721   1.2644711567e+02   2.0099213290e+01    0.4430157    0.2680627 -68.58   0.00161068    1.861    0.463
       107  -9.2481    107.3168    196.0810   1.2796392493e+02   2.0602230195e+01    0.1825545    0.1555428  84.23 0.0007235721    1.131    0.116
       108 -10.1436    159.5481    194.1551   1.1663754271e+02   1.1667461704e+01    0.3274732    0.2026434  52.11  0.001044735    1.566    0.362
       109 -10.9467    120.4630    192.8743   1.2469709469e+02   1.9015695058e+01    0.3458617    0.3200455 -41.47 0.0007815413    1.330    0.248
       110  -9.9845     38.4311    193.3095   1.4210128443e+02   3.0839355588e+01    0.2949823    0.1822387 -69.33  0.001316537    1.564    0.361
       111 -11.8465    249.8607    186.5321   9.8167542727e+01  -3.4875286098e+00    0.6708086    0.2268004 -29.92  0.002705932    3.073    0.675
       112  -9.9103     82.7475    193.7646   1.3291385131e+02   2.4937995946e+01    0.2966352    0.2245817   4.13  0.001020815    2.450    0.592
       113 -10.7894     26.0254    192.7515   1.4453779424e+02   3.2301442526e+01    0.2462491    0.1384436 -82.98  0.001264359    1.499    0.333
       114 -10.9973     31.0691    189.9527   1.4332393321e+02   3.2353203007e+01    0.4803469    0.2707037  64.11  0.002175753    1.515    0.340
       115 -10.4609     26.3256    184.3229   1.4385986754e+02   3.4037211686e+01    0.2571889    0.1599243  58.46   0.00163437    1.383    0.277
       116 -10.2285     29.4706    182.6166   1.4307816061e+02   3.4075254354e+01    0.3305576    0.2046254  74.17   0.00205289    1.362    0.266
       117  -9.9832    173.2657    192.2229   1.1349420522e+02   9.4308350836e+00    0.3416435    0.2224767  -1.92   0.00123682    2.736    0.634
       118  -9.6304     47.3043    192.8956   1.4025894164e+02   2.9889065092e+01    0.1662047    0.1371046 -73.80  0.001137145    1.322    0.244
       119 -15.2552      5.5779    241.5632   1.5071725553e+02   2.5076969788e+01     2.565536    0.8892905 -79.25  0.009553983    2.536    0.606
       120 -10.2839    191.4359    191.3857   1.0971851557e+02   6.1513116534e+00    0.2586825    0.2211954  20.34 0.0005824373    1.107    0.096
       121  -9.3272    135.2906    190.1221   1.2108849370e+02   1.6917148195e+01    0.1826117    0.1665103  74.51 0.0004194996    1.091    0.084
       122  -9.8464     43.4315    188.4539   1.4066624906e+02   3.1285992956e+01    0.2990855    0.2333706  -6.01   0.00144166    2.430    0.588
       123 -10.0383    176.3849    187.0452   1.1193176351e+02   9.7428071161e+00    0.3404354    0.1861763  48.47  0.001085263    1.746    0.427
       124  -8.7447    150.7110    187.3150   1.1732838258e+02   1.4594642852e+01    0.1372925    0.1046522  75.25  0.000221145    1.590    0.371
       125  -9.3666     67.5650    186.7511   1.3537226001e+02   2.8590217436e+01    0.2028562    0.1449338  34.68 0.0004769523    1.610    0.379
       126  -9.4125    154.5363    185.0213   1.1611833822e+02   1.4303118893e+01    0.1965164    0.1397953 -47.41 0.0005535068    1.556    0.357
       127 -10.2749    140.0414    183.1027   1.1890701994e+02   1.7419905193e+01    0.3100663     0.189928  54.12  0.001258178    1.602    0.376
       128  -9.4086     81.8299    184.0661   1.3193385401e+02   2.7128864335e+01      0.21583    0.1559297 -88.93 0.0003157155    1.335    0.251
       129  -8.9177     87.3902    183.4131   1.3061755015e+02   2.6428126667e+01    0.4310346     0.187124  35.46  0.001842086    2.490    0.598
       130  -9.5970     36.9436    184.1115   1.4164265529e+02   3.2950687855e+01    0.2405594    0.1422769  45.65 0.0007388697    1.594    0.373
       131  -8.9666    217.4550    183.4545   1.0326037361e+02   2.5806825661e+00    0.1328335    0.1187241  15.56 5.194791e-05    1.037    0.036
       132 -10.0343    114.9875    176.5419   1.2340065218e+02   2.3341958226e+01    0.2532743    0.1835106 -83.39 0.0006792845    1.556    0.358
       133  -9.9030     65.9671    181.9766   1.3518551299e+02   2.9839199191e+01    0.1991616    0.1683403 -77.06            0    1.205    0.170
       134 -10.8395     69.0217    167.0447   1.3267165191e+02   3.2735300117e+01    0.2353011    0.1960047  85.62 0.0003320156    1.032    0.031
       135 -11.8623     69.6612    174.4152   1.3346121040e+02   3.0994417079e+01    0.4111407    0.3413844 -42.15  0.002494661    1.616    0.381
       136 -10.2449     76.5099    175.2636   1.3200668208e+02   2.9833081789e+01    0.3954616    0.1939173  61.21  0.001470265    2.287    0.563
       137  -9.6751     54.4936    182.0303   1.3770109618e+02   3.1325800949e+01    0.1808808    0.1540395  52.71  0.001204028    1.259    0.206
       138 -10.4087    131.8778    180.9036   1.2032845085e+02   1.9380526763e+01    0.5077543    0.2946315  25.41  0.001892319    2.534    0.605
       139 -10.0314    128.7283    179.3618   1.2077024201e+02   2.0275852571e+01    0.2535401    0.2180604  88.22 0.0007334675    1.204    0.169
       140  -9.5611    104.0622    180.6973   1.2650949945e+02   2.4334205967e+01    0.1847693    0.1552775  55.96 0.0002939391    1.092    0.084
       141  -9.5849    175.5647    180.0021   1.1079276260e+02   1.1156120492e+01    0.1984993    0.1393018 -41.04 0.0003667049    1.552    0.356
       142  -8.8867    170.0399    180.0231   1.1194364325e+02   1.2234526387e+01    0.1618505    0.1534107  34.51            0    1.040    0.038
       143  -9.3293     48.1899    179.7098   1.3883659435e+02   3.2604846027e+01    0.1843759    0.1196345  56.47 0.0005685635    1.377    0.274
       144 -11.5809     83.4921    175.7047   1.3047025890e+02   2.8700282906e+01     0.338483     0.314959 -51.51 0.0007859932    1.345    0.257
       145  -9.8625     29.9492    177.3481   1.4254753303e+02   3.5158963149e+01    0.2726801    0.1642291  43.29  0.001086535    1.643    0.392
       146 -10.0917    179.2934    174.9912   1.0906170870e+02   1.1326595177e+01    0.2525306    0.1918316  65.30  0.000662691    1.594    0.373
       147 -12.6922     88.8624    167.0982   1.2799726676e+02   2.9786063128e+01    0.8619295    0.7122636 -69.41   0.00506424    1.196    0.164
       148 -10.6642     89.7758    160.5845   1.2677833879e+02   3.1114021404e+01    0.3642177    0.2557254  87.85 0.0006149564    1.533    0.348
       149 -12.5385    248.2038    171.9349   9.5562776447e+01  -1.1917706494e+00    0.6566785    0.5173808  -2.78  0.004010091    1.160    0.138
       150 -13.0087    248.3113    113.9402   8.2923490908e+01   7.5897308136e+00     1.503138    0.8427435 -21.64  0.006708926    2.001    0.500
       151 -12.5561    248.1414    101.6800   8.0094278084e+01   9.5450840638e+00    0.8503069    0.5093981 -31.16  0.004119344    1.541    0.351
       152 -13.0584    245.6009    156.5866   9.2822398642e+01   1.5120967433e+00     1.481234      1.02984 -60.07  0.007339805    2.295    0.564
       153 -12.6710    248.5225    133.9084   8.7421757462e+01   4.4295218142e+00     1.079616    0.8312562 -17.87  0.005991127    1.238    0.192
       154  -8.8912     28.4576    173.4618   1.4254007150e+02   3.6157697791e+01    0.1704074   0.09339293 -67.47 4.128638e-05    1.654    0.396
       155  -9.7386     31.5038    171.5314   1.4170959832e+02   3.6267390358e+01    0.2094408    0.1395656  69.07 0.0005765419    1.298    0.230
       156  -9.7291     28.5621    170.2066   1.4223737838e+02   3.6860660922e+01    0.2160598    0.1850567 -48.92 0.0006161443    1.573    0.364
       157 -10.4867     80.7537    163.6566   1.2941958384e+02   3.1810759665e+01    0.2535925    0.2147885  85.42  0.001516323    1.048    0.045
       158  -8.9832    100.6255    170.7445   1.2579041096e+02   2.7065767171e+01    0.1864351    0.1251735 -74.86 0.0009351429    1.575    0.365
       159  -9.1905    167.1885    170.1951   1.1066438418e+02   1.4643256743e+01    0.1905681    0.1692465  89.67  0.001044398    1.308    0.235
       160 -10.8186     43.8364    168.8726   1.3870506319e+02   3.5509516351e+01    0.3348288    0.2864493 -77.36   0.00174485    1.207    0.172
       161 -10.1829     47.7002    168.3303   1.3776900319e+02   3.5181093517e+01    0.2713009    0.1676337  70.22  0.001219573    1.539    0.350
       162  -9.6295    107.1194    168.3326   1.2388774688e+02   2.6492280837e+01    0.1980943    0.1608035  55.61 0.0004880886    1.143    0.125
       163  -9.2022     58.5236    167.5212   1.3518380733e+02   3.4028830982e+01    0.1300865    0.1076732  82.93 6.075891e-05    1.002    0.002
       164 -11.3108     95.7020    172.8828   1.2725941649e+02   2.7406104881e+01    0.2835641    0.2248838 -74.09 0.0003004321    1.235    0.190
       165  -9.1695    136.2298    165.4495   1.1661541438e+02   2.1753483023e+01    0.1962216     0.129471  54.86 0.0002761206    1.506    0.336
       166 -10.2412     47.0428    163.2364   1.3736058945e+02   3.6407131834e+01    0.2327416    0.1642061  82.55 0.0003340862    1.254    0.202
       167 -10.0086     37.0683    162.8098   1.3962785552e+02   3.7621767431e+01    0.1891628    0.1350797  71.72  0.000562581    1.232    0.189
       168 -12.4299    248.0584    142.4029   8.9369719557e+01   3.2091314611e+00    0.9005533    0.6156288 -26.82  0.004839858    1.348    0.258
       169  -9.5902    123.1769    160.8808   1.1880575096e+02   2.5227226604e+01    0.2110364    0.1813047  71.67 0.0002969225    1.139    0.122
       170 -11.1284     34.6995    159.5480   1.3984380757e+02   3.8609054677e+01    0.4321548    0.3195135 -11.84  0.002494699    2.395    0.582
       171 -10.9899     96.1658    158.3725   1.2486502064e+02   3.0578738271e+01    0.4230294    0.2339565 -62.03  0.001517248    1.797    0.443
       172 -11.0931     73.5382    157.6813   1.3029649177e+02   3.4237815675e+01    0.4289481    0.3604631  78.98  0.002079358    1.062    0.058
       173 -10.6146     79.1992    158.6562   1.2905610074e+02   3.3186005854e+01    0.2921836    0.1943431 -50.97 0.0002570755    1.645    0.392
       174 -13.2724     13.7499    238.9375   1.4931349528e+02   2.4717670258e+01    0.4525001      0.24334  43.40  0.003179296    1.688    0.408
       175  -9.2038     52.3008    158.4075   1.3555027696e+02   3.6881921005e+01    0.1690113    0.1082814  51.12 0.0009370373    1.511    0.338
       176  -9.6909     47.7308    157.7957   1.3657260209e+02   3.7567034285e+01    0.2052804    0.1693805  63.58 0.0008072034    1.166    0.142
       177  -9.4089    134.4938    155.5419   1.1511121541e+02   2.4203164643e+01    0.2547748    0.1920511 -40.68 0.0006701056    1.479    0.324
       178  -9.9215    132.1851    152.2106   1.1499339925e+02   2.5381265141e+01    0.2628677    0.2330776  80.14 0.0003644041    1.145    0.127
       179 -11.4273    133.4846    142.4179   1.1264389803e+02   2.7264776707e+01    0.9951992    0.3178426 -51.71   0.00313072    3.325    0.699
       180  -9.6512     61.5449    151.7514   1.3241484834e+02   3.7256134647e+01    0.2585177      0.16033  64.14  0.001052786    1.678    0.404
       181 -12.3687     55.6263    150.2060   1.3368095497e+02   3.8370443909e+01    0.6488709    0.5365592  61.68   0.00405518    1.182    0.154
       182  -9.5606     53.1956    146.3873   1.3377466773e+02   3.9560562366e+01    0.2116887    0.1806335  63.62 0.0006981035    1.166    0.142
       183 -10.9365    113.9212    151.2402   1.1923304385e+02   2.9088670853e+01    0.3745961    0.3354395 -37.51  0.002073387    1.296    0.228
       184 -10.8258    101.7817    151.0882   1.2221496976e+02   3.1290836434e+01    0.3737657    0.3041389  61.16  0.001802652    1.186    0.157
       185 -10.2065    104.5743    146.1719   1.2060236246e+02   3.1930373394e+01    0.3125634    0.2333313 -32.51   0.00152978    1.754    0.430
       186  -9.2595    228.4361    155.1220   9.5450780695e+01   4.9661021327e+00    0.2075147    0.1287325 -33.63 0.0005528585    1.561    0.359
       187  -9.9431     96.2857    152.1576   1.2377659701e+02   3.1980066651e+01    0.2795521    0.2237388 -13.86  0.001420361    1.894    0.472
       188 -10.5908     90.3599    149.8974   1.2487244324e+02   3.3476285437e+01    0.2357701    0.2206651  69.48 0.0003935897    1.099    0.090
       189 -12.0263     73.9708    138.8572   1.2721889803e+02   3.8577832212e+01    0.6384479    0.4657303 -86.25   0.00186331    1.384    0.277
       190 -12.8139      8.3513    196.5567   1.4817434748e+02   3.3248318670e+01    0.7574121    0.3625691 -87.84 0.0006049637    1.692    0.409
       191 -13.6352     46.2029    248.5288   1.4450510125e+02   1.9429249145e+01     1.984923    0.7306535  35.31   0.00997754    3.065    0.674
       192 -13.2154     45.3564    228.7090   1.4339746584e+02   2.3051288867e+01    0.5214996    0.3641414  75.97 0.0008315926    1.125    0.111
       193 -14.7965     53.3109    216.3357   1.4103708442e+02   2.4414084407e+01     2.230119     1.904032  45.63   0.01628136    1.415    0.293
       194  -9.3491    142.3219    147.3259   1.1157603454e+02   2.4389156441e+01    0.1503244    0.1214445  -0.43 0.0006377021    1.685    0.406
       195 -13.1334     67.4430    144.3081   1.2981704010e+02   3.8210264251e+01    0.8336035    0.5555522  87.77  0.004305232    1.598    0.374
       196 -14.5620     10.0104    208.1613   1.4848721285e+02   3.0795942256e+01     2.140097    0.9480779 -73.54   0.01205154    1.999    0.500
       197 -11.8819      2.3750    144.7641   1.4605552689e+02   4.4764491280e+01    0.3855509    0.2959513  87.69  0.002787226    1.038    0.037
       198 -12.2776      8.6890    141.4175   1.4428474390e+02   4.5051192004e+01    0.4952526    0.2862864  55.77  0.003020883    1.710    0.415
       199 -11.4528      2.5917    138.3145   1.4549024237e+02   4.6187241722e+01    0.4481909    0.1932972 -70.85   0.00244437    1.778    0.438
       200 -11.8342      2.2799    131.2749   1.4496926984e+02   4.7788426308e+01    0.4578017    0.1996751 -78.25  0.002451827    1.778    0.438
       201 -11.4055      2.1511    125.1513   1.4444984853e+02   4.9177867023e+01     0.370763     0.159114  83.76  0.001785238    2.432    0.589
       202 -11.0795    122.6544    250.0554   1.3133650429e+02   8.5447375543e+00    0.5424488    0.2008753  37.67  0.002509919    2.479    0.597
       203 -11.9006     18.1108    140.3779   1.4188640400e+02   4.4538523276e+01    0.2825633    0.1938054  52.05  0.001655183    1.493    0.330
       204  -8.7250     53.6620    140.2922   1.3279698519e+02   4.0935769457e+01    0.1370618   0.08885657  70.96 0.0007025816    1.645    0.392
       205 -12.3284    248.9192    240.3041   1.0776845967e+02  -9.7843688570e+00    0.4301465    0.3235735  -8.88  0.003160169    1.279    0.218
       206 -10.6908     60.2638    137.7437   1.3067424915e+02   4.0713676378e+01    0.3282267      0.24703  65.17  0.001555026    1.336    0.251
       207 -10.9373     58.9946    133.4944   1.3034126609e+02   4.1883092855e+01    0.2572181    0.1720112 -67.45 0.0006142741    1.324    0.245
       208 -11.9427     47.5279    138.6456   1.3416769045e+02   4.2045079685e+01    0.4458998    0.2241597  22.36  0.002027389    2.859    0.650
       209  -9.5931    118.9855    138.4966   1.1540694393e+02   3.1016947272e+01    0.2148216     0.144365  44.82 0.0003753802    1.476    0.322
       210 -11.0593     13.3380    137.6052   1.4279746105e+02   4.5557423330e+01     0.233539    0.1163696 -72.37   0.00129143    1.581    0.367
       211 -10.6443    112.1345    136.1627   1.1666590253e+02   3.2853130763e+01    0.3823401     0.299461  22.00  0.001183152    1.608    0.378
       212 -12.6494     44.4976    129.9276   1.3373015178e+02   4.4440845905e+01    0.8257196      0.42757  70.67  0.003633778    2.615    0.618
       213  -9.3734    154.6921    172.6498   1.1383681165e+02   1.6662607912e+01    0.2602562    0.1699207  28.83   0.00119515    1.772    0.436
       214 -11.8455     67.2535    127.9907   1.2714148522e+02   4.2102995958e+01    0.5453185    0.3762977  64.21  0.002839337    1.595    0.373
       215  -8.4387    121.6548    155.7159   1.1820220479e+02   2.6647632001e+01    0.1407362    0.1178823   0.74 0.0003575461    1.644    0.392
       216  -9.7003    117.5308    128.9516   1.1369577266e+02   3.3469087552e+01    0.2183946    0.1266619 -30.82 0.0008096194    2.624    0.619
       217 -12.3825     20.6131    121.6118   1.3914539578e+02   4.8660293571e+01    0.4737459    0.2037454 -71.00  0.002008867    1.857    0.461
       218 -12.5596     31.5547    126.8266   1.3682218883e+02   4.6487068680e+01    0.4320101    0.2852399  44.89  0.001777289    1.637    0.389
       219  -9.5080     86.3222    126.3500   1.2153431385e+02   3.9653915268e+01    0.3464034    0.2444665  -2.45   0.00143754    2.497    0.600
       220  -8.5833     93.2467    127.6351   1.1989582457e+02   3.8208989388e+01    0.1473747    0.1074368 -89.68 0.0004513478    1.613    0.380
       221 -11.0805     38.1976    121.6314   1.3424639266e+02   4.7062832606e+01    0.2208625    0.1950766  82.10  0.001201311    1.124    0.111
       222 -12.0346      9.6941    126.5054   1.4262338237e+02   4.8361766504e+01    0.3503968    0.2251217 -33.34  0.002068657    2.167    0.538
       223  -9.8816     50.0839    123.0085   1.3110184547e+02   4.5453588955e+01    0.2159808    0.1433804  74.85  0.001126238    1.706    0.414
       224  -8.5876    143.3506    121.6801   1.0543090258e+02   2.9705057577e+01    0.1627052    0.1230139  87.93  0.000704808    1.742    0.426
       225 -10.4771     54.9351    120.8687   1.2935678268e+02   4.5388482136e+01    0.2795354    0.2017206  31.54  0.001154205    1.609    0.379
       226  -8.5611    130.6980    119.2688   1.0800141273e+02   3.2963717929e+01    0.1515771    0.1199814  83.96 0.0001991975    1.528    0.345
       227 -10.4489    209.7775    125.7200   9.2152509498e+01   1.3833423034e+01    0.2748295    0.2529658 -14.43 0.0004988913    1.071    0.066
       228 -12.1756     31.2356    117.2757   1.3558152346e+02   4.8757792895e+01    0.4069313    0.2926153 -43.52  0.001801686    1.541    0.351
       229  -9.1013     58.9890    117.0250   1.2748927806e+02   4.5800459833e+01    0.1612003    0.1416603 -73.41 0.0003346191    1.006    0.006
       230 -11.9113     15.7926    115.6487   1.3974730500e+02   5.0414575751e+01    0.3597057    0.1411002 -62.61  0.001765975    1.958    0.489
       231  -9.4911    231.5497    116.5134   8.6146714483e+01   1.0664626097e+01    0.1432517    0.1324487 -24.94 6.149528e-05    1.006    0.006
       232 -11.4452    168.3474    113.4940   9.7506380543e+01   2.5699126848e+01    0.4019279    0.3354456 -84.74 0.0008090876    1.422    0.297
       233  -9.2495    134.3333    114.3143   1.0582713112e+02   3.3272275447e+01    0.1567977    0.1255745   1.55 0.0007046055    1.685    0.406
       234  -8.8994     81.9855    114.2402   1.2020218516e+02   4.3200666494e+01      0.16975     0.121049  39.93 0.0002187723    1.501    0.334
       235  -9.5382    203.7564    111.4310   8.9758751071e+01   1.7757106562e+01    0.2124879    0.1401429  40.46 0.0009428777    1.624    0.384
       236 -10.3234     69.9904    111.0849   1.2305434349e+02   4.5736369408e+01      0.20711     0.188342 -64.81 0.0002992313    1.030    0.029
       237 -11.3860     56.6481    110.5714   1.2695151280e+02   4.7622860927e+01    0.3982146    0.2601784   2.91  0.001715867    2.507    0.601
       238 -10.4218      2.3704    110.1796   1.4288630237e+02   5.2556131647e+01     0.172122   0.08818208 -85.05 0.0007803041    1.678    0.404
       239  -9.8389    113.7259    106.4837   1.0927242183e+02   3.9307864743e+01    0.4269423    0.2622403 -81.36  0.001149278    3.169    0.684
       240 -10.6188     62.6292    107.0853   1.2443142568e+02   4.7684161753e+01    0.2191098    0.1867991  63.29 0.0006227713    1.270    0.212
       241 -10.3877     27.4881    107.0287   1.3513971586e+02   5.1487786364e+01    0.1992262     0.102691 -67.82 0.0007454362    1.578    0.366
       242 -10.0430    134.4954    105.0215   1.0334280836e+02   3.5244317466e+01    0.3661097     0.150428 -38.62  0.001216014    2.691    0.628
       243  -9.9722    106.0503    102.9709   1.1050882065e+02   4.1597894212e+01    0.2152371    0.2067304 -66.84  0.001187236    1.012    0.011
       244  -8.5897     42.7158    103.6528   1.2989371720e+02   5.0837805195e+01    0.1348159   0.08582112 -42.42 0.0003753252    1.648    0.393
       245  -9.1684     62.6821     99.6728   1.2280102473e+02   4.9413236412e+01    0.1406296    0.0985764 -32.11 0.0005331992    1.679    0.404
       246  -8.7941    136.7331     94.3151   9.9791607787e+01   3.6991750565e+01    0.1543767    0.1223182 -77.09 0.0003366376    1.549    0.354
       247 -10.5669     47.0687     90.0281   1.2570399917e+02   5.3536080654e+01    0.3395717    0.2125551  14.52 0.0008679485    2.139    0.532
       248  -9.0337     16.8525     90.7941   1.3587683666e+02   5.6055555940e+01    0.1627008    0.1218389 -89.08 0.0002980463    1.325    0.245
       249 -11.5601    135.7774    240.9740   1.2794656392e+02   7.8884455456e+00    0.3251474     0.263748  17.03  0.001344956    1.593    0.372
       250  -8.8928     23.6754     90.7103   1.3362487032e+02   5.5572188002e+01    0.1254976   0.07834495 -42.03  0.000190137    1.611    0.379
       251 -12.6705    245.2316    163.4998   9.4332023690e+01   5.5047259066e-01    0.6318557    0.4356873 -44.63   0.00289254    1.668    0.400
       252  -9.6483    168.9964    249.0736   1.2288728651e+02   1.3663048140e+00    0.1727673    0.1234231  18.70 0.0004640919    1.591    0.372
       253  -9.3724    199.7588    245.7453   1.1696618650e+02  -3.0783174760e+00    0.1480426    0.1207188  45.86  0.000471807    1.321    0.243
