#   1 NUMBER                 Running object number                                     
#   2 MAG_AUTO               Kron-like elliptical aperture magnitude                    [mag]
#   3 X_IMAGE                Object position along x                                    [pixel]
#   4 Y_IMAGE                Object position along y                                    [pixel]
#   5 X_WORLD                Barycenter position along world x axis                     [deg]
#   6 Y_WORLD                Barycenter position along world y axis                     [deg]
#   7 A_WORLD                Profile RMS along major axis (world units)                 [deg]
#   8 B_WORLD                Profile RMS along minor axis (world units)                 [deg]
#   9 THETA_WORLD            Position angle (CCW/world-x)                               [deg]
#  10 FWHM_WORLD             FWHM assuming a gaussian core                              [deg]
#  11 ELONGATION             A_IMAGE/B_IMAGE                                           
#  12 ELLIPTICITY            1 - B_IMAGE/A_IMAGE                                       
         1 -11.7696    212.9957     31.9739   2.1937454793e+01   2.8536014776e+01    0.2370489    0.1859145 -48.68            0    1.016    0.016
         2 -11.2987      2.7924     20.7911   8.7119007390e+01   7.7035100212e+01    0.3810608    0.2617216  62.21  0.001457006    1.825    0.452
         3 -12.2271    125.2634     17.4098   2.6618485427e+01   5.1817032082e+01    0.3955327    0.2826608 -13.91 0.0002965881    1.678    0.404
         4 -11.6421    204.6875     18.8269   1.9128959529e+01   3.1852416257e+01    0.3551061    0.2861758 -83.27  0.002249074    1.244    0.196
         5 -12.1395    203.2814     11.8506   1.7375869507e+01   3.2920394404e+01    0.2459167    0.2037184 -47.11 0.0002500288    1.108    0.098
         6 -10.3818    153.2529     12.7252   2.1441047106e+01   4.4917230309e+01    0.2386111    0.1767121 -61.76 0.0002877506    1.193    0.162
         7 -11.4740     35.2148     11.7672   5.2890325557e+01   7.4749300114e+01    0.4040092    0.3377042 -34.45  0.001946014    1.201    0.167
         8 -10.2827     25.7025     12.3519   6.0423904857e+01   7.6303370749e+01    0.4026308    0.2011383  41.72  0.001874921    2.040    0.510
         9  -9.9172     23.2779      8.9276   5.9801662655e+01   7.7295885388e+01    0.2186998     0.210495 -58.07 0.0006559913    1.212    0.175
        10 -10.0090    185.0034     11.9767   1.8574274345e+01   3.7100580484e+01    0.2293512    0.1191433 -55.04 0.0005858001    1.640    0.390
        11 -12.5653    125.7262     10.3902   2.3722515048e+01   5.2455662782e+01    0.4917735     0.287968 -46.45 0.0005084852    1.612    0.380
        12 -12.4789     55.3479      9.7458   4.0447105981e+01   7.0790944060e+01    0.4514006    0.3345876  33.01  0.002402649    1.428    0.300
        13 -10.8641      9.6531      9.8421   7.3974731665e+01   7.8915581413e+01    0.4641895    0.2318445  52.41  0.001901093    3.453    0.710
        14 -10.1046    230.9586     10.4979   1.5624554329e+01   2.7263967743e+01    0.1822907    0.1269445 -43.33 0.0003395187    1.098    0.089
        15 -10.2921    164.5117     10.7971   1.9778564293e+01   4.2241483495e+01    0.2817559    0.1681311 -59.45 0.0007749983    1.495    0.331
        16 -10.0743     90.4850     10.9289   3.0102617522e+01   6.1866120436e+01    0.3161461    0.1802058  25.52  0.001207592    2.598    0.615
        17  -9.8392     96.9841     10.2009   2.8342195692e+01   6.0218089858e+01    0.2700697     0.165603 -45.83  0.001262708    1.647    0.393
        18  -9.8917    176.8215      9.8187   1.8518145512e+01   3.9292246056e+01    0.1957291    0.1264194 -55.48 0.0003458309    1.303    0.233
        19 -11.3070     42.8193      9.3976   4.6390159256e+01   7.3598104994e+01    0.3732598    0.2305494  61.58  0.001816559    1.828    0.453
        20 -10.5418      3.2847      8.1608   8.0297975665e+01   7.9841758345e+01    0.3799258    0.1922733 -64.47  0.001884892    1.981    0.495
        21 -11.3403     29.9036      8.0305   5.3721176528e+01   7.6324238274e+01    0.3420697    0.2863821  15.28  0.001621161    1.208    0.172
        22 -10.4933     34.9494      4.4898   4.7218760275e+01   7.5891250297e+01    0.2584039    0.2138893 -33.72  0.001546595    1.245    0.197
        23  -9.6855     16.4508      8.4331   6.5762811599e+01   7.8384844293e+01    0.2078523     0.118703 -46.89 0.0005554443    1.690    0.408
        24 -13.0546     20.3473      2.2408   5.6594884103e+01   7.8883909125e+01    0.3052315     0.250558  23.89 0.0008077575    1.178    0.151
        25  -9.6176     88.7770      6.8929   2.8360314185e+01   6.2736813152e+01    0.1780913    0.1191705 -19.60 0.0008643835    1.648    0.393
        26 -10.2384    247.1109      5.9624   1.3951449918e+01   2.4649298626e+01    0.1734721    0.1196101 -49.08 0.0003458841    1.036    0.034
        27 -10.7422    151.4999      5.9534   1.9280592360e+01   4.6060559978e+01    0.2520211    0.1989698 -78.69 0.0003258901    1.125    0.111
        28 -11.2905    148.4964      2.4294   1.8310398799e+01   4.7174277186e+01    0.2647857    0.2198334 -66.75 0.0002218895    1.030    0.029
        29 -11.2536    235.7262      3.3222   1.3770352846e+01   2.7057031754e+01    0.3734328    0.2316708  37.59  0.002044903    2.896    0.655
        30 -11.4079    194.0745      4.6774   1.5959851396e+01   3.5732626578e+01    0.2282471    0.1877607 -55.43 0.0002245584    1.054    0.052
        31 -10.3805    104.6055      4.2074   2.4075670012e+01   5.8757996282e+01    0.2362969    0.1778228  81.36 0.0003415027    1.228    0.186
        32 -10.0346     48.5097      4.2269   3.9505424266e+01   7.3029113056e+01    0.2360804    0.1797175  57.70 0.0008534414    1.268    0.211
        33  -9.6387    223.9918      3.7665   1.4325081889e+01   2.9342714921e+01    0.1395196   0.09142601 -86.96 0.0002610543    1.548    0.354
        34  -9.0541     39.2883      3.6625   4.3854050696e+01   7.5112205630e+01    0.1289829    0.1023592 -65.39 0.0007020006    1.636    0.389
        35 -10.3842     13.4261      2.8322   6.4180598761e+01   7.9817053139e+01    0.3037172    0.1913166  46.67  0.001627227    1.894    0.472
        36  -9.5330    161.4584      2.5873   1.7364048026e+01   4.3825986148e+01    0.1366704    0.1154665 -68.07 4.928061e-05    1.024    0.024
        37 -10.3370    138.2194      1.9984   1.9057485575e+01   4.9916502054e+01    0.2274065    0.1822857 -88.53 0.0003620382    1.130    0.115
        38  -9.2531    245.2794      1.3188   1.2994819742e+01   2.5443917182e+01     0.096109   0.08563929  -3.15 0.0002729377    1.579    0.367
        39  -9.8249     64.5101     11.4619   3.7934481833e+01   6.8410293906e+01    0.2844934    0.1411446 -25.72  0.001207492    2.183    0.542
        40  -9.4207     84.7208      1.3148   2.6178262774e+01   6.4326510824e+01    0.1884665    0.1135121  63.74 0.0004851731    1.502    0.334
        41  -9.0557     53.6868      1.2360   3.5010226936e+01   7.2158593224e+01    0.1272017    0.1008856 -77.15 0.0001990482    1.499    0.333
        42 -10.6326     29.9435      1.3548   4.7860908386e+01   7.7301407606e+01    0.2147358    0.1181065  51.79 0.0004403274    1.831    0.454
        43  -9.5198     21.8577    131.3858   9.5557838446e+01   4.6147784013e+01    0.1785948    0.1369044   2.28 0.0003942325    1.644    0.392
        44 -10.0938    109.7802    250.6583   8.3595299615e+01   9.9656296745e+00    0.1579387   0.07691656  35.42 0.0003212811    1.536    0.349
        45 -12.9404     19.9647    248.2623   1.0194817682e+02   1.9970227468e+01     1.494753    0.3285814  23.94  0.005505245    4.598    0.782
        46 -12.1036      9.9918    245.6565   1.0393187010e+02   2.1329393907e+01    0.3793539    0.2155834 -62.23  0.001875622    2.437    0.590
        47 -11.3709      2.2310    248.3705   1.0556065402e+02   2.1523460008e+01    0.4096749    0.2168614  40.60  0.001717992    1.276    0.216
        48 -12.8089      5.0539    241.8436   1.0487342411e+02   2.2440068924e+01    0.5776698    0.3927684  57.23  0.003677694    1.149    0.129
        49  -9.7117     10.9229    128.3318   9.9213411497e+01   4.7882025647e+01    0.1918657    0.1745569  59.68  0.001150221    1.111    0.100
        50 -10.1649    247.6571    127.3422   3.9882111660e+01   9.6307036321e+00    0.1142247   0.07887582 -52.08 -0.000681603    1.782    0.439
        51  -9.7496     65.0237    125.2336   7.9528844655e+01   4.2556207397e+01    0.2047237    0.1841754  59.21 0.0002015458    1.057    0.054
        52  -9.9269    208.4605    123.2943   4.4338126617e+01   1.6272231970e+01    0.1671439    0.1571589  52.96  0.001108553    1.290    0.225
        53 -11.1456     10.9585    120.9469   9.8686017388e+01   4.9887106541e+01    0.3836378    0.2743417 -16.60 0.0007574494    1.844    0.458
        54  -9.3112     82.6658    118.2903   7.2240197939e+01   4.1465051293e+01    0.1632233    0.1145621  69.21 0.0003165416    1.633    0.388
        55  -9.4551     31.7446    117.8983   9.0486114753e+01   4.8876374542e+01    0.2051712     0.148086  58.53  0.001020241    1.309    0.236
        56 -11.2538     69.3550    115.6201   7.6190592803e+01   4.4424831573e+01    0.3413955    0.3314355  67.00 0.0005570601    1.093    0.085
        57 -10.5956     60.1751    114.9041   7.9330773285e+01   4.6054145761e+01    0.2419021    0.2097639  51.56 0.0003229046    1.123    0.110
        58 -12.9462     23.3334    113.3544   9.3210164616e+01   5.0964432608e+01    0.3320465    0.2951555  54.32 0.0004563904    1.112    0.100
        59 -11.6250     13.6840    107.5570   9.6497246788e+01   5.3376762514e+01    0.4807844     0.202951 -74.72  0.001950612    2.086    0.521
        60 -11.0672      2.7751    111.7566   1.0122213587e+02   5.2939306699e+01    0.2437118    0.1939761  69.84 0.0002463592    1.100    0.091
        61 -11.1182      5.9554    105.2790   9.9498156924e+01   5.4530957705e+01     0.481053    0.1808629 -85.07   0.00138434    2.410    0.585
        62 -10.5718    247.7873    101.7809   3.4728581958e+01   1.3002360508e+01    0.1652395    0.1154264 -45.93 0.0008044958    1.337    0.252
        63  -9.6215    112.5533    102.4232   5.9180767972e+01   3.9476759983e+01    0.1552364    0.1486932 -86.77 5.454924e-05    1.010    0.010
        64  -9.5860     81.0184    100.9907   6.8746555217e+01   4.6198961943e+01    0.1903216    0.1721611 -73.07 0.0009635182    1.066    0.062
        65 -11.4926     17.7368     95.8454   9.3469524820e+01   5.6323887017e+01    0.6809801    0.3336942  87.95  0.002783346    2.087    0.521
        66 -10.9976     20.9863     92.6384   9.1566217921e+01   5.6946696771e+01     0.307502    0.2278767 -66.16 0.0005974449    1.257    0.204
        67  -9.8793    217.8545     98.4951   3.7543024665e+01   1.8417814773e+01    0.1608914    0.1298866  53.95 0.0005828328    1.491    0.329
        68  -9.2068      4.6658     97.2778   9.9428523945e+01   5.6816689352e+01    0.1483726   0.08846617  55.72 0.0003537788    1.607    0.378
        69 -11.6902     58.1679     92.1864   7.5171223475e+01   5.2479364002e+01    0.4823737    0.3571737 -70.84  0.001382844    1.320    0.242
        70  -9.5943     10.5269     94.0200   9.6508246693e+01   5.7360806486e+01    0.2163446    0.1255862 -78.63 0.0004561986    1.529    0.346
        71 -10.8132    125.2765     93.0505   5.3151977113e+01   3.8765848633e+01    0.2545572    0.2202151  62.87 0.0002563838    1.175    0.149
        72 -12.3306     66.6757     91.6245   7.1622114770e+01   5.1213039974e+01    0.2941938    0.2635911  89.34 0.0002643189    1.080    0.075
        73 -13.7165     65.6829     81.8698   6.9313671419e+01   5.3910117124e+01    0.5188112    0.4605117  66.87 0.0008000315    1.125    0.111
        74  -9.2766    142.2433     91.9863   4.8789566086e+01   3.5139727088e+01    0.1935557    0.1243389 -43.41  0.000301732    1.485    0.327
        75 -10.6766    105.8780     91.9968   5.8215205215e+01   4.3320087109e+01    0.2568804    0.2272373  61.41 0.0003299862    1.127    0.113
        76  -9.8919     92.1612     92.6275   6.2703183478e+01   4.6087983924e+01     0.213266    0.1512582  33.37 0.0001795195    1.607    0.378
        77 -12.4867    159.9383     89.2321   4.4361006078e+01   3.1675833244e+01    0.4798134    0.3106494  36.32 0.0002809559    1.967    0.492
        78 -10.0934      7.7617     90.3431   9.7401302368e+01   5.8555946279e+01    0.3333738    0.1559964 -76.45  0.001428068    1.866    0.464
        79  -9.2074    132.4019     90.4128   5.0626149836e+01   3.7702390507e+01    0.1538715    0.1429219 -70.44            0    1.030    0.029
        80  -9.3430     79.6684     89.3492   6.6093564301e+01   4.9402351058e+01    0.1695768    0.1207689  80.42 0.0007048384    1.770    0.435
        81  -9.3804    104.2645     87.6715   5.7424656244e+01   4.4667672135e+01    0.1602489    0.1213985 -82.86 0.0003320496    1.571    0.364
        82  -9.4116     31.2030     87.3542   8.5951368721e+01   5.7420955783e+01    0.1796093    0.1313989  41.27 0.0002056411    1.385    0.278
        83 -10.4572     17.2230     84.8963   9.2214111302e+01   5.9410934112e+01    0.2929804     0.178772  77.83 0.0009718442    1.688    0.408
        84  -9.4481     49.5196     85.0040   7.7064225818e+01   5.5724223175e+01     0.206738    0.1148735 -41.01 0.0004044307    2.173    0.540
        85 -10.0372      7.3007     83.9968   9.6954176153e+01   6.0338871870e+01    0.2719046    0.1584587 -68.14 0.0009189686    1.522    0.343
        86 -10.5465      8.8075     79.9303   9.5726197085e+01   6.1371423726e+01    0.3923678    0.2006669  62.13  0.001427886    2.085    0.520
        87 -11.5955      5.3044     75.5202   9.7006705133e+01   6.2780646452e+01    0.3694686    0.1903701 -76.56 0.0008176213    1.697    0.411
        88 -11.1079      8.0065     72.9513   9.5237287042e+01   6.3334592646e+01    0.3562742    0.1717439 -61.33 0.0003052211    1.820    0.450
        89 -10.6219     47.9733     79.3271   7.6291436219e+01   5.7465791061e+01    0.2742535    0.2063796 -59.44 0.0005139213    1.264    0.209
        90  -9.7662     87.6746     77.2084   5.9526000442e+01   5.0708501237e+01    0.3960673    0.2300899 -36.67  0.001041488    2.089    0.521
        91 -10.1484    176.9860     76.9984   3.8049867614e+01   3.0008799606e+01    0.2305891    0.2003011 -57.56  0.001297098    1.070    0.066
        92  -9.7573    180.4942     76.4206   3.7349883325e+01   2.9327626151e+01    0.2259733    0.1395572  57.54 7.126944e-05    1.779    0.438
        93  -9.5181     35.1883     77.1334   8.1846919819e+01   5.9763637496e+01    0.2085207    0.1057056 -64.48 0.0008493439    1.809    0.447
        94  -9.7372     11.7221     76.8047   9.3804562505e+01   6.2046419015e+01    0.1927277    0.1475737  62.47 0.0005395669    1.309    0.236
        95  -9.3569     74.8339     76.6225   6.4053522586e+01   5.3497502801e+01    0.2062239    0.1425995  55.08 8.369251e-05    1.516    0.340
        96 -10.4884     53.4820     75.6151   7.2727832984e+01   5.7593091008e+01    0.4159699    0.2067216  43.43 0.0008935514    2.047    0.511
        97 -10.3074    140.7304     72.5366   4.3386474873e+01   3.9262145159e+01    0.3616084    0.2379599  38.75 0.0007278639    1.902    0.474
        98  -9.8918    105.8742     71.8415   5.1892998477e+01   4.7799769250e+01    0.2189647    0.1749186  77.03  0.001025298    1.352    0.260
        99  -9.4543     46.4622     72.4455   7.5083162892e+01   5.9499888989e+01     0.149611    0.1416437 -64.75 0.0003836238    1.045    0.043
       100  -9.8138     45.3723     68.6520   7.4485927526e+01   6.0645656954e+01    0.4141485    0.1437818 -60.97  0.001376518    2.783    0.641
       101 -12.9026     80.8982     67.1420   5.8520425469e+01   5.4483346887e+01    0.4427031    0.4050645   4.39 0.0005791052    1.319    0.242
       102  -9.5997    157.9904     70.0181   3.9259294503e+01   3.5566795236e+01    0.1768272    0.1636356 -76.88 0.0004046187    1.060    0.057
       103  -9.3516     91.5538     70.2344   5.5845386569e+01   5.1447214559e+01    0.1650734    0.1175663  77.98 0.0006859173    1.768    0.434
       104  -9.5494      1.4372     70.4918   9.8521245323e+01   6.4335873859e+01    0.1382399    0.1198274 -75.69 6.676495e-05    1.037    0.035
       105 -11.8738    211.9781     67.3668   3.0903191563e+01   2.4079402607e+01    0.2388625    0.1980456 -45.35 0.0003317616    1.013    0.013
       106 -11.9412     17.2497     64.5111   8.8600456356e+01   6.4985971851e+01    0.3934993    0.3710114  78.26 0.0008692906    1.076    0.071
       107 -13.6318     20.9505     58.6123   8.5034925672e+01   6.6233276821e+01    0.4585059    0.3437067 -56.57 0.0008042436    1.232    0.188
       108  -8.9971    166.4448     64.5277   3.6212751854e+01   3.4482918507e+01    0.1479382    0.1312357 -56.06  9.56061e-05    1.005    0.005
       109 -11.7038    128.4021     63.4816   4.3179159315e+01   4.3976309325e+01     0.312086    0.2678725 -61.76 0.0004992277    1.109    0.098
       110 -11.2388     51.4763     62.8869   6.9600605726e+01   6.1145991364e+01    0.5041589    0.2850265 -74.60  0.001290943    2.427    0.588
       111 -11.0557      6.2503     62.6480   9.4732737816e+01   6.6226444308e+01    0.3736687    0.2741196  57.97  0.002021463    1.423    0.297
       112 -11.7135     11.7171     59.7102   9.0908013585e+01   6.6682986747e+01    0.2801889    0.2453815   6.96 0.0002823469    1.270    0.213
       113  -9.7433    119.9304     62.6069   4.4901226667e+01   4.6249204683e+01     0.204292    0.1879436  81.83  0.001058399    1.062    0.059
       114 -10.6011     98.1320     60.9517   5.0366685983e+01   5.1904351138e+01    0.2488604    0.2193844  66.81 0.0003327647    1.123    0.109
       115 -11.4517     58.4942     58.9750   6.4830076368e+01   6.0863558636e+01    0.3243238    0.2150522  38.73 0.0005624801    1.561    0.359
       116  -9.8677     63.8271     65.5934   6.4851403262e+01   5.8294841676e+01    0.2789506    0.1795504 -42.05 0.0009771391    1.658    0.397
       117  -9.8720    229.1746     56.4905   2.6583568722e+01   2.2213601093e+01    0.1884404    0.1349795 -39.41  0.000638954    1.101    0.092
       118 -10.2745     71.9716     56.9585   5.8155382640e+01   5.8661865056e+01     0.338294    0.2027225  68.41  0.001274899    2.454    0.592
       119 -12.9233    114.8016     53.5642   4.2932250188e+01   4.9214265720e+01    0.3468855    0.3175394 -66.79   0.00047508    1.036    0.035
       120 -10.5939     98.3987     52.7274   4.7127067010e+01   5.3465948274e+01    0.4862252    0.2939848 -55.50  0.001798256    1.796    0.443
       121 -11.3997     85.7624     54.2324   5.1837124301e+01   5.6185989355e+01     0.519942    0.2632172  40.72  0.001089351    2.283    0.562
       122 -10.7365     81.2399     52.3607   5.2693251156e+01   5.7606909134e+01    0.5001196    0.3032681  77.13   0.00149398    2.703    0.630
       123  -9.6966     33.8502     55.2027   7.6350359906e+01   6.5678864550e+01    0.2238318    0.1191708  14.38 0.0008703877    2.592    0.614
       124 -11.9688    105.7574     49.5807   4.3773966018e+01   5.2220204575e+01    0.7401726    0.3883139 -57.04 0.0006034119    2.319    0.569
       125 -10.1150    225.2312     52.8788   2.6077393518e+01   2.3436576528e+01    0.2020787    0.1362914 -49.38 0.0004856676    1.222    0.181
       126 -10.0289    134.6192     52.8115   3.8198481441e+01   4.4290824979e+01    0.2534007    0.2277727 -47.60 0.0003451759    1.103    0.094
       127 -10.4381    138.0997     50.4624   3.6707716853e+01   4.3789357414e+01    0.2883411     0.229661  42.94  0.001114488    1.473    0.321
       128 -11.2007     65.9471     52.5591   5.8908384159e+01   6.0876348466e+01    0.4698247    0.2221957  42.62  0.001266994    2.169    0.539
       129 -11.6926     62.0033     49.9105   5.9550613595e+01   6.2250425862e+01    0.2765089    0.2326559 -38.17 0.0003377622    1.234    0.190
       130 -10.0576      4.3820     51.7917   9.4086919672e+01   6.9207486880e+01    0.2012999    0.1043368 -63.03 0.0006330288    1.651    0.394
       131  -9.2849    148.7068     51.7124   3.5201930499e+01   4.0892485402e+01    0.1401413    0.1181189  25.16 0.0003436131    1.545    0.353
       132 -10.5801     14.9045     49.1402   8.6393124960e+01   6.9221740217e+01    0.3665447    0.1781792  39.90  0.001228511    2.196    0.545
       133 -10.0423     53.5308     47.7141   6.2668317966e+01   6.4361284776e+01    0.3306495    0.2565257 -29.35  0.001638803    1.469    0.319
       134 -10.1404    156.3373     46.8779   3.2398681940e+01   3.9721537629e+01    0.3250968    0.1912209  62.80 0.0009186572    1.743    0.426
       135  -9.4327     74.6808     47.3243   5.3039304775e+01   6.0107482323e+01    0.1569839    0.1187573 -83.83 0.0007045418    1.675    0.403
       136 -11.0316     66.5550     46.0997   5.5850609346e+01   6.2124049618e+01    0.3826635    0.2768803 -20.34  0.001031492    1.853    0.460
       137  -9.1682    129.6510     45.7461   3.6701209149e+01   4.6730271359e+01    0.1488869    0.1152941  37.02 0.0006955685    1.593    0.372
       138  -9.9388     29.0376     45.5508   7.5842034518e+01   6.8680151279e+01    0.3181575       0.1333  31.49  0.001264348    2.420    0.587
       139 -10.3048     25.9293     43.1634   7.6977542490e+01   6.9635819777e+01    0.4742682    0.2646858   7.13   0.00198513    2.523    0.604
       140 -10.0991     16.9626     43.9513   8.3442609704e+01   7.0367255001e+01    0.3582718     0.198141  62.44  0.001033133    2.530    0.605
       141  -9.3833      2.0359     45.4726   9.4539335944e+01   7.0961653265e+01    0.1891375    0.1326688   5.14  0.001028721    1.586    0.370
       142 -10.7615    117.2364     42.3113   3.8061754158e+01   5.0514034553e+01     0.482808    0.1946072 -44.02  0.001712331    2.396    0.583
       143 -10.5818     89.4399     42.9649   4.5856609155e+01   5.7474538384e+01    0.3272971     0.222965  60.17  0.001496815    1.464    0.317
       144 -11.1600     37.0945     41.7005   6.9174355086e+01   6.8483985645e+01     0.590884    0.2712454  42.92  0.002394784    2.308    0.567
       145 -13.0568    141.6916     40.6690   3.2675557808e+01   4.4385325877e+01     0.315704    0.2794164 -78.33 0.0005831874    1.048    0.045
       146  -9.0326    170.6414     41.6992   2.8798477149e+01   3.6932524177e+01    0.1389726    0.1093634  32.23 0.0007036974    1.714    0.417
       147 -12.0487    110.1719     40.1764   3.8867390961e+01   5.2696947110e+01    0.2849547    0.2624409 -76.82 0.0002513669    1.020    0.020
       148 -11.2496     81.9150     38.5663   4.6386400971e+01   6.0085940397e+01    0.3374272    0.3156746  77.86  0.001222782    1.043    0.041
       149 -10.7784     51.5334     38.8265   5.9589918423e+01   6.6648241429e+01    0.2618695    0.2269638  49.52 0.0005177073    1.178    0.151
       150 -11.4740    183.4230     39.9556   2.6787293424e+01   3.4114272182e+01    0.5107976    0.2993448 -85.36  0.002403152    1.948    0.487
       151 -10.0759    191.8862     38.1628   2.5404255679e+01   3.2393949154e+01     0.198215    0.1511037 -58.44 0.0002626358    1.136    0.120
       152 -12.0086    121.7245     36.8505   3.4968080481e+01   5.0186568297e+01    0.4570374    0.2904672 -40.02  0.002082038    1.519    0.342
       153  -9.5309    177.3499     36.1363   2.6341042747e+01   3.6063043037e+01    0.1908231    0.1084222 -42.55 0.0004025158    1.499    0.333
       154  -9.7856     58.1175     40.8550   5.7269352996e+01   6.4943379747e+01    0.2239823    0.1985221 -88.84 0.0004927358    1.253    0.202
       155  -9.2984    102.7179     36.2725   3.9100875164e+01   5.5254151274e+01    0.1510376     0.111393 -71.61 0.0006904612    1.498    0.333
       156 -10.0829     67.4167     36.2119   5.0796545238e+01   6.3874926773e+01    0.2101468    0.1354991 -52.60 0.0005957456    1.667    0.400
       157 -10.8242     14.9404     35.3883   8.1987866575e+01   7.2659766334e+01    0.2589568    0.2473842  74.47  0.001155898    1.140    0.123
       158 -10.4114      2.9574     35.7350   9.1690519802e+01   7.3398934872e+01    0.1718945    0.1634474 -32.62  0.000367851    1.092    0.084
       159 -10.8664     45.2746     32.7651   5.9921479130e+01   6.9054070806e+01    0.3857174    0.2260124 -51.54  0.001315842    1.755    0.430
       160  -9.7604     49.6088     33.7367   5.8024700226e+01   6.8049705311e+01    0.1966739    0.1336109 -55.62 0.0004345846    1.591    0.371
       161 -10.1492     28.0047     33.6837   7.1483538253e+01   7.1600806117e+01    0.2255159     0.164062 -41.20 0.0004659977    1.341    0.254
       162  -9.9730      6.9679     34.5189   8.8074877824e+01   7.3478900128e+01    0.1922124    0.1306166  11.31  0.001033165    1.593    0.372
       163  -9.6673    230.2110    247.4004   6.2002045752e+01  -2.6341602027e+00    0.1193084   0.07335755  25.78  0.000456932    1.521    0.342
       164  -9.2475    127.7043     32.7088   3.2216426059e+01   4.9206577837e+01     0.143685    0.1147316  34.22 0.0002553083    1.556    0.357
       165 -12.6570     11.0968     29.8875   8.3015581571e+01   7.4308510845e+01     0.299115    0.2558234  42.97 0.0006954357    1.297    0.229
       166  -9.7201      1.3606     31.1561   9.1836313115e+01   7.4611484104e+01    0.1810321    0.1137803 -88.64 0.0003502741    1.683    0.406
       167  -9.0773    108.2660     30.7055   3.5359354404e+01   5.4645468277e+01    0.1517343    0.1074024 -65.30 0.0001772768    1.510    0.338
       168  -9.9966     39.1315     30.0726   6.2152658565e+01   7.0683974811e+01    0.2092325    0.1793191  -8.25 0.0004604196    1.283    0.220
       169 -11.0102    135.7168     29.0888   2.9497046583e+01   4.7577647225e+01     0.238189    0.1991593  78.04 0.0002918729    1.160    0.138
       170  -9.0768    162.2890     27.6711   2.5425884302e+01   4.0867023752e+01    0.1548366   0.09049188 -58.19 0.0001583221    1.619    0.382
       171 -11.5333     91.0279     26.5367   3.7801263558e+01   5.9747521135e+01    0.2987522    0.2180415 -42.73 -2.521779e-05    1.377    0.274
       172 -10.0781     80.9265     26.4843   4.0812003964e+01   6.2312007052e+01    0.2851883    0.1892905 -51.13 0.0008233411    1.608    0.378
       173 -10.3506     68.6366     27.3682   4.5691864515e+01   6.5137686033e+01    0.3401194    0.2399219 -75.96  0.001548048    1.946    0.486
       174  -9.5284    131.7488     26.0535   2.8988228193e+01   4.9027386415e+01    0.2009178    0.1740347 -54.78 0.0003637434    1.089    0.082
       175  -9.9904    110.2443     26.2105   3.2992492331e+01   5.4748987081e+01    0.2471001    0.1447089  29.50 0.0004413491    2.693    0.629
       176 -10.4336     59.9170     24.5178   4.7774822582e+01   6.7590191450e+01    0.3120085    0.1990315 -36.93  0.000635682    1.597    0.374
       177 -12.4049    144.4443     31.0257   2.8869074779e+01   4.5024541736e+01    0.3499321    0.2521351 -48.34 0.0003779503    1.274    0.215
       178 -10.5414    120.0359     24.7476   3.0463070279e+01   5.2325704926e+01     0.224455    0.1993728 -54.38 0.0002900152    1.092    0.085
       179 -10.5147     33.4613     24.4414   6.2666658144e+01   7.2761884396e+01     0.234911    0.2038397  40.98 5.671399e-05    1.195    0.163
       180 -10.5529     32.5137     20.3634   6.0798434041e+01   7.3711474662e+01    0.3024815    0.2392606  -6.43  0.001072894    1.453    0.312
       181  -9.8934     25.7954     23.5175   6.7758617660e+01   7.4112205046e+01    0.3661812    0.1449687 -51.32  0.001481703    2.409    0.585
       182 -10.2335    105.4553     22.5054   3.2380264220e+01   5.6513573812e+01    0.4837587    0.2499353  26.11  0.001536448    4.122    0.757
       183 -10.3645    100.8080     22.8453   3.3570702685e+01   5.7702668024e+01    0.5017682    0.2201028  80.78  0.001644859    3.267    0.694
       184 -10.3140     47.9170     23.4755   5.3118984905e+01   7.0308264252e+01      0.20248    0.1351612  46.92 0.0003504101    1.489    0.329
       185 -10.6035     14.2828     15.8777   7.3139054468e+01   7.7164581236e+01    0.2585311    0.2269555  58.55 0.0005329272    1.379    0.275
       186 -10.0396     21.2622     22.1711   7.0633184495e+01   7.5001825406e+01    0.2797544    0.1840249 -14.10  0.001369382    1.962    0.490
       187 -11.8042     16.8037     20.7372   7.3668709380e+01   7.5845012702e+01     0.435431    0.3387283   4.61  0.001593344    1.368    0.269
       188 -10.3009    131.3533    247.0789   7.8997360936e+01   7.9751641430e+00    0.1497609    0.1240133  22.01 0.0005938488    1.092    0.085
       189  -9.5248     84.2151     21.9844   3.7478918322e+01   6.2133953196e+01    0.1920615    0.1184484 -31.60 0.0007057553    1.680    0.405
       190 -10.0821    115.8355    246.7847   8.2027663506e+01   9.8345259874e+00    0.1457868    0.1126052  43.59 0.0008844036    1.269    0.212
       191  -9.4513     41.0000     21.1300   5.5670047701e+01   7.2067316151e+01    0.1891621    0.1159619 -43.75 0.0009065174    1.639    0.390
       192  -9.8712     43.3287     18.3372   5.2446504839e+01   7.2105039115e+01    0.2167619    0.1164832  27.55 0.0008481716    2.737    0.635
       193 -10.7314     52.3496    244.6074   9.5027871403e+01   1.7385302250e+01    0.2091943    0.1709136  26.27  0.001314813    1.257    0.204
       194 -10.1920    163.5829     19.9116   2.2791268519e+01   4.1474568232e+01    0.2077166     0.182476  80.31 0.0003661907    1.192    0.161
       195  -9.4748    114.0000     19.5492   2.9384721733e+01   5.4595448176e+01    0.3186464   0.08301657 -26.45 0.0009410862    3.986    0.749
       196 -10.6775     70.8126     18.7102   4.0030956341e+01   6.5927644333e+01    0.2327494    0.2246858 -37.27 0.0002747868    1.075    0.070
       197 -11.1758     25.6725     17.9883   6.4420329273e+01   7.5247639227e+01    0.2453694    0.2061839 -61.45 0.0006349175    1.342    0.255
       198  -9.3955     37.6759     18.3130   5.5925602054e+01   7.3185345861e+01    0.1327566    0.1094426 -89.19 0.0004651195    1.660    0.398
       199 -11.0496    239.9048     15.3687   1.6340877306e+01   2.5026911068e+01    0.2091303     0.142949 -31.20 0.0003097133    1.313    0.238
       200  -9.7011    215.3820     16.1888   1.7794422790e+01   2.9839025149e+01     0.190697    0.0828149 -40.41 0.0005042472    1.699    0.411
       201  -9.8866    159.8888     15.8122   2.1824252907e+01   4.2876000094e+01    0.1936791    0.1874714  59.83 0.0005484731    1.248    0.199
       202 -10.1820    207.6218     12.7644   1.7364521532e+01   3.1869804127e+01     0.190577    0.1143578 -52.97   0.00051849    1.324    0.245
       203 -11.9785      2.7467    233.3301   1.0520349746e+02   2.4200466315e+01     0.400488     0.239729  28.91  0.001832006    1.464    0.317
       204  -9.9650    147.4666    243.5027   7.5516557357e+01   6.5888953800e+00    0.1119282   0.08593627  20.13 0.0001481247    1.002    0.002
       205  -9.8745    131.3425     13.2850   2.4131790247e+01   5.0642877024e+01    0.1445205    0.1034286  44.56  0.000524877    1.640    0.390
       206  -9.0190    194.5117    242.5601   6.7001705546e+01   1.4345812073e+00    0.1047362   0.07743526   9.87 0.0008073325    1.027    0.026
       207  -9.5073     52.9372    129.9731   8.4464689402e+01   4.3022716807e+01    0.1812805    0.1631061  77.23 0.0005016903    1.013    0.013
       208  -9.6319     72.3423    238.3165   9.0361464313e+01   1.6269888186e+01    0.1103302   0.08477192  -2.79  0.000704854    1.712    0.416
       209 -11.2073     26.8401    237.1899   1.0014138645e+02   2.1297163082e+01    0.1404808     0.124322  30.36 0.0004266979    1.310    0.237
       210  -9.5042     59.0248    235.9842   9.3089659832e+01   1.8174954352e+01    0.1404754    0.1077139  43.38 0.0003384812    1.021    0.021
       211  -9.5197     54.3317    235.6925   9.4096157524e+01   1.8741538247e+01    0.1279375    0.0638321  50.87 0.0007040146    1.665    0.399
       212  -9.2728    239.2873    234.3253   5.8919206572e+01  -2.1734781721e+00    0.1013736    0.0559833  -3.43 0.0006740249    1.607    0.378
       213  -9.5186    152.6460    233.6865   7.3380894164e+01   7.3311548352e+00    0.1175874   0.07522856   1.87  0.000704523    1.734    0.423
       214 -10.9186     31.3730    232.9161   9.8988866040e+01   2.1643053268e+01    0.3860859    0.1030314  32.28  0.001345503    2.475    0.596
       215  -9.3669     55.2990    231.6718   9.3639562985e+01   1.9365439409e+01    0.1270243   0.06689756  52.91 0.0003731628    1.638    0.390
       216  -9.9724    245.9953    230.4819   5.7427624198e+01  -2.4140483294e+00     0.185165   0.07884964  28.45 0.0004882138    2.162    0.538
       217  -9.9769    140.0471    227.6186   7.5107370240e+01   9.7663206529e+00    0.1866858    0.1551338  64.59  0.001277684    1.681    0.405
       218  -9.3364     85.8557     10.3570   3.0888671831e+01   6.3144617258e+01    0.1933263    0.1178154  56.47  0.000899178    1.539    0.350
       219  -8.8844     56.6932    228.2925   9.3114813579e+01   1.9834817446e+01    0.1268981   0.06799328  51.43 0.0003105499    1.580    0.367
       220 -10.3867      1.3822    227.2142   1.0538949172e+02   2.5476231083e+01     0.171924   0.09743797 -87.53 0.0004080651    1.863    0.463
       221  -9.8411    223.5675    226.1936   6.0123264660e+01   2.3889312672e-01    0.1433606   0.07751807 -19.89 0.0005245501    1.683    0.406
       222 -11.7774      3.3307    221.3774   1.0485044854e+02   2.6450608965e+01    0.5205934     0.157394  67.41  0.002211991    2.891    0.654
       223 -10.6714      7.6325    220.9810   1.0387717901e+02   2.6160650907e+01    0.2237699    0.1003015 -87.08  0.001206385    2.316    0.568
       224 -10.1026     19.2776    221.2358   1.0124773945e+02   2.5058432612e+01    0.3649351   0.09539941  54.70  0.001239704    2.912    0.657
       225  -9.6398     32.7010    220.6680   9.8149002080e+01   2.3861574687e+01    0.1053749   0.09107361 -24.94  0.000703127    1.647    0.393
       226  -9.4637    210.4469    215.5438   6.0651804707e+01   2.8959977655e+00    0.1098017   0.08167125   0.34 0.0001338437    1.046    0.044
       227  -9.3810     85.6608    215.1239   8.5455086265e+01   1.8854026706e+01    0.1436105    0.1130993 -50.93 0.0003346378    1.548    0.354
       228  -9.9558    111.4882    214.5148   7.9559601671e+01   1.5609107477e+01    0.1252683    0.1037019  33.17 -1.112142e-05    1.017    0.016
       229 -10.6055      3.8189    211.3397   1.0452760618e+02   2.8436953939e+01     0.176019    0.1150376  57.08  0.001125514    1.161    0.138
       230  -9.4441    229.7752    209.0344   5.6658897887e+01   1.5307078221e+00    0.1347128   0.07255506 -30.50 0.0008759964    1.664    0.399
       231 -10.3521     39.1486    207.3084   9.5917566158e+01   2.5910108790e+01    0.1794263    0.1616157  73.57 0.0004445525    1.200    0.167
       232 -10.7546      5.5497    207.0299   1.0401944642e+02   2.9189179477e+01    0.1683977    0.1032447  83.22 0.0004341739    1.550    0.355
       233  -9.5215     21.9386    180.0000   9.8826404128e+01   3.3751348677e+01    0.2093121   0.06725945  24.31 0.0008012351    2.934    0.659
       234  -9.6931      4.9836    168.0165   1.0302974782e+02   3.8099820187e+01    0.2208949    0.1097275  53.67 0.0004331229    1.615    0.381
       235  -9.2491    229.4956    165.5167   4.9493710332e+01   7.0041427743e+00    0.1162249   0.09103622 -13.59 0.0001214883    1.018    0.018
       236 -10.2679     13.4851    164.5044   1.0043195241e+02   3.8267446337e+01    0.1356124    0.1108374  62.71  0.000179195    1.009    0.009
       237 -10.4993      6.9955    147.9976   1.0162831905e+02   4.2972006822e+01    0.2580406    0.1615477 -89.16  0.001348494    1.442    0.306
       238 -10.5847     28.8318    139.8512   9.3914758605e+01   4.3201545447e+01    0.4034097    0.1687957 -74.28 0.0008433873    2.234    0.552
       239 -11.0156     21.2380    135.8523   9.6151217524e+01   4.4999571458e+01    0.2559749    0.1582331  54.67 0.0004247516    1.454    0.312
       240  -9.6674      1.9624    140.2638   1.0291947188e+02   4.5340336661e+01     0.185286    0.1530726  65.03 0.0003671642    1.028    0.027
       241 -10.0978     95.8794    133.8743   7.1368190904e+01   3.5215307269e+01    0.2986776    0.1963642 -54.83 0.0009182701    1.544    0.352
