#   1 NUMBER                 Running object number                                     
#   2 MAG_AUTO               Kron-like elliptical aperture magnitude                    [mag]
#   3 X_IMAGE                Object position along x                                    [pixel]
#   4 Y_IMAGE                Object position along y                                    [pixel]
#   5 X_WORLD                Barycenter position along world x axis                     [deg]
#   6 Y_WORLD                Barycenter position along world y axis                     [deg]
#   7 A_WORLD                Profile RMS along major axis (world units)                 [deg]
#   8 B_WORLD                Profile RMS along minor axis (world units)                 [deg]
#   9 THETA_WORLD            Position angle (CCW/world-x)                               [deg]
#  10 FWHM_WORLD             FWHM assuming a gaussian core                              [deg]
#  11 ELONGATION             A_IMAGE/B_IMAGE                                           
#  12 ELLIPTICITY            1 - B_IMAGE/A_IMAGE                                       
         1 -12.6578    250.0029     45.3301   6.7671475639e-02   1.9951422550e+01    0.6721211    0.2090661 -48.56  0.002955136    2.707    0.631
         2 -13.2004    249.3622     20.2955   3.5468951397e+02   2.2900697873e+01    0.7141153    0.2790159 -50.96  0.003744277    1.999    0.500
         3 -12.9809    249.7072      9.0399   3.5226871634e+02   2.4003062375e+01    0.6613067    0.3525348 -29.03  0.003985416    1.653    0.395
         4 -13.0698    241.8859      9.0618   3.5262423089e+02   2.5447725133e+01    0.4584934     0.240856 -25.70  0.001901133    1.830    0.453
         5 -12.6133    243.4574      3.2659   3.5129726834e+02   2.5725539699e+01    0.5167077    0.3013245  82.10  0.002848296    1.860    0.462
         6 -12.7950     28.6325     19.9517   4.0558703971e+01   7.2770575348e+01    0.3076143    0.2542208  14.72  0.000478902    1.175    0.149
         7 -12.0572     14.4430     18.6147   5.0104467928e+01   7.4842473491e+01    0.2749511    0.2379644  -5.06 0.0001334061    1.095    0.087
         8 -11.1893      4.8435      2.5963   4.8321935748e+01   7.8856936686e+01    0.5044249    0.2535383 -22.32  0.001684393    2.454    0.592
         9 -11.6654      2.7056     15.7139   5.8490463185e+01   7.6496358115e+01    0.2695761    0.2486382 -26.08  0.001241862    1.130    0.115
        10 -13.0519     10.3337     10.6898   4.8771073611e+01   7.6807193041e+01    0.6628798    0.5150148 -22.46  0.002839008    1.137    0.120
        11 -11.8494      3.6540     10.2827   5.4638819395e+01   7.7523292289e+01    0.4077005    0.2299229 -38.25  0.001908783    1.550    0.355
        12 -12.7496    215.1701     16.4848   3.5581156071e+02   2.9997723201e+01    0.7134945     0.269848  56.39  0.003142504    3.245    0.692
        13 -10.8620    136.6981     14.3543   2.5191559309e+00   4.8832638789e+01    0.3711714    0.1725175 -55.15  0.001357749    2.389    0.581
        14 -12.8187     65.3178     11.6817   1.7055540666e+01   6.6939425103e+01    0.2638524     0.243541  27.78 0.0005646716    1.016    0.016
        15 -10.8054     26.7125     13.0875   3.7523218382e+01   7.4245613811e+01    0.1806099    0.1483123 -18.43 0.0004570023    1.117    0.105
        16 -11.3072     76.0214     10.7620   1.3068766904e+01   6.4550854237e+01    0.3837207    0.2654332  36.00   0.00186823    1.470    0.320
        17 -11.9814    231.5381      1.7002   3.5145253477e+02   2.8161108319e+01    0.4280064    0.1545679 -80.86  0.001921405    3.195    0.687
        18 -11.6191    154.6136      8.7048   3.5848147000e+02   4.4841734032e+01    0.2894985    0.2102879 -69.84 0.0008770728    1.294    0.227
        19  -9.3344     90.4619      9.4938   8.6374749948e+00   6.1151270457e+01    0.1356669    0.1285924  78.13 3.979838e-05    1.054    0.051
        20 -11.2207    177.8850     11.9951   3.5735937157e+02   3.8829613516e+01    0.2234378    0.1792565  89.32 0.0004388406    1.193    0.162
        21 -10.8549    183.9783      8.5017   3.5588045432e+02   3.7742051199e+01    0.1830693    0.1184136  82.42 -0.0004271495    1.509    0.337
        22 -11.2663     82.1133      6.9429   9.3688667511e+00   6.3464368221e+01     0.207559    0.1803569  59.01 0.0002969271    1.072    0.067
        23 -11.2639    223.0426      5.1718   3.5264554717e+02   2.9523476182e+01    0.2215859    0.1356094 -40.04 0.0003347257    1.308    0.236
        24 -12.2272    179.2702      3.6578   3.5485012518e+02   3.9308541862e+01    0.4345643    0.2279693  63.62 0.0005006109    1.961    0.490
        25  -9.5859     68.2094      5.4336   1.2452617247e+01   6.6944661063e+01    0.1746314    0.1266556  73.63  0.000469353    1.494    0.331
        26 -10.4135     58.4876      4.8642   1.5417821480e+01   6.9226834771e+01    0.2334413     0.180787  78.27 0.0007287008    1.545    0.353
        27 -10.8806    164.4837      4.1523   3.5613202490e+02   4.2820330700e+01    0.1893177     0.124522 -27.23  0.001016935    1.545    0.353
        28 -10.1666     97.2559      3.0095   4.1029703681e+00   6.0028677168e+01    0.2020471    0.1701302  37.21 0.0006191495    1.222    0.181
        29 -11.0734     16.6553      1.8267   3.6817551702e+01   7.7523324872e+01    0.2487942    0.1646485  37.21  0.001018364    1.556    0.357
        30 -10.4005    168.5246      2.0601   3.5517178328e+02   4.2024151239e+01    0.1862681    0.1204338 -29.73 0.0004124705    1.524    0.344
        31  -9.4956     91.3066      2.2729   4.9080927625e+00   6.1594372751e+01    0.1394131   0.09142065  40.95 0.0003070917    1.543    0.352
        32 -10.4380     32.7435      1.5097   2.5175475812e+01   7.4901159341e+01    0.2042539    0.1456821  50.05 0.0008044249    1.470    0.320
        33 -12.4752    235.1698      9.4581   3.5303139693e+02   2.6689748408e+01    0.2509539    0.1908062 -65.95  0.001112614    1.162    0.139
        34  -9.5860    173.3341      1.2937   3.5458796139e+02   4.0934047478e+01    0.1250508   0.09321302  45.93 0.0003304406    1.640    0.390
        35  -9.5960    121.8088      1.3479   3.5956153970e+02   5.3860922626e+01    0.1882981    0.1098729  64.18 0.0001331904    1.562    0.360
        36  -9.6575     73.7915      1.3639   8.4969565003e+00   6.5992628382e+01    0.1950059    0.1061124  54.45 0.0006060548    1.618    0.382
        37 -12.0822    247.6516    226.9467   3.5413110176e+01  -3.1626627910e+00     0.623647    0.3408691  -5.71  0.004177756    1.646    0.393
        38 -13.5540    228.3170    228.0422   3.8539827703e+01  -1.2929040400e+00     1.899287    0.8480935   2.54  0.008373851    3.934    0.746
        39 -11.9715    231.6674    235.3471   3.9091181976e+01  -2.4706970153e+00    0.5795439    0.2632221  17.02  0.003408849    2.155    0.536
        40 -12.7974    244.1268    236.4944   3.7352357612e+01  -3.8394419209e+00     1.608322    0.6461079   4.54  0.005743474    6.659    0.850
        41 -12.8733    247.4854    247.0122   3.8355113271e+01  -5.2398686673e+00    0.7589321    0.4644009  18.10  0.005962965    1.369    0.269
        42 -11.2510    249.0682    239.0881   3.6994690645e+01  -4.5839302310e+00    0.3327292    0.1729296  -0.59  0.002216597    1.784    0.439
        43 -12.1039    237.3807    236.0123   3.8304073091e+01  -3.1221112354e+00    0.8052409    0.3410589  -4.31  0.003358327    4.708    0.788
        44 -12.9174    225.3866    244.8718   4.1438848265e+01  -2.8776387660e+00    0.7467508    0.3851434 -11.04  0.004738294    1.931    0.482
        45 -13.3612    219.4577    245.9094   4.2531358308e+01  -2.3869221162e+00    0.8118367    0.4395955   6.02  0.005292378    1.718    0.418
        46 -12.3747    182.5089    249.3963   4.9267133592e+01   1.1934196480e+00    0.4896329    0.2609916  20.66  0.003072868    1.559    0.359
        47 -11.8651    188.3296    246.0054   4.7795957680e+01   9.5700676331e-01    0.4075105    0.1998338 -25.00  0.001942436    2.275    0.560
        48 -10.9503    150.2396    250.3997   5.5325420228e+01   4.7958763170e+00    0.2237329    0.0884616  27.29  0.001136229    2.120    0.528
        49 -10.8192    121.5250    250.3258   6.0893573524e+01   8.2293204035e+00     0.211219   0.08452175  30.63 0.0008441394    1.964    0.491
        50 -10.1221    102.7746    250.6254   6.4671545839e+01   1.0412620664e+01    0.1700372   0.07950691  37.86 0.0006714229    1.660    0.398
        51 -11.8120     74.2243    249.4518   7.0377659262e+01   1.3901020519e+01    0.4158246    0.1647771  29.99  0.002132797    2.024    0.506
        52 -13.4996     74.3500    240.2389   6.9650134007e+01   1.5459062467e+01    0.6875795    0.5903245  -8.83  0.004306913    1.477    0.323
        53 -11.5229     51.5073    249.8514   7.5034681665e+01   1.6306591598e+01     0.339411    0.1167986  30.69  0.001683098    2.247    0.555
        54 -11.7578     11.2042    249.1996   8.3046948798e+01   2.0326923487e+01    0.4422019    0.1101662  44.25   0.00223939    2.344    0.573
        55 -11.9406      4.4421    243.5892   8.4217797061e+01   2.1912779329e+01       0.2988    0.1817665  25.36  0.001377724    1.627    0.386
        56 -12.5550     21.7669    248.7275   8.0954940765e+01   1.9452468525e+01    0.6466106     0.177801  32.01  0.002218886    2.518    0.603
        57 -12.5226     33.6090    247.6431   7.8542560627e+01   1.8511045157e+01    0.7709046    0.1543105  35.42  0.003240876    2.835    0.647
        58 -11.7007     20.4514    237.5735   8.0799566295e+01   2.1590690568e+01    0.4223672    0.1655751  41.56   0.00151252    1.786    0.440
        59 -11.3706     18.9063    241.9433   8.1279375377e+01   2.0930887768e+01    0.3783238    0.1386719  33.90  0.001499559    1.990    0.497
        60 -13.0312      9.4049    237.2928   8.3049947255e+01   2.2637588753e+01    0.9214795      0.24602  31.17  0.004417832    2.646    0.622
        61 -11.1511     32.3389    242.1330   7.8547462238e+01   1.9619163802e+01    0.3034367    0.1714138  48.42  0.001045316    1.344    0.256
        62 -10.3391     79.1277    223.7934   6.7214648143e+01   1.7874548870e+01    0.2601323    0.1732912  -5.34  0.001286036    2.302    0.566
        63  -9.5290    104.6701    223.6924   6.1561540170e+01   1.4682558324e+01    0.1207216   0.08977638  -3.74 0.0006675505    1.661    0.398
        64 -12.3274    237.9694    228.3997   3.7089444934e+01  -2.3440084032e+00    0.7029988    0.3250561   9.70  0.003857699    2.556    0.609
        65 -10.5058     42.0008    220.5363   7.5297845781e+01   2.2740547425e+01    0.1834832    0.1001374  32.07   0.00057927    1.567    0.362
        66  -9.4909    183.6667    219.6589   4.4934421487e+01   4.9897883249e+00      0.12473   0.07714501  -2.14 0.0007051232    1.752    0.429
        67  -9.7802    150.3320    218.3608   5.1218056111e+01   9.5341068525e+00    0.1288024   0.08490379  -4.49 0.0007039975    1.804    0.446
        68  -9.9735    204.2775    216.9299   4.0829740201e+01   2.8145831156e+00    0.1873239    0.1061442  -9.33  0.001037376    1.937    0.484
        69  -9.3338     56.0260    216.9310   7.1860134635e+01   2.1929438537e+01    0.1408718    0.1184749  54.60            0    1.048    0.046
        70  -9.9092    250.0454    218.3100   3.3739422735e+01  -2.4533006956e+00    0.1825664    0.1066816 -16.23  0.001046286    1.352    0.261
        71 -10.4685      9.9953    217.0320   8.2255329018e+01   2.6521685492e+01    0.2064248   0.09413844  54.40  0.001134752    1.717    0.418
        72 -10.4638    230.3627    199.1014   3.3631659289e+01   2.0082737014e+00    0.2804375    0.1536812  -6.66  0.001164114    2.022    0.505
        73 -10.0123    230.0000    207.9636   3.5146757874e+01   9.3181111524e-01    0.2132061    0.1113048 -22.42 0.0007555496    1.713    0.416
        74 -12.1288    218.8290    208.0589   3.6964376496e+01   2.2273588970e+00     0.646037    0.3051906 -17.23  0.003242431    2.543    0.607
        75 -10.5933    225.9322    205.0386   3.5317905454e+01   1.7730940697e+00    0.2802938    0.1597369  -0.40  0.001078203    1.870    0.465
        76 -10.3678    229.4924    204.4530   3.4655116265e+01   1.4302169304e+00    0.2040094    0.1485292   3.83  0.000846782    1.126    0.112
        77 -10.2763     23.9388    216.0308   7.9110596284e+01   2.5460003382e+01    0.1822307    0.1350111  54.16 0.0003466394    1.068    0.064
        78  -9.6720    198.9857    213.0265   4.1147543881e+01   3.9891013168e+00    0.1925725    0.1174588  -3.21  0.001122682    1.721    0.419
        79 -10.5991      4.9087    210.8818   8.3170494491e+01   2.8214730113e+01    0.2223705    0.1378562 -82.76 0.0008820149    1.611    0.379
        80  -9.9960    106.5330    211.0004   5.9673976790e+01   1.6761962903e+01    0.1754627    0.1267541 -56.74  0.001029887    1.590    0.371
        81 -10.7576     10.9787    209.0215   8.1734807218e+01   2.8089121231e+01    0.2471594    0.1929435  78.63  0.001074347    1.184    0.155
        82 -11.0371      3.4952    205.3989   8.3308136171e+01   2.9480510889e+01     0.310821    0.2261899 -54.22  0.002014634    1.776    0.437
        83 -11.4546    234.7938    204.0203   3.3754947104e+01   8.7223242279e-01    0.4075417    0.1417899 -27.40  0.001906962    2.888    0.654
        84 -11.7902    238.4842    200.4824   3.2604961232e+01   8.8831680990e-01    0.4514743    0.1546303 -29.39  0.001989302    2.682    0.627
        85 -10.8770    237.4397    196.4993   3.2098667063e+01   1.5059783895e+00    0.3150525    0.1440491 -26.12  0.001754424    1.930    0.482
        86  -9.6114    247.3185    205.3240   3.2077468669e+01  -6.7885934685e-01    0.1138174   0.06474047  -4.69 0.0003564352    1.672    0.402
        87  -9.6205    206.3843    204.8514   3.8544160983e+01   4.1831488124e+00    0.1644251   0.09237366 -23.90 0.0008143798    1.693    0.409
        88  -9.9539    250.4861    199.9777   3.0739823504e+01  -3.9056779132e-01    0.1636148   0.08372106 -27.07   0.00102257    1.581    0.368
        89  -9.1845    132.7035    199.2950   5.2214127048e+01   1.5266068513e+01    0.1238596   0.09710416  58.33 0.0001792675    1.565    0.361
        90  -9.9942    177.4945    197.5441   4.2626624278e+01   9.1143157290e+00    0.2440712    0.1166518 -41.88  0.001206914    2.155    0.536
        91  -9.5901     50.8012    197.5830   7.1542084285e+01   2.6577720980e+01    0.1960322   0.09501141  41.04 0.0009534017    1.720    0.418
        92  -9.9183    248.9736    194.7707   3.0092070656e+01   4.0121152480e-01    0.2401672    0.1080733 -14.86  0.001186977    2.712    0.631
        93  -9.7528    209.6147    193.1488   3.6027274502e+01   5.4003506893e+00    0.1555246   0.09459871 -22.34 0.0002330115    1.508    0.337
        94 -11.3422     15.5056    192.2399   7.9919314292e+01   3.1337389578e+01    0.3161872    0.2714384  23.13   0.00136585    1.342    0.255
        95  -9.1778    123.9640    205.9996   5.5111154182e+01   1.5284675672e+01    0.1512992    0.1264123  27.50 0.0009393017    1.048    0.046
        96 -10.4330     61.9951    184.8248   6.7487635183e+01   2.8101033334e+01    0.2261083     0.190294 -83.07 0.0008030866    1.217    0.178
        97 -10.8412     15.4873    181.8675   7.9381592325e+01   3.3710851514e+01    0.3572755    0.1839903  61.55  0.001827975    1.729    0.422
        98  -9.2829     23.5380    180.5889   7.7211570177e+01   3.3284757834e+01    0.1313482     0.104949  60.86 2.369466e-05    1.057    0.054
        99  -9.5784    247.6425    168.3147   2.5648455675e+01   3.9011650129e+00     0.102636   0.08567006 -47.98 0.0007044149    1.747    0.427
       100  -9.9192      7.5132    163.5004   8.0520626040e+01   3.8756521066e+01    0.1298284    0.1085519  72.32 0.0001025149    1.012    0.012
       101 -10.9825    117.7624    159.3683   4.9165212073e+01   2.5679399612e+01    0.4281406    0.2256609 -46.74   0.00166178    1.952    0.488
       102 -11.0381     54.0650    158.8893   6.6710780616e+01   3.5284538101e+01    0.5374573    0.3329425 -22.69  0.002291053    2.646    0.622
       103 -11.7582     17.4177    159.8057   7.7487744600e+01   3.8871141125e+01    0.3201101     0.280935 -71.60  0.001496167    1.210    0.174
       104  -9.8259      2.9615    157.0231   8.1465796323e+01   4.0687378090e+01    0.1948916    0.1418304 -45.30 0.0008318653    1.677    0.404
       105  -9.7218    221.7950    151.0050   2.6184242088e+01   9.8658462511e+00    0.1938572    0.1338718 -53.66  0.001072137    1.998    0.499
       106 -11.2087    234.4046    146.0897   2.3314151531e+01   8.7340414689e+00    0.3120474    0.1834628  -8.59  0.001499715    2.107    0.525
       107  -9.2615      6.6676    145.3190   7.9708391269e+01   4.3376915716e+01    0.1459972   0.07938335  58.67 0.0004817081    1.694    0.410
       108  -9.4190     17.4490    142.9895   7.6191739546e+01   4.3152311650e+01    0.2030376   0.09016357  71.31 0.0008061369    2.468    0.595
       109 -10.8935    239.4395    141.1877   2.1628553922e+01   8.7063706711e+00    0.2265354   0.09783698 -31.46 0.0005482836    1.917    0.478
       110  -9.0742    189.3190    140.2823   2.9452837975e+01   1.6846590306e+01    0.1359063   0.09951095  -0.67 0.0003369015    1.585    0.369
       111  -9.5795    207.9868    136.0305   2.5304578979e+01   1.4371216305e+01    0.1573201    0.1333435 -22.51 0.0003526179    1.003    0.003
       112 -11.3850     37.6224    135.2857   6.8858540213e+01   4.3268784799e+01      0.24034    0.2198506  79.79 0.0003192057    1.022    0.022
       113 -11.6276    241.8582    134.3198   1.9924198662e+01   9.3260311627e+00    0.2237079    0.1354576 -37.40 0.0009884527    1.397    0.284
       114  -9.7930     47.0183    133.6781   6.5526899778e+01   4.2629852125e+01    0.1911319    0.1799076  59.29 0.0004012609    1.079    0.073
       115  -9.3729    128.6433    132.3033   4.0829173356e+01   2.9704269084e+01    0.1531343    0.1194298  79.24 0.0007039257    1.715    0.417
       116 -10.0897     36.2337    130.9041   6.8756457449e+01   4.4578305968e+01    0.2226145     0.173404  79.83  0.001049532    1.235    0.191
       117 -12.0287      4.8967    130.0883   7.9251205151e+01   4.7445622230e+01    0.2480253    0.2100824  86.50 0.0003144295    1.013    0.013
       118  -9.8548     73.5986    129.2452   5.6065949576e+01   4.0151933107e+01    0.2161203    0.1323209 -50.92 0.0009439113    1.633    0.388
       119 -10.3814     55.8932    126.5992   6.1425997986e+01   4.3381124361e+01    0.2315446    0.1884112 -56.93 0.0003707212    1.214    0.176
       120 -10.4413     52.3742    123.0270   6.2015086515e+01   4.4786617760e+01    0.5261556     0.159064 -53.17  0.001718898    3.074    0.675
       121  -9.9931     56.3950    120.7097   6.0204661432e+01   4.4869683280e+01    0.2635285    0.1418418  62.23 0.0006993536    2.477    0.596
       122  -9.9518     68.2932    121.9286   5.6371459753e+01   4.2848374455e+01    0.2160588    0.1846827 -65.26 0.0006017742    1.127    0.113
       123  -9.7763     61.4433    121.4591   5.8602375353e+01   4.3972829979e+01    0.1485015    0.1401653 -79.46 0.0001553037    1.017    0.017
       124 -13.7273    249.1852    112.8929   1.4620530676e+01   1.1228150849e+01     1.143169    0.2238092 -37.24  0.004063878    3.672    0.728
       125  -9.8853     73.6456    117.0108   5.3549440362e+01   4.3289165493e+01    0.2111058    0.1801551 -64.18 0.0003975715    1.133    0.117
       126  -9.7894     52.9634    116.0318   6.0546712365e+01   4.6567923174e+01    0.1788103    0.1676271 -85.70  0.000423687    1.009    0.009
       127  -9.9312     16.0495    115.4974   7.4021534417e+01   5.0547340304e+01      0.18532    0.1375096  24.11 0.0003884798    1.493    0.330
       128 -11.7001     11.9121    108.9749   7.4856730874e+01   5.2600628392e+01    0.5031558    0.1806705 -53.84  0.001951415    2.578    0.612
       129 -10.1509     62.1688    107.8144   5.5542364374e+01   4.7446159563e+01    0.2132634    0.1762959 -34.01  0.001071279    1.339    0.253
       130 -10.2421     20.4854    108.3078   7.1467252571e+01   5.2134575924e+01    0.2393926    0.1298902  20.26  0.001086777    2.058    0.514
       131 -10.3410     30.8591    106.6246   6.7180068921e+01   5.1651443323e+01     0.202483    0.1814591  54.13  0.001148653    1.155    0.134
       132 -10.6715     75.2854    104.4755   5.0083884361e+01   4.6222581386e+01    0.3127618    0.2447151  82.44 0.0006131154    1.512    0.339
       133  -9.6538     10.1671     99.1598   7.4416661323e+01   5.5355526399e+01     0.182089    0.1426437  68.53 0.0002538924    1.272    0.214
       134 -10.3124      3.2637    104.9963   7.7797529695e+01   5.4201233403e+01     0.184336    0.1033634 -79.74 0.0008891158    1.535    0.348
       135  -9.6255     33.7668     98.2448   6.4559493912e+01   5.3610988791e+01    0.2478703   0.08586414 -56.98 0.0008900751    2.440    0.590
       136 -10.3982      2.2133     96.1384   7.7357683048e+01   5.6622299442e+01    0.2069437    0.1612431 -61.33  0.000523147    1.184    0.155
       137  -9.1769     93.7370     93.9998   4.1045726783e+01   4.5393730260e+01    0.1939365    0.1325096 -50.17 0.0002532743    1.423    0.297
       138  -9.2923      1.2683    118.3302   7.9645520240e+01   5.0763334528e+01    0.1363142   0.08676997 -54.08 0.0002550655    1.581    0.368
       139 -12.0930    248.4001     84.5681   8.7242187298e+00   1.5222491058e+01    0.2357596    0.1954926  60.61  0.001633206    1.543    0.352
       140 -11.6594     57.1295     91.0459   5.3457390066e+01   5.2546375028e+01    0.3193589    0.2681178 -54.63 0.0005064247    1.127    0.113
       141 -10.2385     35.0631     90.6021   6.2500510105e+01   5.5512489283e+01    0.2323525    0.1829674 -79.52   0.00121254    1.241    0.194
       142 -10.0874     22.5196     88.5086   6.7556976199e+01   5.7292291321e+01    0.1418899    0.1270977 -72.27 0.0008102909    1.009    0.009
       143 -10.5663    184.9080     85.2188   1.7045835753e+01   2.7195043453e+01    0.2197736    0.1779001 -39.98 0.0003019062    1.103    0.094
       144  -9.6924      1.3113     91.6435   7.7270770445e+01   5.7864851666e+01    0.1448634   0.08746326  62.93 0.0005291081    1.735    0.424
       145 -10.0985      8.2385     85.4111   7.3458021223e+01   5.9153617038e+01    0.1974589    0.1496067  63.50  0.001087159    1.391    0.281
       146 -10.9830      3.9983     84.9270   7.5311413859e+01   5.9516937832e+01    0.2360201    0.2061367 -80.18 0.0005884086    1.031    0.030
       147 -10.7728     17.2798     81.0682   6.8591449175e+01   5.9695527384e+01    0.2036623    0.1629666 -71.43 0.0003853838    1.116    0.104
       148  -9.8621    120.1022     79.8868   2.8962295987e+01   4.2831695059e+01    0.2361213    0.1904193   6.91 0.0009069924    1.621    0.383
       149  -9.5262     39.5145     79.4467   5.7941859830e+01   5.7921159603e+01    0.1442858    0.1351148 -71.28 0.0002417034    1.047    0.045
       150  -9.8148    211.9897     76.2524   1.0923363424e+01   2.3009783332e+01    0.1761085    0.1534215 -42.03 0.0003292337    1.033    0.032
       151 -11.3838     88.1340     77.1586   3.7729202825e+01   5.0390686240e+01    0.2540796    0.2343556 -66.27            0    1.102    0.093
       152 -10.2274     76.9361     74.9598   4.0998276208e+01   5.3105875324e+01    0.2190119    0.2115845 -62.02  0.001185473    1.030    0.029
       153  -9.9690    168.0211     73.9348   1.6790868729e+01   3.2806277895e+01    0.2447638     0.162132 -62.61 0.0008591016    1.754    0.430
       154 -11.2569      8.3553     72.8488   7.1451699254e+01   6.2463274342e+01    0.5065205    0.2883956 -15.29   0.00157325    2.165    0.538
       155  -9.6054    206.9530     73.0295   1.0761024252e+01   2.4496179617e+01      0.16051     0.136464 -43.14 0.0003557384    1.004    0.004
       156 -12.1013    250.1042     70.6639   5.5591649081e+00   1.6772727987e+01    0.3783261    0.1406817 -25.82  0.001577765    2.885    0.653
       157 -10.0603      1.3830     72.2435   7.4844994685e+01   6.2983742092e+01    0.1846341    0.1137704 -87.50 0.0002652156    1.546    0.353
       158  -9.5375    160.0138     71.7277   1.7582085485e+01   3.5026926378e+01    0.1661202    0.1307159  62.43 0.0002762086    1.346    0.257
       159 -11.5248    102.7496     69.3937   3.0394155071e+01   4.8901597659e+01    0.2922395    0.2526677 -51.32 0.0002829223    1.145    0.127
       160 -11.7673     92.5775     68.1891   3.3174620169e+01   5.1395289751e+01    0.3834698     0.276441 -60.57  0.001179579    1.560    0.359
       161 -10.4342     50.3060     68.0715   4.9716193551e+01   5.9300365424e+01    0.2483116    0.1967597 -19.67 0.0005692811    1.436    0.303
       162 -11.2958      6.5549     67.6017   7.1451429829e+01   6.3931622728e+01    0.2428972    0.2093344 -56.22 0.0002800627    1.051    0.049
       163 -11.7121     14.4671     66.1937   6.7012720444e+01   6.3787728974e+01    0.3766643    0.2327208  36.35  0.001053543    1.784    0.439
       164 -11.7568      2.9851     61.9529   7.2346993810e+01   6.5570815399e+01    0.4397035    0.2126545 -47.88  0.002070264    1.827    0.453
       165 -10.5388     29.1595     65.5890   5.9206911730e+01   6.2627599403e+01    0.1952603    0.1791116 -29.33 0.0002620944    1.097    0.089
       166 -11.8935     29.1871     60.8027   5.7803491910e+01   6.3814954346e+01    0.6257885    0.3752484  11.30  0.001934336    2.013    0.503
       167 -13.4616    232.8774     58.5757   4.4498908454e+00   2.1421145494e+01     1.021478    0.5297015 -69.26  0.004782653    2.721    0.632
       168 -11.2942    159.1814     64.9461   1.5717363705e+01   3.6350894127e+01    0.2292898    0.2078639  53.02  0.001265568    1.191    0.160
       169  -9.3203    161.7457     61.6996   1.4296307616e+01   3.6265361489e+01    0.2315415    0.1355556 -23.36  0.000183501    1.992    0.498
       170 -12.1745    122.9556     63.7161   2.2916524095e+01   4.5275970475e+01    0.2812994     0.251756 -44.05 0.0003844235    1.093    0.085
       171  -9.6413    155.1726     64.1398   1.6196965994e+01   3.7436748682e+01    0.1967746    0.1611608 -66.82 0.0002832703    1.258    0.205
       172  -9.3885    109.4395     64.4824   2.6732529786e+01   4.8336079239e+01    0.1508992     0.148131 -44.18 0.0001534568    1.028    0.027
       173 -11.3233     46.1403     60.9048   4.9252364868e+01   6.1622847180e+01    0.2299543    0.2173584  -8.54 0.0002782021    1.079    0.073
       174 -10.3114    189.0225     59.9026   9.6738794229e+00   3.0249632969e+01    0.2030857    0.1764652 -53.42 0.0003066432    1.035    0.034
       175 -10.7840    167.5739     59.3871   1.2648658566e+01   3.5247630050e+01    0.2953855    0.2092474 -64.25 0.0007552155    1.516    0.340
       176 -12.6022     12.5596     57.9680   6.6153624074e+01   6.6015312259e+01    0.7307917    0.4840224 -77.15  0.003814898    1.502    0.334
       177 -11.0505      8.3258     51.5190   6.7034573497e+01   6.7906033478e+01    0.2302072    0.1906227  67.11 0.0005043715    1.406    0.289
       178 -12.6414     12.5240     48.0602   6.3525862782e+01   6.8464629192e+01    0.3487981    0.2789562 -39.87 0.0002970464    1.138    0.121
       179 -11.6951     10.6042     43.8430   6.3475556597e+01   6.9620317558e+01    0.2357156    0.2149446 -36.83 0.0003682034    1.062    0.058
       180  -9.2447    135.2558     58.3082   1.8267304224e+01   4.3232954253e+01    0.1425912    0.1183018  10.40 0.0002980317    1.518    0.341
       181 -10.0945    110.2386     56.8111   2.3752779837e+01   4.9570822442e+01    0.2188552    0.1985178 -73.09 0.0004201219    1.147    0.128
       182 -11.4493    115.5364     54.9983   2.1700953029e+01   4.8615857341e+01    0.2604869    0.2169839  60.52  0.000336467    1.209    0.173
       183  -9.7791     60.0030     54.5450   4.0449168721e+01   6.0790562606e+01    0.2157507    0.1438328  38.05 0.0008130425    1.547    0.354
       184 -11.5031      2.7571     52.9708   7.0719879620e+01   6.7855013914e+01    0.3541652    0.2314852 -45.48  0.001777379    1.365    0.267
       185 -11.5516      5.1529     45.8065   6.7546205373e+01   6.9497704370e+01    0.4384709    0.2650847 -46.21  0.002333381    1.437    0.304
       186 -13.3920    149.6181     51.1646   1.3122797635e+01   4.0840426203e+01     0.358077    0.3135652 -54.49 0.0006918972    1.078    0.072
       187 -10.5328    105.1137     52.6053   2.3589304505e+01   5.1541139914e+01    0.2400753    0.1990822 -51.75 0.0003928562    1.226    0.184
       188 -11.1974     39.1166     52.5780   4.9773109803e+01   6.4553477741e+01    0.3261585    0.2155742 -23.68 0.0009530279    1.815    0.449
       189 -10.7563     39.8702     48.2818   4.7708409245e+01   6.5417312726e+01    0.4795399    0.2668983 -19.92  0.001816856    3.010    0.668
       190 -10.4045     54.1814     48.7397   4.0723124664e+01   6.3048618302e+01    0.3284427    0.2184821  42.27  0.001588394    1.568    0.362
       191 -10.1563    160.4775    249.5100   5.3293578702e+01   3.7113897828e+00    0.1132983   0.08551873  14.09 0.0001879302    1.047    0.045
       192 -11.2488    121.5157     46.5785   1.7174502253e+01   4.8538601897e+01    0.2652098    0.2334765 -72.73 0.0001631414    1.167    0.143
       193 -11.9647     44.1664     43.2063   4.3303827121e+01   6.5867355798e+01    0.5356786    0.3436801 -60.43  0.002527458    1.838    0.456
       194  -9.9580    237.5021     44.5300   8.3268790237e-01   2.2324859631e+01    0.1242092    0.0968375 -45.67 -1.194476e-05    1.002    0.002
       195 -10.7775    143.6476     42.5061   1.1313652193e+01   4.3600885467e+01    0.3323667    0.2406323  -3.14 0.0001163629    1.866    0.464
       196 -11.3978     53.3161     43.5867   3.8897302274e+01   6.4258616482e+01    0.6246662    0.1700845  38.85   0.00193258    3.887    0.743
       197  -9.6631    127.1257     43.2221   1.4722729383e+01   4.7649908003e+01    0.1978639    0.1619837 -73.09 0.0002706333    1.294    0.227
       198 -10.2069     89.2778     41.3231   2.3734908076e+01   5.7206051341e+01    0.2427208    0.1988716  57.11 0.0006933325    1.226    0.185
       199 -11.0754    225.4226     39.2427   5.6771445351e-01   2.5301680174e+01    0.2479193     0.110345 -26.93  0.001152575    2.153    0.536
       200  -9.9344    203.7319     40.0248   2.6939206950e+00   2.9713954642e+01    0.1833026    0.1490072 -42.54 0.0002032775    1.083    0.076
       201 -10.2062    148.5875     39.9838   9.6376425603e+00   4.2717756932e+01    0.2098821    0.1862339  88.69 0.0003192021    1.102    0.093
       202 -11.3833     83.4071     38.7157   2.4505225421e+01   5.8989600316e+01    0.3854312    0.2925429  -3.15 0.0007714888    1.643    0.392
       203 -10.7760     87.1363     34.0499   2.1200677188e+01   5.8867970719e+01    0.2976465     0.227456  18.88 0.0008469213    1.566    0.361
       204  -9.3872    167.7374     38.9793   6.5032444375e+00   3.8133130003e+01    0.1744431    0.1154117 -32.66  0.000430311    1.450    0.310
       205 -11.0334     27.7404     37.5401   5.0166666446e+01   6.9388773086e+01    0.2398279    0.2268699 -43.09 0.0001951756    1.118    0.106
       206 -10.4643     23.6199     34.8308   5.1588944937e+01   7.0465648524e+01    0.2436822     0.208286  10.25  0.001471506    1.197    0.165
       207 -10.9096     56.1457     35.8667   3.3949985412e+01   6.5223237777e+01     0.400328    0.3096017  35.24   0.00189712    1.297    0.229
       208  -9.4964     97.5697     36.4171   1.9166631901e+01   5.6014080269e+01    0.1437405    0.1381158 -86.03 0.0001304326    1.062    0.058
       209 -10.4026    180.1129     47.0314   7.2566062819e+00   3.4106698301e+01    0.2023388    0.1787383 -55.99 0.0002837619    1.006    0.006
       210  -9.8147     63.8688     34.8491   3.0040508754e+01   6.3880978772e+01    0.1837055    0.1669677 -64.08 0.0003938073    1.267    0.211
       211  -9.8044     34.5812     33.2535   4.4018444718e+01   6.9363515178e+01    0.1902144    0.1170691 -36.73 0.0007575069    1.578    0.366
       212 -10.5920    196.1547     31.7922   1.2486434456e+00   3.2398784359e+01    0.2192682    0.1517385 -46.80  0.000391455    1.230    0.187
       213 -10.5118    198.2830     28.5336   1.8282556694e-01   3.2310052863e+01    0.2586811    0.1265144  77.02  0.001218968    2.200    0.545
       214 -11.9808      7.7603     30.2747   6.0771951232e+01   7.2974264657e+01    0.4279692    0.3388929 -23.33  0.002242409    1.193    0.162
       215 -12.3982      9.4522     24.9742   5.7255931325e+01   7.4006808983e+01     0.379355    0.2994605   9.89  0.002019852    1.312    0.238
       216  -9.8509     25.9153     31.1181   4.8373732681e+01   7.0974870119e+01    0.1936859    0.1722271 -57.23  0.001178288    1.246    0.197
       217 -10.6637     19.0403     30.7525   5.2831571843e+01   7.1850338157e+01    0.2261755    0.1766223 -47.62 0.0006405864    1.181    0.153
       218  -9.7154     48.8310     28.4168   3.3674526776e+01   6.7918340182e+01    0.1787231     0.124751  27.71 0.0003020611    1.507    0.337
       219 -12.1667    231.9770     26.5491   3.5710913298e+02   2.5490478120e+01    0.2951249    0.2006586 -77.52 0.0009319604    1.492    0.330
       220 -10.1888    111.8027     27.3366   1.1848134263e+01   5.3738374697e+01    0.2469037    0.1756472  70.35 0.0007547549    1.396    0.284
       221  -9.0796     16.2716     27.2677   5.3177453837e+01   7.2880773269e+01    0.1291243   0.08705707 -26.20            0    1.473    0.321
       222 -11.8186    216.2294     25.7289   3.5801039780e+02   2.8762004749e+01    0.3838434    0.1492983  71.05  0.001762012    2.740    0.635
       223 -10.9554     83.3998    248.0639   6.8391629855e+01   1.3086812135e+01    0.2709447    0.1347661  45.60  0.001280303    1.708    0.415
       224 -12.0813    197.1078    244.9955   4.6133097398e+01   1.0172102175e-01     0.398904    0.2038563  -6.64  0.002174641    2.522    0.603
       225 -10.8798     88.5711    246.8161   6.7226650604e+01   1.2692623578e+01    0.2045825    0.1082087  35.24  0.001093231    1.452    0.311
       226 -11.4775     12.8891    243.5459   8.2542819714e+01   2.1185129618e+01    0.3439861    0.1269665  46.39  0.001378736    1.849    0.459
       227 -10.5937     54.9951     24.9736   2.8833525093e+01   6.7312699575e+01    0.1968118    0.1834802   4.02  0.001178846    1.010    0.009
       228 -10.1331    159.3693     22.7331   2.4950267286e+00   4.2188279110e+01    0.2308509    0.1536023 -52.03 0.0004900786    1.408    0.290
       229  -9.7623    156.4897     21.5337   2.4539382859e+00   4.3041224560e+01    0.1382648    0.1245761 -70.45 8.727826e-05    1.004    0.004
       230 -10.3884     33.9855     22.6728   3.8739494834e+01   7.1466879197e+01    0.1795883    0.1550721  19.26 0.0002323844    1.133    0.117
       231 -10.0063     99.2764     20.8311   1.1886354322e+01   5.7706636914e+01    0.3178269    0.1442926 -39.02 0.0003008057    2.224    0.550
       232 -11.3786      1.9474     22.7365   6.2342062082e+01   7.5044296090e+01    0.3622135    0.1215713 -51.77  0.001582601    2.266    0.559
       233 -10.5739    193.0462     20.9130   3.5858879089e+02   3.4356234815e+01    0.1941346    0.1632572 -57.99 0.0002951168    1.002    0.002
       234  -9.9380     69.4600     21.6119   2.1066696192e+01   6.4742086069e+01    0.2785376    0.1370873  61.63  0.001141298    2.299    0.565
       235 -10.1561     68.3139     18.0172   1.9545309577e+01   6.5481233942e+01    0.2527789    0.1817819 -25.78 0.0003460578    1.434    0.303
       236 -11.4549    156.7347    245.6340   5.3525271711e+01   4.6780770971e+00    0.1911316    0.1260309 -23.70   0.00110928    1.686    0.407
       237 -11.0360    229.9842     19.9829   3.5571660846e+02   2.6604845242e+01    0.1844547    0.1503003 -50.22 0.0004868733    1.059    0.056
       238 -10.5710     42.2404     19.6388   3.2152995757e+01   7.0587170306e+01    0.4659519    0.1496636  43.93   0.00171652    3.087    0.676
       239 -11.4423     53.0929    244.8621   7.4414403740e+01   1.7005162203e+01    0.1847859     0.119021  49.21 0.0008067691    1.248    0.199
       240 -11.5251     44.7488    244.4410   7.6111350100e+01   1.7954867116e+01    0.2441935    0.1304061  30.60 0.0008995969    1.557    0.358
       241 -10.9749    177.1283    243.9298   4.9525340683e+01   2.4997365561e+00    0.3208148    0.1282434  24.78   0.00164016    2.260    0.557
       242 -11.0039    203.6846    250.5714   4.5761733088e+01  -1.2626794851e+00    0.2448701   0.08170495  31.72  0.001284018    2.526    0.604
       243 -10.7765    115.8675    241.4463   6.1110196696e+01   1.0282294971e+01    0.1819493         0.15  -5.42   0.00127351    1.349    0.259
       244 -11.5635    133.3496    240.9980   5.7526084848e+01   8.1942350561e+00    0.2928947    0.1604336   7.47  0.001459388    2.553    0.608
       245 -10.1707    187.7192     15.9847   3.5767740164e+02   3.6110343820e+01    0.1841961    0.1491201 -45.71 0.0003160079    1.110    0.099
       246 -10.5599    141.4092    247.7892   5.6718142980e+01   6.2134573953e+00    0.1449404   0.09863318 -28.33 0.0009508209    1.709    0.415
       247 -11.5751    170.9122     14.2327   3.5863736256e+02   4.0274312031e+01    0.2569754    0.1667693  56.80   0.00106355    1.675    0.403
       248  -9.8602    170.7698    240.0110   5.0179826640e+01   3.7659338040e+00     0.172084    0.1032852   9.88  0.001039478    1.634    0.388
       249 -10.7090     89.7233    240.3963   6.6428891050e+01   1.3629446718e+01    0.2144237    0.1269394  24.46 0.0009759433    1.540    0.351
       250 -10.7235     52.6405    238.8857   7.4138411617e+01   1.8119161759e+01    0.2586722   0.09798721  42.48  0.001318668    1.953    0.488
       251 -10.0808    196.1996    238.2231   4.5362240700e+01   1.0299168689e+00    0.1412342    0.1138018  22.41 0.0008835102    1.329    0.248
       252 -11.7970    183.7909    234.9495   4.7110006576e+01   2.8894300678e+00    0.4677042    0.1974253  32.84  0.002528721    2.046    0.511
       253 -11.1475    160.7775    235.0925   5.1419951759e+01   5.6625775806e+00    0.2290039    0.1280044   8.53  0.001145701    2.108    0.526
       254 -10.5766     92.9457    235.1353   6.5264113091e+01   1.4142468023e+01    0.2673086    0.1444792  17.07   0.00136548    2.153    0.536
       255  -9.8862    204.9424    234.4939   4.3330465452e+01   5.0177654657e-01    0.1583336   0.08796278  24.00 0.0006328968    1.520    0.342
       256 -11.4319     61.1122    241.1324   7.2502571858e+01   1.6794074505e+01    0.2936915    0.1341536  32.74  0.001601337    1.716    0.417
       257 -11.9571     11.2829    231.6708   8.2485356492e+01   2.3530333659e+01    0.3168981      0.17352  34.24  0.001195331    1.497    0.332
       258 -11.3694      2.8393    226.5330   8.4090586572e+01   2.5242356017e+01     0.224408    0.1949411  22.13  0.001204319    1.409    0.290
       259 -10.5382      2.1507    221.0690   8.4083773211e+01   2.6373042396e+01    0.2998093    0.1332435  77.60  0.001642515    2.079    0.519
       260 -10.1048     55.0066    232.0263   7.3182372510e+01   1.9123134252e+01    0.2037527    0.1071311  53.95 0.0009800817    1.710    0.415
       261 -13.6559     31.7679    235.8879   7.8370864597e+01   2.0822122495e+01     1.195273    0.3343588  51.15  0.005353439    2.833    0.647
       262  -9.7436    202.5667    230.1816   4.3114769453e+01   1.3069686372e+00    0.1546719   0.08691896 -21.03 0.0009452025    1.745    0.427
       263 -10.7319    193.7509    227.9145   4.4325755856e+01   2.6303398304e+00     0.313224     0.226828  52.87  0.001621869    2.508    0.601
       264 -10.0495    117.6511    229.2795   5.9404146486e+01   1.2043530146e+01    0.1224777   0.08009627  50.21 0.0002898693    1.642    0.391
       265  -9.8994     39.9475    229.1875   7.6270959507e+01   2.1264429563e+01    0.2079345   0.08522931  48.88  0.000792004    1.952    0.488
       266 -11.8590     26.6703    242.6215   7.9729091187e+01   2.0079910276e+01    0.4880984    0.1966084  40.45  0.002038264    1.743    0.426
       267 -10.7306    188.3873    230.6894   4.5682909558e+01   2.9044400731e+00    0.2811238    0.1537861 -13.94    0.0009913    2.162    0.537
       268 -10.3506    154.5169    228.4924   5.1763968174e+01   7.4167236379e+00    0.2103941   0.09025627  39.55  0.001031697    2.206    0.547
       269 -10.1019    200.5078    223.9731   4.2555945338e+01   2.3420582348e+00    0.1621852    0.1201427 -10.59  0.001143189    1.160    0.138
