#   1 NUMBER                 Running object number                                     
#   2 MAG_AUTO               Kron-like elliptical aperture magnitude                    [mag]
#   3 X_IMAGE                Object position along x                                    [pixel]
#   4 Y_IMAGE                Object position along y                                    [pixel]
#   5 X_WORLD                Barycenter position along world x axis                     [deg]
#   6 Y_WORLD                Barycenter position along world y axis                     [deg]
#   7 A_WORLD                Profile RMS along major axis (world units)                 [deg]
#   8 B_WORLD                Profile RMS along minor axis (world units)                 [deg]
#   9 THETA_WORLD            Position angle (CCW/world-x)                               [deg]
#  10 FWHM_WORLD             FWHM assuming a gaussian core                              [deg]
#  11 ELONGATION             A_IMAGE/B_IMAGE                                           
#  12 ELLIPTICITY            1 - B_IMAGE/A_IMAGE                                       
         1 -14.5493    211.1104      5.7188   4.3902083574e+01   3.0445134372e+01     2.129567     1.736627   6.44  0.006173976    1.417    0.294
         2 -13.7990    194.2363     12.7526   4.7552533567e+01   3.4100204255e+01     1.339964     1.127698  23.15  0.007317066    1.353    0.261
         3 -13.8964    173.0812     50.9481   6.2772890312e+01   3.4986680533e+01     1.869993     1.214933  36.99  0.005365492    1.741    0.425
         4 -14.2565    187.6509     37.0404   5.6020827049e+01   3.3076750950e+01     1.209077    0.9853378  48.15  0.004066696    1.273    0.214
         5 -13.7767    191.9095     30.9634   5.3535875927e+01   3.2711698905e+01    0.9392223    0.6586294  55.60  0.001653322    1.453    0.312
         6 -12.3023     71.6651    209.7960   1.1802512405e+02   2.4492054599e+01    0.4267768     0.250705  22.82 0.0009567842    2.164    0.538
         7 -18.6664     40.8987    242.5457   1.2561734438e+02   2.2756906231e+01     6.523069     5.080092  39.20   0.05606159    1.345    0.257
         8 -11.2068     99.3639    180.8507   1.0940317521e+02   2.5867859690e+01    0.2384066    0.1905338  41.62 0.0005572067    1.110    0.099
         9 -19.1503     20.0240    102.1394   1.2196089013e+02   5.2601784951e+01     16.30077    0.9179771 -76.07    0.0286297   14.768    0.932
        10 -12.1097    193.3141    195.1597   9.2413821204e+01   8.8465525544e+00     1.156979     0.652711 -57.06  0.005033525    4.383    0.772
        11 -10.2523     30.1905    193.1106   1.2550005292e+02   3.2075901943e+01    0.2254195    0.1070228  39.40  0.001037298    1.662    0.398
        12 -10.8840    204.5031    176.4834   8.7338080179e+01   9.3944552837e+00    0.3452832    0.2420604 -39.45  0.001610673    1.764    0.433
        13 -12.0160    153.1087    199.1043   1.0052375957e+02   1.4618310039e+01    0.3844736    0.1918979 -50.90  0.002037079    2.645    0.622
        14  -8.8482     36.2821    176.3056   1.2326394438e+02   3.4678715100e+01   0.09727208   0.08676974 -49.89 0.0002896874    1.558    0.358
        15 -10.1047     71.2608    204.3145   1.1769243436e+02   2.5475679835e+01    0.2235792    0.1342179  68.49  0.001154813    1.650    0.394
        16  -9.9906    185.0350    169.7909   8.9738183553e+01   1.3567256149e+01    0.2131316    0.1795886 -18.56 0.0009038203    1.272    0.214
        17 -10.1603    163.3959    169.0641   9.3876526898e+01   1.7437785165e+01    0.2282534     0.194009 -75.74  0.001383375    1.662    0.398
        18 -11.1873    230.1179    166.4191   8.1175112294e+01   6.4641471206e+00    0.2248289    0.1507934 -40.22  0.001327588    1.946    0.486
        19  -9.7197    192.6344    165.0541   8.7453170425e+01   1.2915572521e+01     0.179772    0.1622924 -42.83 0.0006915752    1.429    0.300
        20 -11.6411    154.5473    186.5939   9.8459439363e+01   1.6232951952e+01    0.3137594    0.2322241 -67.85  0.001405455    2.020    0.505
        21 -12.4483    148.9114    186.2652   9.9547477455e+01   1.7200274001e+01    0.4132371     0.286191  68.51  0.002263013    2.123    0.529
        22  -9.2033      1.2745    162.2060   1.3058183827e+02   4.0594527611e+01   0.08333192   0.07933238 -80.75            0    1.404    0.288
        23 -10.9916    159.8138    196.8238   9.8905952097e+01   1.3893135166e+01    0.1970169    0.1734536  36.56 0.0004002253    1.147    0.128
        24 -10.7821    188.7314    154.5849   8.6220673050e+01   1.5106857633e+01    0.5648302    0.2650936  34.04  0.002526189    2.089    0.521
        25 -12.4997     98.0774    152.7771   1.0601117083e+02   3.1503069801e+01    0.5487646    0.4441435 -20.16  0.003117823    1.744    0.427
        26 -11.7368    133.9726    145.8722   9.6183283523e+01   2.6731607019e+01     1.072688    0.3089576 -55.40  0.003071372    5.591    0.821
        27 -12.2304    204.5007    199.5086   9.1122858733e+01   6.6155761489e+00    0.4613598    0.2177944  34.66  0.002543892    1.708    0.414
        28 -10.5168    174.4653    148.9865   8.7936779021e+01   1.8604649551e+01     0.260921    0.2151535  49.02 0.0008016259    1.263    0.209
        29 -11.3504    144.0776    146.9591   9.4062552513e+01   2.4664195661e+01     0.363753    0.2518915 -66.92  0.001804031    1.995    0.499
        30 -10.9251     81.8010    195.6631   1.1476657345e+02   2.5642398445e+01    0.2950126    0.2649364 -20.92  0.002115709    1.605    0.377
        31 -10.1334    115.9550    144.6560   1.0028984695e+02   3.0189843823e+01    0.2352944    0.1788006  76.29 0.0006495033    1.557    0.358
        32 -12.0086    108.6636    139.2602   1.0117568874e+02   3.2551111720e+01     0.557829    0.3462546 -38.08  0.002631582    2.094    0.522
        33 -12.5688     97.2535    138.4640   1.0398875434e+02   3.4626160980e+01    0.2584054    0.2370077  53.07 0.0005623746    1.057    0.054
        34 -10.4524    113.2718    151.5475   1.0209928423e+02   2.9275959480e+01    0.2629525    0.2060899  77.96  0.000655073    1.454    0.312
        35 -11.4801    105.9762    130.8291   1.0035280469e+02   3.4790079813e+01    0.3712246    0.3085375 -87.34   0.00119065    1.305    0.233
        36 -11.3679    103.4286    125.5209   1.0003136627e+02   3.6375967048e+01    0.2700149    0.2420908  -4.29 0.0004539508    1.376    0.273
        37 -10.9601    115.5730    129.7356   9.7637946731e+01   3.3311363887e+01    0.3069518    0.2681527  -4.89 0.0006648885    1.415    0.293
        38 -11.1132    135.9727    127.2621   9.2019957516e+01   2.9938797642e+01    0.5703157     0.199249 -50.55  0.001958474    3.282    0.695
        39 -10.2067    160.9133    127.8204   8.6384322984e+01   2.4824054384e+01    0.2516527    0.2234505 -61.12   0.00131326    1.325    0.245
        40 -10.4757    120.4502    123.6749   9.5150670871e+01   3.3665769586e+01    0.2980837     0.224989 -11.01 0.0008855389    1.926    0.481
        41 -10.1277    110.8304    118.7904   9.6670272606e+01   3.6501673482e+01    0.2037927    0.1907025  24.42 0.0004840548    1.158    0.136
        42 -10.2721    168.3134    113.1289   8.1382242402e+01   2.5858142817e+01    0.3005405    0.2495121 -85.27  0.001395658    1.627    0.385
        43 -11.5612    119.1583    110.5738   9.2602507427e+01   3.6665251400e+01    0.5978566    0.3470059  63.75  0.002360549    2.413    0.586
        44 -10.2208    134.6517    105.9583   8.7445763940e+01   3.4446312650e+01    0.3342448    0.1415049 -44.50  0.001228088    2.450    0.592
        45 -10.2722    205.6185    110.1500   7.3454368322e+01   1.8384519550e+01     0.257977     0.192003  37.21 0.0006466531    1.314    0.239
        46  -9.0350    153.2934     81.2703   7.6210480603e+01   3.4974555354e+01    0.1511192    0.1185106  17.64  0.000241268    1.515    0.340
        47 -12.3924    165.9149     66.2216   6.8952272371e+01   3.4463020606e+01    0.9104313    0.5143561 -50.37 0.0008885325    2.049    0.512
        48 -12.0607    247.9406    248.4887   9.1194459598e+01  -3.7312405045e+00    0.2922262    0.1641821  31.76  0.002246786    1.382    0.276
        49 -11.4136    158.7055    236.0887   1.0403372680e+02   8.9746210564e+00    0.2532713    0.2033908   6.18  0.001488682    1.407    0.289
        50  -9.5534    168.9672    234.6996   1.0208440884e+02   7.7191575108e+00    0.1516069    0.1020562  33.70  0.000333737    1.071    0.066
        51 -10.8038     71.7151    230.8378   1.1946342951e+02   2.1116737757e+01    0.2675171    0.1467062  42.67  0.001024931    1.303    0.232
