#   1 NUMBER                 Running object number                                     
#   2 MAG_AUTO               Kron-like elliptical aperture magnitude                    [mag]
#   3 X_IMAGE                Object position along x                                    [pixel]
#   4 Y_IMAGE                Object position along y                                    [pixel]
#   5 X_WORLD                Barycenter position along world x axis                     [deg]
#   6 Y_WORLD                Barycenter position along world y axis                     [deg]
#   7 A_WORLD                Profile RMS along major axis (world units)                 [deg]
#   8 B_WORLD                Profile RMS along minor axis (world units)                 [deg]
#   9 THETA_WORLD            Position angle (CCW/world-x)                               [deg]
#  10 FWHM_WORLD             FWHM assuming a gaussian core                              [deg]
#  11 ELONGATION             A_IMAGE/B_IMAGE                                           
#  12 ELLIPTICITY            1 - B_IMAGE/A_IMAGE                                       
         1 -11.5802      9.2046      3.3047   1.0600423931e+02   7.1486449064e+01    0.7458956    0.2376544  29.05  0.003871157    3.108    0.678
         2 -11.1671     21.0621     29.2982   1.1123250432e+02   6.6875962049e+01     1.027351    0.4894113 -14.41  0.005106502    2.748    0.636
         3 -11.0372     39.9463      3.1506   9.2378203230e+01   6.8051943871e+01     0.450689    0.2542818  31.20  0.001406089    1.542    0.352
         4 -11.0286      6.2681     17.6959   1.1347200616e+02   6.9807380397e+01    0.8713278     0.411742 -24.57   0.00525481    1.881    0.468
         5 -10.2901     10.2550     10.3837   1.0860795977e+02   7.0499562135e+01    0.3590654    0.2070763 -12.91  0.001223997    1.503    0.335
         6 -10.5566     16.8234      9.9224   1.0533787108e+02   6.9965674298e+01    0.3045848    0.1897307  -6.68 0.0003755118    1.364    0.267
         7 -11.3397     25.8156      5.4423   9.9299113069e+01   6.9563619000e+01    0.4828038    0.3303544  -6.77  0.001651629    1.146    0.127
         8 -11.0760     19.8569     15.0111   1.0612753221e+02   6.9016716338e+01    0.6558814    0.3268268 -14.62  0.003610188    2.186    0.542
         9 -11.0503     27.6788     14.5142   1.0247021681e+02   6.8272387379e+01     0.602779    0.3324599 -13.91  0.001894382    1.768    0.434
        10 -10.6077     34.7522      9.2341   9.7190076971e+01   6.8077694097e+01    0.5638835    0.3573323 -49.49  0.003181958    3.104    0.678
        11  -9.7901     45.7905     33.0951   1.0254248318e+02   6.3625944199e+01    0.2690886    0.2136213 -32.41 0.0009776549    1.325    0.245
        12 -10.8917    244.5531     23.1104   5.8751109404e+01   2.2800527154e+01    0.2676931    0.2557716 -17.14  0.001889745    1.542    0.352
        13 -12.0753     68.7902     11.5926   8.5775139897e+01   6.2811870447e+01     0.403745    0.2366685  35.07 0.0002652303    1.464    0.317
        14 -10.5252     74.4265     19.0541   8.6964285608e+01   6.1068993916e+01    0.6034119    0.2941114  -4.69  0.002550677    3.362    0.703
        15  -8.9327     48.9439     10.0146   9.1958360316e+01   6.6090038570e+01    0.1757189    0.1347041   7.64 0.0003653909    1.020    0.020
        16 -10.9886     80.6855      6.2235   8.0084390118e+01   6.1196996706e+01    0.4628903    0.3192863  60.57 0.0009832293    1.673    0.402
        17  -7.9283    144.6351      4.4865   6.5998895071e+01   4.7789501688e+01    0.2219693    0.1128908   2.06 0.0009414057    3.530    0.717
        18  -8.7762    248.9995      1.9977   5.4336627460e+01   2.4357746735e+01    0.1972003   0.09471597  55.81   0.00102615    2.588    0.614
        19  -8.7514    157.9098      1.3204   6.3174693813e+01   4.4979482128e+01    0.2670956   0.09863634  68.35 0.0007877353    2.276    0.561
        20  -8.5629     55.7499      1.4204   8.5807779386e+01   6.5896665520e+01    0.1593177   0.08439884  34.52  0.000847345    1.580    0.367
        21  -8.7706     90.7024    245.3132   1.3398669202e+02   1.1491043958e+01    0.1959398    0.1382801  81.17 0.0007341721    1.390    0.281
        22  -9.0953    250.0070    250.4044   1.0420340699e+02  -1.4686011153e+01    0.1604964    0.1168346  19.68 0.0003981825    1.168    0.144
        23  -8.8031    232.0014    250.7163   1.0747159535e+02  -1.2224545586e+01    0.2398249    0.0923593  37.28 0.0008199993    2.327    0.570
        24  -9.2860    202.5683    249.8063   1.1279740929e+02  -7.6464546249e+00    0.3531855    0.2779916 -21.00  0.001905024    1.357    0.263
        25  -8.6477    198.0171    250.5714   1.1378474949e+02  -7.0378038536e+00    0.1828035    0.1055563  37.68 0.0003513455    1.494    0.331
        26  -8.5617    183.2413    250.6735   1.1663769616e+02  -4.6652395783e+00    0.1674508    0.1005209  32.80 0.0002490368    1.478    0.323
        27  -8.6628    166.2881    250.0122   1.1983431408e+02  -1.7518491118e+00    0.1898683    0.1596722  67.15  0.001188496    1.384    0.277
        28  -8.1818    149.9979    249.7660   1.2298878811e+02   1.0216020300e+00    0.1749403    0.1436524  43.04 0.0003495137    1.036    0.035
        29  -8.4898    136.5448    250.2257   1.2568454636e+02   3.1935145538e+00     0.253995    0.1253973  48.06 0.0006593536    1.758    0.431
        30 -10.1525    124.9856    248.4603   1.2771673023e+02   5.4261323566e+00    0.2688153    0.2165098 -74.27 0.0005765333    1.391    0.281
        31  -8.5182     89.8420    249.3437   1.3457487548e+02   1.0848930037e+01    0.3720647    0.1371383  55.58  0.001199269    2.797    0.642
        32  -9.8444     71.8230    250.0300   1.3798692903e+02   1.3369656818e+01    0.3088202    0.1751982  64.54 0.0004978398    1.587    0.370
        33 -10.4119     61.8528    248.8797   1.3969367165e+02   1.4984757277e+01    0.2278663    0.2076022  80.74 0.0004908355    1.327    0.246
        34 -10.6009     47.2796    250.2147   1.4238571778e+02   1.6659650282e+01    0.3157694    0.1503724  41.18   0.00108984    1.995    0.499
        35 -10.2729     16.1477    249.1157   1.4755379549e+02   2.0576850013e+01    0.2564679    0.2244602  27.64  0.001380419    1.890    0.471
        36 -10.0328      8.9464    248.4737   1.4867678721e+02   2.1473588932e+01    0.2104807    0.1637995  62.23 0.0004759593    1.294    0.227
        37  -8.6855      1.8947    250.5866   1.4989980110e+02   2.1802371462e+01    0.1432021   0.08685443  47.40   0.00101633    1.595    0.373
        38  -8.0882    248.9936    245.4171   1.0353581705e+02  -1.3906432545e+01    0.1606995   0.09919775  29.54 9.740422e-05    1.463    0.316
        39  -8.7879    187.6306    244.9841   1.1490413563e+02  -4.4965220867e+00    0.2692934    0.1919715   5.30 0.0008792685    1.695    0.410
        40  -9.1771    194.1489    244.1918   1.1351302690e+02  -5.4440017895e+00    0.1902657    0.1730736   3.70 0.0004359623    1.115    0.103
        41  -8.7581    191.3507    241.6582   1.1364858374e+02  -4.5856487946e+00    0.2367324    0.1896847  65.67  0.001050753    1.687    0.407
        42  -8.6346    133.7084    245.0211   1.2555571754e+02   4.5977695346e+00    0.1680294    0.1552338  73.27 0.0003202729    1.126    0.112
        43  -9.6542    113.9078    244.0514   1.2934085913e+02   8.0608848065e+00    0.2114668    0.1933067 -67.37 0.0003494152    1.278    0.217
        44  -9.9524     81.1787    244.3986   1.3570191462e+02   1.3103004665e+01     0.218365    0.1921525  63.09  0.000363921    1.191    0.160
        45  -8.1088     66.7168    245.6613   1.3852160499e+02   1.4939178340e+01    0.1037692   0.09399367 -49.18 0.0007012577    1.628    0.386
        46  -9.8524     41.2179    244.3890   1.4299983836e+02   1.8563547279e+01    0.2121078    0.1735426  63.79 0.0005717392    1.224    0.183
        47 -10.9131    234.2493    243.1178   1.0578532084e+02  -1.1516752093e+01    0.3301053    0.2234617  -8.03 0.0005401933    1.501    0.334
        48  -8.5820    219.8366    243.9005   1.0857600933e+02  -9.4737121124e+00    0.2131428    0.1471482  53.65  0.001080925    2.006    0.501
        49  -8.1735    163.4715    244.5337   1.1958232603e+02  -3.6538666918e-01    0.1302199    0.1120558  38.38 0.0002068041    1.005    0.005
        50  -8.4538     47.9950    243.9980   1.4177049732e+02   1.7782874474e+01    0.1634038    0.1380088 -55.10  0.001069552    1.699    0.411
        51  -8.7345     19.6598    243.8930   1.4665703753e+02   2.1199777283e+01    0.1662263    0.1309999  60.89 0.0004768093    1.282    0.220
        52  -7.9814    176.9847    243.0111   1.1668026502e+02  -2.4006443074e+00    0.1532218    0.1331898  31.86 0.0004325899    1.008    0.008
        53  -8.8662     88.1335    241.3783   1.3405724336e+02   1.2651614284e+01    0.3211997    0.1971949 -61.20  0.001810364    1.766    0.434
        54  -8.4798    210.5586    241.7141   1.0995827048e+02  -7.7090243226e+00    0.1422947    0.1211586 -41.08 0.0002585007    1.414    0.293
        55 -10.3442    104.1522    241.1213   1.3090648240e+02   1.0198650963e+01    0.2787685    0.2245389  68.57 0.0005100598    1.094    0.086
        56  -8.8834     98.2276    239.3434   1.3186350011e+02   1.1487684689e+01    0.4013394    0.1850571 -69.48  0.001833918    2.554    0.608
        57  -8.0512    155.3799    240.8121   1.2064339074e+02   1.6605657882e+00    0.1535736    0.1249125 -36.09 0.0003902819    1.455    0.313
        58  -9.6234    126.5571    240.3825   1.2636412612e+02   6.6570697024e+00    0.2313699    0.2011967  58.02 0.0005114234    1.024    0.023
        59 -10.0414     69.1049    240.0028   1.3754622898e+02   1.5725134790e+01    0.2332916     0.192687  57.85 0.0004274251    1.185    0.156
        60 -10.3102     25.2837    239.4005   1.4540927658e+02   2.1453635236e+01    0.2151287      0.18573 -85.12 0.0006003657    1.380    0.275
        61 -10.4031    201.5547    238.5285   1.1115311428e+02  -5.7728664220e+00    0.6846738    0.4172961 -63.72  0.003063657    3.299    0.697
        62 -11.3500    207.7247    232.3987   1.0892152160e+02  -5.8200164499e+00    0.7801703    0.4328361  21.94  0.001144995    2.097    0.523
        63 -10.1812    222.3275    225.3200   1.0488385165e+02  -7.0764997131e+00    0.6998597    0.4071931   8.57   0.00238471    2.453    0.592
        64 -10.4083    239.3324    217.5619   1.0031149644e+02  -8.5499287666e+00    0.3271206    0.2277934  27.93 0.0004387215    1.370    0.270
        65 -10.2867    231.8932    203.3190   9.8988605669e+01  -5.0870930136e+00    0.4924122    0.3128711 -41.08  0.002601712    1.586    0.369
        66  -8.9482    236.3203    202.0172   9.7920442503e+01  -5.5999778059e+00    0.2299575    0.1767108  19.21 0.0004393574    1.277    0.217
        67 -11.2036    227.3579    216.6613   1.0235770168e+02  -6.5187572442e+00    0.7722317    0.6131131  26.07  0.003879066    1.185    0.156
        68 -10.6149    233.6486    210.4720   1.0002820579e+02  -6.5418829355e+00    0.4755225    0.3467672  12.88  0.001395853    1.382    0.276
        69  -9.7266    170.3692    239.7748   1.1748968688e+02  -7.3444741312e-01     0.312585    0.2264792  60.17  0.001615992    1.613    0.380
        70  -9.4569    135.8558    239.1905   1.2433543769e+02   5.3039881848e+00    0.3657596    0.2284801  62.34  0.001853735    1.796    0.443
        71  -9.2412    118.3740    239.1902   1.2784630715e+02   8.2512016782e+00    0.2168048    0.1738845  52.11 0.0003431532    1.074    0.069
        72  -9.4160     61.9693    239.5802   1.3884290765e+02   1.6805749501e+01    0.2035022     0.156384 -81.95 0.0004224162    1.245    0.197
        73 -10.6158     35.5970    231.9124   1.4303957714e+02   2.1764363033e+01    0.4376556    0.3069943 -64.96  0.001242648    1.575    0.365
        74  -9.2533     35.4638    239.9970   1.4368058381e+02   2.0140990933e+01    0.1908572    0.1596655  68.07 0.0004645454    1.240    0.193
        75  -8.7756     32.4343    237.5015   1.4402937302e+02   2.1003614718e+01    0.2619548    0.1283545  58.82 0.0004921208    1.717    0.418
        76  -8.5945     18.8450    240.3868   1.4657127311e+02   2.1979000071e+01    0.1837499    0.1566495  45.16   0.00140039    1.567    0.362
        77  -8.8265     17.6588    237.3392   1.4657662966e+02   2.2713869510e+01    0.2055276   0.08746511 -89.40  0.001078577    2.167    0.539
        78 -10.5031     10.4665    238.8782   1.4787976257e+02   2.3175875611e+01    0.2890123    0.1947744  75.91 0.0005446487    1.067    0.062
        79  -9.6555      3.5241    235.4500   1.4882875632e+02   2.4561839981e+01    0.2076941    0.1651988  67.90 0.0001892647    1.259    0.206
        80 -10.1691     10.4329    231.5817   1.4744172516e+02   2.4634539910e+01    0.2211398    0.1827454 -80.61 0.0006899124    1.378    0.274
        81  -9.0593    240.7394    239.0025   1.0390199386e+02  -1.1887418059e+01     0.188922    0.1470014  16.70 0.0003995702    1.106    0.096
        82  -9.6861    214.7773    238.8673   1.0867887497e+02  -7.9491896560e+00    0.2085707     0.185853  20.87 0.0003721642    1.131    0.116
        83  -9.5487    149.4162    238.1247   1.2144796816e+02   3.1684143812e+00    0.2305336    0.2098652  39.31 0.0004637395    1.072    0.067
        84  -9.4069    220.6113    237.9418   1.0742120190e+02  -8.7241572761e+00    0.2366258    0.1579866  34.09 0.0004988239    1.361    0.265
        85  -9.0953    112.3357    237.2396   1.2880728150e+02   9.6265460494e+00    0.2931108    0.1752549 -64.30  0.001090423    1.844    0.458
        86  -9.1170    108.5796    233.1245   1.2904380606e+02   1.1055906593e+01     0.218022     0.186263  44.64 0.0004535105    1.196    0.164
        87  -7.7887     48.4394    238.5240   1.4124195890e+02   1.8819607303e+01    0.1192486    0.0934835  76.61 0.0001091481    1.049    0.047
        88  -9.7425     41.7760    236.7220   1.4230268630e+02   2.0027726658e+01    0.2542726    0.1722903 -87.86  0.001277301    1.254    0.203
        89  -8.1467    183.6230    236.8710   1.1439310218e+02  -2.5104805662e+00    0.1601704    0.1252534 -58.96 0.0004613778    1.634    0.388
        90  -8.0650     89.5415    224.5979   1.3186532776e+02   1.5856395740e+01     0.195449    0.1222152 -67.22 0.0001290232    1.621    0.383
        91 -10.1220     91.4616    236.2894   1.3284551851e+02   1.3153061961e+01    0.2347251    0.2133549  89.74 0.0003404061    1.196    0.164
        92 -11.0750     93.3278    228.4298   1.3155510078e+02   1.4463929173e+01    0.3889982    0.3467771 -42.55 0.0008371745    1.502    0.334
        93  -9.8021     78.7362    236.0733   1.3531004289e+02   1.5123503807e+01    0.2585913    0.1912642  64.95 0.0003944341    1.130    0.115
        94  -7.6425    225.4059    236.4354   1.0626545061e+02  -9.2422344958e+00    0.1242279    0.1038751   8.02 0.0001486551    1.013    0.012
        95  -9.9999    171.7581    233.4763   1.1621892582e+02   1.1145132386e-01    0.3119035    0.2430246  49.86  0.001807997    1.259    0.205
        96  -9.4767    140.4496    234.8682   1.2279371732e+02   5.3203621274e+00    0.2332282    0.2014707  45.34 0.0004075301    1.048    0.046
        97  -8.7286    129.9964    235.1180   1.2495798977e+02   7.0723440099e+00    0.1925553    0.1675898  52.16 0.0003665973    1.030    0.029
        98  -7.7285    116.2523    235.3112   1.2777207505e+02   9.3553630288e+00    0.1144863    0.1037423 -11.58 0.0002855895    1.518    0.341
        99  -8.7189     64.8393    234.2872   1.3780299168e+02   1.7483993757e+01    0.1870361     0.150261  89.78 0.0003075525    1.138    0.121
       100 -10.2257    192.2058    233.2081   1.1209060865e+02  -3.3617683146e+00    0.2526865    0.2258639  19.12 0.0004221636    1.028    0.027
       101  -8.2578    119.5810    233.7900   1.2689701449e+02   9.0961971756e+00    0.1870975    0.1227691 -77.47 0.0009637384    1.838    0.456
       102  -8.8642    231.0078    232.8867   1.0460734412e+02  -9.5768784898e+00    0.1845519    0.1609841  13.38 0.0006023445    1.115    0.103
       103  -8.2877    176.9376    232.7773   1.1506279945e+02  -6.6772850994e-01    0.1800189     0.153772  32.22 0.0003863904    1.040    0.038
       104  -8.1049    166.2468    232.7827   1.1722353641e+02   1.1960470251e+00    0.1732989     0.143037  18.09 0.0003144628    1.283    0.220
       105  -8.8804    153.1656    233.0637   1.1993090672e+02   3.4383783912e+00    0.1934244    0.1720892  47.65 0.0004229266    1.025    0.024
       106  -8.2649    148.7681    232.7886   1.2078834213e+02   4.2595421557e+00     0.187799    0.1507882  68.68  0.001074595    1.361    0.265
       107 -10.1034    250.3415    231.4981   1.0086881998e+02  -1.2213475347e+01    0.2096488     0.148605 -28.31  0.001321872    1.347    0.257
       108  -9.8035    100.5426    231.2692   1.3043893701e+02   1.2734460584e+01    0.2278217    0.2062917  56.06 0.0003683811    1.167    0.143
       109  -9.2530     85.0192    231.3876   1.3356711594e+02   1.5138858449e+01    0.2096144    0.1710176 -72.50 0.0004393845    1.282    0.220
       110  -9.4576    133.1881    230.1828   1.2360797004e+02   7.4739551888e+00    0.3067478    0.2100212  51.70 0.0009406231    1.323    0.244
       111  -9.5268    123.5825    231.0161   1.2570351975e+02   8.9636104107e+00    0.2397647    0.1764132  44.86 0.0003688985    1.221    0.181
       112  -9.2325     55.4159    231.0069   1.3928537905e+02   1.9445334966e+01    0.1977331    0.1629192  53.39 0.0005187126    1.277    0.217
       113  -9.1199    245.1723    229.5291   1.0143594981e+02  -1.1195709722e+01    0.2628356    0.1547421 -27.39  0.001053331    1.628    0.386
       114  -8.2497    226.3066    230.0224   1.0497452965e+02  -8.4270703668e+00    0.1675711     0.144046   1.05 0.0004283916    1.043    0.041
       115  -9.0141    158.9007    229.4677   1.1819917551e+02   3.0891744016e+00    0.2173786     0.189805 -31.43 0.0003733344    1.309    0.236
       116  -9.7163    114.0451    228.8732   1.2737495015e+02   1.1003255015e+01    0.3086512    0.2406512  53.79 0.0007829033    1.123    0.110
       117  -9.8214     45.0861    229.2073   1.4107017567e+02   2.1158340777e+01    0.1993981    0.1800117  88.95 0.0004140326    1.316    0.240
       118  -8.4944    144.7466    229.1804   1.2107221128e+02   5.6445997330e+00    0.2393485    0.1687744  17.18  0.001196816    1.914    0.477
       119  -9.3160     79.3214    228.6229   1.3439264052e+02   1.6569329980e+01    0.2143406    0.2056365  86.07 0.0004005247    1.308    0.235
       120  -9.2735     29.9361    228.3713   1.4379152061e+02   2.3161225012e+01    0.2946524    0.1626161 -57.00  0.001486505    2.172    0.540
       121 -10.3249      7.9773    216.0612   1.4686807916e+02   2.8077434612e+01    0.3333241    0.2595007 -25.50 0.0006334896    2.480    0.597
       122 -10.4154      7.6684    226.0185   1.4756823230e+02   2.6044893462e+01    0.3626848    0.2792457 -62.16  0.001097362    1.652    0.395
       123 -10.4421      1.9132    226.6091   1.4858815105e+02   2.6490442194e+01    0.4973457     0.116999 -72.32  0.001165965    3.247    0.692
       124  -8.6328    152.9784    228.0642   1.1919916594e+02   4.3997797341e+00    0.1984189    0.1799644  49.40 0.0003325254    1.030    0.029
       125  -8.4250    107.4816    228.2010   1.2863656244e+02   1.2230263056e+01    0.1738559    0.1274281 -65.72 0.0005163186    1.441    0.306
       126 -10.1538     19.5728    226.7812   1.4553443641e+02   2.4648923343e+01    0.2393993    0.1869892 -82.58 0.0005631513    1.251    0.201
       127 -10.3335    236.3721    226.3784   1.0246223172e+02  -9.4296811831e+00     0.271143    0.2267546  29.33  0.001094207    1.243    0.195
       128  -8.6980    175.6018    227.0836   1.1439590886e+02   5.6431612572e-01    0.1951065    0.1630118  34.96 0.0003731489    1.076    0.071
       129  -7.9197    139.0299    227.0882   1.2194341128e+02   7.0543527264e+00    0.1576045    0.1416603  53.19 0.0003780022    1.014    0.014
       130  -8.7189     58.6420    227.0800   1.3829575909e+02   1.9833536357e+01    0.2969606    0.1112801  53.32  0.001311429    2.478    0.596
       131  -9.6465    229.3837    225.6776   1.0362515313e+02  -8.2479453980e+00    0.2168599     0.179284  -1.85 0.0002816698    1.074    0.069
       132  -9.8101    200.0920    225.0944   1.0914114898e+02  -3.3556987562e+00    0.2168893    0.2048658  33.39 0.0003965869    1.166    0.142
       133  -8.4356    185.1617    226.2034   1.1231142031e+02  -9.6215863292e-01    0.1895708    0.1654866  15.79 0.0003925853    1.103    0.094
       134  -8.8852    163.2116    225.1607   1.1662051454e+02   3.1176965221e+00     0.250585    0.2061729 -48.88 0.0009068996    1.349    0.259
       135  -9.9028    160.4864    219.8062   1.1630672736e+02   4.6166374146e+00    0.5484743    0.3326423 -55.10  0.001837013    1.891    0.471
       136  -8.8820    120.9046    224.9571   1.2541524622e+02   1.0632783445e+01    0.1968764    0.1751662  62.41 0.0002882341    1.020    0.019
       137 -10.5357    249.0282    223.1129   9.9590014370e+01  -1.0831047289e+01    0.2563637    0.2198625 -23.90 0.0004192608    1.238    0.192
       138  -9.1116    191.7087    223.9670   1.1061073038e+02  -1.7183858604e+00    0.2147707    0.1939998   7.59  0.000533155    1.066    0.062
       139  -8.0431    170.9665    223.7552   1.1478903209e+02   1.9887595056e+00    0.1809571    0.1627188  33.69 0.0002222593    1.011    0.011
       140  -8.4239    155.9945    223.7578   1.1789108779e+02   4.6748199919e+00    0.1854551    0.1625519  43.58 0.0002706944    1.030    0.029
       141 -10.0255    129.7923    223.5607   1.2335157771e+02   9.3745079073e+00    0.2393108    0.2242966  74.69  0.000457571    1.079    0.073
       142  -8.4428    104.4824    223.9122   1.2869722727e+02   1.3607900177e+01    0.1800988    0.1277435 -64.37 0.0003665378    1.473    0.321
       143  -8.4877    136.0829    223.1667   1.2197037472e+02   8.3460258917e+00    0.1984821    0.1764421  27.38 0.0007041077    1.232    0.189
       144  -8.8018     83.0054    223.0235   1.3301376933e+02   1.7194707423e+01    0.1887457     0.164097  75.63 0.0003475515    1.072    0.067
       145 -10.5275     50.3201    221.4207   1.3936919792e+02   2.2136012293e+01     0.791442     0.353583 -80.00  0.003756767    2.279    0.561
       146  -9.6446     48.4235    217.5303   1.3937074705e+02   2.3217185349e+01    0.3202997    0.2346126  18.63  0.001594809    2.201    0.546
       147  -8.6839    175.1414    221.5211   1.1355275222e+02   1.6487231023e+00     0.219337     0.190133 -75.28  0.000867893    1.433    0.302
       148  -8.5569    115.2692    221.7315   1.2614479489e+02   1.2256854374e+01    0.1640006    0.1570366  13.72  0.000413784    1.301    0.231
       149  -8.8420     97.7855    221.9019   1.2982949305e+02   1.5119233107e+01    0.1817848    0.1725998 -85.05 0.0003769997    1.211    0.174
       150  -8.2798     92.7646    221.9874   1.3088243726e+02   1.5902319363e+01    0.1768448    0.1508136 -88.87 0.0004098372    1.117    0.104
       151  -8.6766     75.2817    222.2820   1.3449880160e+02   1.8506054871e+01    0.1782585    0.1580004  78.04  0.001155952    1.132    0.116
       152  -9.7206     15.9635    221.2226   1.4578903302e+02   2.6187633767e+01    0.2273243    0.1904187 -70.75 0.0005827547    1.446    0.308
       153  -9.0115    216.8355    220.8456   1.0512209870e+02  -5.4713963333e+00    0.2824874    0.2006317  -8.60 0.0003342282    1.554    0.357
       154 -11.0280    203.6239    216.2364   1.0685805794e+02  -2.4618802337e+00    0.5493504    0.3180819 -43.25  0.001578713    1.834    0.455
       155 -11.1345    212.6769    217.1943   1.0525867019e+02  -4.1764166433e+00    0.6517386    0.5198433 -47.01  0.002796137    1.455    0.313
       156 -10.0864    208.0331    217.9482   1.0630175880e+02  -3.5130355308e+00    0.3823639    0.2639341 -15.03  0.001719944    1.675    0.403
       157  -8.2441    181.1515    220.8444   1.1220435788e+02   6.9509870903e-01    0.1812138    0.1508102   6.42 0.0003616046    1.294    0.227
       158  -8.3376     68.3332    221.0435   1.3576519536e+02   1.9774963757e+01     0.171863    0.1400791 -89.22 0.0004621069    1.107    0.096
       159  -9.2715     59.9908    220.7406   1.3740130989e+02   2.1000036878e+01    0.2083315    0.1623677 -70.60 0.0004981569    1.311    0.237
       160  -9.6079     40.3695    220.7473   1.4122603241e+02   2.3528266132e+01    0.2048648    0.1706143 -85.87  0.000391258    1.198    0.165
       161  -9.0306    186.0698    220.0615   1.1106586101e+02  -4.1497522407e-02    0.1990392     0.183204  18.94 0.0003763172    1.024    0.023
       162  -8.7676    141.2474    220.2775   1.2043674797e+02   8.0012928558e+00    0.1968761    0.1807053  31.33 0.0009059235    1.148    0.129
       163  -8.4503    109.0015    219.7773   1.2719567471e+02   1.3723564456e+01    0.1850224    0.1807144  10.17 0.0005885465    1.296    0.228
       164  -8.5514    109.9056    224.2252   1.2761011671e+02   1.2644699296e+01    0.2024967    0.1587372  65.24 0.0004745178    1.169    0.144
       165  -7.9497     87.8477    220.3697   1.3170090250e+02   1.7017363767e+01    0.1655764    0.1199632  35.81 0.0003577105    1.535    0.349
       166  -8.0460    137.0005    218.4570   1.2105436042e+02   9.1276829967e+00    0.2019657    0.1263396  41.58 0.0003294863    1.472    0.320
       167  -8.4348    120.0547    217.4879   1.2452302559e+02   1.2318071371e+01    0.1920298    0.1760958  81.73 0.0003988047    1.073    0.068
       168  -7.6971     96.2536    218.2908   1.2968427493e+02   1.6134194496e+01    0.1159033    0.1055995 -32.53 0.0006869843    1.484    0.326
       169  -9.9445    194.6556    216.6971   1.0873158555e+02  -9.6902454562e-01    0.2587174    0.2234641   5.38 0.0003581599    1.147    0.128
       170  -8.2286     72.5545    216.9892   1.3445781794e+02   2.0046297464e+01    0.1827127    0.1163416 -69.72 0.0003546349    1.507    0.336
       171  -8.6959     56.1305    216.7789   1.3776769571e+02   2.2376978175e+01    0.2084309    0.1361787 -84.82 0.0007977495    1.380    0.275
       172  -8.6511     21.8503    216.7937   1.4438940004e+02   2.6497267477e+01    0.1612313    0.1345779 -84.57 0.0005499932    1.250    0.200
       173  -9.1612    180.3287    216.0087   1.1152760152e+02   1.7235536778e+00    0.1842558    0.1754762   2.01 0.0005054231    1.070    0.065
       174  -7.9180    124.8220    215.8357   1.2325699352e+02   1.1830314371e+01    0.1890794    0.1456072  66.75 0.0002646507    1.304    0.233
       175  -9.1921     83.1630    215.6731   1.3210137690e+02   1.8753509380e+01    0.2134214    0.1948214 -70.62 0.0003249581    1.257    0.204
       176  -9.5614    171.9515    214.3213   1.1297018222e+02   3.5673494776e+00    0.2358393    0.2033826 -31.27 0.0005033517    1.254    0.203
       177  -8.5913    144.0283    214.9385   1.1899447708e+02   8.5705272254e+00    0.2074895     0.190274  52.71 0.0003961697    1.005    0.005
       178 -10.0023    248.7952    212.6658   9.7699699379e+01  -9.2419482573e+00    0.3184349    0.2075525 -17.27  0.001233485    1.517    0.341
       179  -8.7561    132.8526    213.6853   1.2119732424e+02   1.0849939223e+01    0.2039727    0.1881343 -45.18 0.0003580801    1.232    0.188
       180 -10.0193    186.8727    212.5763   1.0956805815e+02   1.1667588746e+00    0.2289131    0.1922172 -36.27 9.303497e-05    1.252    0.201
       181  -8.6639    117.8854    212.8727   1.2430826932e+02   1.3669794415e+01    0.1911718    0.1866751  37.83 0.0004001296    1.197    0.165
       182  -8.2585    111.7478    213.2573   1.2569081405e+02   1.4645223648e+01    0.1686899    0.1616487 -14.77 0.0004169045    1.328    0.247
       183  -8.2555     74.7217    212.9653   1.3354163215e+02   2.0611870851e+01    0.1779585     0.148602 -89.14 0.0002684281    1.085    0.078
       184  -8.8260     41.8567    212.8281   1.4022047901e+02   2.5059589687e+01     0.170448    0.1465576 -83.07 0.0004236939    1.224    0.183
       185  -9.3760     98.8649    211.4464   1.2821447466e+02   1.7193568529e+01    0.2178798    0.2030856  28.20 0.0008843789    1.329    0.247
       186  -9.0448     25.2150    211.1996   1.4331282767e+02   2.7334736120e+01    0.1939665    0.1521799  86.55  0.000567376    1.068    0.064
       187  -9.4990     17.5921    211.2583   1.4476088193e+02   2.8131288260e+01    0.2256376    0.1666466 -84.50 0.0004950678    1.137    0.120
       188  -9.2361     15.6877    207.6931   1.4484695767e+02   2.9095169034e+01     0.220802    0.1576699 -63.12  0.001210493    1.524    0.344
       189  -8.5651    125.1778    211.0879   1.2245482162e+02   1.2767385816e+01    0.1959955    0.1855488  23.41  0.000367985    1.224    0.183
       190  -9.2181    200.9050    209.5320   1.0616310319e+02  -8.1025142567e-01    0.1931084    0.1768215 -11.53 0.0003512316    1.075    0.069
       191 -10.4430    206.8948    206.1724   1.0433775528e+02  -1.2797931397e+00    0.4005674    0.2967205  -6.05 0.0003957874    1.549    0.354
       192 -11.1658    193.7684    208.1748   1.0735101299e+02   7.1966286793e-01    0.4904053    0.3876249  30.77  0.001730013    1.200    0.167
       193 -10.6879    193.9666    200.4956   1.0586021164e+02   2.1059756239e+00    0.4777694    0.3032207  -1.77  0.001521104    2.659    0.624
       194 -10.3561    196.0413    194.1385   1.0420084960e+02   2.9203979689e+00      0.28934    0.2625838  31.45 0.0007331145    1.078    0.072
       195 -10.4002    206.8105    201.0180   1.0336793543e+02  -3.4298873874e-01    0.3602273    0.2457796  29.00  0.001255696    1.480    0.324
       196 -11.2093    199.7303    200.7519   1.0473618406e+02   9.9393135315e-01    0.7101534    0.3103482 -41.03  0.002219074    2.339    0.573
       197 -11.1143    211.7569    199.0440   1.0200751483e+02  -8.7703712160e-01    0.5260768    0.3020547  26.06  0.002373393    2.025    0.506
       198 -12.9651    206.0127    194.9979   1.0235255878e+02   9.0147272418e-01     1.371549    0.8333006  15.62  0.005831542    2.388    0.581
       199 -12.0167    201.8109    189.8727   1.0217942870e+02   2.6438834189e+00    0.7207179     0.504395   6.73  0.003388169    1.888    0.470
       200  -8.5600    162.1859    209.2133   1.1413866657e+02   6.3661011301e+00    0.1889823     0.161962  71.54 0.0004698963    1.308    0.235
       201  -8.4836     93.8191    209.1250   1.2898746129e+02   1.8523355214e+01    0.1707972    0.1607941 -46.73 0.0003767526    1.333    0.250
       202 -10.2156     67.3696    208.0538   1.3450816067e+02   2.2763155348e+01    0.3023844    0.2197761 -68.53 0.0009831053    1.325    0.245
       203  -8.1541    149.5550    207.9199   1.1663373228e+02   8.9827794020e+00    0.1943211    0.1406448 -50.49 0.0003685711    1.477    0.323
       204  -8.3726    133.8172    208.4202   1.2014665194e+02   1.1778428667e+01    0.1853639    0.1313893  32.14  0.000363282    1.513    0.339
       205  -8.5327    115.1271    207.4006   1.2408712361e+02   1.5330413503e+01    0.2210852    0.1858136 -52.00 0.0005307771    1.319    0.242
       206  -8.6166     78.9367    208.0766   1.3205434749e+02   2.1071921602e+01    0.2013056    0.1743248  83.34 0.0004837067    1.045    0.043
       207  -8.8142     72.6005    208.1661   1.3341549468e+02   2.1988241097e+01    0.1983578    0.1501754  42.00 0.0002952626    1.401    0.286
       208  -8.5056    120.1551    206.8417   1.2289499535e+02   1.4569791558e+01    0.2108558     0.176487  69.98 0.0003921843    1.149    0.130
       209 -10.1931    184.3327    206.1376   1.0891241090e+02   2.8317885664e+00    0.2786513    0.1963802  45.29 0.0007872477    1.389    0.280
       210  -8.2915    127.2686    206.3162   1.2124476209e+02   1.3413223004e+01    0.2092745    0.1730318  49.16 0.0003868431    1.129    0.115
       211  -9.3359    124.0283    205.9970   1.2190838117e+02   1.4063968273e+01    0.2036716    0.1848695  65.94  0.001175344    1.003    0.003
       212  -7.9133    104.1393    205.7944   1.2626553148e+02   1.7564941794e+01    0.1696573    0.1619766 -41.31 0.0002984419    1.290    0.225
       213  -8.6124     47.9403    206.1262   1.3833934815e+02   2.5789875057e+01    0.1851311    0.1553164  86.88 0.0004409029    1.086    0.079
       214  -8.1971     39.2560    205.8468   1.4007863447e+02   2.6913580274e+01    0.1539305    0.1287316 -70.00 0.0004157923    1.307    0.235
       215  -9.5044    247.1555    204.6135   9.6465320854e+01  -7.7437080858e+00    0.2294168    0.1792546 -27.00 0.0003882413    1.170    0.145
       216  -9.6121    224.1132    200.3526   9.9875366351e+01  -3.2743989885e+00     0.268198    0.2033863 -18.52 0.0009577828    1.308    0.236
       217  -9.0242    224.1518    204.6833   1.0070473634e+02  -4.0190399723e+00    0.4515768    0.2436246  47.87  0.001593893    2.131    0.531
       218  -9.9689    219.6678    201.6990   1.0098589796e+02  -2.7394129538e+00    0.2812311    0.1733448  20.41  0.001129753    1.926    0.481
       219 -10.4491    179.0304    202.2764   1.0930282843e+02   4.5647814783e+00    0.3544017    0.2387614 -50.07  0.001347903    1.604    0.377
       220  -8.1487    141.0379    203.7561   1.1778499773e+02   1.1436300924e+01    0.1960484    0.1757131  46.58 0.0002700248    1.064    0.060
       221  -9.3344     93.9985    203.3950   1.2815696755e+02   1.9774673522e+01    0.2577551    0.1771313  79.55  0.001306673    1.574    0.364
       222 -10.1514     81.3737    200.8348   1.3058915726e+02   2.2339817164e+01     0.339495    0.2521438  86.93  0.001010908    1.294    0.227
       223  -8.3554     56.9423    202.6819   1.3609433578e+02   2.5403042018e+01     0.175314    0.1443524  66.54 0.0004243726    1.124    0.110
       224  -7.7889     43.3349    203.2949   1.3899704660e+02   2.6994214849e+01    0.1145252   0.09349663 -47.02 0.0007027813    1.644    0.392
       225  -8.9966     21.5015    202.3768   1.4329998893e+02   2.9660820400e+01    0.2088708    0.1674813  51.64 0.0009597575    1.365    0.267
       226  -8.2256     16.9613    201.0000   1.4407399092e+02   3.0428160186e+01    0.1909154    0.1374001  32.81  0.001246363    1.777    0.437
       227 -10.1141      7.4435    203.6977   1.4610332090e+02   3.0763667048e+01    0.2239754    0.1988657 -70.74 0.0006752373    1.426    0.299
       228  -7.8978    121.3358    202.2929   1.2191467903e+02   1.5353768100e+01    0.1361342    0.1150799  -3.83 0.0007025625    1.642    0.391
       229  -8.7367    110.5011    202.4898   1.2436206340e+02   1.7215610314e+01    0.1396289    0.1299544  72.19 0.0001917137    1.064    0.060
       230  -8.8510     98.5911    202.0278   1.2694459503e+02   1.9332421866e+01     0.241133    0.1927791  29.75 0.0006000085    1.490    0.329
       231  -9.7027     69.3575    201.0163   1.3323877785e+02   2.4072495554e+01    0.3843185    0.2465193  72.00  0.001384483    1.580    0.367
       232 -11.1859     64.2090    195.5101   1.3368109381e+02   2.6061851831e+01    0.5156386    0.3152925  57.73  0.001114268    1.589    0.370
       233  -9.5474    187.0994    201.3271   1.0743567274e+02   3.2300547153e+00    0.1963809    0.1721067  32.77 0.0004806928    1.087    0.080
       234  -9.7098    132.4668    199.8265   1.1902051246e+02   1.3869801561e+01    0.3757779    0.2629898 -24.56 0.0008437599    2.169    0.539
       235  -7.7838     34.5241    201.4946   1.4062103944e+02   2.8436752202e+01    0.1244049   0.09943656  89.27 0.0002086232    1.051    0.049
       236  -9.5283    250.3685    199.1549   9.4848018021e+01  -7.3767655413e+00    0.2002096    0.1566579 -30.02 0.0006714918    1.179    0.152
       237  -9.5082    243.4140    198.2676   9.5907501192e+01  -6.1346162305e+00    0.2253277    0.1963852  -5.54 0.0004529607    1.025    0.025
       238  -8.3192    103.9809    198.9603   1.2528364605e+02   1.9124349608e+01     0.166784    0.1486665  89.86 0.0003154077    1.054    0.052
       239  -8.1764     42.0654    199.0713   1.3882980273e+02   2.8100967220e+01    0.1554289    0.1207922 -87.64 0.0006494392    1.059    0.055
       240  -8.7258    231.0228    197.9257   9.8102926665e+01  -4.0364859381e+00    0.1992616    0.1764839  -8.23 0.0004309349    1.008    0.008
       241 -10.0003    140.2604    197.3122   1.1684216993e+02   1.2961420431e+01     0.398495    0.2693105   2.28  0.001583895    2.864    0.651
       242  -8.3818     89.7334    197.2568   1.2823590907e+02   2.1856354874e+01    0.1719247    0.1624027 -40.67  0.000434158    1.330    0.248
       243  -8.6182     21.7155    197.5640   1.4284585016e+02   3.0706519914e+01    0.1780016    0.1193383  30.86 0.0005390634    1.910    0.476
       244  -9.2457    238.0551    195.9718   9.6425976622e+01  -4.8821476986e+00     0.197015    0.1720741  -8.76   0.00035848    1.006    0.006
       245  -7.9599    141.3029    210.3077   1.1882486872e+02   1.0015883260e+01    0.1357742    0.1125075  -1.85 0.0004990671    1.603    0.376
       246  -9.7162    114.0094    194.9786   1.2238562554e+02   1.8290817374e+01    0.2149339    0.2025809  82.51 0.0004000318    1.059    0.056
       247 -10.3693    186.9850    193.5310   1.0595782708e+02   4.7596141209e+00    0.3214802    0.2173904  16.84 0.0006018658    1.910    0.476
       248 -10.3718    190.8423    191.1823   1.0469073333e+02   4.4791965947e+00    0.2509618    0.2359756  32.78 0.0008104502    1.058    0.055
       249  -8.6377     27.6212    192.6502   1.4119606194e+02   3.1193509677e+01    0.2612352    0.1310847  69.35 0.0008312694    2.097    0.523
       250 -10.0140    226.7596    191.3550   9.7602613071e+01  -2.1699378155e+00    0.3319446     0.201083 -18.50  0.001218724    2.046    0.511
       251 -11.2762    154.3951    188.3918   1.1203667923e+02   1.2171102234e+01    0.5815352     0.396335  66.62  0.002400761    1.864    0.463
       252  -9.1300     95.0899    189.2848   1.2582937483e+02   2.2837044846e+01    0.3369531    0.2178199  64.06  0.001608857    1.662    0.398
       253  -8.4330      9.2185    190.5745   1.4475354324e+02   3.3478004016e+01    0.1240362    0.1174606   6.57 0.0004449645    1.601    0.375
       254  -9.1289     74.7448    194.0242   1.3115116655e+02   2.4902709139e+01    0.1886617    0.1589198 -86.13 0.0003668221    1.056    0.053
       255 -10.3803    222.1573    187.7082   9.7743095657e+01  -7.0639621970e-01    0.3846171    0.2122858  51.63 0.0003626648    2.222    0.550
       256  -8.3121      1.3731    187.8373   1.4609279448e+02   3.4773749458e+01    0.1628336   0.08043589 -68.67 0.0004219981    1.644    0.392
       257 -11.1950    231.0743    184.5000   9.5419061329e+01  -1.7182096195e+00    0.5033131    0.3750833 -61.04   0.00223979    1.816    0.449
       258 -10.6841    233.2705    181.3608   9.4376726689e+01  -1.5487668269e+00    0.4372406    0.3410075  48.57  0.001605391    1.475    0.322
       259  -8.3072     29.0998    201.6851   1.4173303894e+02   2.9001614803e+01    0.1655236    0.1341758  82.53  0.000547492    1.074    0.069
       260  -8.9969    142.2982    185.6671   1.1426325601e+02   1.5127467940e+01    0.1527131    0.1153565  81.61 0.0002802392    1.647    0.393
       261  -9.6505    224.5192    182.9858   9.6336609244e+01  -2.7927729835e-01    0.2106193    0.1297087 -39.19 0.0004858368    1.546    0.353
       262 -10.3652    183.7057    182.4779   1.0444505646e+02   7.6078197114e+00    0.2684668    0.2165494  63.53   0.00135572    1.440    0.306
       263  -8.5319    135.1303    183.8224   1.1557064871e+02   1.6923773467e+01    0.1950572    0.1796915  -7.01 0.0004478338    1.289    0.224
       264  -9.4133     32.5035    182.4859   1.3913255355e+02   3.3003673804e+01    0.2459594    0.1610896 -77.16 0.0008880982    1.261    0.207
       265  -9.7590     28.8690    179.8362   1.3964638403e+02   3.4005084340e+01    0.3747949    0.1976576  36.44  0.001922596    2.098    0.523
       266  -8.2497    107.3184    210.0086   1.2618119865e+02   1.6101313407e+01     0.183875    0.1674163  88.03 0.0004605466    1.077    0.071
       267  -9.9869    199.0031    182.0023   1.0115490690e+02   4.6977297850e+00    0.2304256    0.2176439 -14.06  0.001241669    1.023    0.022
       268  -9.3006    162.4182    181.7829   1.0895194875e+02   1.2005447812e+01    0.2131228    0.1412351 -36.79 0.0009509168    1.669    0.401
       269  -8.5412    122.3198    181.7175   1.1818007974e+02   1.9825295785e+01    0.2276784    0.1478494 -59.11  0.000484694    1.559    0.359
       270 -11.3588    116.9196    179.1376   1.1899325821e+02   2.1421029534e+01    0.6946608    0.4484292  47.78  0.002375534    1.522    0.343
       271  -8.9645      8.1207    182.5114   1.4430677317e+02   3.5380551900e+01    0.1516461     0.110812  44.43 0.0008311898    1.545    0.353
       272  -7.5483     14.3836    180.2873   1.4280635212e+02   3.5321481792e+01    0.1151059   0.08154617 -48.17 0.0007012644    1.743    0.426
       273  -7.9633     43.4821    179.5006   1.3635410057e+02   3.2464970078e+01     0.132728     0.106964  89.71 -2.690537e-05    1.039    0.038
       274  -9.3587     10.3973    176.8224   1.4333261920e+02   3.6468554449e+01    0.2659234   0.08579741 -69.33   0.00104947    2.341    0.573
       275  -9.7094      9.9748    172.3922   1.4301543005e+02   3.7515897856e+01    0.3326234    0.1640429  57.13  0.001500501    2.117    0.528
       276 -10.6385    192.9154    173.6628   1.0067612862e+02   7.5594378702e+00    0.5257815    0.1960147 -38.30  0.001769018    2.926    0.658
       277  -8.3785    100.7521    175.9976   1.2231876831e+02   2.5028457905e+01    0.1985275     0.175113 -76.67   0.00108934    1.068    0.064
       278  -8.8098    199.4859    175.5481   9.9716890822e+01   5.8734152304e+00    0.1457019     0.138645  -5.93 3.072307e-05    1.018    0.018
       279 -10.7641    192.7639    163.6891   9.8570101272e+01   9.6265633604e+00    0.4810456    0.3421836  -8.59  0.002105339    1.987    0.497
       280 -11.6855    180.3287    167.5064   1.0204034057e+02   1.1402029528e+01      0.89916    0.2978415 -39.04  0.002718641    3.498    0.714
       281 -11.8732    186.2675    166.0845   1.0045865444e+02   1.0472009107e+01    0.7546691    0.5507568   8.23   0.00337285    1.900    0.474
       282  -9.8623     40.6535    171.6210   1.3604566696e+02   3.4657009256e+01    0.2512304    0.1938433  87.09 0.0006654838    1.144    0.126
       283 -11.9336    149.7525    165.9031   1.0860031213e+02   1.8087373227e+01    0.8353779    0.5667217  -1.35  0.003148215    2.791    0.642
       284  -7.7468    248.2657    167.6883   8.8915309279e+01  -1.7546911950e+00    0.1273901    0.1020872 -60.47 0.0002961204    1.541    0.351
       285 -10.4523      6.7620    163.1930   1.4284462402e+02   3.9889855257e+01    0.3994778    0.2483863 -59.75  0.001577892    1.468    0.319
       286 -10.7070    217.4691    161.4161   9.3143377146e+01   5.0913803973e+00    0.6594793    0.4425559  50.15   0.00279114    1.635    0.388
       287 -10.0337    217.1660    156.6215   9.2158988253e+01   6.0792350301e+00    0.3080252    0.2281726  31.59  0.001297198    1.496    0.332
       288  -8.6584     40.5130    162.2375   1.3487805953e+02   3.6913191830e+01    0.2359018     0.117059  12.07 0.0008814081    4.445    0.775
       289 -11.5790    171.9271    158.6342   1.0195278419e+02   1.5067415194e+01    0.5239034    0.4103947  44.83  0.002543016    1.288    0.224
       290  -8.2245    229.1069    156.1307   8.9839683307e+01   3.8362902040e+00    0.1826058    0.1659777 -68.75 0.0003917006    1.257    0.204
       291  -7.5818     26.3767    160.2934   1.3801935403e+02   3.8840834389e+01     0.125105   0.08543786 -43.44 0.0007022641    1.741    0.426
       292  -9.6446     84.4470    154.4712   1.2256170981e+02   3.2931401322e+01    0.2991962    0.2537043  36.89  0.001200867    1.307    0.235
       293 -10.0245    158.9644    152.7478   1.0358780189e+02   1.9129947904e+01    0.2201359    0.2151765  86.98  0.001165438    1.017    0.017
       294  -9.6588    245.3061    150.0033   8.5711652491e+01   1.9217855544e+00    0.3130242    0.2098911  41.12  0.001060867    1.677    0.404
       295 -11.3389     84.4146    146.0778   1.2097965771e+02   3.4987947217e+01    0.5706248     0.558885 -71.89  0.001807492    1.104    0.094
       296  -8.1556     58.2974    150.3485   1.2864683477e+02   3.7671873592e+01    0.1405593   0.09684507 -40.07 0.0003137308    1.681    0.405
       297 -10.4056    123.6326    155.6731   1.1277487015e+02   2.5708489857e+01    0.4072219    0.3423529  45.95  0.001141845    1.209    0.173
       298  -9.7475     26.9872    148.0709   1.3633232685e+02   4.1679636130e+01     0.308778    0.1442048 -61.49 0.0008676116    1.715    0.417
       299  -9.6944     11.9670    146.5968   1.3986519512e+02   4.3318054257e+01    0.3145011    0.1988966 -63.51  0.001835214    1.285    0.222
       300  -9.3278    134.3160    148.0701   1.0846177794e+02   2.5372892191e+01    0.2615579    0.2222379  29.60 0.0006235015    1.300    0.231
       301  -8.1670    236.4502    145.5079   8.6245340385e+01   4.4102493506e+00    0.1426828    0.1276347 -32.01  9.04039e-05    1.035    0.034
       302 -10.1187     48.4249    143.4329   1.3011132606e+02   4.0554008490e+01    0.3922437     0.303032  27.46  0.001618648    1.563    0.360
       303  -9.1736    200.1617    141.1333   9.1994204832e+01   1.2698843705e+01    0.2329106    0.2091903 -16.64  0.001002448    1.194    0.162
       304  -7.9869    150.5322    141.5140   1.0299990770e+02   2.3476879690e+01     0.156593     0.152856 -69.68 0.0001446298    1.006    0.006
       305  -8.7616    224.8306    139.0739   8.6864064224e+01   7.9253448120e+00    0.2435223    0.2136219  48.46 0.0008762144    1.239    0.193
       306 -10.0031     98.8891    137.5619   1.1533251942e+02   3.4647767167e+01    0.3775205     0.319305 -79.48  0.001062074    1.231    0.188
       307  -8.2541    246.3062    138.3264   8.3053463709e+01   3.8517005261e+00    0.1382665    0.1058498  -7.40 0.0003391762    1.650    0.394
       308  -9.3851    249.6928    134.5281   8.1700706484e+01   3.9011724871e+00    0.2527103    0.2034226 -35.39  0.000739348    1.124    0.110
       309 -10.1055     42.2401    134.2614   1.3026848108e+02   4.3450621466e+01    0.3020915    0.2802278 -72.27 0.0008754662    1.107    0.096
       310  -9.7292    244.5384    133.2068   8.2234552926e+01   5.1189772330e+00    0.2621638    0.2114726 -73.12 0.0007627141    1.467    0.319
       311  -7.6340    234.3087    132.7357   8.3811990544e+01   7.2123682406e+00    0.1374561     0.108315 -73.94 0.0002545206    1.533    0.347
       312  -9.6563    173.7512    129.3884   9.4746337278e+01   2.1011713114e+01    0.2639343    0.1990412 -18.75 0.0009006623    1.687    0.407
       313  -9.1605    144.9719    130.0000   1.0159275574e+02   2.7287551581e+01    0.2611035   0.09033591  45.16 0.0005445532    2.941    0.660
       314  -9.3536    165.5121    127.5204   9.6130458905e+01   2.3274725875e+01    0.1572434    0.1525698 -69.62 0.0002620624    1.007    0.007
       315  -9.0317    242.3443    125.8956   8.0994777646e+01   6.8801317630e+00    0.2044157    0.1603854 -39.66 0.0006062984    1.146    0.128
       316  -8.1143    222.9694    126.4764   8.4352297593e+01   1.0725248433e+01    0.1874215     0.128602  86.92 0.0003764623    2.212    0.548
       317  -7.6240    137.2948    125.3591   1.0235604454e+02   2.9990815356e+01    0.1605372    0.1258683 -10.70 0.0007031815    1.700    0.412
       318  -9.2544    151.1857    123.4007   9.8450189251e+01   2.7390955352e+01    0.2236242    0.1500423  58.15 0.0007525964    1.638    0.390
       319 -10.5862    100.7059    117.0891   1.1007611448e+02   3.9159277322e+01     0.417262    0.3555048 -73.16  0.000512932    1.268    0.212
       320  -8.0013    102.4770    112.5477   1.0843671518e+02   3.9873603683e+01    0.2098826    0.1428943 -58.82 0.0005731785    1.534    0.348
       321 -10.9506     18.0831    115.2188   1.3392274413e+02   5.0123536149e+01    0.4422071    0.2752864 -74.34   0.00110715    1.451    0.311
       322  -8.7319    232.0178    116.3977   8.0544291121e+01   1.0723896388e+01    0.2951931    0.1418978  55.03  0.001220707    2.314    0.568
       323  -9.2637    129.3996    109.2066   1.0023145819e+02   3.5260083103e+01    0.3997016    0.2421915 -46.21  0.001697414    1.620    0.383
       324  -9.4008     33.9613    109.3860   1.2818734732e+02   5.0116685225e+01    0.3180829    0.1948178 -48.47 0.0009784601    1.398    0.284
       325  -9.1557    145.1718    106.1668   9.5444570245e+01   3.2450793859e+01    0.2194139     0.187355  84.74 0.0005292874    1.334    0.250
       326  -9.5940    250.4934    103.2166   7.4851848557e+01   9.3144172905e+00    0.3988275    0.1239635 -38.54  0.001003987    2.948    0.661
       327 -10.8095      8.0469     99.2628   1.3425670765e+02   5.4395119012e+01    0.3411778     0.285181 -34.06  0.001275441    1.257    0.205
       328 -10.0616      2.2569     94.4586   1.3522830423e+02   5.5779973277e+01    0.3891376    0.1919553 -65.58  0.001804075    1.586    0.370
       329  -8.0175    142.3277     98.2787   9.4006130048e+01   3.4721841371e+01    0.1534361      0.12263  11.65 0.0003757907    1.596    0.373
       330  -8.1344     72.4729     98.4272   1.1373300626e+02   4.7993354425e+01    0.1382953    0.1269324 -40.81 5.312821e-05    1.025    0.025
       331 -11.3363    242.8824     94.8664   7.4104886877e+01   1.2317470745e+01    0.4638906    0.3291146 -64.49  0.002444785    1.424    0.298
       332  -8.4112    114.7622     95.4678   1.0040873764e+02   4.1218049144e+01    0.2097081    0.1429233  30.19 0.0009430784    1.658    0.397
       333  -8.3854     54.4659     95.4976   1.1870582960e+02   5.1043506223e+01    0.1348753    0.1166536 -42.75 0.0001669777    1.002    0.002
       334  -8.8834    158.3047     91.1619   8.8313694456e+01   3.2439630106e+01    0.2500732    0.2053715  41.81 0.0004784808    1.264    0.209
       335  -9.0601     20.6930     86.6333   1.2777711991e+02   5.6269948034e+01    0.3225137    0.1637923 -34.57  0.001456556    1.990    0.498
       336  -9.7664     16.7598     89.7582   1.2972823467e+02   5.5888306247e+01    0.2891302    0.1978806 -66.97  0.001785574    1.344    0.256
       337  -9.4533     16.3843     85.7660   1.2903234860e+02   5.6768366402e+01    0.2856397    0.2030565 -57.54  0.001501884    1.157    0.135
       338  -8.8153     34.0024     88.9762   1.2385840878e+02   5.4647538463e+01    0.1941047     0.157795 -44.37 0.0003874362    1.020    0.019
       339 -11.0064    239.5582     72.3058   6.9606041690e+01   1.6806242953e+01    0.5379601    0.2235303  48.70  0.002134094    3.070    0.674
       340 -12.1147    247.4148     73.6341   6.8908220410e+01   1.4920711790e+01    0.9349767    0.3910175 -43.88  0.004082307    2.060    0.514
       341  -9.7905    154.8244     82.1980   8.6614867474e+01   3.4942960062e+01    0.3600025    0.3007622  40.96  0.000915175    1.237    0.191
       342  -9.9751    156.8651     77.8926   8.4961812773e+01   3.5237117052e+01    0.3730164    0.2996503   8.42  0.001152824    1.623    0.384
       343 -10.1018    220.7945     79.7550   7.3880537364e+01   1.9732172984e+01    0.3038401    0.2550196 -89.75 0.0006205285    1.171    0.146
       344 -12.5814     80.0760     75.9307   1.0501452965e+02   5.1473300112e+01    0.3586221    0.3378621 -41.34 0.0003721062    1.153    0.133
       345 -12.2803     22.0893     74.2841   1.2446960729e+02   5.8734254565e+01    0.4341812    0.4056622 -29.87  0.003192023    1.196    0.164
       346 -11.0605    115.8524     74.2352   9.3889012329e+01   4.5128399810e+01    0.4712677      0.40036  73.69  0.001681866    1.425    0.298
       347  -9.8832      9.1851     72.4552   1.2862990576e+02   6.0001270597e+01    0.3953195    0.1890577 -44.19  0.002227158    1.626    0.385
       348 -10.7882    227.1983     70.6767   7.0875731935e+01   1.9791216658e+01    0.4427065    0.3162876 -75.55 0.0007668834    1.447    0.309
       349  -8.7275    101.7309     72.9907   9.7483544663e+01   4.8183420504e+01    0.2032383    0.1821703 -29.47 0.0007873057    1.094    0.086
       350 -10.7682    143.8627     63.8299   8.3790356875e+01   4.0694936532e+01    0.5213714    0.3785445 -18.62  0.001619277    1.657    0.397
       351  -9.8101     45.0468     75.1581   1.1657745512e+02   5.6401322766e+01    0.2991739     0.257024 -71.59  0.001002059    1.460    0.315
       352  -8.8639     51.7520     64.8527   1.1120094495e+02   5.7614118426e+01     0.226908    0.1994001  52.37  0.000857043    1.541    0.351
       353 -11.0357    237.2019     64.2431   6.8139777545e+01   1.8598434000e+01    0.3200654    0.3124329 -51.35  0.002057636    1.276    0.216
       354  -9.6398     59.4923     60.4830   1.0708198186e+02   5.7407588366e+01    0.4933701    0.2782077 -12.91  0.002065624    2.617    0.618
       355  -8.2058      3.6696     60.6990   1.2791243344e+02   6.2644529167e+01    0.1211136   0.06248968 -35.16 0.0004924826    1.647    0.393
       356 -11.1433     80.2732     54.2402   9.7981182373e+01   5.5294270521e+01    0.8121599    0.4522836  16.53  0.001769415    2.658    0.624
       357  -9.9386     15.3869     56.1743   1.2224996882e+02   6.2762754201e+01    0.4316409    0.1830871 -28.88  0.002090852    2.561    0.609
       358  -8.6512     27.3067     55.4172   1.1741083952e+02   6.1945288604e+01    0.1882608    0.1407703 -64.99  0.001175759    1.755    0.430
       359 -10.6472    248.8125     52.5352   6.4310392016e+01   1.7878770811e+01    0.4062391    0.2781037  -9.70  0.001925563    2.949    0.661
       360 -10.4172    246.1890     46.5912   6.3358580428e+01   1.9297508067e+01    0.2667971    0.1687487 -66.03  0.001090143    1.457    0.314
       361 -10.1020    225.2997    247.8652   1.0822428609e+02  -1.0856824005e+01    0.2327346    0.2062074   2.45 0.0004563099    1.157    0.136
       362 -10.3882     31.7576     34.8142   1.0877392875e+02   6.4991890005e+01    0.5738674    0.3080844  -3.38  0.002981158    2.401    0.583
       363  -8.0095    221.4804    248.4283   1.0902326827e+02  -1.0364898913e+01    0.1400703    0.1157907 -38.18 7.550947e-05    1.469    0.319
       364  -9.9838     13.7820     26.7379   1.1346980844e+02   6.7887368974e+01    0.6654269    0.2449734  16.45  0.003241573    3.290    0.696
       365  -8.0659    190.5842    249.4774   1.1503726502e+02  -5.6779328133e+00    0.1254892    0.1064424  23.78 1.218908e-05    1.026    0.025
       366  -8.3998    108.6746    249.4176   1.3099606211e+02   7.8997507882e+00    0.1586885    0.1087905  38.96 0.0003627479    1.417    0.294
       367 -10.3778     33.0231    248.0894   1.4468366327e+02   1.8839967115e+01    0.2222924    0.1825322  84.00 0.0004455583    1.232    0.188
       368  -9.2950     24.6473    248.8538   1.4614180128e+02   1.9673741626e+01    0.2861533    0.2020237  16.05  0.001591405    2.979    0.664
       369 -11.0461    211.6652    246.7597   1.1058323637e+02  -8.6267386869e+00    0.2693455    0.2110459  18.14 0.0004359452    1.105    0.095
       370  -9.5706    140.9215    247.0732   1.2440536934e+02   3.0165225255e+00    0.2165672    0.1879349 -62.12  0.000379913    1.331    0.248
       371  -8.5722    119.9676    248.3805   1.2868571814e+02   6.2651236868e+00    0.1748973    0.1378402  49.05  0.001082028    1.090    0.083
       372  -9.8444    157.0482    246.0793   1.2107961783e+02   4.6185648011e-01     0.349728    0.2085992  24.33 0.0005257159    2.064    0.516
       373 -10.3904     24.5067     38.5051   1.1307522146e+02   6.5116539087e+01    0.2185711    0.1643446 -18.35 0.0005799792    1.067    0.062
       374 -12.4053     19.4886     41.1949   1.1606203967e+02   6.5107692975e+01    0.5545787    0.3000941 -16.89  0.001489695    1.964    0.491
       375 -12.4555     13.2069     38.9043   1.1793825606e+02   6.5983601217e+01    0.5563291    0.3290621  -1.13  0.001802447    1.772    0.436
       376  -7.7026     75.3534     42.3106   9.5413098506e+01   5.7953323517e+01    0.1358621   0.08993527   7.66 0.0007044264    1.725    0.420
       377 -11.3295    243.6568     39.1911   6.2091039319e+01   2.0877531817e+01    0.4632257    0.2621617 -65.77  0.002419528    1.709    0.415
       378  -8.8029     32.1187     40.6401   1.1071048648e+02   6.4034642993e+01    0.1905034    0.1418512 -38.69 0.0005483007    1.289    0.224
       379  -8.9685     44.8769     38.2495   1.0481867002e+02   6.2975264630e+01    0.3408339    0.1747538  -8.61  0.001477438    3.180    0.686
       380  -9.2770    151.8959    244.3410   1.2185108181e+02   1.6377342401e+00    0.2574259    0.1961626 -59.30 0.0003581211    1.550    0.355
       381  -9.4844      5.4848     32.6603   1.1921173395e+02   6.7554836900e+01    0.3486913    0.1596222  26.43  0.002072722    2.492    0.599
       382  -8.7891     79.3824     30.8179   8.9904469897e+01   5.8822568326e+01    0.2755288     0.164824 -17.14  0.001465711    1.801    0.445
       383  -9.4334     75.9833     32.0000   9.1423957179e+01   5.9261780211e+01    0.3243107    0.1533577  41.00   0.00119871    1.970    0.492
       384  -7.9263    205.4996     31.4885   6.4630172058e+01   3.0519043634e+01    0.1353228    0.1122308 -82.66 0.0008100218    1.053    0.050
       385  -9.1690     66.5953     30.3238   9.3899380847e+01   6.1027864230e+01    0.2278314    0.1786159   8.74 0.0005638268    1.112    0.101
       386  -8.1823     54.5140     31.5241   9.8649103537e+01   6.2679130819e+01    0.1193113    0.1007921  -1.89 0.0001150374    1.083    0.076
       387  -8.2280    111.0306     30.0000   8.0796694300e+01   5.2760787385e+01    0.2226607   0.06809837  54.49 0.0008081674    2.982    0.665
       388  -7.7388     91.6738     28.6852   8.5452457206e+01   5.6822383959e+01    0.1348034   0.08701852  20.21 0.0007043392    1.669    0.401
       389  -9.5123     53.7425     36.0846   1.0066428776e+02   6.2142466808e+01    0.2869994    0.1712251  16.85  0.001237418    1.782    0.439
       390  -9.1129    146.0085     34.3343   7.4559052056e+01   4.4387505320e+01    0.3076659    0.2094394  54.86  0.001044461    1.314    0.239
       391  -9.5937     66.5368     24.9809   9.1852858334e+01   6.1709032096e+01    0.2507719    0.1451575  26.80  0.001386216    1.666    0.400
       392  -8.7834     76.0969    246.0185   1.3681754772e+02   1.3531835593e+01    0.3299663    0.1649033 -51.92  0.001650879    2.628    0.619
       393  -7.4702    128.7137     22.6649   7.4402295441e+01   4.9705934433e+01    0.1344003   0.09019925  30.05 0.0007015395    1.626    0.385
       394  -9.1066     83.8139     19.4503   8.4284803875e+01   5.9341406884e+01    0.2101753    0.1647189 -11.31  0.000655483    1.279    0.218
       395  -9.7564     58.2394     18.1785   9.2004697722e+01   6.3812750525e+01    0.2675694    0.1808602  13.21 0.0005097775    1.357    0.263
       396  -9.9979    243.1571    245.1724   1.0452961780e+02  -1.3067721101e+01    0.2652734    0.1713261 -21.07 0.0003782625    1.493    0.330
       397  -8.4914    238.6774    234.3496   1.0346158058e+02  -1.0934678640e+01    0.1926544    0.1662831 -30.89  0.001296824    1.352    0.261
       398  -7.9700     87.2659     14.6612   8.1495656507e+01   5.9182985369e+01    0.1078258   0.09551813 -59.52 0.0006978323    1.594    0.373
       399 -10.2278    247.8111    238.5078   1.0255218088e+02  -1.2822535128e+01    0.2803309    0.1862449  27.98    0.0010981    1.375    0.273
       400  -9.4180    243.6102    234.6526   1.0262544961e+02  -1.1694843200e+01    0.3098549    0.2640042  88.27 0.0008037164    2.370    0.578
       401  -7.9375    171.4023    246.5136   1.1831422590e+02  -2.0358757485e+00    0.1268023    0.1107568  37.02 0.0001342608    1.032    0.031
       402  -8.1975    147.8611    245.2631   1.2278282973e+02   2.1622174751e+00    0.2609698   0.09239852 -56.81 0.0009848995    3.808    0.737
       403 -10.1150     94.8278    244.9562   1.3315726806e+02   1.0925023602e+01    0.2360997     0.199014  57.03 0.0003982769    1.115    0.103
