#   1 NUMBER                 Running object number                                     
#   2 MAG_AUTO               Kron-like elliptical aperture magnitude                    [mag]
#   3 X_IMAGE                Object position along x                                    [pixel]
#   4 Y_IMAGE                Object position along y                                    [pixel]
#   5 X_WORLD                Barycenter position along world x axis                     [deg]
#   6 Y_WORLD                Barycenter position along world y axis                     [deg]
#   7 A_WORLD                Profile RMS along major axis (world units)                 [deg]
#   8 B_WORLD                Profile RMS along minor axis (world units)                 [deg]
#   9 THETA_WORLD            Position angle (CCW/world-x)                               [deg]
#  10 FWHM_WORLD             FWHM assuming a gaussian core                              [deg]
#  11 ELONGATION             A_IMAGE/B_IMAGE                                           
#  12 ELLIPTICITY            1 - B_IMAGE/A_IMAGE                                       
         1 -12.5535    208.2688      9.3492   5.5312687537e+01   3.2528093593e+01      1.28605    0.7088872 -14.91  0.004204717    3.850    0.740
         2 -14.5608    187.3856     75.2022   7.2798556158e+01   2.8296478669e+01     6.737678     1.635005 -39.90   0.01722522    3.949    0.747
         3 -16.7209    242.0922     29.6664   5.6220841422e+01   2.3028068210e+01     6.934471      1.44732  59.99   0.02581195    4.529    0.779
         4 -13.0575    215.2423     14.7527   5.5756037354e+01   3.0433380900e+01    0.7664605    0.5663942 -46.64  0.001135813    1.427    0.299
         5 -15.9695    213.1838     70.8035   6.7846545896e+01   2.3200458417e+01     10.63511     4.479247 -57.88   0.03001403    2.892    0.654
         6 -15.0274    241.8954     81.9960   6.6454877158e+01   1.5342188293e+01     3.113186     1.300647 -44.30    0.0139766    2.061    0.515
         7 -14.2488    221.7179     60.3069   6.4459807424e+01   2.2988775849e+01     1.591508     1.188477  79.51  0.005854276    1.269    0.212
         8 -14.5313    249.2278      4.1941   5.1117630860e+01   2.4675249661e+01    0.7766379    0.4840824 -24.88  0.003592189    2.724    0.633
         9 -14.8649    240.5415     44.4034   5.9160053897e+01   2.1363940264e+01     1.736733    0.6717491 -60.43  0.005612071    2.894    0.655
        10 -11.0647    179.4496     23.9537   6.1673399630e+01   3.7342954704e+01    0.5307012     0.381957  75.28  0.002828984    1.191    0.160
        11 -10.2074    135.3408     15.9780   6.6173470092e+01   4.8222136006e+01    0.2607766     0.226365  30.61  0.001099742    1.278    0.218
        12  -8.6415    165.0123     12.0045   6.0669318909e+01   4.1895382672e+01    0.1759085    0.1550683  87.06 0.0004825394    1.087    0.080
        13 -15.1720    234.3094      7.9967   5.2860239455e+01   2.7212213323e+01     1.071258    0.8784286  56.78  0.004647424    1.666    0.400
        14 -10.0534    115.9769     12.5115   6.8717839296e+01   5.2788080596e+01     0.286237    0.1847175  62.73  0.001195012    1.364    0.267
        15 -11.6816    120.2285      8.9543   6.6818027406e+01   5.2181123537e+01    0.4678653    0.4041482 -43.88  0.001841397    1.379    0.275
        16  -8.6526    128.7811     11.0013   6.5883683955e+01   5.0136023004e+01    0.1404953    0.1021261 -24.28 0.0004420434    1.646    0.393
        17  -8.3652    171.6064      9.2640   5.9177995683e+01   4.0669203219e+01    0.1291194     0.121106 -13.94  0.000351263    1.409    0.290
        18 -10.6414    184.2995      6.0636   5.6997421638e+01   3.8131897387e+01    0.5181734    0.2723875 -56.38  0.002220638    1.978    0.494
        19  -9.4573    187.5482      5.5181   5.6534740002e+01   3.7462966862e+01    0.2355251    0.1802917 -42.54 0.0007854042    1.476    0.322
        20  -8.7212    128.9529      5.2800   6.4202731526e+01   5.0585995854e+01    0.1725877    0.1297464  62.11 0.0002794188    1.091    0.083
        21  -9.5754    171.9478      2.5300   5.7554619895e+01   4.1222802744e+01      0.20758    0.1397243 -61.81 0.0007002833    1.531    0.347
        22  -8.8981    143.5858     11.2362   6.3516035771e+01   4.6816717801e+01    0.1506229    0.1198168   2.99 0.0009478926    1.655    0.396
        23 -10.0149    143.0671      1.6223   6.1012103856e+01   4.7763101900e+01     0.191331    0.1333983  64.24  0.001207331    1.162    0.140
        24  -8.7751    217.3606      1.3834   5.2955326081e+01   3.1425951936e+01    0.1573705   0.08794443  87.00  0.000881436    1.500    0.333
        25 -13.0195    171.0917     72.2595   7.4926440716e+01   3.2569681083e+01      1.15337    0.5871653 -31.54  0.001735573    2.374    0.579
        26 -11.9149    232.9869    249.8801   1.0086006917e+02  -1.2616987658e+01    0.2167747    0.1764527  15.61 0.0003222081    1.146    0.127
        27 -10.2161    144.9905    226.2916   1.1465951409e+02   5.3689018120e+00    0.2305202     0.203296 -54.77  0.000240711    1.220    0.180
        28  -9.6992     32.9778    218.7231   1.3800099669e+02   2.4189442563e+01    0.1798006    0.1434423  67.69 0.0009637044    1.117    0.105
        29 -10.3254    203.8189    152.5324   8.7670842855e+01   9.7629041979e+00    0.3538236    0.2662263 -48.38  0.001146295    1.248    0.199
        30 -10.2587    191.3864    151.5687   8.9929171085e+01   1.2470647924e+01    0.5542697     0.248474 -56.02  0.001888248    2.842    0.648
        31  -8.2420     94.2177    151.2739   1.1337486342e+02   3.1985397185e+01    0.1406319    0.1112835 -34.56 0.0001859758    1.412    0.292
        32  -9.1585    173.4055    149.7978   9.3335102662e+01   1.6589857698e+01    0.2275775     0.142506 -36.04 0.0008536068    1.704    0.413
        33 -10.0746    151.7113    149.5785   9.8236900482e+01   2.1208925130e+01     0.376732    0.2357896 -65.00  0.001252699    1.988    0.497
        34 -10.3603    133.9858    147.1032   1.0200675204e+02   2.5463338046e+01    0.9801845    0.2606007 -54.22  0.002408187    4.803    0.792
        35  -8.5161    219.2209    149.1867   8.4080557730e+01   7.4356734235e+00    0.1866825    0.1611639 -78.50 0.0003931984    1.327    0.246
        36 -10.6801    179.8077    145.0764   9.0886030016e+01   1.6270750927e+01    0.3549415    0.2395486 -14.29  0.001407901    2.378    0.579
        37  -8.8805    222.7502    145.2282   8.2613743850e+01   7.5405863104e+00    0.2038889    0.1794171 -67.39 0.0006540758    1.192    0.161
        38 -10.4567    198.8714    144.9577   8.6972384088e+01   1.2323536395e+01    0.4484084    0.2996293  88.73  0.001792651    2.590    0.614
        39 -10.3333    192.3344    144.0888   8.8074056194e+01   1.3853479835e+01    0.3457334    0.2747255  40.38  0.000504127    1.365    0.267
        40 -11.8759    189.2229    138.8755   8.7525337877e+01   1.5603163537e+01    0.5643306    0.4624592  32.35  0.001501104    1.392    0.282
        41 -11.5912    156.3259    140.4768   9.5055651211e+01   2.2304728880e+01    0.8661311    0.5466654  87.64  0.002931723    3.225    0.690
        42 -10.2140    152.9542    135.4627   9.4664747804e+01   2.4159379663e+01    0.3095558    0.2468065 -84.07 0.0008363875    1.514    0.339
        43 -11.1948    174.8639    138.1565   9.0357216882e+01   1.8825408525e+01     0.578564    0.3305727 -66.15  0.001758718    2.627    0.619
        44 -10.2511    150.3901    140.9930   9.6575487940e+01   2.3456212340e+01    0.3824635     0.263376  77.54  0.001331841    2.122    0.529
        45  -9.6374    202.0269    140.5029   8.5374967852e+01   1.2595184381e+01    0.2140441    0.1490312  49.08 0.0006588262    1.547    0.353
        46 -11.5087    212.0255    136.5345   8.2642914018e+01   1.1363497416e+01    0.4690936    0.4140836 -15.48  0.002582773    1.298    0.230
        47  -9.5069    166.4457    134.7760   9.1410397158e+01   2.1385534003e+01    0.3304755    0.1486278 -41.21   0.00117834    2.256    0.557
        48 -10.6947    159.7380    137.1499   9.3486214590e+01   2.2315982424e+01    0.4127738    0.2621628 -70.85  0.001590213    2.266    0.559
        49  -9.7316    206.0137    133.4738   8.3063850017e+01   1.3203587173e+01    0.2126294     0.147562  51.05 0.0005741958    1.559    0.358
        50 -10.8152    152.8678    127.4671   9.2762414627e+01   2.5959741474e+01    0.4017321    0.3668388  55.96  0.002075483    1.115    0.103
        51 -10.9697    160.1039    128.3163   9.1296965103e+01   2.4186269099e+01    0.4426626     0.325326 -44.54  0.001511874    1.331    0.249
        52 -11.3101    124.5744    103.4218   9.3630766798e+01   3.7277771390e+01    0.8310582    0.5388127 -61.61  0.003562719    1.887    0.470
        53 -12.0661    133.5179    121.8633   9.6100173432e+01   3.1387767458e+01      1.46016    0.7289384 -66.37  0.003181702    4.155    0.759
        54  -9.5862     24.2837    202.1324   1.3827561498e+02   2.8987906865e+01    0.2591945    0.1783642  20.15   0.00147968    2.058    0.514
        55 -11.0725    222.4772    128.4753   7.9071945655e+01   1.0854054855e+01    0.4525937    0.2852429  56.65  0.002186064    1.794    0.443
        56 -10.7755    217.2569    125.0017   7.9198442601e+01   1.2575076994e+01    0.4760461    0.3113009 -69.46 0.0004851807    1.939    0.484
        57  -9.8926    195.0042    198.7102   9.8983298603e+01   2.0301943272e+00     0.377874    0.2480482 -65.25  0.001678375    2.246    0.555
        58 -13.6200    250.1319     42.0597   5.7807202482e+01   1.9770828130e+01    0.5021448    0.2702337 -42.03  0.001722537    1.775    0.437
        59 -11.5551    159.4346    115.5812   8.8326827370e+01   2.7066970628e+01     1.011055    0.6019712 -62.21  0.003928543    2.116    0.527
        60 -10.0907    140.6903    121.2591   9.4156898746e+01   2.9983109251e+01     0.549123    0.3318886  78.96  0.001782087    3.489    0.713
        61 -11.0899    167.0552    114.7085   8.6435717279e+01   2.5537379264e+01    0.5979491    0.5217333 -25.04  0.001733152    1.291    0.225
        62 -10.0840    174.3910    114.5615   8.4849160811e+01   2.3918078581e+01     0.375635    0.2782761 -67.50  0.001176363    1.510    0.338
        63 -10.5543    134.9776    108.9364   9.2427782563e+01   3.3888002916e+01     1.132959    0.2833684 -43.57  0.003112139    4.009    0.751
        64 -10.0527    127.9103    113.3877   9.5382846346e+01   3.4446115756e+01    0.3101832    0.2094318 -58.28 0.0009135363    1.619    0.382
        65  -9.9107    191.4054    192.2133   9.8453370627e+01   3.9770706163e+00    0.6679684    0.3528193 -66.97  0.002000216    4.886    0.795
        66  -8.6759    141.4629    105.0071   8.9807091108e+01   3.3285875599e+01    0.2279616    0.1495213 -41.99 0.0006047055    1.531    0.347
        67 -10.0568    147.3468    101.1546   8.7404370038e+01   3.2755034121e+01    0.3299753    0.3008192 -40.79 0.0007892308    1.119    0.107
        68 -12.1567      4.5513     93.1696   1.2899191721e+02   5.6293996021e+01    0.7178131    0.2279683 -58.86  0.003251052    2.264    0.558
        69 -10.0761    164.4773     85.7680   7.9666610441e+01   3.1768130216e+01    0.2584372    0.2289392  56.36 0.0008533564    1.129    0.114
        70 -10.4445    168.2268     95.1072   8.1290862131e+01   2.9168437823e+01    0.7167292    0.4341388 -89.78  0.002581311    3.039    0.671
        71 -11.8525    172.9562     87.2098   7.8359745716e+01   2.9541670061e+01      0.65179    0.6245704  71.76  0.002646791    1.082    0.076
        72  -9.7932    133.8180     97.2281   8.9609302785e+01   3.6551092903e+01    0.3303497    0.2689873  84.93  0.001133209    1.479    0.324
        73 -10.6842    157.2673     95.4842   8.3694006513e+01   3.1615513701e+01    0.4820342    0.3463474  32.20  0.002226423    1.705    0.414
        74 -10.4146    141.0719     91.6346   8.6342457909e+01   3.6035590696e+01    0.4313352    0.2894954 -51.79  0.001132852    1.564    0.361
        75  -9.5674    219.3457    190.3197   9.2520300848e+01  -5.8697773959e-01     0.233973    0.1871533  -7.17 0.0007430583    1.324    0.245
        76  -8.8210    204.2989    189.6758   9.5321327071e+01   2.1535800047e+00    0.2529481    0.1744298  57.83  0.001108391    1.893    0.472
        77 -11.9715    155.4544     85.5994   8.1496737840e+01   3.3886168188e+01    0.5673093     0.493414  76.94  0.002329621    1.165    0.141
        78 -12.2191     68.5318    146.1127   1.1945514767e+02   3.7328108221e+01     1.535672      1.26182 -28.25  0.007089274    1.408    0.290
        79  -8.6391    112.8055     76.8897   8.9306153333e+01   4.4900684056e+01     0.185095    0.1668884  84.78 0.0003072044    1.297    0.229
        80  -9.3045    149.0388     76.5062   8.0438474598e+01   3.6978610533e+01    0.2284874    0.1392742  57.03  0.001031817    1.606    0.377
        81 -12.4073     43.5909    164.4055   1.2927007540e+02   3.5990627471e+01    0.5739169    0.4754217  33.25  0.001235807    1.401    0.286
        82 -11.5202      7.4037     74.5355   1.2407404840e+02   6.0008965889e+01      0.36606    0.2357851 -83.89  0.002004472    2.403    0.584
        83  -8.5520    158.9569     74.2854   7.7781323932e+01   3.5061023426e+01    0.2039751    0.1806035  67.81 0.0004324836    1.077    0.071
        84 -11.1463    151.8801     72.4067   7.8726148461e+01   3.7019124892e+01    0.5709496    0.3215271 -59.65  0.001865176    2.349    0.574
        85 -12.9354     50.4660    160.0985   1.2682344645e+02   3.6238527808e+01    0.9942824    0.8459733  57.48  0.002824135    1.242    0.195
        86 -10.2438    106.3885     60.9189   8.6211939247e+01   4.8903727428e+01    0.4223765    0.2249588 -58.50  0.001585866    3.428    0.708
        87 -13.4650     12.8527    182.4011   1.3888332768e+02   3.4786347729e+01    0.9348357    0.7180263 -85.11  0.004013984    1.034    0.033
        88 -11.2198    115.1438     60.8110   8.3878404602e+01   4.7098669188e+01    0.4051556    0.3032719  61.51  0.002149171    1.434    0.303
        89  -8.6983     72.8681     58.3414   9.5430828526e+01   5.5530519218e+01    0.1762686     0.149907  19.10 0.0005378983    1.096    0.087
        90  -9.3879     97.2933     60.4544   8.8597058469e+01   5.0790612588e+01    0.2400795    0.1204695 -37.39 0.0009956481    2.064    0.515
        91 -10.1145     12.2609     51.2320   1.1599822457e+02   6.4069333176e+01    0.2453747    0.1149774  44.52  0.001077497    4.325    0.769
        92  -8.4728     94.8797    166.6493   1.1621886978e+02   2.8041669885e+01    0.1885792    0.1808821  71.16 0.0003427511    1.066    0.062
        93  -9.9364    208.2077    161.0285   8.8647873216e+01   7.1725475176e+00     0.224925    0.2122199  54.13 0.0003116344    1.163    0.140
        94 -10.9750    245.9549    157.7331   8.1295342510e+01   1.0035169986e+00    0.5156965    0.4246131  74.53  0.003013292    1.610    0.379
        95 -10.2004    101.7468     38.6057   8.0325567369e+01   5.3000174214e+01    0.2261548    0.1577853 -12.36 0.0009801231    1.674    0.403
        96  -9.8265    195.6653    158.6615   9.0611265234e+01   1.0112740241e+01      0.28199    0.2092891 -86.20 0.0008420404    1.960    0.490
        97 -10.2378    102.1230     33.3763   7.8515230052e+01   5.3557798533e+01    0.2895242    0.1617235  28.94  0.001387012    2.115    0.527
        98  -9.5433    183.8780     31.0330   6.2762924021e+01   3.5498139914e+01    0.2646806    0.1748964 -32.99 0.0009108551    1.759    0.431
        99 -11.2550     33.9803    178.5062   1.3353655399e+02   3.3596721022e+01    0.3620793    0.1986382 -52.94  0.001792941    1.815    0.449
       100  -9.4764    159.5236    158.3478   9.8367603633e+01   1.7572860064e+01     0.310828    0.2614303 -76.33  0.001520662    1.333    0.250
       101 -12.2215     56.5061    155.9698   1.2453872913e+02   3.6506129107e+01    0.6928619     0.453484 -81.44  0.001592525    1.635    0.388
       102 -10.0777    125.0438     31.3173   7.2609414539e+01   4.8911234960e+01    0.1901142    0.1562533  56.11 0.0008120942    1.072    0.067
       103 -10.1243    110.1513     30.8221   7.5737600115e+01   5.2184688478e+01    0.1814352    0.1354023  32.07 0.0005141367    1.318    0.241
       104 -10.2403    154.2217     26.1433   6.5833670022e+01   4.2890344259e+01    0.2672984    0.2186502 -19.41  0.001002686    1.520    0.342
       105  -8.9948    226.2954    154.6776   8.3982284020e+01   5.0356400887e+00     0.139581    0.1068257 -70.44 0.0004208295    1.618    0.382
       106 -10.5716    106.5883     22.6073   7.3921377863e+01   5.3815562538e+01    0.3438463    0.1206358  50.15  0.001488388    2.311    0.567
       107  -9.0661    195.1148     19.2647   5.8735912892e+01   3.4332007341e+01    0.2360764    0.1854517  -3.36  0.001431403    2.052    0.513
       108  -9.3393    159.9908     19.6921   6.3284410227e+01   4.2262214740e+01     0.182898    0.1755719 -58.14 0.0006542143    1.215    0.177
       109 -11.2015    222.9815    177.1933   8.9213824847e+01   1.2810388744e+00    0.5542146    0.3548675 -31.19   0.00273277    1.541    0.351
       110  -8.9920    164.5654     16.2026   6.1765444356e+01   4.1577790935e+01    0.2530043    0.1956854   8.73  0.001525618    1.895    0.472
       111 -10.1930    227.5410    172.5215   8.7434694966e+01   1.3801856530e+00    0.3475198    0.2404924  42.08   0.00170699    1.606    0.377
       112  -9.2655    189.8350     14.9176   5.8362269569e+01   3.5989882300e+01    0.1902295     0.144886 -85.67 0.0007286412    1.122    0.109
       113  -8.8282    223.3455    171.6698   8.8023737460e+01   2.2778118850e+00    0.2100635    0.1671039 -73.20   0.00104693    1.664    0.399
       114  -9.9263    249.4653    175.4708   8.4236355375e+01  -2.7810000652e+00      0.36324    0.2069841 -50.17  0.001800955    1.781    0.439
       115  -9.0731    211.3064    189.3452   9.3873074308e+01   9.8137917595e-01    0.1461187    0.1048541  -9.84  0.000704268    1.695    0.410
       116 -11.0218    230.6935    167.5404   8.5859707477e+01   1.7794129549e+00    0.5028505    0.2539335 -51.42   0.00216985    2.083    0.520
       117 -10.7028    243.4923    172.5641   8.4661060025e+01  -1.3058661899e+00    0.3568131    0.2411399  30.23   0.00191615    1.746    0.427
       118 -10.8431    234.9894    173.8311   8.6375159249e+01  -1.3656335393e-01    0.3276622    0.3029079  45.66  0.001261142    1.265    0.209
       119  -9.9872    238.9748    172.9977   8.5516685481e+01  -6.4563445275e-01    0.2376187    0.1993627  44.69  0.000571196    1.387    0.279
       120  -9.7320    200.8281    173.7172   9.2766475981e+01   5.9924656777e+00    0.3412046    0.1976782 -31.14  0.001454043    1.930    0.482
       121 -11.0145    213.8706    167.4625   8.8920479098e+01   4.8146715627e+00    0.6691602    0.3810725  67.90  0.002377282    3.741    0.733
       122 -11.7207     25.2800    165.9924   1.3412837381e+02   3.7567729032e+01       0.5914    0.2717239 -60.41   0.00281401    1.808    0.447
       123  -8.4074    250.5963    238.8562   9.5809544258e+01  -1.3305845766e+01    0.1504842    0.1024198 -40.91 0.0005269485    1.602    0.376
