#   1 NUMBER                 Running object number                                     
#   2 MAG_AUTO               Kron-like elliptical aperture magnitude                    [mag]
#   3 X_IMAGE                Object position along x                                    [pixel]
#   4 Y_IMAGE                Object position along y                                    [pixel]
#   5 X_WORLD                Barycenter position along world x axis                     [deg]
#   6 Y_WORLD                Barycenter position along world y axis                     [deg]
#   7 A_WORLD                Profile RMS along major axis (world units)                 [deg]
#   8 B_WORLD                Profile RMS along minor axis (world units)                 [deg]
#   9 THETA_WORLD            Position angle (CCW/world-x)                               [deg]
#  10 FWHM_WORLD             FWHM assuming a gaussian core                              [deg]
#  11 ELONGATION             A_IMAGE/B_IMAGE                                           
#  12 ELLIPTICITY            1 - B_IMAGE/A_IMAGE                                       
         1 -19.1851     73.6073    201.9069   1.0722619947e+02   2.2395977395e+01     5.094234     4.533127 -81.87   0.02558352    1.112    0.100
         2 -17.5270    147.7377    107.0577   6.8740451902e+01   3.1402537628e+01      2.89237     2.251393 -83.00   0.01305863    1.703    0.413
         3 -11.5239    191.8021     21.3806   3.7455496552e+01   3.4756429091e+01    0.1849477    0.1043026  61.59 0.0009468955    1.675    0.403
         4 -11.0575    172.3724    249.8319   9.2042295762e+01  -2.0645494054e+00    0.1606102    0.1088843 -25.82 0.0005318098    1.670    0.401
         5 -11.0989     91.6276    249.8450   1.0858087792e+02   9.8427104259e+00    0.1584081    0.1107705 -88.50 0.0009367628    1.672    0.402
         6 -10.7119     87.3669    250.2095   1.0948116507e+02   1.0369341770e+01    0.1130762   0.08736571  19.84 0.0002990836    1.567    0.362
         7 -11.0353     69.9784    251.0000   1.1303249535e+02   1.2568513569e+01    0.1872444   0.05843597  35.38 0.0003466231    2.773    0.639
         8 -12.5092    136.5384    210.7612   9.3745037763e+01   1.0595294084e+01    0.5468819    0.2232435 -45.98  0.002158176    2.675    0.626
         9 -12.8148     43.3168    245.3093   1.1780030425e+02   1.6993233554e+01    0.4093034    0.2393147 -66.34  0.002475173    1.834    0.455
        10 -13.3734    124.1574    206.9481   9.5994241200e+01   1.3453105531e+01    0.3246924    0.2481113  39.53 0.0008630767    1.209    0.173
        11 -12.4581    184.4672    213.0082   8.3628951926e+01   2.1930376234e+00    0.1996293    0.1296424 -39.75 0.0009737382    1.595    0.373
        12 -12.7973    164.8891    209.7717   8.7242281185e+01   6.0192679189e+00    0.3826743    0.2119935 -29.22  0.001664305    2.274    0.560
        13 -14.0913    168.8438    205.6929   8.5661587485e+01   6.1277988475e+00    0.4939871    0.2860003  45.48  0.002293772    1.817    0.450
        14 -12.6678     32.7664    208.3750   1.1718081957e+02   2.5981941745e+01    0.3921342    0.2406847  83.37  0.001993802    1.508    0.337
        15 -12.0497    106.6876    241.6159   1.0456895959e+02   9.2155330546e+00     0.392908    0.2459816  64.29  0.002063365    1.878    0.468
        16 -11.6734      6.4877    203.2878   1.2241031824e+02   2.9702847503e+01    0.3774432    0.1199382 -84.86  0.001566933    3.031    0.670
        17 -12.2380     14.5498    201.9357   1.2062435575e+02   2.9274242123e+01    0.3282716    0.1684566  89.09  0.001349841    1.750    0.429
        18 -12.2954     26.1726    200.8459   1.1802049078e+02   2.8384502369e+01    0.3718879    0.1711352  64.52   0.00174986    2.236    0.553
        19 -11.5016    212.3210    200.6395   7.5735281094e+01  -1.1024536349e-01    0.1226552    0.1101011 -82.39 0.0007042999    1.772    0.436
        20 -14.3734    139.5078    197.2441   9.0806691366e+01   1.2902494242e+01    0.5198291    0.4398543 -14.04  0.001835006    1.325    0.245
        21 -14.7469    143.2961    189.2411   8.8486350756e+01   1.3946711035e+01    0.6538942    0.4229916  43.75  0.003063351    1.518    0.341
        22 -14.5510    135.5701    188.1805   9.0134431407e+01   1.5557848712e+01    0.7123093    0.4041039 -53.70  0.003107665    1.870    0.465
        23 -12.3363    156.0467    198.0559   8.7137862409e+01   9.8394622148e+00    0.2157121    0.1978076  16.91 0.0003197558    1.019    0.019
        24 -14.5987    124.0418    188.0393   9.2904367912e+01   1.7620767098e+01    0.8646012    0.5085332 -87.60  0.002899147    3.844    0.740
        25 -14.3137    128.5227    184.3449   9.1151280625e+01   1.7667574677e+01    0.7758312    0.4785965 -82.19  0.002217671    2.935    0.659
        26 -17.2626    141.9415    180.9205   8.7251671905e+01   1.6010212588e+01     1.922241     1.338091  51.90  0.009028556    1.560    0.359
        27 -13.7320    190.9315    190.4820   7.8088036992e+01   5.2239685135e+00    0.4006242       0.2579  49.08  0.001553591    1.854    0.461
        28 -14.7897     35.7212    192.7731   1.1515892857e+02   2.9253680763e+01    0.6075358    0.4846923  37.37   0.00272377    1.362    0.266
        29 -13.4610    159.6650    192.6441   8.5323540439e+01   1.0303504529e+01    0.2907618    0.2589741 -16.70 0.0007470581    1.131    0.116
        30 -12.7607     20.8004    191.6223   1.1848643062e+02   3.1048874387e+01    0.2848299    0.2178013  85.69   0.00154661    1.080    0.074
        31 -11.6949    228.0227    192.2557   7.1163986828e+01  -1.1337133671e+00    0.1791435    0.1523795  -2.45 0.0002368931    1.059    0.056
        32 -14.9537    151.1529    188.9692   8.6593145074e+01   1.2593272904e+01    0.6952693    0.4976402 -46.54  0.003151485    1.446    0.308
        33 -13.0580    104.9985    233.8571   1.0401067130e+02   1.0961645402e+01      0.89125    0.4303568  58.87  0.003594539    2.749    0.636
        34 -16.1407    127.2640    165.4108   8.7855526718e+01   2.2271915005e+01     1.407618    0.8852654  10.70  0.005322559    2.616    0.618
        35 -16.8103    132.6604    168.4697   8.7099873176e+01   2.0550933015e+01     2.555136    0.7851452  34.46  0.003159457    3.765    0.734
        36 -11.3711    180.2901    244.2779   8.9626298809e+01  -2.3651195414e+00    0.1552851    0.1369611  37.83 0.0006206785    1.302    0.232
        37 -13.7942    117.1141    190.7913   9.5068951418e+01   1.8189465950e+01    0.4969767    0.3033022  11.86  0.001952881    2.674    0.626
        38 -12.1068     16.0696    242.2579   1.2274511030e+02   2.0590875198e+01     0.217562    0.1734651 -83.81  0.001083352    1.301    0.231
        39 -13.9665    167.0927    180.9859   8.1390072070e+01   1.1357037695e+01    0.4109756    0.2669262  30.32   0.00142486    1.569    0.363
        40 -11.6460     13.9546    238.2435   1.2292343653e+02   2.1601046522e+01    0.2006147    0.1346655  88.63 0.0007406712    1.279    0.218
        41 -12.8512     20.0471    179.6334   1.1766207474e+02   3.3956690563e+01    0.3608356     0.171278  54.67  0.000905545    2.094    0.522
        42 -14.2773    179.8872    178.4918   7.8051163837e+01   9.5123075133e+00    0.5464661    0.3076856 -54.74  0.002280288    2.204    0.546
        43 -14.0957    174.5412    175.1794   7.8547062558e+01   1.1171426115e+01    0.4349672    0.3233645 -21.56  0.001017065    1.457    0.314
        44 -12.2822    116.7064    239.4742   1.0219044203e+02   8.1209030701e+00    0.2743895     0.233771  72.61 0.0009129986    1.281    0.219
        45 -13.0674    130.5008    195.4174   9.2618442898e+01   1.4860791660e+01    0.2513113    0.2179024  57.04 0.0005132055    1.194    0.163
        46 -11.0868    116.3190    235.6673   1.0179570560e+02   8.8999691864e+00    0.1988448    0.1119733  48.42 0.0009893066    1.661    0.398
        47 -10.9990     20.3109    240.2358   1.2184964924e+02   2.0553976264e+01   0.08931629   0.08770726 -65.71 0.0001973145    1.495    0.331
        48 -14.2014    119.9143    174.8668   9.1561812966e+01   2.1385291173e+01    0.4369784    0.3388625 -81.82  0.002108915    1.557    0.358
        49 -13.6776    121.4813    171.4653   9.0521633443e+01   2.1905110317e+01    0.3762938     0.279209  58.96  0.001219726    1.509    0.337
        50 -11.0569      9.4891    172.1134   1.1955383507e+02   3.6673681243e+01    0.1820151     0.102429 -76.58 0.0004519092    1.466    0.318
        51 -15.7313    139.0633    165.9536   8.4987527767e+01   1.9921640586e+01     1.096842    0.7439181 -12.87  0.001880112    2.232    0.552
        52 -12.6099     27.7026    171.0807   1.1498210323e+02   3.5309288876e+01    0.2047741    0.1933349  40.17 0.0003913457    1.262    0.207
        53 -14.3528    189.5975    193.9286   7.9034326723e+01   4.8086614777e+00    0.5961239    0.3166492  30.01  0.001640562    1.945    0.486
        54 -13.7524     32.5139    168.4229   1.1347746813e+02   3.5488655145e+01    0.3684499    0.1856851 -62.39  0.001775608    1.751    0.429
        55 -11.2645    201.6600    236.3033   8.4127337490e+01  -4.2498254838e+00    0.1138024   0.09767652  51.83 0.0004461108    1.675    0.403
        56 -13.9803    123.4030    160.5480   8.7866875424e+01   2.4143062053e+01    0.5288419    0.2735021 -57.39  0.002041981    2.080    0.519
        57 -10.3914     38.5003    247.4761   1.1886812360e+02   1.7131321257e+01    0.1640823    0.1282934  87.67  0.001156922    1.212    0.175
        58 -12.3259    185.0134    236.2481   8.7423368285e+01  -1.8011187819e+00    0.1796201     0.143308  19.64 0.0002214523    1.062    0.058
        59 -12.1186     40.1872    242.6177   1.1821762461e+02   1.7890134028e+01    0.3452323    0.1616878 -78.60  0.001850271    2.149    0.535
        60 -11.7103    127.8256    234.8142   9.9208539617e+01   7.2905769745e+00    0.2499049    0.1941609   2.44  0.001417665    1.596    0.373
        61 -14.6225    124.6553    195.5008   9.4029191028e+01   1.5848533007e+01    0.7454166    0.3583926  49.68  0.002882523    2.286    0.563
        62 -13.6090    171.3781    159.3051   7.5884353199e+01   1.5090199202e+01    0.3807188    0.2630914 -81.99  0.001484485    2.710    0.631
        63 -13.5617    155.8615    159.1083   7.9439622392e+01   1.8198304655e+01      0.31502    0.2703435 -12.55  0.001167112    1.256    0.204
        64 -14.9381     98.4433    155.6315   9.3593401681e+01   2.9803866625e+01    0.8000391    0.6272092  50.97  0.003839473    1.316    0.240
        65 -11.8625     10.3240    149.3934   1.1730918591e+02   4.2152951917e+01    0.5012727    0.1361682  29.26  0.002009672    3.602    0.722
        66 -13.3973     19.6322    147.5363   1.1458041044e+02   4.1888473282e+01    0.5684281    0.2272008  33.58  0.002556197    2.600    0.615
        67 -14.8200     27.8386    154.9594   1.1318894185e+02   3.9304555271e+01    0.6967738    0.4464453  61.81  0.002587783    1.646    0.393
        68 -13.0862     17.3665    153.7530   1.1587181886e+02   4.0523707660e+01    0.5731533    0.2231893 -71.93  0.002076356    2.117    0.528
        69 -13.5188     22.1692    153.2177   1.1452504307e+02   4.0251535827e+01    0.3655019    0.3565603 -31.94  0.001667427    1.255    0.203
        70 -14.1818    149.8510    146.9109   7.8168989373e+01   2.2136473762e+01    0.7417926    0.2253483 -48.05  0.002192099    3.307    0.698
        71 -13.2942    148.4648    153.2270   7.9935045138e+01   2.0987232315e+01    0.3342074    0.2593355 -76.28    0.0008244    1.676    0.404
        72 -15.1196    145.1223    150.1705   8.0078090518e+01   2.2353218052e+01    0.6986902    0.5100035 -48.61  0.003151277    1.364    0.267
        73 -10.8665    218.2985    153.6850   6.5062737745e+01   7.2706017794e+00    0.1346152    0.1103079 -67.06 0.0003465277    1.609    0.378
        74 -14.8128    131.8333    148.6759   8.3128369093e+01   2.5346399807e+01    0.8394351    0.4834206 -24.36  0.002899064    2.892    0.654
        75 -13.1883    180.4406    150.8132   7.1989494102e+01   1.5072211653e+01    0.2983815    0.2540039  85.47  0.001430919    1.542    0.351
        76 -12.8811    159.0378    149.4880   7.6543185627e+01   1.9687840369e+01    0.2356308    0.1534006  40.29 0.0005105235    1.564    0.361
        77 -12.4598     20.0886    233.2461   1.2148954134e+02   2.1986768776e+01    0.2972665    0.2059324 -63.52  0.001964297    1.655    0.396
        78 -13.8506     30.3343    147.8378   1.1163004545e+02   4.0866351294e+01    0.5020515     0.180721 -70.91  0.001970236    2.452    0.592
        79 -12.6521     10.4969    229.6153   1.2311383059e+02   2.3690316690e+01    0.3293002    0.1793938  59.46  0.001289092    1.485    0.327
        80 -14.0127    154.8536    144.5528   7.6408637996e+01   2.1639881848e+01    0.3575129     0.302747 -49.55  0.001774182    1.183    0.155
        81 -15.5522    130.5117    134.4753   8.0193764072e+01   2.8955337260e+01     1.426497    0.5157613 -38.81  0.004151454    3.473    0.712
        82 -13.7668    137.1317    131.0961   7.7633916456e+01   2.8377977898e+01    0.5453082    0.3414764  47.11 0.0006977032    1.657    0.396
        83 -15.3671    141.8313    134.0602   7.7146911780e+01   2.6717463923e+01     1.086843     0.748316   1.24  0.004120487    2.328    0.571
        84 -17.4312    153.5933    126.0523   7.2251370219e+01   2.6009099550e+01     2.480286     1.939319  56.92  0.006033256    1.400    0.286
        85 -11.5669    179.6680    143.2849   7.0436239014e+01   1.6793869642e+01      0.14887      0.12298 -88.33 0.0003092026    1.617    0.382
        86 -13.1354     82.0161    144.7038   9.6129450039e+01   3.5230357549e+01    0.2609148    0.2228696 -74.15 0.0005830636    1.162    0.139
        87 -11.5675    206.3308    230.3191   8.2220827302e+01  -4.0098933051e+00    0.1337521   0.08575168   0.07 0.0007048081    1.690    0.408
        88 -11.2989    105.1655    249.1837   1.0574164297e+02   8.0323767946e+00    0.1810612    0.1541442  17.65  0.001172094    1.341    0.254
        89 -11.2466    154.5049    230.5359   9.2867594320e+01   3.8798118855e+00    0.1332478    0.1158373  27.09  7.32656e-05    1.019    0.018
        90 -13.8642     27.0646    137.9353   1.1127364226e+02   4.3672904131e+01    0.3622849    0.2337519 -66.35  0.001223815    1.305    0.234
        91 -13.4480     75.5987    134.0134   9.5910025481e+01   3.8926862160e+01    0.4421692    0.1468038 -61.46  0.001381848    3.183    0.686
        92 -11.1056     36.5510    244.5564   1.1904676547e+02   1.7925498437e+01    0.1794618    0.1436137  63.05 0.0004665538    1.065    0.061
        93 -13.6721     83.3407    134.2596   9.3616352022e+01   3.7669976814e+01    0.3279369    0.2911146  67.52  0.001291991    1.214    0.176
        94 -14.6391     34.7519    132.3065   1.0815850652e+02   4.4390988338e+01    0.5376573    0.3376183 -53.79  0.002764525    1.424    0.298
        95 -12.7711     20.2506    133.7282   1.1272947306e+02   4.5307025689e+01    0.2450147    0.1830378 -66.12 0.0003602111    1.124    0.110
        96 -13.0970    125.9194    131.1758   8.0631491469e+01   3.0661927619e+01    0.3016212    0.2372075 -33.88  0.001039034    1.328    0.247
        97 -12.1464     16.2459    226.9148   1.2185941906e+02   2.3684308483e+01    0.3876125    0.1683168  86.58   0.00196241    2.247    0.555
        98 -12.2491    188.6368    221.8292   8.4302717730e+01   9.4612206082e-03    0.1702612    0.1234312 -48.78 0.0005447625    1.676    0.403
        99 -14.5115     60.8101    128.9264   9.9466902048e+01   4.2296191424e+01    0.5377727    0.3254546  14.39  0.002355438    2.189    0.543
       100 -14.5247     55.5282    128.0939   1.0096848404e+02   4.3180381970e+01    0.5249023    0.3590933 -28.51  0.001587509    1.769    0.435
       101 -14.2178    103.3982    124.7847   8.5458735369e+01   3.6568777334e+01    0.4930726    0.4019943  85.26  0.001596279    1.523    0.343
       102 -13.7781    107.7971    122.1284   8.3514233328e+01   3.6383807058e+01    0.5257272    0.2848458  24.12  0.001876909    2.608    0.617
       103 -13.6025     64.0033    121.9644   9.7039173158e+01   4.3635769602e+01    0.2939944     0.242483  73.52 0.0003592035    1.408    0.290
       104 -11.0260      2.0428    221.4973   1.2430253625e+02   2.6163602396e+01    0.1457111    0.1024885  39.62 0.0004124497    1.491    0.329
       105 -12.2940     52.4788    124.4606   1.0124599488e+02   4.4475730230e+01    0.2066842    0.1313635 -73.26 0.0001274145    1.622    0.384
       106 -13.4808     48.5438    123.0714   1.0224722218e+02   4.5288439627e+01    0.2837915    0.2574984 -82.36 0.0006344846    1.114    0.102
       107 -13.6153     46.3082    117.9970   1.0200836309e+02   4.6822789762e+01    0.3887736     0.291583 -18.55  0.001394394    1.585    0.369
       108 -14.4415     30.7025    118.6159   1.0724236309e+02   4.8232132722e+01    0.7008939    0.3055878  38.28  0.001943017    2.545    0.607
       109 -14.4985     89.9782    121.1431   8.8635203809e+01   3.9849788618e+01    0.5342686    0.4053335  53.89  0.002550074    1.485    0.327
       110 -13.0009    119.8850    120.4240   7.9619970872e+01   3.4409092756e+01    0.3189406    0.2270166 -39.42 0.0006675883    1.414    0.293
       111 -17.3510    109.4166    146.3249   8.8647731953e+01   3.0178645175e+01     2.172031     1.688411  78.38   0.01007229    1.610    0.379
       112 -12.4776    190.7873    114.1094   6.1151354315e+01   2.0343214870e+01    0.3902822    0.1938885  34.80  0.001401922    2.841    0.648
       113 -13.7571     72.8853    121.0287   9.3985803629e+01   4.2608688956e+01    0.3891073    0.2472565 -45.03 0.0008026293    1.512    0.339
       114 -13.3014     81.9466    113.1797   8.9235382754e+01   4.3139373598e+01    0.3512422    0.2086764 -48.66  0.001261286    1.573    0.364
       115 -11.9029     19.1932    114.1866   1.1029201353e+02   5.0279414081e+01    0.1743654    0.1429447  75.12 0.0003984615    1.344    0.256
       116 -13.2281     54.3326    109.6532   9.7586531141e+01   4.7966375081e+01    0.4242091    0.2279055 -37.30  0.001333482    2.037    0.509
       117 -13.9139     75.6110    111.0698   9.0777813428e+01   4.4658706614e+01    0.4085565    0.3320339 -60.46  0.001233852    1.218    0.179
       118 -14.0479     88.8709    109.9672   8.6210222373e+01   4.2752085720e+01      0.47631    0.2979982 -36.03  0.001510879    1.710    0.415
       119 -13.0768     60.2622    108.3920   9.5279479918e+01   4.7518415198e+01    0.2658022    0.1844228  40.91  0.001309411    1.594    0.373
       120 -12.6129    118.1846    103.0167   7.5450293684e+01   3.8726965247e+01    0.2875358    0.2365763  41.58  0.001347154    1.236    0.191
       121 -13.1061     58.1920    100.3782   9.4087162604e+01   4.9737520784e+01     0.376073    0.2911746 -57.93  0.001037766    1.229    0.186
       122 -14.8427     60.3741     95.3743   9.2051034231e+01   5.0636576335e+01    0.8766245    0.3951974 -51.83  0.003106957    1.980    0.495
       123 -11.5343    139.1045    217.8404   9.4279349001e+01   8.7522503336e+00    0.1956143    0.1742072  54.09 0.0003732301    1.175    0.149
       124 -14.2605     71.3253     97.6153   8.8790269834e+01   4.8535266119e+01    0.4772659    0.3436782  51.18  0.002316515    1.667    0.400
       125 -13.5571     83.0171    140.9653   9.5096384599e+01   3.6023239651e+01    0.3878994    0.2363284 -55.02 0.0004852497    1.542    0.352
       126 -12.4244    176.8559    215.1134   8.5595588677e+01   3.0527879730e+00    0.2029684    0.1891615  45.65  0.001245252    1.275    0.216
       127 -14.8506    153.9678    209.8641   8.9668204891e+01   7.8417849809e+00    0.7853836    0.5152031 -43.31  0.003969835    1.625    0.384
       128 -13.2733    144.0751    210.6333   9.2015281538e+01   9.3571364053e+00    0.4906604     0.343353 -16.98  0.002387139    1.900    0.474
       129 -12.8674     34.7876    148.6054   1.1047296615e+02   4.0240221125e+01     0.297766    0.1941389 -40.20  0.001424667    1.757    0.431
       130 -13.7111     52.6041     84.4609   9.1997949748e+01   5.4175247257e+01    0.5619321    0.3763293  37.69   0.00286682    1.675    0.403
       131 -11.1229    105.2020     79.5627   7.2326012961e+01   4.6376494641e+01    0.2012042    0.1416115  30.80 0.0003388923    1.503    0.334
       132 -12.6405     75.4813     75.5475   8.0875757068e+01   5.2761384934e+01    0.2563504    0.2353738 -15.75 0.0006257488    1.011    0.011
       133 -10.9572    172.2929     80.3143   5.6012232072e+01   3.0895740727e+01    0.1463233    0.1188896  13.01 0.0002550712    1.596    0.373
       134 -12.3189    116.0183     73.9450   6.7378975842e+01   4.5164500496e+01    0.2483666    0.1841976   3.23  0.001129185    1.754    0.430
       135 -11.9654    125.1835     73.2029   6.4643577288e+01   4.3257716400e+01    0.2301292    0.2080011  17.18  0.001217695    1.148    0.129
       136 -13.6275     98.9629     67.0710   7.0193129787e+01   5.0053416893e+01    0.5209999    0.3046426 -51.14  0.002236659    2.030    0.507
       137 -14.4835    147.1692    202.8092   8.9998040088e+01   1.0413739495e+01     0.563326    0.4765796  56.25  0.002033128    1.300    0.231
       138 -12.7627    171.9350    144.2953   7.2374824353e+01   1.8170055239e+01    0.2161652    0.1994252  28.21 0.0003914252    1.109    0.098
       139 -12.1155    109.4581     60.7270   6.4910255577e+01   4.8964318271e+01    0.2869148    0.1383105 -41.74  0.001152271    2.161    0.537
       140 -11.7297     45.2190     60.4156   8.7694921991e+01   6.0238387042e+01    0.1740022    0.1217594  35.93 0.0006958121    1.624    0.384
       141 -11.4274    138.8085     56.4083   5.6030191430e+01   4.2918900276e+01       0.2034    0.1291208  45.99 0.0003488776    1.542    0.351
       142 -10.9383     65.5027     52.5120   7.6679869885e+01   5.8839184520e+01     0.136962    0.1214112  -4.87 -0.0001404963    1.028    0.027
       143 -11.9435     11.7998     36.4860   9.5073146689e+01   6.8118168961e+01    0.2295956    0.1447871 -46.67  0.001408046    1.370    0.270
       144 -11.6084     26.9869     35.9845   8.7198643439e+01   6.6873492439e+01    0.2131056    0.1215498 -20.62  0.001137782    1.746    0.427
       145 -11.2392     43.7018     34.3412   7.8625157564e+01   6.5152638283e+01     0.109745    0.1043508 -76.36 0.0005428591    1.666    0.400
       146 -11.5065    106.5522     32.0121   5.5552178067e+01   5.3843547664e+01    0.1980311    0.1340992 -26.78  0.001026881    1.589    0.371
       147 -12.0101    172.5265     22.5338   4.0095769191e+01   3.9201673509e+01    0.2432896   0.09874836 -42.52  0.001037388    2.445    0.591
       148 -10.7645     20.4859     23.4721   8.5349994800e+01   6.9625308604e+01    0.1218107   0.09193251 -14.26 6.937626e-05    1.029    0.029
