#   1 NUMBER                 Running object number                                     
#   2 MAG_AUTO               Kron-like elliptical aperture magnitude                    [mag]
#   3 X_IMAGE                Object position along x                                    [pixel]
#   4 Y_IMAGE                Object position along y                                    [pixel]
#   5 X_WORLD                Barycenter position along world x axis                     [deg]
#   6 Y_WORLD                Barycenter position along world y axis                     [deg]
#   7 A_WORLD                Profile RMS along major axis (world units)                 [deg]
#   8 B_WORLD                Profile RMS along minor axis (world units)                 [deg]
#   9 THETA_WORLD            Position angle (CCW/world-x)                               [deg]
#  10 FWHM_WORLD             FWHM assuming a gaussian core                              [deg]
#  11 ELONGATION             A_IMAGE/B_IMAGE                                           
#  12 ELLIPTICITY            1 - B_IMAGE/A_IMAGE                                       
         1 -13.0148      2.0744     86.7847   1.1426522440e+02   5.7852082516e+01     3.100201    0.1830323 -69.70  0.005394035   15.119    0.934
         2 -13.4309      2.4392    127.0008   1.1943540130e+02   4.8311359488e+01     3.164873    0.3263068 -73.97  0.007432033    8.094    0.876
         3 -12.6562    208.2491      4.0095   3.4184753266e+01   3.2429223445e+01     1.682778     0.796382 -29.45   0.00838419    2.256    0.557
         4 -12.8714    216.6485     19.0292   3.6956076908e+01   2.8883924405e+01     1.567265     1.028491 -49.42  0.006989272    1.385    0.278
         5 -12.5558    172.6906     33.4264   4.5953630107e+01   3.7779347892e+01      1.45156    0.9243457 -80.89  0.006429266    1.890    0.471
         6 -13.7323    181.4658     14.8175   3.9588499741e+01   3.7726832310e+01     1.521745     1.304759 -61.80   0.00697794    1.146    0.127
         7 -13.5322    160.2621      8.4613   4.0441719934e+01   4.3582215464e+01     1.675021     1.080619 -72.53  0.007918218    1.735    0.424
         8 -12.2956    234.5808     28.1625   3.7391154538e+01   2.3780520138e+01    0.9512222     0.690473 -67.83  0.003618752    1.206    0.171
         9 -10.6681    196.6822     26.3378   4.0837982221e+01   3.2735725094e+01     0.311117    0.2634814  73.78  0.001286334    1.135    0.119
        10 -10.4492      2.0000      4.5109   8.9995587732e+01   7.4123984658e+01    0.3751424    0.1330309 -48.32  0.001855558    2.877    0.652
        11 -13.5762    237.0928      6.4912   3.2514340801e+01   2.5739720350e+01      1.47606    0.7964979  79.68  0.007284277    1.723    0.420
        12 -10.8867    135.0320      7.0766   4.3734761143e+01   4.9914839758e+01    0.6597297    0.5154648  86.22  0.002748319    1.315    0.240
        13  -7.7218     91.6766      1.3126   5.0304952135e+01   6.0449658314e+01    0.1178198   0.09720799 -70.72 0.0007040009    1.658    0.397
        14  -9.7446    150.9279    248.0690   9.9574816038e+01   2.1401959974e+00    0.3073469    0.2211422  45.89  0.001892628    1.263    0.208
        15  -9.9103    195.2422    248.9689   9.1118010021e+01  -4.7515527761e+00     0.344936     0.231219  42.98  0.002094716    1.545    0.353
        16 -11.4035    169.2013    247.1071   9.5852881096e+01  -5.4560447152e-01    0.6417179    0.3839618  35.14  0.002422171    1.378    0.274
        17  -9.7837     85.4257    249.7821   1.1262087494e+02   1.1682858818e+01    0.2877543     0.124147  36.09  0.001417684    2.107    0.525
        18  -9.2426     61.4799    250.0688   1.1716616900e+02   1.4853467475e+01    0.1816499    0.1265586  52.03 0.0007373008    1.145    0.126
        19 -10.2426     27.0241    249.8139   1.2334548191e+02   1.9021376618e+01     0.410019    0.1899647 -54.16  0.002175396    3.301    0.697
        20 -13.3705      4.7614    238.4670   1.2662279282e+02   2.3452729095e+01     2.139426    0.9189304 -83.04   0.01268902    2.027    0.507
        21 -11.7806     15.2911    214.7627   1.2346808300e+02   2.7151504275e+01    0.4957612     0.360022  83.96  0.002131572    1.100    0.091
        22 -12.6805     10.1372    206.9896   1.2400124135e+02   2.9283624345e+01     0.841831    0.6402641  26.51  0.003907722    1.736    0.424
        23 -11.4337      7.8092    188.8231   1.2332556167e+02   3.3449150876e+01    0.4388286     0.202242  80.18  0.002250853    2.034    0.508
        24 -10.8047      2.2968    184.0456   1.2417573321e+02   3.4978776227e+01    0.4615304    0.1028933 -72.72  0.001842461    3.319    0.699
        25 -10.8620    118.2815    180.7124   9.6488061288e+01   2.0636804397e+01     0.620221    0.5656399  -6.67  0.002789729    1.282    0.220
        26  -9.7225     55.6863    180.8408   1.1176827367e+02   3.0217278575e+01    0.3558772    0.2485788 -36.97  0.001693067    1.992    0.498
        27 -10.0625     61.7437    174.9064   1.0955189089e+02   3.0847038441e+01     0.299713    0.2490409 -39.06 0.0007893701    1.493    0.330
        28 -13.6967    165.5459    183.5951   8.6014169244e+01   1.1270733910e+01     2.013984     1.560669 -65.51  0.007265533    1.637    0.389
        29 -11.4103     26.2166    208.5516   1.2089667574e+02   2.7351063793e+01    0.3832266    0.3019398 -49.88  0.001003726    1.713    0.416
        30 -13.1837      9.8750    152.4202   1.1998831528e+02   4.1706848865e+01      3.42014     1.058584  86.55  0.008787206    7.559    0.868
        31 -12.6152    181.0253    187.3082   8.3379042149e+01   7.6642142584e+00     1.260154    0.8373752 -49.00  0.004066379    1.674    0.403
        32 -11.6261     59.0672    161.1736   1.0835688477e+02   3.4532553021e+01    0.5192906    0.2953564 -44.22  0.001594454    2.091    0.522
        33 -10.6092     79.8124    158.5555   1.0246543753e+02   3.2273616803e+01    0.4583291    0.3453547  17.53  0.001356663    1.685    0.406
        34  -9.5709     72.4636    164.8701   1.0541121553e+02   3.1805253280e+01    0.2661082    0.2317523 -63.19 0.0005161244    1.142    0.124
        35 -12.7238    194.9675    141.3291   7.0571204166e+01   1.3845736962e+01     1.944968     1.164917  70.07  0.007010535    3.212    0.689
        36 -10.4382    128.2612    147.7173   8.7504206430e+01   2.6382037791e+01     0.508391    0.3210025 -65.16   0.00209421    1.930    0.482
        37 -10.4972     69.5330    145.5130   1.0303960191e+02   3.7009964090e+01    0.4364373    0.3714689  35.51  0.001374602    1.283    0.221
        38 -10.3898     67.7871    142.5813   1.0301689483e+02   3.7986608096e+01     0.467824    0.3208107  45.54  0.001379663    1.528    0.346
        39 -12.0687    133.8999    137.0931   8.3628914024e+01   2.7708068622e+01     1.337978    0.7622727 -52.06  0.004446823    1.792    0.442
        40 -10.1555    162.8353    139.2002   7.7041633981e+01   2.1114514707e+01    0.4722973    0.4398952   5.19  0.002442135    1.111    0.100
        41 -10.5568     83.1226    142.3794   9.8635349156e+01   3.5767431840e+01    0.3233577    0.2596943 -46.02 0.0005497311    1.268    0.211
        42 -13.2623     36.2952    198.3724   1.1798039160e+02   2.8487418258e+01     1.681399     1.022624  75.97  0.008860909    1.523    0.343
        43 -10.1318    158.7022    130.9090   7.5998085347e+01   2.3796803952e+01    0.3795497    0.2611086 -47.55  0.001680583    1.451    0.311
        44  -8.6226    107.4737    132.0011   8.9551783897e+01   3.4124945894e+01    0.2949547    0.2248505  15.37  0.001150968    1.646    0.393
        45  -7.9282     94.4851    128.5018   9.2461085300e+01   3.7316279930e+01     0.153087    0.1428287 -38.02 -3.02636e-05    1.095    0.087
        46  -9.6924    218.1572    124.0191   6.2132239968e+01   1.2304234292e+01    0.4131172    0.3322324 -49.00  0.002196687    1.234    0.189
        47  -7.6594    105.2896    120.3206   8.7386520100e+01   3.7333963375e+01    0.1559129    0.1208217 -18.04 0.0002704085    1.602    0.376
        48 -10.1713    187.8309    112.5944   6.5007520974e+01   2.1027820582e+01    0.7436255    0.3645345 -52.06  0.002715805    2.383    0.580
        49 -10.2412    182.7343    104.9788   6.4067977543e+01   2.3670540446e+01    0.3686536    0.3100562 -55.34  0.001440432    1.211    0.174
        50 -10.8568    172.2229    111.5020   6.7977973847e+01   2.4814683802e+01    0.5666463    0.3422734  30.18  0.002208387    2.200    0.545
        51 -10.4318    158.9729    109.4915   7.0420370345e+01   2.8281316677e+01    0.3815573    0.3764732  87.39  0.001679254    1.039    0.038
        52 -11.5872    154.6435    105.5681   7.0373491653e+01   3.0092869040e+01     1.414192    0.6858724  38.96  0.005069821    2.360    0.576
        53 -10.8005    215.8606     80.4882   5.1983611902e+01   2.0418585065e+01    0.6521475    0.5299248  61.99  0.003076428    1.310    0.236
        54 -10.8255    141.1104     81.6890   6.6778071953e+01   3.8023672606e+01    0.6247361    0.4337816 -47.83  0.002094442    1.490    0.329
        55  -8.0483     24.4918     82.5130   1.0522390522e+02   5.7406988466e+01    0.1297389    0.1084281 -52.99 0.0005329787    1.036    0.035
        56 -10.7724    175.3043     73.3975   5.6939925011e+01   3.1218718061e+01    0.5566881    0.4423525  74.71  0.002521195    1.341    0.254
        57 -10.4240    191.6022     71.3984   5.3484868126e+01   2.7585824717e+01    0.4301535    0.4240284  39.02  0.002481693    1.117    0.104
        58 -10.2179    187.1055     48.0774   4.7886988173e+01   3.2251713961e+01    0.4131369    0.3642922 -60.39  0.001893496    1.091    0.083
        59 -11.4903    178.3215     64.4751   5.3875121010e+01   3.1949388442e+01    0.7790354    0.4804415 -81.56  0.003097008    2.464    0.594
        60 -11.5676    183.2110     60.0503   5.1798357208e+01   3.1440354863e+01     1.063074    0.3796035 -43.88  0.003734383    2.767    0.639
        61 -10.4021    180.4562     50.5101   4.9592032667e+01   3.3546853748e+01    0.4046575    0.3679602  73.04  0.002308473    1.066    0.061
        62 -11.2414    166.6834     65.2753   5.6262839828e+01   3.4698116304e+01    0.5460088    0.4801414 -80.91  0.001963776    1.192    0.161
        63 -12.0170    168.8103     58.1175   5.3771489871e+01   3.5306902626e+01    0.8344291    0.6422063  31.58  0.002983543    1.538    0.350
        64 -10.6406    210.8694     58.4512   4.7209835551e+01   2.5032088704e+01    0.5518334    0.4469543 -82.83  0.002158079    1.235    0.190
        65 -10.0373     13.0761     60.4964   1.0453924753e+02   6.3107895805e+01    0.2234423    0.1562277 -71.07 0.0007397387    1.553    0.356
        66 -11.4759    156.8393     54.1589   5.4866133144e+01   3.8894165729e+01    0.8693348    0.6500586  19.87  0.004167355    1.719    0.418
        67  -9.3505    214.1143    242.8501   8.6637125854e+01  -6.6647736514e+00    0.2311783    0.1409614  26.08  0.001369131    1.381    0.276
        68 -10.4315    248.7489     52.6275   4.1414322764e+01   1.7536504619e+01    0.5728517    0.3794344 -62.08  0.002678643    1.402    0.287
        69  -9.9637    244.2969     47.7916   4.0802289987e+01   1.9132430487e+01    0.3951633    0.2761245 -77.55  0.002281908    1.432    0.302
        70  -8.1245     29.2704     52.9923   9.5298599385e+01   6.3378557714e+01    0.1602625   0.09518609 -48.94 0.0005186753    1.450    0.310
        71 -10.6697    228.7891     46.5618   4.2146029037e+01   2.2651703288e+01    0.6772781    0.4694031 -68.02  0.003744483    1.401    0.286
        72 -11.1309    197.5159     48.8986   4.6599091556e+01   2.9596207934e+01    0.5417591    0.3290249  60.66  0.001955946    1.620    0.383
        73  -9.3174    114.3295    242.4999   1.0617879838e+02   8.7493832472e+00    0.1939046     0.117034 -60.00   0.00107745    1.952    0.488
        74 -10.4672    222.0475     26.2830   3.8131940298e+01   2.6797366069e+01    0.3998487     0.267892  27.09  0.001594015    2.595    0.615
        75  -9.2748     21.0191    239.5269   1.2383568469e+02   2.1605378127e+01    0.2130292    0.1165936  77.21 0.0006979244    1.545    0.353
        76  -9.3896    208.7224    235.1901   8.6401516739e+01  -4.8283161795e+00    0.2813534     0.187847  -4.32  0.001485006    1.590    0.371
        77  -8.3231     61.3048    234.8922   1.1597486848e+02   1.7752567056e+01    0.1639661    0.1301703  76.74 0.0006428255    1.108    0.098
        78  -8.5947     40.1636    234.3211   1.2000000055e+02   2.0480687502e+01    0.1593372    0.1153096  62.20 0.0003097663    1.084    0.077
        79 -11.7115    146.2204    226.6314   9.7537458736e+01   6.5030025162e+00    0.8542679    0.6641396 -38.79  0.003848874    1.487    0.327
        80 -10.7314    147.2995     34.2524   5.0471956782e+01   4.4024353358e+01    0.5709183     0.457415  87.01   0.00225791    1.340    0.254
        81 -10.3719     83.3867    226.7194   1.1074283824e+02   1.6348272050e+01    0.4892792    0.2033369 -73.96  0.002052854    3.164    0.684
        82  -9.6715     88.0841    226.7097   1.0976582317e+02   1.5668876486e+01    0.2330505    0.1780912  71.18 0.0003212458    1.241    0.194
        83  -9.5915    122.3104    190.0726   9.7119445353e+01   1.7853024612e+01    0.3462981    0.2648934 -81.71  0.001407292    1.558    0.358
        84 -11.0784    220.3274    215.7398   8.0876825353e+01  -3.7615907572e+00    0.7266383    0.5214698  42.29  0.004133719    1.591    0.371
        85  -8.9756      7.6639     14.6914   9.1494166321e+01   7.2120827888e+01    0.1214395   0.06547596 -20.52 0.0007042793    1.678    0.404
        86  -9.9192    221.4325    209.8000   7.9592519943e+01  -3.0406408371e+00    0.4160684    0.2807577  25.59  0.001982536    1.363    0.266
