#   1 NUMBER                 Running object number                                     
#   2 MAG_AUTO               Kron-like elliptical aperture magnitude                    [mag]
#   3 X_IMAGE                Object position along x                                    [pixel]
#   4 Y_IMAGE                Object position along y                                    [pixel]
#   5 X_WORLD                Barycenter position along world x axis                     [deg]
#   6 Y_WORLD                Barycenter position along world y axis                     [deg]
#   7 A_WORLD                Profile RMS along major axis (world units)                 [deg]
#   8 B_WORLD                Profile RMS along minor axis (world units)                 [deg]
#   9 THETA_WORLD            Position angle (CCW/world-x)                               [deg]
#  10 FWHM_WORLD             FWHM assuming a gaussian core                              [deg]
#  11 ELONGATION             A_IMAGE/B_IMAGE                                           
#  12 ELLIPTICITY            1 - B_IMAGE/A_IMAGE                                       
         1 -12.4626     48.6078     88.1768   2.9186459415e+02   6.4753226314e+00    0.1050468   0.06833924  12.07  0.009533956    1.748    0.428
         2 -12.0515    101.2714     58.3784   2.9106040773e+02   6.4954461279e+00   0.09431433   0.04964208 -29.31  0.006872743    2.818    0.645
         3 -12.4757    136.0569      5.8602   2.9032838902e+02   6.8839949260e+00   0.07870197   0.03452304  36.30  0.006735075    2.142    0.533
         4 -11.4861    132.0542     38.7953   2.9057704901e+02   6.5314252830e+00   0.09339681   0.02277971 -45.59  0.005264871    5.259    0.810
         5 -11.7596    122.0363     38.2603   2.9069215758e+02   6.5989014075e+00   0.09484458   0.03627168 -41.41  0.006763733    3.375    0.704
         6 -12.1792    111.9162     22.4268   2.9071503520e+02   6.8421875640e+00   0.04492445   0.02799362  39.34  0.004517999    1.571    0.363
         7 -12.6596     71.1897     31.2474   2.9125053704e+02   6.9901203374e+00    0.1029386   0.03674922  32.19  0.008044313    2.559    0.609
         8 -11.9464     87.3153     24.9333   2.9102124903e+02   6.9639404978e+00    0.1048829   0.07519919  84.59  0.008835768    1.776    0.437
         9 -11.7169     67.8522     20.6199   2.9122515096e+02   7.1322308621e+00   0.04686958   0.03042968   6.02  0.003919193    1.882    0.469
        10 -12.2412    130.6275     20.1094   2.9047969679e+02   6.7541493874e+00   0.04850478   0.02410051  21.98  0.003230712    2.149    0.535
        11 -11.7810    113.8877      8.8025   2.9060844683e+02   6.9861114399e+00    0.0556806   0.03760172   8.03  0.005214916    1.727    0.421
        12 -11.7555    127.2093     15.6739   2.9049297771e+02   6.8258706039e+00   0.06455142   0.03155568   1.12  0.004109314    4.663    0.786
        13 -11.0996    117.2638     15.4603   2.9060923454e+02   6.8892224545e+00   0.01750262   0.01478994  54.94 0.0002238856    1.246    0.198
        14 -12.8998    100.0839      6.5970   2.9075819939e+02   7.0958320444e+00   0.04219541   0.02720489 -79.17 0.0005093511    1.903    0.475
        15 -11.8387     93.2374      8.6346   2.9085163254e+02   7.1143765707e+00   0.03037911   0.02461055 -68.72 0.0005941101    1.297    0.229
        16  -9.3554     55.7861     49.4825   2.9154398397e+02   6.8751761735e+00    0.0517997   0.03264131 -38.19   0.00371312    1.765    0.434
        17 -11.6407     58.3909     69.3423   2.9163421777e+02   6.6316413109e+00   0.08657317   0.05057054 -85.58  0.007533798    2.503    0.600
        18 -12.3898     40.8834     48.6775   2.9171538051e+02   6.9752562815e+00   0.05593167   0.04142813  51.16  0.006062746    1.437    0.304
        19 -11.7164     52.5663     31.6721   2.9147346281e+02   7.0988994749e+00   0.04634197   0.02599371 -39.36   0.00417449    2.028    0.507
        20 -12.7272    108.4505     66.5395   2.9102536173e+02   6.3580116721e+00    0.1343236   0.07586701   0.08   0.01105035    2.758    0.637
        21 -12.2898     86.4272     55.2510   2.9121680256e+02   6.6220163279e+00   0.09695332   0.02688278 -56.72  0.006833728    3.258    0.693
        22 -10.5624     54.8443     17.9473   2.9136276062e+02   7.2422228962e+00   0.02767227   0.01638459 -30.47  0.001856056    2.159    0.537
        23 -11.2305    144.3561     38.4669   2.9042970815e+02   6.4598113809e+00   0.06754237   0.03964974  -1.66  0.005774129    2.556    0.609
        24 -11.0174     78.3272      6.6960   2.9101617719e+02   7.2277043869e+00   0.04408427   0.02773552 -49.07  0.004116137    1.605    0.377
        25 -10.0531     26.6040      4.8423   2.9161709557e+02   7.5644231005e+00   0.04138382   0.02989542  -5.82  0.003522621    1.673    0.402
        26 -12.1903     28.2222     27.8428   2.9173821874e+02   7.2911282392e+00   0.08055151   0.03555702 -48.33  0.006804466    2.305    0.566
        27 -12.1566     40.8044     16.4697   2.9151991792e+02   7.3447540813e+00   0.08107168    0.0386964 -62.42  0.007121433    2.151    0.535
        28 -12.2029     50.6383     10.8845   2.9136943037e+02   7.3487632595e+00   0.02752098   0.01973242   0.99 0.0006319991    1.648    0.393
        29 -12.1792     18.7106     13.7662   2.9176499644e+02   7.5102795042e+00   0.04089925    0.0317411 -67.22  0.004000661    1.349    0.259
        30 -12.0683      6.9920     27.0107   2.9198448252e+02   7.4298500656e+00   0.07897669   0.02398761  23.73  0.005167856    3.799    0.737
        31 -10.8685      8.4677     19.5501   2.9192154554e+02   7.5063440530e+00   0.02671962   0.01687602  28.21  0.002460598    1.541    0.351
        32 -12.3215      4.4483     16.0152   2.9194759760e+02   7.5712756954e+00   0.04684221   0.02371719 -40.51  0.004063069    2.278    0.561
        33 -11.1431     13.6238      8.8873   2.9179548023e+02   7.5971083820e+00   0.01781839   0.01344047  15.01 0.0006455074    1.387    0.279
        34 -12.5931      4.0698      5.1991   2.9188614338e+02   7.6974506002e+00    0.0616654   0.03894867  12.79  0.006017354    1.807    0.447
        35 -12.0533     64.3920      5.2507   2.9117224742e+02   7.3293536884e+00   0.06792226   0.02410437  28.37  0.005192985    2.702    0.630
        36  -9.5114    185.0068     14.4542   2.8980281985e+02   6.4852899724e+00   0.02112184   0.01727648  18.82  0.001781516    1.232    0.188
        37 -10.3536    177.5091     19.7231   2.8992357244e+02   6.4710358365e+00    0.0161788   0.01290736 -79.21 0.0009098322    1.390    0.281
        38 -10.0446    178.5320     14.6236   2.8988028911e+02   6.5231162395e+00   0.01931418   0.01401616  41.22  0.002084313    1.366    0.268
        39 -11.8140    184.4883     26.4953   2.8988262711e+02   6.3506682458e+00   0.03597724   0.01925875 -37.33  0.001473165    2.257    0.557
        40  -9.9048    170.0058     14.0642   2.8997753272e+02   6.5818644073e+00   0.01328665   0.01105931 -89.02 0.0005937042    1.353    0.261
        41 -10.5217    156.2914     15.3064   2.9014710190e+02   6.6518041881e+00   0.02658955   0.02157627 -76.28  0.003020028    1.340    0.254
        42 -11.1154    147.5424     25.9815   2.9031574041e+02   6.5832523571e+00   0.03480997   0.02412691 -41.63  0.003652995    1.522    0.343
        43 -10.8999    148.8176     16.8407   2.9024477391e+02   6.6800798704e+00   0.04179602   0.02514285 -38.94   0.00401041    1.862    0.463
        44 -11.4421    164.1221      7.3978   2.9000621835e+02   6.6942676513e+00   0.04652514   0.02456265 -59.17  0.003655668    1.891    0.471
        45 -11.1995    123.4135     10.0688   2.9050357246e+02   6.9132875468e+00   0.01736654   0.01546475  83.87 0.0007194895    1.226    0.184
        46  -9.6362    221.8094     11.3667   2.8934972261e+02   6.2943814165e+00   0.02042156   0.01345512  79.05   0.00152419    2.127    0.530
        47 -10.2330    212.2697     14.9202   2.8948398896e+02   6.3124056439e+00    0.0322019   0.02196293 -70.80   0.00333342    1.607    0.378
        48  -9.7074    217.2695     14.4568   2.8942218387e+02   6.2869590440e+00   0.02284826   0.01285563 -54.06  0.001806409    1.758    0.431
        49 -10.1072    242.9829     12.7920   2.8910885540e+02   6.1477759423e+00    0.0231275   0.01752272 -78.42  0.002102184    1.488    0.328
        50  -9.5414    237.2353     14.5440   2.8918732486e+02   6.1631188056e+00   0.01816915  0.008966541  45.13  0.001534072    2.150    0.535
        51 -10.2062    233.1197     11.6633   2.8921819086e+02   6.2213953461e+00   0.01932326   0.01427995  70.67  0.001447478    1.651    0.394
        52 -10.2263    244.5231     19.3556   2.8913090978e+02   6.0632291256e+00   0.03105409   0.01508739  39.82  0.002757927    2.008    0.502
        53  -9.5378    230.5807     21.5822   2.8930886766e+02   6.1235635749e+00   0.02371794   0.01433248  82.93   0.00132085    2.616    0.618
        54  -9.6194    231.5372     17.5031   2.8927261313e+02   6.1643396071e+00   0.01738819   0.01282071  77.56  0.001247429    1.691    0.409
        55 -10.5389    201.9879     19.2455   2.8963175840e+02   6.3261267002e+00   0.02310003   0.01800882  -8.88  0.001421724    1.476    0.322
        56  -9.7818    198.1971     16.7959   2.8966148897e+02   6.3774535284e+00   0.02082872   0.01128702  23.51  0.001685539    1.895    0.472
        57 -10.0852     31.3424     11.5150   2.9160170207e+02   7.4591520364e+00   0.01562478   0.01342357 -14.28  0.001302334    1.251    0.201
        58  -9.0687    192.1225     12.1485   2.8970472054e+02   6.4679582596e+00  0.009947377  0.009746992  37.71 0.0005540608    1.021    0.020
        59  -9.3678    190.0809      8.2564   2.8970498867e+02   6.5250334155e+00   0.01089215  0.009640791 -60.05 0.0003921539    1.153    0.132
        60 -10.8944    195.8018      4.4506   2.8961416748e+02   6.5334158675e+00   0.04043416   0.03071637  54.78  0.004426018    1.429    0.300
        61 -11.3422    209.5709      3.7848   2.8944763039e+02   6.4563796522e+00   0.03153444   0.01415637  36.97  0.001440471    2.106    0.525
        62 -10.7443    247.7688      6.2312   2.8901226606e+02   6.1933301045e+00    0.0295616   0.02374339  64.72  0.003311255    1.400    0.286
        63  -9.4375    180.2872      7.8220   2.8981793513e+02   6.5901667683e+00   0.01790526  0.009610698 -63.16  0.001592752    1.930    0.482
        64 -10.1257    173.4912      8.8998   2.8990477140e+02   6.6195678140e+00   0.01293817    0.0112663 -58.24  0.000497757    1.168    0.144
        65 -10.4734    174.9278      4.8524   2.8986303294e+02   6.6570581208e+00   0.01707575   0.01517534  12.82 0.0005515837    1.137    0.120
        66 -10.3198    163.0913     16.8436   2.9007619330e+02   6.5924905764e+00   0.02263436   0.01605698 -32.23  0.001229246    1.590    0.371
        67  -9.5480    229.8274      3.0169   2.8920403581e+02   6.3405392847e+00   0.03480706   0.01170915 -47.78  0.002534565    3.098    0.677
        68 -10.1288    225.3711      5.7808   2.8927350932e+02   6.3363559293e+00    0.0275572   0.01457111 -69.95   0.00175637    2.190    0.543
        69 -10.7118    223.9796      1.4687   2.8926350173e+02   6.3942315465e+00   0.01642256   0.01262931   8.01 -4.630302e-05    1.419    0.295
        70 -10.3898    220.7059      1.6814   2.8930340994e+02   6.4119413998e+00    0.0230833   0.01074923 -43.80  0.001937161    2.371    0.578
        71 -11.4022     55.4785      3.0076   2.9126404619e+02   7.4094320058e+00     0.023165   0.01581236  35.82 0.0007230843    1.418    0.295
        72  -9.0548    157.6606      7.0801   2.9008059494e+02   6.7375537637e+00   0.01370049  0.008393494  46.61  0.001332157    1.717    0.418
        73  -8.6633    241.9385      1.4912   2.8905192767e+02   6.2834271132e+00   0.01027408   0.00641509  29.38 0.0006787311    1.552    0.355
        74 -11.3325    204.0905      6.7014   2.8953014749e+02   6.4567165342e+00    0.0246454   0.01868822 -31.29  0.001209215    1.455    0.313
        75  -8.4172    149.8231      1.2833   2.9013771124e+02   6.8519680256e+00  0.008932439  0.005943928  17.27 0.0003597443    1.601    0.375
        76  -9.4174    133.8779    103.4457   2.9095013736e+02   5.7793546643e+00   0.01908094   0.01170031 -64.86   0.00187984    1.708    0.414
        77 -11.0534     27.3806    102.1016   2.9220027464e+02   6.4448992601e+00   0.04370646   0.02143043  14.05  0.003517508    2.678    0.627
        78  -9.1538     92.6651    111.2739   2.9148454503e+02   5.9415815053e+00   0.01347027   0.01153578  15.80  0.001570089    1.179    0.152
        79 -10.8559     67.4134    107.9818   2.9176284954e+02   6.1334916095e+00   0.04599378   0.02627427 -24.84  0.003919046    2.551    0.608
        80 -10.0452     74.1137    108.1812   2.9168488841e+02   6.0903208724e+00   0.01971373   0.01882868  -3.42  0.001736243    1.055    0.052
        81  -9.4635     81.0934    102.5009   2.9156783408e+02   6.1128684563e+00   0.02185682  0.008088104  32.73  0.001725165    2.474    0.596
        82 -10.5434     87.8244     99.5348   2.9147023735e+02   6.1057841057e+00    0.0400356    0.0227811  -3.90  0.002245215    2.846    0.649
        83 -10.8199      3.8376     99.8914   2.9246522247e+02   6.6134575019e+00   0.03117777   0.02129523 -58.45   0.00249322    1.472    0.321
        84  -9.9939     38.7990    107.2370   2.9209651074e+02   6.3164617881e+00   0.01268172  0.008627282 -27.00 0.0008725564    1.766    0.434
        85  -9.3818    120.5483    108.9731   2.9114121671e+02   5.7975327941e+00   0.01248277  0.009509312   1.52 0.0008199241    1.487    0.327
        86  -8.6922     97.6005    103.8924   2.9138128625e+02   5.9960882801e+00   0.01426747  0.007640844  43.63  0.001300458    1.916    0.478
        87  -8.7610     53.2334    103.8285   2.9190516081e+02   6.2676062052e+00   0.01134297  0.007714021  74.91  0.001095958    1.964    0.491
        88 -10.6921    114.5106    100.4649   2.9116066055e+02   5.9320243445e+00   0.02235802   0.01476565 -78.41  0.002218941    1.814    0.449
        89 -10.6886    117.5086     98.4582   2.9111302087e+02   5.9366980966e+00   0.02233843   0.01580247  47.10  0.001637031    1.465    0.318
        90  -9.7947    105.6023    109.4729   2.9132076621e+02   5.8831871064e+00   0.01489884   0.01310529 -47.17  0.001715239    1.152    0.132
        91  -8.9723    184.0000    101.0068   2.9034378287e+02   5.5002116238e+00   0.01109577  0.003823656 -62.02 0.0008054095    2.963    0.663
        92  -9.8651    159.7256     96.5967   2.9060325653e+02   5.6995734158e+00   0.01622894   0.01423513  -9.17  0.001236878    1.211    0.174
        93  -9.5662    187.5753     93.1489   2.9025363550e+02   5.5683304363e+00   0.01521821   0.01197685  82.75  0.001190174    1.504    0.335
        94  -8.8087    206.6208     91.8218   2.9002094242e+02   5.4666562854e+00  0.009692012  0.006497186 -78.57 0.0009551602    1.778    0.438
        95  -9.9666    120.5193     91.3185   2.9103393124e+02   6.0001409356e+00   0.01997237  0.009917833  39.59  0.001527156    1.963    0.491
        96  -9.3575     17.0107    249.2912   2.9321480250e+02   4.8185237177e+00  0.009739479  0.008725047  23.59 0.0007679893    1.098    0.089
        97  -8.8672     25.4973    248.6824   2.9311105783e+02   4.7739143876e+00   0.01165218  0.006027153  27.40 0.0008145814    1.891    0.471
        98  -9.7354     35.0238    245.4481   2.9297917634e+02   4.7530954500e+00   0.02140081  0.006093277 -50.97  0.001482544    3.334    0.700
        99 -12.8132    103.9838     82.0968   2.9117303329e+02   6.2069937720e+00    0.1357152   0.06780701  25.73   0.01212843    2.002    0.500
       100 -10.9895     95.9801     47.3172   2.9105545063e+02   6.6545485690e+00   0.04990054   0.03111447  -1.49  0.003809321    2.203    0.546
       101  -9.7486    141.7751    244.1006   2.9171265905e+02   4.1175961813e+00   0.01852491   0.01184333  -4.82  0.001234371    2.134    0.531
       102  -8.8932    210.6051    240.2339   2.9087857845e+02   3.7409676198e+00   0.01277632  0.006695125 -67.26  0.001134257    2.099    0.524
       103  -9.2450     13.1851    238.6031   2.9319533333e+02   4.9644779495e+00  0.009511711  0.006408954  11.79 0.0009462765    1.665    0.400
       104  -9.8626     12.6460    232.4589   2.9316455679e+02   5.0382937372e+00   0.01583619  0.009603385  56.13  0.001477905    2.002    0.501
       105  -9.1064    227.4560    231.7527   2.9062866892e+02   3.7350119380e+00   0.01558565  0.007369057  30.68   0.00136332    2.008    0.502
       106  -8.2618    176.4812    226.5111   2.9119695586e+02   4.1071641236e+00  0.006633433  0.006470095   2.29  0.000331569    1.020    0.020
       107  -8.9279    136.5922    224.7876   2.9165649345e+02   4.3708381783e+00   0.00922527  0.006564291 -78.96 0.0009455916    1.630    0.387
       108  -8.7496    123.9928    206.0055   2.9169095848e+02   4.6633264449e+00  0.009463076   0.00921541   0.05  0.001171639    1.024    0.023
       109 -10.3296     26.4137    191.4671   2.9275404400e+02   5.4251788172e+00   0.02229775   0.01717734 -72.86  0.002463787    1.401    0.286
       110 -11.2046     17.8889    186.3632   2.9282376132e+02   5.5356215528e+00   0.02418001   0.01833613  -7.82 0.0007799872    1.542    0.351
       111 -10.1822     11.8664    184.6852   2.9288470027e+02   5.5915012233e+00   0.01911927   0.01046876 -58.61     0.001508    1.815    0.449
       112  -9.7531     82.1677     90.5746   2.9148249731e+02   6.2430831544e+00   0.01604595   0.01149017  25.74  0.001099514    1.376    0.273
       113 -10.6422     88.1380     90.1265   2.9140921441e+02   6.2117600071e+00   0.02731138   0.01805859 -46.77  0.002443344    1.546    0.353
       114  -9.1449     92.3090     88.6779   2.9135109995e+02   6.2028893711e+00   0.01303203  0.009681125  64.72 0.0009287548    1.585    0.369
       115  -9.1222    194.4164     89.7796   2.9015237452e+02   5.5649626822e+00   0.01354517  0.009412089 -30.99  0.001144318    1.656    0.396
       116  -9.3541     74.4094     89.0505   2.9156490570e+02   6.3079261296e+00   0.01369446   0.01008927  28.05  0.001479557    1.325    0.245
       117  -9.9854    152.7508     87.1440   2.9062788875e+02   5.8506572273e+00   0.01620337   0.01372368  14.97  0.000988269    1.200    0.167
       118 -11.0673     80.0872     69.2460   2.9137710440e+02   6.5003307633e+00    0.0592442   0.02530458  18.32   0.00346296    2.948    0.661
       119  -9.8328     60.8672     54.3601   2.9151362078e+02   6.7882792109e+00   0.02068605   0.01445867 -61.42  0.001606226    1.458    0.314
       120 -10.3679      4.8223    184.9762   2.9296962898e+02   5.6309746511e+00   0.02881939   0.01132755  46.97  0.002132209    3.043    0.671
       121  -9.7404     38.9705    176.9645   2.9251790507e+02   5.5152384923e+00   0.01800795   0.01329577 -43.98  0.001475189    1.397    0.284
       122 -11.2002     49.4417     25.5353   2.9147300063e+02   7.1882576084e+00   0.02512245   0.01214847  24.14  0.001494559    2.124    0.529
       123 -10.8848     32.2475     71.0601   2.9195387534e+02   6.7712796207e+00   0.03538026   0.02655338  89.99  0.003781118    1.605    0.377
       124 -10.4118     26.3675     65.8537   2.9199173658e+02   6.8667743727e+00   0.03125114   0.01759729 -26.45  0.002104142    2.559    0.609
       125 -10.9807     68.4665     75.9624   2.9155542123e+02   6.4942705377e+00   0.03164801   0.01885271 -57.30  0.002370236    1.671    0.402
       126 -11.3603     76.5579     75.2757   2.9145558022e+02   6.4527546210e+00   0.04513487   0.01556012  29.94  0.003435698    2.701    0.630
       127 -11.2207     34.5537     58.4180   2.9184961268e+02   6.9021718882e+00   0.03576165   0.02391826 -40.08  0.003112464    1.606    0.377
       128 -10.6780     44.5684     38.2405   2.9160815710e+02   7.0724053231e+00   0.03145259   0.02021839 -12.95  0.002571457    2.136    0.532
       129  -9.2533      1.4897    177.9267   2.9296629197e+02   5.7321527925e+00   0.01009601  0.006705354 -66.37  0.001022773    1.585    0.369
       130 -11.4079     46.2731     69.5235   2.9177862786e+02   6.7034484601e+00    0.1591693   0.02621275  39.12  0.008795022    5.187    0.807
       131 -11.2515     40.7978     63.1814   2.9180476052e+02   6.8095250274e+00   0.03130591   0.01971064  -5.46  0.002784037    2.211    0.548
       132 -10.6522     57.1169     37.4799   2.9145504739e+02   7.0046014102e+00   0.02788289   0.01592311  23.38  0.002647916    1.785    0.440
       133  -9.5330     62.8486    167.9210   2.9218111569e+02   5.4735693204e+00   0.01460255    0.0111442 -87.09  0.001028103    1.540    0.350
       134  -9.1820      9.2146    167.4085   2.9281134746e+02   5.8059516312e+00    0.0128673   0.01120008  81.00  0.001347253    1.270    0.212
       135  -9.6141    217.8576     79.5248   2.8981333441e+02   5.5385139453e+00   0.03605301  0.007747601 -47.89  0.002053991    5.035    0.801
       136 -10.3891    134.3936     80.7053   2.9080533285e+02   6.0368919967e+00   0.03003138     0.013646 -55.75   0.00260877    2.137    0.532
       137 -10.2901    143.3796     77.0135   2.9067668949e+02   6.0241743074e+00   0.02566642    0.0151413 -25.72  0.002266063    2.346    0.574
       138 -10.2931    150.0550     75.5046   2.9058866028e+02   6.0005701674e+00   0.03170458   0.01662146 -42.67  0.002840853    2.095    0.523
       139  -8.9760    135.5703     63.7159   2.9068772981e+02   6.2243914077e+00   0.01595197  0.006339108 -58.67  0.000999192    2.448    0.591
       140 -10.2830    138.7126     74.0726   2.9071384766e+02   6.0864627970e+00   0.02031938   0.01101729 -59.81   0.00158246    1.850    0.459
       141  -9.8603    132.2415     68.0125   2.9075328048e+02   6.1955399641e+00   0.02445205   0.01188341  35.14    0.0015962    1.942    0.485
       142  -9.5427    143.8658     70.8664   2.9063342115e+02   6.0916413521e+00   0.01418143   0.01154125  65.09 0.0009105339    1.375    0.273
       143  -9.6646    140.3817     67.3086   2.9065284198e+02   6.1537537668e+00   0.02564293   0.01859405 -29.41  0.002705741    1.569    0.363
       144  -9.6774     17.2577     82.5595   2.9220115036e+02   6.7306506772e+00   0.01764264  0.009426739  17.19  0.001553709    2.147    0.534
       145  -9.2069    123.2321     81.1727   2.9094000684e+02   6.0998536939e+00   0.01538291  0.009691264   4.78  0.001438388    2.020    0.505
       146  -9.0945     13.1422     77.0275   2.9221618452e+02   6.8191273984e+00   0.01180526  0.009064599  85.25 0.0008622984    1.564    0.360
       147 -11.2506      4.8503     80.0945   2.9233292561e+02   6.8343744733e+00   0.03380459   0.02544284 -44.65  0.002480736    1.362    0.266
       148  -9.5487     18.0000     74.9884   2.9214631519e+02   6.8129591829e+00   0.01762026   0.01063194 -75.10  0.001272984    1.984    0.496
       149 -10.5877     21.5459     72.6443   2.9209010701e+02   6.8182616498e+00   0.02343291   0.01419983  47.32 0.0008123946    1.758    0.431
       150  -8.5980    192.6011     73.7504   2.9007585684e+02   5.7597424045e+00  0.009397158  0.006546283 -78.69 0.0009502536    1.681    0.405
       151  -9.6634    214.9439     71.5504   2.8979893610e+02   5.6477426571e+00   0.01639402  0.009455442 -55.70   0.00108907    1.718    0.418
       152  -8.9539     13.4300    164.9374   2.9274658441e+02   5.8086906536e+00   0.01358701  0.008635139  43.01  0.001359569    1.587    0.370
       153  -9.2236    155.2035     70.7308   2.9049872767e+02   6.0237229660e+00   0.01355339  0.009511418 -51.04 0.0008276876    1.432    0.302
       154  -8.8731    155.7603     66.7467   2.9046782071e+02   6.0659590348e+00   0.01147771  0.009212846  53.23  0.001284427    1.318    0.241
       155 -10.0662    150.8509     66.9895   2.9052726758e+02   6.0932667525e+00    0.0221753   0.01390622  18.74  0.001627314    1.697    0.411
       156 -10.5114      2.4849    159.7992   2.9284472192e+02   5.9341985464e+00   0.03152649   0.01606876 -73.29  0.002670739    2.465    0.594
       157 -10.2993    250.2041     67.2934   2.8935740878e+02   5.4797436280e+00   0.03178171  0.007402334 -57.40  0.002079318    3.756    0.734
       158  -8.4582    202.0363     68.5109   2.8993255090e+02   5.7618307285e+00   0.01026266  0.006422655  29.23   0.00101689    1.549    0.354
       159  -9.5890    178.1960     59.9548   2.9016150115e+02   6.0061722648e+00   0.02554971   0.01381124 -64.71  0.002185882    1.952    0.488
       160 -10.8577    173.9804     56.9295   2.9019276252e+02   6.0666894984e+00   0.05465994    0.0173059 -54.03  0.004058806    2.928    0.658
       161 -11.5717    164.7976     62.6353   2.9033601821e+02   6.0576562747e+00   0.03636926   0.02595162 -43.67   0.00241361    1.453    0.312
       162 -10.4060    164.6372     57.0840   2.9030399136e+02   6.1222313309e+00   0.02238858   0.01555016 -40.37  0.001630953    1.533    0.348
       163 -10.2523     76.2028     51.6679   2.9131583892e+02   6.7255297434e+00   0.02898903   0.01978456  78.35  0.002384746    1.967    0.492
       164  -9.6223     78.0234     60.6492   2.9134908753e+02   6.6114766534e+00   0.01890987   0.01126569  35.75  0.001435907    1.612    0.380
       165  -8.9255     74.6447     57.2628   2.9136838611e+02   6.6709217450e+00   0.01376062  0.009939662  22.16  0.000791277    1.392    0.282
       166 -10.1961     71.0510     54.5998   2.9139464286e+02   6.7233830751e+00   0.01647998   0.01307068 -82.41 0.0007017325    1.423    0.297
       167 -10.9220     30.8553     43.0291   2.9179961833e+02   7.1010815464e+00   0.02334084   0.01519343  53.67  0.001770129    1.746    0.427
       168  -9.7165    149.6246     59.9132   2.9049852699e+02   6.1818590714e+00   0.01977935   0.01231232 -85.60  0.001104354    2.194    0.544
       169 -10.0964    221.4257     47.6877   2.8957658022e+02   5.8811302961e+00   0.02111633   0.01344127  56.38  0.001844862    1.867    0.464
       170 -10.2706    221.6695     57.7792   2.8963543926e+02   5.7641052400e+00   0.02736994   0.01804117 -41.88  0.002056542    1.611    0.379
       171  -8.6850    219.4217     52.8396   2.8963172370e+02   5.8344711745e+00   0.02192053   0.01219791 -26.43   0.00103892    2.653    0.623
       172  -8.2549    239.3218     59.2613   2.8943646755e+02   5.6386140127e+00  0.006716831   0.00506642 -18.49 0.0001845078    1.552    0.356
       173 -10.4611    201.2866     57.1192   2.8987174765e+02   5.8968948552e+00   0.02831135   0.01567101 -39.29  0.002573649    2.072    0.517
       174  -9.2205    158.0714     58.7461   2.9039166127e+02   6.1434523683e+00   0.01890026   0.01002032 -26.37  0.001476641    2.998    0.666
       175 -10.1990      2.9911     57.6977   2.9221869407e+02   7.1024837535e+00   0.01881978   0.01495543  51.06  0.002115114    1.319    0.242
       176  -8.2846    152.5255     56.4747   2.9044326626e+02   6.2034713685e+00  0.009462215  0.006696863 -80.42 0.0007389953    1.666    0.400
       177 -11.5943    141.6154     51.6369   2.9054255677e+02   6.3257541096e+00   0.03810821   0.01950932  21.00  0.001318535    2.112    0.527
       178 -10.7093    149.9498     51.4497   2.9044298032e+02   6.2768232790e+00    0.0236452   0.01850415  -6.70  0.001691424    1.460    0.315
       179  -9.9518    186.5908     53.1675   2.9002095154e+02   6.0323856161e+00   0.02176521  0.009942476 -35.62  0.001626313    3.146    0.682
       180  -9.7000    189.0194     49.1747   2.8996788201e+02   6.0631979802e+00   0.01706539   0.01303995  61.56  0.001433298    1.486    0.327
       181 -10.3815     26.3303     53.2921   2.9191568814e+02   7.0110060228e+00   0.01835716   0.01323329  -5.79  0.001038028    1.680    0.405
       182 -10.4500     28.9521     49.2740   2.9186018924e+02   7.0410995636e+00   0.01234252   0.01112253 -82.62 0.0003977072    1.185    0.156
       183  -9.8194    157.3506     50.9913   2.9035278724e+02   6.2367038242e+00   0.02427279   0.01648549 -43.81  0.002134556    1.533    0.348
       184 -10.0651    237.1852     49.9328   2.8940456810e+02   5.7585287645e+00   0.02048353   0.01134272 -74.12  0.001277034    2.230    0.551
       185  -7.7162     65.7865     49.8200   2.9142775578e+02   6.8102952794e+00   0.01220519    0.0104117  89.24 0.0007679612    1.305    0.234
       186  -9.5729     67.7738     44.6067   2.9137245443e+02   6.8579091492e+00   0.02503551   0.02070575  84.57   0.00285009    1.381    0.276
       187  -8.6521    192.8072     53.7743   2.8995131881e+02   5.9872706196e+00   0.00909345  0.007407226  54.93   0.00034109    1.306    0.234
       188  -8.6370    189.0051     64.9535   2.9006451455e+02   5.8825801338e+00   0.01099867   0.00768506  59.28 0.0008592494    1.674    0.403
       189  -9.7365     22.0927    138.3002   2.9248267300e+02   6.0617363208e+00   0.02711627   0.01010104 -49.49   0.00211065    2.678    0.627
       190 -10.4424     16.6137    158.6975   2.9267114940e+02   5.8609564079e+00   0.02684337   0.01596291 -23.38  0.002366658    2.373    0.579
       191 -11.9550     19.7585    148.2334   2.9257053084e+02   5.9619339099e+00   0.05235937   0.03286905 -45.52  0.005250761    1.647    0.393
       192 -10.4806     38.2061     26.9790   2.9161477880e+02   7.2402078606e+00   0.02119399   0.01480119  24.67  0.001304737    1.420    0.296
       193  -9.7261     33.8650    155.8421   2.9245006162e+02   5.7887660040e+00  0.009885642  0.008741122 -14.06 0.0003163019    1.197    0.164
       194  -9.2916     12.1373     41.8328   2.9201386237e+02   7.2287168271e+00   0.03200405   0.01991602   9.81  0.003048854    1.926    0.481
       195  -9.2600     52.8070    151.9328   2.9220260656e+02   5.7182642405e+00   0.01322462  0.009107951  19.11  0.001367956    1.506    0.336
       196 -11.3468     34.8924    150.2785   2.9240416037e+02   5.8463667390e+00   0.03838756   0.01913233  51.51  0.003205557    2.479    0.597
       197 -11.0090     22.2577     45.3619   2.9191557775e+02   7.1266922136e+00   0.02248146   0.02077268  45.02    0.0015888    1.087    0.080
       198 -11.1037     15.4920     33.9058   2.9192586330e+02   7.2991464915e+00   0.03698195   0.02395821  87.96  0.003486262    2.142    0.533
       199 -10.6834     38.9938    145.7625   2.9232829614e+02   5.8732219554e+00   0.02449743   0.01843119 -65.89  0.001618842    1.383    0.277
       200 -10.1280     67.4826    148.5813   2.9200892881e+02   5.6672623953e+00   0.01870829   0.01271189 -82.41   0.00172202    1.804    0.446
       201  -9.9140     19.3740    119.1368   2.9239844466e+02   6.2981795817e+00   0.02719436    0.0168616 -44.43  0.002276414    1.685    0.407
       202 -10.5237      3.0957    147.0478   2.9276020609e+02   6.0768497527e+00   0.03017598   0.01936621  79.39  0.002787515    2.243    0.554
       203  -9.7242      6.5481    142.6237   2.9269258340e+02   6.1066442002e+00   0.02229475   0.01458356  46.57  0.002161654    1.594    0.373
       204 -10.8352     26.7718    127.4891   2.9236173824e+02   6.1573277454e+00   0.03209191   0.02159238  36.09  0.003355693    1.439    0.305
       205  -9.2775     28.5890    121.7304   2.9230528132e+02   6.2123462887e+00   0.01496047   0.01066138 -74.42  0.001522335    1.565    0.361
       206  -8.8401     80.3883     46.8815   2.9123714445e+02   6.7548192648e+00  0.009168299  0.008320702 -55.22 0.0004572513    1.118    0.106
       207  -9.7675    206.9549     44.3477   2.8972678172e+02   6.0083011249e+00   0.02275596   0.01734255  78.06  0.002441462    1.593    0.372
       208 -10.6794    202.5971     37.8016   2.8973813382e+02   6.1100126725e+00   0.02405528   0.01838815 -11.66   0.00223188    1.529    0.346
       209 -10.6666    199.8992     31.4573   2.8973114114e+02   6.1992087530e+00   0.01874468   0.01287476  56.75 0.0003612415    1.674    0.403
       210 -10.1001    194.6218     31.0798   2.8979109499e+02   6.2359519203e+00    0.0176588   0.01334297 -44.90  0.001067036    1.358    0.263
       211  -9.0496     77.2080     64.0171   2.9137926392e+02   6.5778525758e+00  0.009944063  0.009807453  25.09 0.0005069412    1.012    0.012
       212  -8.8379    248.8596     44.6345   2.8923459585e+02   5.7473444109e+00   0.01376943  0.008142482 -37.31  0.001161732    1.953    0.488
       213  -9.5021    232.4784     43.0437   2.8941787892e+02   5.8663228721e+00   0.01774777   0.01020099 -36.84  0.001626072    2.050    0.512
       214  -9.1479    235.0245     39.3183   2.8936507202e+02   5.8932951906e+00   0.02008746   0.01077055  11.37  0.001690172    2.464    0.594
       215  -7.9765      1.4668     44.4405   2.9215604602e+02   7.2637114166e+00  0.006767021  0.006254315 -17.38 0.0003418755    1.114    0.103
       216  -8.7764    215.2228     41.9823   2.8961480691e+02   5.9845662172e+00   0.01160388  0.006890261 -34.74  0.001066527    2.018    0.504
       217 -10.0919    191.3409     39.6622   2.8988231219e+02   6.1578587234e+00   0.02562126   0.01265293 -47.17  0.001181256    2.091    0.522
       218  -9.1755    196.4920     41.0457   2.8983000047e+02   6.1103810666e+00   0.01266186  0.009663874  79.87  0.001350138    1.590    0.371
       219 -11.0661    162.3127     38.2372   2.9021623522e+02   6.3523425139e+00   0.02438797    0.0132492 -58.91  0.002293552    1.837    0.456
       220  -9.2989     76.9887     41.4557   2.9124424231e+02   6.8377537427e+00   0.01391053  0.009548528  47.69 0.0009847744    1.526    0.345
       221  -8.8820     62.3962     41.2586   2.9141564158e+02   6.9290936565e+00    0.0115557  0.005610783  28.44 0.0008044165    1.992    0.498
       222  -8.4193      4.6833     41.0442   2.9209729349e+02   7.2830832540e+00  0.008551944    0.0082681   4.54 0.0007259764    1.028    0.027
       223  -9.5106    180.6359     39.1877   2.9000573898e+02   6.2290198454e+00   0.01823705   0.01416013  55.65  0.001711365    1.397    0.284
       224 -10.4567    109.7335     38.0039   2.9083600203e+02   6.6771352248e+00   0.02145431   0.01746699 -42.59  0.001756543    1.261    0.207
       225 -10.7012    106.7976     30.1676   2.9082284323e+02   6.7848578377e+00   0.04168226   0.01791455  31.50  0.003527266    2.180    0.541
       226  -8.8701    173.6123     39.0576   2.9008784713e+02   6.2736193124e+00   0.01370268  0.008267664  44.64  0.001328181    1.704    0.413
       227  -9.2527    168.7287     36.7284   2.9013125514e+02   6.3302567863e+00   0.01407553   0.01125442 -84.55  0.001566158    1.419    0.295
       228 -10.1646    210.4639     32.9987   2.8961595427e+02   6.1166417032e+00   0.01961649   0.01104584 -57.92  0.001437031    1.768    0.434
       229 -11.0212    237.4323     32.9063   2.8929744535e+02   5.9518523147e+00   0.03363994   0.02089098  17.04  0.003280647    1.761    0.432
       230  -9.8139    246.7036     33.3795   2.8919109621e+02   5.8893878725e+00   0.02075202   0.01316608  -0.28  0.001283021    2.114    0.527
       231  -8.2844    222.2753     35.6415   2.8949285067e+02   6.0137811182e+00  0.006920891  0.005060473  67.39 0.0007005931    1.655    0.396
       232  -9.0947     37.9416     33.8173   2.9165960825e+02   7.1634737174e+00   0.02147101     0.013625 -17.57  0.001976785    2.162    0.537
       233 -10.2626      3.8404    135.4984   2.9268135836e+02   6.2048769637e+00   0.02601648   0.02157776 -79.51  0.002749063    1.316    0.240
       234 -10.5369     19.3885    128.7631   2.9245673134e+02   6.1876327234e+00   0.02069837   0.01548615 -30.34  0.000213902    1.487    0.328
       235  -9.9054      9.1947    134.6110   2.9261269763e+02   6.1825161268e+00   0.01628926   0.01234952   3.54  0.001271475    1.481    0.325
       236 -10.4438    177.3612     29.1618   2.8998306719e+02   6.3639055289e+00   0.02684087   0.01679122 -61.44   0.00214637    1.629    0.386
       237 -11.4774     13.6306    129.5543   2.9252958355e+02   6.2135737074e+00   0.03903705    0.0261913 -86.27  0.003851106    1.906    0.475
       238 -10.4554    226.4490     28.7361   2.8940137519e+02   6.0671331771e+00   0.02927228   0.01888612  87.95    0.0027402    2.168    0.539
       239  -9.4022    162.3574     32.1394   2.9017842070e+02   6.4218904436e+00   0.02107015   0.01279852  -1.39    0.0018656    2.345    0.574
       240  -8.5091    170.4989     27.5437   2.9005418110e+02   6.4245496280e+00   0.01134808  0.006452309  27.56 5.304184e-05    1.720    0.419
       241  -8.9538    167.1393     29.5204   2.9010593875e+02   6.4225368920e+00   0.01249017  0.009881384  20.21 0.0009750456    1.272    0.214
       242  -9.9747    166.4241     25.1792   2.9008783002e+02   6.4766239713e+00   0.01897251   0.01597589 -43.20  0.001532864    1.214    0.176
       243  -9.0749    170.2631     23.2657   2.9003079525e+02   6.4749680290e+00   0.01522779   0.01175133  78.20  0.001642914    1.558    0.358
       244  -8.2066     46.4810    145.4896   2.9223819555e+02   5.8307522420e+00  0.006616624  0.006480071  17.05 0.0008102953    1.002    0.002
       245  -9.1488     97.8412    141.0095   2.9160440981e+02   5.5688563704e+00   0.01147524  0.007618827  73.46  0.001085046    2.052    0.513
       246 -10.3321    154.2772     24.9357   2.9022979313e+02   6.5539281594e+00    0.0176992    0.0135711 -80.36  0.001521157    1.480    0.324
       247  -9.5094    159.5890     24.4232   2.9016392175e+02   6.5272145507e+00   0.01520455    0.0138367  25.46  0.001346445    1.076    0.071
       248  -8.7970     80.6276    139.1863   2.9179657960e+02   5.6948717318e+00  0.009749272  0.005827219 -50.13 0.0005003485    1.679    0.404
       249 -10.4179     54.6061    137.7876   2.9209542645e+02   5.8696269754e+00   0.01710277   0.01331198 -54.29  0.001157699    1.293    0.226
       250 -11.4769     55.5257    129.2367   2.9203259281e+02   5.9621388027e+00   0.05849277   0.01579507 -50.61  0.003972793    3.521    0.716
       251  -9.9826     64.0856    138.1730   2.9198579182e+02   5.8074126736e+00   0.01343112  0.008698918  47.36  0.001344182    1.625    0.385
       252  -9.2783    219.8409     25.4747   2.8945932046e+02   6.1450908815e+00   0.01440915   0.01041431  51.39 0.0006878884    1.482    0.325
       253 -10.3294     41.2977    133.9261   2.9222919134e+02   5.9950238671e+00   0.01833591  0.006613779  43.63  0.001341379    2.988    0.665
       254  -9.9928    215.5494     21.6758   2.8948667065e+02   6.2149475465e+00   0.02093623   0.01510539  47.15  0.001708206    1.432    0.302
       255 -10.9260     67.8524    122.3188   2.9184489226e+02   5.9663438831e+00   0.03998503   0.01711863 -40.65   0.00307318    2.902    0.655
       256  -9.7082     67.0401    115.0110   2.9181003359e+02   6.0551357706e+00    0.0288057  0.007583077  36.37  0.001970989    3.311    0.698
       257  -8.6076    201.3870     25.2887   2.8967583690e+02   6.2606657637e+00  0.008774854  0.006521126 -76.06 0.0006236644    1.504    0.335
       258  -8.8146    193.4414     24.4602   2.8976451569e+02   6.3189684087e+00   0.01195393  0.006982189 -36.05 0.0009207787    2.026    0.507
       259  -9.2710    240.9931     23.5040   2.8919791305e+02   6.0375058721e+00   0.02374169   0.01300109 -82.02  0.001572236    2.719    0.632
       260 -11.0454     72.6145    128.4057   2.9182565860e+02   5.8674576999e+00    0.0368401   0.02825298 -28.39  0.003929236    1.450    0.310
       261 -10.8115     65.2937    130.6487   2.9192577850e+02   5.8863802385e+00   0.01996848   0.01351479  38.61  0.001586219    1.444    0.308
       262  -9.3613     95.7632    130.0920   2.9156251370e+02   5.7067989265e+00   0.01287012  0.008860605 -40.89  0.001268688    1.542    0.351
       263  -9.6940     35.2189    129.8085   2.9227600438e+02   6.0792913647e+00   0.01485475   0.00820611  47.44  0.001356422    1.967    0.492
       264  -8.7867    238.9617     18.6981   2.8919242096e+02   6.1049802475e+00   0.01120676  0.008185846  -4.73 0.0009285266    1.645    0.392
       265 -10.3014     37.9615    127.0657   2.9222693258e+02   6.0940644476e+00   0.01484931   0.01012874 -33.17 0.0009737451    1.667    0.400
       266 -11.0097     48.5436    125.9167   2.9209490734e+02   6.0427845102e+00   0.01829365   0.01540667 -56.41  0.002129163    1.201    0.168
       267 -10.1711     91.9023    119.9893   2.9154661908e+02   5.8462716564e+00    0.0253757   0.01280492 -48.94  0.002287589    2.002    0.500
       268  99.0000      7.7112     50.6469   2.9211991849e+02   7.1546126725e+00   0.02919831   0.01838105  52.13  0.002859178    1.791    0.442
       269  -9.6364    160.6279     81.8938   2.9050285959e+02   5.8625560800e+00   0.01865051   0.01283503  49.91  0.001931451    1.554    0.356
       270 -10.6017      5.1685     71.0297   2.9227403582e+02   6.9363905444e+00   0.02470271   0.01470408  47.44  0.001187815    1.799    0.444
       271 -11.6131     21.4105    109.3068   2.9231465066e+02   6.3985737015e+00    0.1808434   0.03898212  22.95  0.008034489    8.301    0.880
       272  -8.6987    235.5132    249.5096   2.9064189341e+02   3.4821395545e+00  0.006622778  0.006479604  22.11  5.79847e-05    1.003    0.003
       273 -11.1555     22.3102     95.8303   2.9222209875e+02   6.5476969392e+00   0.02813531   0.02358059 -38.71   0.00190487    1.234    0.189
       274 -11.9412     27.0913     85.4430   2.9210238733e+02   6.6377384465e+00   0.04876082    0.0417906 -55.71  0.005747857    1.181    0.153
       275 -12.5285      5.6941    115.0113   2.9253510381e+02   6.4287036825e+00   0.07037742   0.02403899 -45.91  0.005044088    3.241    0.691
       276 -11.7778     17.2965    102.6292   2.9232271011e+02   6.5002101315e+00   0.05260962   0.03194658  73.15  0.004601345    2.517    0.603
       277 -11.3237      3.2216     89.2311   2.9240773209e+02   6.7394844271e+00   0.03086118   0.02659994 -64.98   0.00362805    1.195    0.163
       278 -12.1574     12.0353     87.2148   2.9229122865e+02   6.7090244182e+00   0.04005695   0.02163207  46.74  0.003655075    1.998    0.499
       279 -12.0509     15.8108     61.7179   2.9209146048e+02   6.9784366872e+00   0.05479101    0.0278696  12.95  0.004509253    2.581    0.612
       280 -10.9935     13.8773     56.7522   2.9208411261e+02   7.0471249184e+00   0.02009822   0.01040057  34.77  0.001466951    1.833    0.455
       281 -10.6120    105.7497    119.9120   2.9138260866e+02   5.7625570008e+00    0.0190218   0.01256917  19.18  0.001930854    1.582    0.368
       282 -10.6225     40.2675    116.6532   2.9213640164e+02   6.1994907560e+00   0.02075106   0.01229986  72.40  0.001755306    2.666    0.625
       283  -9.8569     12.6193    117.2695   2.9246694872e+02   6.3606890976e+00   0.01650048   0.01111495  34.37 0.0008860835    1.433    0.302
       284  -9.6176     54.2336    116.1271   2.9196815082e+02   6.1204246206e+00   0.01469099  0.009566973 -30.21  0.001189087    1.843    0.457
       285  -9.8513     97.6857    115.0541   2.9144826291e+02   5.8675523871e+00   0.01680242   0.01211406   5.79  0.001396552    1.584    0.369
       286  -8.8788     27.8054    115.9162   2.9227921780e+02   6.2838268451e+00    0.0097996  0.008427598 -35.59 0.0002891048    1.206    0.171
       287 -10.0179    132.8424    111.4353   2.9101107297e+02   5.6940811162e+00   0.02486361   0.01757067 -60.53  0.002022706    1.437    0.304
