#   1 NUMBER                 Running object number                                     
#   2 MAG_AUTO               Kron-like elliptical aperture magnitude                    [mag]
#   3 X_IMAGE                Object position along x                                    [pixel]
#   4 Y_IMAGE                Object position along y                                    [pixel]
#   5 X_WORLD                Barycenter position along world x axis                     [deg]
#   6 Y_WORLD                Barycenter position along world y axis                     [deg]
#   7 A_WORLD                Profile RMS along major axis (world units)                 [deg]
#   8 B_WORLD                Profile RMS along minor axis (world units)                 [deg]
#   9 THETA_WORLD            Position angle (CCW/world-x)                               [deg]
#  10 FWHM_WORLD             FWHM assuming a gaussian core                              [deg]
#  11 ELONGATION             A_IMAGE/B_IMAGE                                           
#  12 ELLIPTICITY            1 - B_IMAGE/A_IMAGE                                       
         1 -16.6982    224.1783    118.3012   7.1953232099e+01   1.3904288143e+01      10.7046     5.035035 -44.34   0.04594794    2.647    0.622
         2 -14.1540    240.7134     22.2111   4.5970918883e+01   2.2030915357e+01    0.6357145    0.4808542 -40.04  0.002130917    1.146    0.127
         3 -17.4578    245.7936     65.7952   5.6506579986e+01   1.6222976457e+01     2.936156     2.064858  10.52   0.01343525    1.646    0.393
         4 -17.5581    244.3758     45.5188   5.1595471960e+01   1.8807397739e+01     4.274832     2.338863  33.98   0.01792749    2.457    0.593
         5 -13.9157    217.4978     29.8391   5.0041859033e+01   2.6521403608e+01     3.378549     1.475107 -19.97   0.01381502    2.294    0.564
         6 -15.9748    233.0790     32.2826   4.9229417552e+01   2.2682048142e+01     4.858088     1.866461  -8.53   0.01472888    4.922    0.797
         7 -13.7020    137.8839     42.0348   6.5883744771e+01   4.5211393940e+01     2.506123     1.332196  62.84   0.01009539    1.986    0.497
         8 -12.0696    163.2353     28.7413   5.6435379661e+01   4.0380548122e+01     1.607499    0.7697337  73.81  0.006124394    2.386    0.581
         9 -13.6459    123.9371      3.3868   5.3007248918e+01   5.3598426490e+01     9.717419    0.4823352  67.74   0.01739933   10.652    0.906
        10 -12.1148    158.2535      4.6588   4.8517278820e+01   4.4256082700e+01    0.5701759    0.4628437  -1.75  0.002066076    1.337    0.252
        11 -13.8282    137.2428     25.0184   5.9544484908e+01   4.7718473273e+01      4.63086     1.712106  70.40   0.01470638    3.357    0.702
        12 -14.8014     12.8942     14.6231   1.0351468544e+02   7.3722369720e+01     2.138914     1.495397 -35.93   0.01004963    1.272    0.214
        13 -11.2577     92.2642     25.0400   7.0590709802e+01   5.8911107561e+01    0.3957866    0.2434258 -26.59 0.0009420257    1.633    0.388
        14 -12.1902    203.5071     10.1695   4.5681116517e+01   3.1919108563e+01    0.3242364     0.219138   1.09  0.001388246    1.757    0.431
        15 -10.7698    226.9465      7.3488   4.3069296407e+01   2.6541833559e+01    0.1912752    0.1665512  -0.61 0.0002659813    1.273    0.214
        16 -10.3837    220.1299     10.9107   4.4536272541e+01   2.7808451975e+01    0.1824041    0.1648421 -37.78  0.001123437    1.039    0.037
        17 -10.7905    146.4514    142.4770   9.1926092523e+01   2.5238145144e+01    0.2487603    0.2154019 -83.74 0.0007292691    1.435    0.303
        18 -10.9223    152.1974    150.0119   9.2150577881e+01   2.2846087825e+01    0.3687825    0.2724239 -84.45  0.001569526    2.209    0.547
        19 -10.2461    149.3871    146.1996   9.2018003443e+01   2.4028765506e+01    0.2217575    0.1851623  75.68  0.000575391    1.497    0.332
        20  -9.0880    239.4380    211.8969   8.7162153759e+01   7.9011431116e-01    0.1444223   0.09143357 -18.81  0.001019635    1.576    0.366
        21 -10.7109    133.6752    145.5038   9.5368670530e+01   2.7041907447e+01    0.9075149    0.2274432 -53.46  0.002454272    6.198    0.839
        22  -9.4368    173.6559    149.6799   8.7686991196e+01   1.8933479108e+01    0.1400656   0.09756672  11.47 0.0007049673    1.726    0.420
        23 -11.1565    192.8938    194.8917   9.2081325588e+01   9.3089008792e+00    0.6723738    0.3644651 -58.26  0.002570418    6.028    0.834
        24 -11.5794    179.0678    142.8010   8.5236419031e+01   1.9000420419e+01    0.3984083    0.2751417 -56.29  0.001498203    2.010    0.503
        25  -9.4695    192.0928    144.0741   8.3033868893e+01   1.6360224222e+01     0.192258    0.1793811  19.71 0.0004402809    1.123    0.109
        26 -10.0896    185.2666    142.9547   8.4078205771e+01   1.7805618994e+01    0.2313295    0.1917873 -20.82 0.0008059995    1.216    0.178
        27 -12.2467    190.4980    138.4375   8.2149772994e+01   1.7497214905e+01    0.6011537    0.2898094  38.68  0.002700304    2.010    0.502
        28 -10.5510    159.0212    142.5208   8.9233484111e+01   2.2856161190e+01    0.2403108    0.1969291 -60.22 0.0008090712    1.499    0.333
        29 -10.5663    216.4646    193.8866   8.7926949825e+01   5.8508580055e+00    0.2417313    0.1467663  43.38 0.0008460229    1.673    0.402
        30 -10.6911    194.7431    175.1848   8.8477225019e+01   1.1538105900e+01     0.244518    0.2062162  50.18 0.0005360398    1.439    0.305
        31 -13.5906     16.6344    169.5452   1.2611171813e+02   3.8129599139e+01    0.7920325    0.6122578  59.69  0.003933704    1.080    0.074
        32  -9.2613    166.6057    134.2500   8.5927071174e+01   2.2793641565e+01    0.1841204    0.1299815 -25.70 0.0006806139    1.552    0.356
        33  -8.5160     80.4671    175.3810   1.1208793195e+02   2.9776991204e+01    0.1206711    0.1018781  52.63  0.000198518    1.052    0.049
        34 -11.4596    159.7648    129.1164   8.6240356263e+01   2.5027877687e+01    0.4511428    0.3453917  -0.01  0.002330124    1.592    0.372
        35  -8.5621     96.2752    129.3019   1.0150371611e+02   3.6854650295e+01    0.1285126    0.1085214 -18.44 0.0003845233    1.538    0.350
        36 -11.5287    136.1156    127.0385   9.1074503715e+01   3.0085275504e+01    0.8050976    0.3096963 -54.80  0.002688228    3.654    0.726
        37 -11.7438    134.7473    108.7354   8.7174287014e+01   3.3917267612e+01     1.082656    0.2956651 -44.40  0.003299512    3.740    0.733
        38 -10.0093    133.3550     98.9873   8.5032178120e+01   3.6120933061e+01    0.2699869     0.207887  67.60 0.0007705785    1.515    0.340
        39 -10.1289    120.8915    112.0934   9.1442965630e+01   3.6036408807e+01    0.3593619    0.2570715 -82.34  0.001405021    1.989    0.497
        40 -12.3235    123.0342    103.1697   8.8719982908e+01   3.7435856546e+01      1.13833    0.6198545 -65.96  0.004054265    3.127    0.680
        41  -9.7100    141.1411    106.1121   8.4989367192e+01   3.3086066244e+01    0.2213501    0.1984093  -0.76 0.0005823799    1.217    0.178
        42 -10.5401    146.6333    103.4148   8.3022122334e+01   3.2421056618e+01    0.3166262    0.2534148  24.85 0.0006808066    1.371    0.271
        43 -10.6747    156.4343     98.7252   7.9601114590e+01   3.1131908791e+01     0.458771     0.266224  44.15  0.002005497    1.715    0.417
        44 -10.4656    200.6800    173.5021   8.7129296260e+01   1.0778507783e+01    0.2496006    0.1771857  18.54  0.001139579    1.297    0.229
        45 -10.3689    237.3154    193.0074   8.4475821869e+01   2.9175873005e+00     0.176317    0.1514073  41.84  0.001303702    1.646    0.393
        46 -10.5638    140.1744     93.8467   8.1995503159e+01   3.5633813288e+01    0.3378904     0.283628 -71.91 0.0006615895    1.403    0.287
        47 -11.3155    170.8601     91.4098   7.4627604715e+01   2.9146169101e+01    0.5833917    0.3872717  31.95   0.00204411    1.700    0.412
        48 -10.1126    159.1793    158.0490   9.2198743899e+01   2.0228842310e+01    0.2740389    0.2152164 -59.66 0.0009867895    1.628    0.386
        49 -10.7744    210.4841    191.0182   8.8446776102e+01   7.0761525360e+00    0.2358365    0.1062543 -25.37  0.001103348    2.565    0.610
        50 -11.5173    154.0800     89.7084   7.7664873935e+01   3.3271820171e+01    0.3176205    0.2671568 -28.04 0.0006979214    1.201    0.167
        51 -12.5240    168.8355     78.4830   7.1397325793e+01   3.1747582622e+01    0.4575231     0.338109  -2.17  0.002142709    1.652    0.395
        52  -9.7479    161.7544     79.8953   7.3229106049e+01   3.3190421564e+01    0.2339583     0.205518   2.87 0.0006438902    1.215    0.177
        53 -10.3792    140.0976     78.3598   7.7558494999e+01   3.8546328934e+01    0.3283851    0.2759101 -79.27 0.0008925315    1.428    0.300
        54  -9.5461    117.3353     77.3252   8.3046002744e+01   4.3875446778e+01    0.1549914    0.1203519   5.15 0.0003773058    1.716    0.417
        55 -10.1727    117.9267     65.6496   7.9147883094e+01   4.6018683337e+01    0.2547805    0.2077781 -45.55  0.000306554    1.218    0.179
        56 -11.6063    144.0566     59.5045   7.0653168774e+01   4.0898407525e+01    0.3942427    0.3391619 -51.06 0.0009259446    1.203    0.168
        57 -11.9143    144.2584     54.5473   6.8937379482e+01   4.1657204519e+01    0.6213947    0.3773526  28.56  0.002467426    2.227    0.551
        58 -11.5455    134.5028     60.9174   7.3322152976e+01   4.2993065461e+01    0.4859009    0.2564735 -31.80  0.001933196    1.947    0.486
        59  -8.8091     72.5318     58.4495   9.1195831034e+01   5.6656028179e+01    0.1416646    0.1333255 -55.24 0.0001358151    1.039    0.038
        60 -10.6856    162.3376     54.0648   6.5137663838e+01   3.7175805738e+01    0.4493597    0.3882393  22.38  0.001793554    1.247    0.198
        61 -10.8632    159.8539     50.3365   6.4376948321e+01   3.8359173375e+01    0.4382152    0.2527679  72.19  0.001583864    2.099    0.524
        62 -13.2307     12.1419     47.9122   1.1454157672e+02   6.6310642260e+01     1.482185    0.9459464   7.73  0.008522037    1.959    0.489
        63 -11.9257    216.1259    189.3515   8.7235053951e+01   6.4123233891e+00    0.4172824    0.2571685  52.78  0.002354699    2.295    0.564
        64 -10.5071    204.7727    189.9786   8.9239549777e+01   8.0731745148e+00    0.2660085    0.1500705  52.66  0.001389671    2.440    0.590
        65 -10.7835    226.3047    183.0119   8.4507690036e+01   5.5879270081e+00    0.1604916    0.1260909   2.75 0.0002857325    1.095    0.087
        66 -10.1088    128.9342    237.5324   1.0896713650e+02   1.3137401093e+01    0.1584896    0.1463613  47.78  0.001345639    1.260    0.206
        67  -8.6061    103.5141     52.4975   7.8625603849e+01   5.1722401561e+01    0.1482562    0.1439919 -26.70 0.0008105233    1.001    0.001
        68 -13.0655     68.4679    144.5525   1.1122847268e+02   3.7709769812e+01       1.1452    0.8814031  73.63  0.004441918    1.239    0.193
        69  -9.3244    173.6013     42.8768   5.9552666177e+01   3.5879018586e+01     0.305924    0.2008325 -87.15  0.001237456    2.000    0.500
        70 -13.1414     52.9822    151.5272   1.1601852008e+02   3.8159005500e+01    0.7651988    0.6628292  85.80  0.002941614    1.093    0.085
        71 -11.4857    162.9163     38.7002   5.9915900555e+01   3.9199539125e+01    0.6790713    0.2993013 -28.56  0.001914204    2.188    0.543
        72  -9.3237    190.0757     35.5923   5.4864915343e+01   3.2592058422e+01    0.1829911     0.179713   9.84 0.0005353929    1.061    0.057
        73 -12.3918     59.6351    148.0783   1.1394288393e+02   3.8091238761e+01    0.6103057    0.3750974  84.62  0.001500998    1.755    0.430
        74  -8.7187    188.2118     27.6145   5.2614495895e+01   3.3994572908e+01    0.1521301    0.0938777 -46.41  0.000682983    1.603    0.376
        75 -11.1633    192.0926    153.4922   8.4929213927e+01   1.4991321016e+01    0.2919209    0.2547473 -19.35  0.001099983    1.187    0.157
        76  -9.5617    178.2714     24.5374   5.2880043582e+01   3.6912897185e+01    0.3184923    0.2443078 -46.38  0.001630668    1.281    0.219
        77 -11.0008    203.6870     18.9856   4.8277885443e+01   3.1011078507e+01    0.2367405    0.2129343 -24.64 0.0004225268    1.095    0.087
        78 -11.9671     45.2489    155.5759   1.1835083932e+02   3.8183036776e+01    0.3214757    0.2876485 -40.10 0.0008766887    1.491    0.329
        79 -10.4552     78.9923     18.2681   7.1631099052e+01   6.2858075588e+01     0.198716    0.1857555   7.79  0.001163883    1.026    0.025
        80  -9.6234    235.1063     14.9011   4.4494228383e+01   2.3980901369e+01    0.1463204    0.1163226 -35.68 0.0002926496    1.096    0.087
        81  -9.5341    190.3573    149.6756   8.4492463699e+01   1.5858743802e+01    0.1962185     0.156551  34.60  0.001065342    1.158    0.137
        82  -9.9647    203.9373    152.6315   8.2635015925e+01   1.2999336327e+01    0.2273736    0.1841942 -29.89 0.0008180948    1.321    0.243
