#   1 NUMBER                 Running object number                                     
#   2 MAG_AUTO               Kron-like elliptical aperture magnitude                    [mag]
#   3 X_IMAGE                Object position along x                                    [pixel]
#   4 Y_IMAGE                Object position along y                                    [pixel]
#   5 X_WORLD                Barycenter position along world x axis                     [deg]
#   6 Y_WORLD                Barycenter position along world y axis                     [deg]
#   7 A_WORLD                Profile RMS along major axis (world units)                 [deg]
#   8 B_WORLD                Profile RMS along minor axis (world units)                 [deg]
#   9 THETA_WORLD            Position angle (CCW/world-x)                               [deg]
#  10 FWHM_WORLD             FWHM assuming a gaussian core                              [deg]
#  11 ELONGATION             A_IMAGE/B_IMAGE                                           
#  12 ELLIPTICITY            1 - B_IMAGE/A_IMAGE                                       
         1 -14.2849    192.5128     34.6448   2.3201514416e+01   3.2628753644e+01     1.036324    0.8602821  89.23  0.003525029    1.120    0.107
         2 -11.6577    189.3434     14.8947   1.8174266714e+01   3.5945649834e+01    0.2545522    0.1785716  85.22 0.0007901942    1.328    0.247
         3 -19.4271     59.7366    208.5171   9.0011970598e+01   2.4753422474e+01     6.425006     4.977426 -75.09    0.0318437    1.380    0.275
         4 -12.3445    151.5543    195.9949   6.9708025358e+01   1.1927377382e+01     0.312571    0.2342992 -30.77  0.001641079    1.820    0.450
         5 -11.8424     17.0153    192.9701   9.7019857663e+01   3.2968639447e+01    0.2071127    0.1579958 -82.67   0.00115397    1.272    0.214
         6 -11.5299    158.7464    189.1300   6.7091057652e+01   1.1820446901e+01    0.2927897    0.2362813 -68.10 0.0007808412    1.424    0.298
         7 -11.9280    180.5513    167.6548   5.8617089603e+01   1.1444452508e+01    0.7029864    0.4631315 -66.63  0.002467676    2.119    0.528
         8 -11.4309    174.3844    177.8125   6.1834478046e+01   1.0813167006e+01     0.305849    0.2625566 -15.75 0.0007713938    1.411    0.291
         9 -13.0714    172.7677    172.5507   6.1184361210e+01   1.2135085472e+01    0.7007471      0.57731  23.65  0.002071001    1.361    0.265
        10 -10.9691     25.4897    172.9532   9.3865422456e+01   3.6311279485e+01    0.3832117    0.1554687  72.10  0.001378106    2.806    0.644
        11 -10.0860      8.7297    169.5013   9.7081361709e+01   3.8643814352e+01    0.1263352    0.1036021  53.41 0.0009434094    1.366    0.268
        12 -12.1885    230.0949    165.7095   4.8656638333e+01   1.7351181985e+00    0.2856942    0.1987032  48.48  0.001512856    1.469    0.319
        13 -11.5983     25.1312    164.9396   9.3260354021e+01   3.8088643217e+01    0.1778642    0.1503608  73.50 0.0007603438    1.177    0.151
        14  -9.8838    129.4567    244.7155   8.0508399820e+01   7.4124996150e+00    0.1330954    0.1180778 -47.88 0.0009346969    1.567    0.362
        15 -11.4665     22.8545    156.1458   9.2975122996e+01   4.0246386756e+01    0.2175996    0.2098211 -37.52  0.001638532    1.493    0.330
        16 -10.1370     26.9556    140.0963   9.0399937342e+01   4.3448504693e+01    0.1455657    0.1272333 -52.18  0.000432643    1.397    0.284
        17 -11.5290    147.1328    135.8358   5.9370754179e+01   2.5140852293e+01    0.4610199    0.1870426  41.41 0.0007079618    2.587    0.614
        18 -10.2342    110.6321    243.4677   8.3791080413e+01   1.0669267070e+01    0.1694388    0.1383503 -42.00  0.001127103    1.907    0.476
        19  -9.6700    214.2202    243.0396   6.5023178933e+01  -6.4606421392e+00    0.1301356   0.09509082 -29.05  0.000506882    1.635    0.388
        20 -14.0766    120.7502    109.0753   5.9720500264e+01   3.6693099966e+01     1.015845    0.7721356 -68.17  0.004747187    1.415    0.293
        21 -12.2765    166.9766    225.4433   7.1078529048e+01   4.0127203968e+00    0.4193663    0.1591557  44.90  0.001371486    2.140    0.533
        22 -11.6847    182.1384    239.2211   7.0194408767e+01  -6.6912354228e-01    0.3180364    0.1958962 -37.23 0.0009922666    2.093    0.522
        23  -9.3028     18.6295    108.7271   8.8778538717e+01   5.1260032470e+01    0.1173715   0.07768058 -43.13 0.0007001578    1.677    0.404
        24 -12.1330    127.3335    110.7004   5.8398868540e+01   3.4950252012e+01     0.353255    0.2808015 -72.77 0.0007997297    1.364    0.267
        25 -11.1313     24.1782    104.8531   8.6642578551e+01   5.1687323273e+01    0.2312286    0.1783942 -56.65 0.0009400086    1.205    0.170
        26 -11.5113    151.6409    219.3824   7.3174878544e+01   7.7490487410e+00    0.2211472    0.1653159 -50.54 0.0009805699    1.626    0.385
        27 -10.8717     96.6663    103.0887   6.4886035816e+01   4.2696581081e+01    0.2049161    0.1780976 -58.10 0.0004822674    1.103    0.093
        28 -10.4305      6.8874    101.9078   9.1228965307e+01   5.3600603279e+01    0.1661113    0.1520047 -83.63 0.0007236734    1.182    0.154
        29 -12.3916    146.0216    211.1661   7.3122367320e+01   1.0194249888e+01    0.4839301    0.1882112 -50.88   0.00123717    3.027    0.670
        30 -10.3968    128.0396    241.0835   8.0365888787e+01   8.2297565573e+00    0.2017279    0.1625247  83.95  0.000343215    1.331    0.249
        31 -10.3043    166.3004     94.7525   4.4858105283e+01   2.9258455095e+01    0.3752661    0.2190502 -80.02  0.001133249    3.841    0.740
        32 -11.0682    187.2831    207.4587   6.4430486266e+01   3.1702797285e+00    0.3669837    0.1980651  39.59  0.001163751    1.618    0.382
        33 -11.0200     83.0607    250.6448   8.9305983779e+01   1.3676807083e+01    0.1581971   0.08362943  47.45 0.0009469745    1.468    0.319
        34 -12.4721    140.6812    204.6135   7.3253567858e+01   1.2364495818e+01    0.3385683    0.3152994 -79.38  0.001942748    1.213    0.176
        35 -10.7037    149.8363     87.1856   4.6559288892e+01   3.4767391788e+01    0.2141828    0.1892571  19.99   0.00060591    1.327    0.246
        36 -10.0143    169.5011     84.5027   4.1384864486e+01   3.0439743054e+01    0.2170708    0.1470759 -51.93 -0.0001462313    1.541    0.351
        37 -11.5976    166.2143     81.4097   4.1233343241e+01   3.1846096824e+01    0.3160871    0.2476482 -73.62 0.0005301369    1.450    0.310
        38 -12.4869     85.5252     80.5150   6.2380744521e+01   4.9582993658e+01    0.4061689    0.3226137 -18.60  0.002002351    1.507    0.336
        39 -13.3500     78.6272     78.6906   6.4055254060e+01   5.1094952786e+01    0.8827413    0.3463808  45.85  0.003401142    2.888    0.654
        40 -13.5327    159.7977     71.7781   3.9888178605e+01   3.5233637513e+01    0.9650779    0.5942762  40.44   0.00186206    1.819    0.450
        41 -14.2761    173.1548     59.3595   3.3527916432e+01   3.3964914037e+01     1.222195     1.102525  22.72  0.004043301    1.300    0.231
        42 -12.8642    180.0884     51.9354   3.0101936908e+01   3.3351743473e+01    0.5245254    0.4932217  83.42  0.000856244    1.030    0.029
        43 -13.2271      6.9363     74.1808   8.7190609348e+01   5.9603076281e+01    0.5290552    0.1767542 -65.91  0.001962233    2.250    0.556
        44 -11.4473     87.2813     69.8255   5.8747376802e+01   5.1490975747e+01    0.2667584    0.2161549 -81.65   0.00142066    1.578    0.366
        45 -13.5563     13.6308     59.9796   8.2101076398e+01   6.2164806716e+01    0.6711751     0.209745 -59.17  0.003171779    2.323    0.570
        46 -12.9679     23.3972     57.1243   7.7762451439e+01   6.2058693624e+01    0.5015237    0.1887158  15.80  0.002226947    3.754    0.734
        47 -10.3942    128.7486     62.1241   4.4348346333e+01   4.4503802902e+01    0.2477967    0.2003797  69.09 0.0006404037    1.335    0.251
        48 -18.9614     48.0111     72.4638   7.2635350798e+01   5.6553805652e+01     16.25038     0.668362 -56.97   0.02381718   20.236    0.951
        49  -9.6222    109.1368     57.1540   4.8092241101e+01   4.9710976293e+01    0.1916343    0.1683792  77.08 0.0005296908    1.314    0.239
        50 -10.7150     91.4152     56.0896   5.3094112304e+01   5.3391505529e+01    0.2310427    0.1971412  47.20 0.0003726758    1.232    0.189
        51 -10.3839    210.9907    198.7800   5.8450220809e+01   1.4737333084e-01    0.2007472    0.1838841  -0.32 0.0004814547    1.127    0.112
        52 -12.7198      7.6099     64.9339   8.5302578560e+01   6.1503893317e+01    0.2461515    0.2257181 -32.91  0.001930548    1.222    0.182
        53 -10.1772    161.0477    245.9094   7.4907911412e+01   1.9498556134e+00    0.1782838    0.1410556  46.63 0.0004020481    1.029    0.029
        54 -10.6190    191.7292    192.7488   6.1054776150e+01   4.7327027179e+00    0.5299099    0.2822577 -67.25  0.001642192    5.714    0.825
        55  -9.9160    181.5075    197.5563   6.3901332996e+01   5.8890777595e+00    0.2054966    0.1314616 -59.87 0.0006271001    2.093    0.522
        56 -10.8225    162.7518    196.9734   6.7568995797e+01   9.5996435329e+00    0.1808549     0.174892  87.07  0.000662773    1.151    0.131
