#   1 NUMBER                 Running object number                                     
#   2 MAG_AUTO               Kron-like elliptical aperture magnitude                    [mag]
#   3 X_IMAGE                Object position along x                                    [pixel]
#   4 Y_IMAGE                Object position along y                                    [pixel]
#   5 X_WORLD                Barycenter position along world x axis                     [deg]
#   6 Y_WORLD                Barycenter position along world y axis                     [deg]
#   7 A_WORLD                Profile RMS along major axis (world units)                 [deg]
#   8 B_WORLD                Profile RMS along minor axis (world units)                 [deg]
#   9 THETA_WORLD            Position angle (CCW/world-x)                               [deg]
#  10 FWHM_WORLD             FWHM assuming a gaussian core                              [deg]
#  11 ELONGATION             A_IMAGE/B_IMAGE                                           
#  12 ELLIPTICITY            1 - B_IMAGE/A_IMAGE                                       
         1 -13.1881    221.8235      2.6121   4.2263643230e+01   2.7869688372e+01      1.95662    0.3412064  70.64  0.006085998    4.804    0.792
         2 -13.6528    216.0384     13.4958   4.5726784614e+01   2.8263766007e+01     1.722947     1.152413 -50.51  0.009080964    1.416    0.294
         3 -13.7366    180.5244     45.6971   5.9581988114e+01   3.3549037145e+01     1.160378     0.879796 -18.27 0.0008312619    1.337    0.252
         4 -13.9966    191.3686     36.3642   5.5119654036e+01   3.1956917535e+01     1.265356     1.007306 -31.10  0.003138294    1.190    0.160
         5 -14.3288    199.5056     26.6215   5.1157842294e+01   3.1009094350e+01     1.623034    0.9831113 -14.38  0.001429549    1.748    0.428
         6  -9.3582     42.0000    230.9356   1.2464248138e+02   2.4615157598e+01    0.1337816   0.05298061 -77.64 0.0005368217    2.835    0.647
         7 -16.2467     72.1205    149.6437   1.1147342305e+02   3.6073877976e+01     7.278938     3.536388  74.00   0.01522523    3.557    0.719
         8 -10.8328     74.5884    206.7852   1.1689361429e+02   2.4820578897e+01    0.2754695    0.2428094  36.29  0.001206554    1.288    0.224
         9 -10.3999     58.1460    213.9943   1.2066633390e+02   2.5582205813e+01    0.4336908    0.3287149  34.80   0.00158112    1.357    0.263
        10 -13.8698     55.7381    204.1388   1.2046555793e+02   2.7541367928e+01    0.7037376     0.480962  46.18   0.00238855    1.171    0.146
        11 -11.7170    129.6279    211.3756   1.0655079863e+02   1.6571091207e+01    0.3356285    0.2073894  85.59   0.00166822    3.482    0.713
        12  -9.0387     98.2994    213.6598   1.1283822052e+02   2.0615295813e+01    0.1162894   0.07061489  60.49 0.0007035439    1.666    0.400
        13 -12.0089     38.5186    212.1488   1.2433681146e+02   2.8045828943e+01    0.2371162    0.1089685  45.49 0.0008619763    1.583    0.368
        14 -10.5552     35.2349    208.2758   1.2476713229e+02   2.9050490265e+01    0.3303998   0.09110965  50.30  0.001193851    2.576    0.612
        15 -10.5197     31.6740    205.4258   1.2531520664e+02   2.9908839896e+01    0.1860208    0.1120503  35.88  0.001185497    1.521    0.343
        16  99.0000     44.1556    210.1802   1.2313945865e+02   2.7784965414e+01    0.3918982    0.1447448  52.48  0.002151314    2.102    0.524
        17 -11.1988     43.8516    205.5513   1.2292588934e+02   2.8618686271e+01    0.2139705    0.1862981  22.89  0.001672943    1.525    0.344
        18 -11.5624    106.3632    209.3214   1.1083064632e+02   2.0195965863e+01    0.3946792    0.2664578  57.46  0.001997322    1.406    0.289
        19 -12.3086    107.5761    203.0836   1.0992298257e+02   2.1020481883e+01    0.4920333    0.1793576  43.92  0.000662363    2.180    0.541
        20 -10.5104    132.4866    202.0779   1.0486740829e+02   1.7531924436e+01    0.1501923    0.1199256 -55.19  0.001021932    1.563    0.360
        21 -11.8842    193.0788    194.3525   9.2425515645e+01   9.1986789922e+00    0.7563206    0.4246764 -56.73  0.003342456    4.432    0.774
        22  -9.9223    157.1627    200.2924   9.9880342984e+01   1.4018906750e+01    0.1994373     0.155784  86.02  0.001227745    2.113    0.527
        23 -10.5524     96.3405    200.4454   1.1190946381e+02   2.3027461307e+01    0.2941545     0.214065  12.97 0.0009922172    1.930    0.482
        24 -10.9779    209.0856    198.4484   9.0331912071e+01   6.2726987497e+00    0.1789387    0.1621201 -32.14  0.000770416    1.561    0.359
        25  -9.0244     43.4497    236.5185   1.2465282550e+02   2.3601979915e+01    0.1012566   0.07136142  53.52 0.0008081855    1.016    0.016
        26 -10.6806    141.4289    198.2252   1.0261682748e+02   1.6750507813e+01    0.2207718    0.1680992  67.85  0.001112653    1.677    0.404
        27 -12.5524     30.2398    197.4039   1.2518816145e+02   3.1483526825e+01    0.1992586     0.142733  51.50 0.0006055828    1.116    0.104
        28 -16.3372     73.7816    246.5397   1.1990952236e+02   1.8779586929e+01     7.872062     2.392014  28.58   0.02826332    6.149    0.837
        29 -10.7674     35.1345    197.3302   1.2419333852e+02   3.1001521765e+01    0.1748428    0.1061023  48.89 0.0004827795    1.272    0.214
        30 -10.2884     80.5422    194.5700   1.1458142828e+02   2.6171478606e+01    0.3992887    0.1580419  46.25  0.001527183    2.037    0.509
        31  -9.7468     72.2302    230.3055   1.1912376572e+02   2.1333163147e+01    0.1385387   0.08330233  50.67  0.000456496    1.244    0.196
        32 -13.2378     65.0755    190.8033   1.1749878905e+02   2.8819564013e+01    0.6175715    0.5730407  75.66  0.003071387    1.227    0.185
        33  -9.9300    198.8369    222.7915   9.5652132317e+01   5.0957494794e+00    0.1605666    0.1125776  22.23 0.0003659052    1.105    0.095
        34 -19.3731      7.0541    136.9869   1.2715372296e+02   4.5727028200e+01      16.9794     1.839238 -81.23    0.0399417   10.107    0.901
        35  -9.2843     44.0000    219.9113   1.2371341848e+02   2.6169896731e+01    0.1360819    0.1247267  86.40  0.001096667    1.385    0.278
        36  -6.2135     47.6974    216.9769   1.2285319795e+02   2.6255511706e+01    0.2746577    0.1445252  43.13  0.001205289    1.428    0.300
        37 -10.9072    149.3387    180.1729   9.8425851692e+01   1.8254247398e+01    0.2228383     0.178061  70.37 0.0008673105    1.628    0.386
        38 -11.0187     99.4764    180.7475   1.0901696327e+02   2.6020579479e+01    0.2280411    0.1873726  45.41  0.000539702    1.062    0.058
        39  -9.0291    169.2860    177.6956   9.4090126825e+01   1.5297552353e+01    0.1142778   0.09629077  65.78 0.0003540052    1.563    0.360
        40  -9.8373     73.6633    189.7088   1.1557152871e+02   2.7940290852e+01    0.2001374    0.1380637  50.36  0.001295409    1.178    0.151
        41 -10.6628     37.5529    176.3885   1.2236089480e+02   3.4713032480e+01    0.3572516    0.1412073  47.20  0.001875224    2.003    0.501
        42 -11.7805    140.4912    174.5955   9.9364287420e+01   2.0623173372e+01    0.4416113    0.2921346  77.87  0.002093919    2.778    0.640
        43 -10.6054     47.5270    173.5085   1.1989769263e+02   3.4200668740e+01    0.2544618    0.2044245  76.28   0.00178367    1.098    0.089
        44 -11.5443     43.1580    172.4014   1.2080306621e+02   3.4905417704e+01    0.5449939    0.2013104  55.25  0.001435183    2.516    0.603
        45 -10.4671    164.4130    170.6487   9.3845127069e+01   1.7182849427e+01    0.2176718    0.1988102  77.38 0.0006921401    1.419    0.295
        46 -10.2898    201.6796    168.8954   8.6550925459e+01   1.1039514381e+01    0.3082002    0.2372493 -50.11   0.00161005    1.863    0.463
        47 -10.7403    204.3522    165.1620   8.5388783779e+01   1.1074307515e+01      0.42155    0.2340688 -40.12  0.001675425    2.102    0.524
        48 -11.3977    152.9059    193.1978   9.9681052513e+01   1.5701190372e+01    0.3592393    0.2235349  62.01  0.001786101    2.375    0.579
        49 -11.3238    193.3523    165.5796   8.7429908650e+01   1.2904021051e+01    0.4195156    0.2838785 -50.08  0.001761592    2.078    0.519
        50 -10.9432    229.7272    166.0053   8.1309511276e+01   6.7842237125e+00    0.1736117    0.1361411  -2.17  0.000650604    1.106    0.096
        51  -9.3634     51.4555    215.4738   1.2204774754e+02   2.6091871693e+01    0.1670119    0.1312305  71.72 0.0008686499    1.177    0.150
        52 -12.6217     94.3595    154.7076   1.0668046668e+02   3.1786528357e+01    0.6389455    0.4787086 -27.19  0.003504076    1.924    0.480
        53 -11.4958    133.7826    145.0458   9.5717587747e+01   2.7007997928e+01     0.991521    0.2831216 -54.02  0.002887983    5.334    0.813
        54 -10.8101    189.4025    155.0604   8.6151591162e+01   1.5082001519e+01    0.3916942    0.2715917  48.63  0.002025364    1.519    0.342
        55 -10.5718    174.3612    148.6939   8.7777921150e+01   1.8808592278e+01    0.2935482    0.2532522 -78.05  0.001423635    1.647    0.393
        56 -10.9646    144.1338    146.1341   9.3601376963e+01   2.4901116985e+01    0.3895474    0.2534308 -66.76   0.00181578    2.302    0.566
        57  -9.6860    107.5233    145.9065   1.0208241152e+02   3.1451592487e+01    0.1852784    0.1330636 -59.65 0.0003779751    1.497    0.332
        58 -10.9390    111.7091    217.5542   1.1064539601e+02   1.8193582611e+01    0.2139335    0.1747042  37.45 0.0003761972    1.124    0.110
        59 -11.5274    106.4368    139.9869   1.0131710309e+02   3.2838282121e+01    0.4892807    0.3297773 -27.70   0.00233711    2.195    0.544
        60 -12.5464     94.2841    140.2419   1.0442826215e+02   3.4786014424e+01      0.32343    0.2722031  19.94  0.000493916    1.405    0.288
        61 -11.0320    105.9231    130.8193   9.9748920531e+01   3.4829350078e+01    0.3511693    0.3031499 -70.06  0.002020914    1.206    0.171
        62 -10.9350    114.0363    130.4265   9.7606541107e+01   3.3473056312e+01    0.3105584    0.2675258  12.78 0.0008571018    1.366    0.268
        63 -10.8212    135.9328    128.1002   9.1781480851e+01   2.9814981735e+01    0.3770844    0.1970688 -49.14  0.001630824    2.063    0.515
        64 -10.1758    160.3873    127.6347   8.6187592902e+01   2.5026641306e+01    0.3728139    0.2457344 -50.42  0.001799223    1.753    0.430
        65 -11.0570    101.4819    126.6508   1.0009802550e+02   3.6481155843e+01    0.2547521    0.2264317 -11.37 0.0004809483    1.384    0.277
        66 -10.9956    119.5565    123.8678   9.4859427297e+01   3.3798776312e+01    0.4423336    0.2733615 -20.20  0.001729401    2.980    0.664
        67 -10.1226    109.5843    119.3083   9.6450887685e+01   3.6602440592e+01    0.2328566    0.2034536  54.57 0.0003382717    1.112    0.101
        68  -9.3093    152.4512    119.4955   8.6049984288e+01   2.8101095878e+01    0.1415359    0.1376243  54.61 6.814458e-05    1.088    0.081
        69  99.0000     44.5779    198.8546   1.2236596730e+02   2.9727350981e+01     0.640673    0.3917709 -42.21  0.003746238    2.863    0.651
        70  -9.9861    167.6412    112.4550   8.1086404046e+01   2.6143065880e+01    0.3092291    0.2292715 -73.13  0.001432611    2.053    0.513
        71 -10.2570    135.0000    112.5051   8.8439849581e+01   3.3029132591e+01    0.3143564   0.08344149 -44.08  0.000927328    3.875    0.742
        72 -11.5930    118.4532    110.5293   9.2132286242e+01   3.6759084908e+01    0.5271881    0.3626442  59.88  0.002489071    1.637    0.389
        73 -10.2384    205.4520    110.1786   7.3419546484e+01   1.8505951877e+01    0.2952251    0.1875239  38.84 0.0009154215    1.576    0.365
        74 -11.2751     69.6860    208.5852   1.1801452003e+02   2.5122476815e+01    0.2651484    0.1848831  45.19 0.0003081294    1.145    0.126
        75  -9.9949    132.8597     97.1452   8.5049848539e+01   3.6495689452e+01    0.3645599    0.2328125  70.16  0.001328407    2.310    0.567
        76 -11.8946     53.0792     92.3355   1.0777708246e+02   5.1710360354e+01     0.565459    0.1909156 -62.72  0.002120215    2.699    0.629
        77  -9.0077    166.1867     93.4221   7.6452522271e+01   2.9721678681e+01     0.195302    0.1447859  64.91 0.0004838503    1.566    0.362
        78 -11.5383     42.3458     91.8200   1.1139209808e+02   5.3105414655e+01    0.3001535     0.245276  31.14  0.001518745    1.379    0.275
        79 -10.5656     53.4793    231.1530   1.2258844033e+02   2.3348873978e+01    0.1632086    0.1284176  79.82 0.0008778898    1.308    0.235
        80  -9.7370    185.9881     85.6999   7.0518033405e+01   2.6417285483e+01     0.208244    0.1921428  42.00 0.0006372071    1.111    0.100
        81  -9.0199    155.4645     80.4352   7.5026641815e+01   3.4452132264e+01    0.1494928    0.1462916   5.14 0.0001472329    1.007    0.006
        82  -9.4663     66.8065     70.8435   9.7626188458e+01   5.4836146358e+01    0.1872049    0.1609592  82.87 0.0004178908    1.299    0.230
        83 -11.0715    160.4295     61.8846   6.8279679853e+01   3.6312906586e+01    0.3570862    0.2793201 -72.15 0.0006574475    1.574    0.365
        84  -9.8422     52.0528    227.0598   1.2261771308e+02   2.4145959229e+01    0.1813492   0.09145994  57.83  0.001185246    1.608    0.378
        85  -8.7257     50.3834    243.6151   1.2378991821e+02   2.1807660267e+01    0.1786593   0.09131951  34.52   0.00121376    1.677    0.404
        86 -10.4621     53.3811    238.5301   1.2300766581e+02   2.2236873439e+01    0.1485759     0.100746 -88.39 0.0004846603    1.624    0.384
        87 -10.5630     60.0575    229.6503   1.2130629681e+02   2.2846625183e+01     0.154624    0.1098843  61.84 0.0005053332    1.168    0.144
        88 -12.2591     48.8510    233.0579   1.2352318523e+02   2.3558504205e+01    0.2090877    0.1309086  66.14 0.0004624509    1.367    0.269
        89  -9.4538     36.1657    234.0750   1.2582271616e+02   2.4728353199e+01    0.1265806   0.09291994  68.44  0.000474371    1.187    0.157
        90 -10.7391    162.1326     55.1891   6.5786371120e+01   3.6912096279e+01    0.2311759    0.2056004  25.05 0.0005404518    1.177    0.150
        91  -8.7135    115.5044     31.4416   6.7154185649e+01   5.2364755763e+01    0.1493173    0.1436729  17.07  0.000121505    1.018    0.018
        92 -10.5214    189.6528     14.8959   4.8591056009e+01   3.4747138546e+01    0.2335167    0.1944498  56.60   0.00060359    1.243    0.195
