#   1 NUMBER                 Running object number                                     
#   2 MAG_AUTO               Kron-like elliptical aperture magnitude                    [mag]
#   3 X_IMAGE                Object position along x                                    [pixel]
#   4 Y_IMAGE                Object position along y                                    [pixel]
#   5 X_WORLD                Barycenter position along world x axis                     [deg]
#   6 Y_WORLD                Barycenter position along world y axis                     [deg]
#   7 A_WORLD                Profile RMS along major axis (world units)                 [deg]
#   8 B_WORLD                Profile RMS along minor axis (world units)                 [deg]
#   9 THETA_WORLD            Position angle (CCW/world-x)                               [deg]
#  10 FWHM_WORLD             FWHM assuming a gaussian core                              [deg]
#  11 ELONGATION             A_IMAGE/B_IMAGE                                           
#  12 ELLIPTICITY            1 - B_IMAGE/A_IMAGE                                       
         1 -15.3349    171.8929     44.1143   6.8961994778e+01   3.6890771823e+01     2.495484     2.050372 -65.60   0.01463025    1.230    0.187
         2 -15.7407    205.7450     50.6163   6.5599401234e+01   2.8039123186e+01     4.385521     2.117737 -65.16   0.01792257    2.704    0.630
         3 -14.7069    248.2013     12.3039   5.3550506046e+01   2.3825736834e+01     1.489443    0.3007349 -42.50  0.006213914    3.592    0.722
         4 -13.6754    137.6196    218.6100   1.1687829400e+02   8.6491998874e+00    0.6795158     0.294302  32.65  0.002546739    2.595    0.615
         5 -12.3261    228.5322    211.3671   9.6558882158e+01  -5.8168940104e+00    0.4334056    0.3062398  60.72  0.002205412    2.300    0.565
         6 -13.2140    238.2079    216.7222   9.5763199302e+01  -8.1826580199e+00    0.5943739    0.5017718  51.96  0.003699665    1.624    0.384
         7 -11.9428    169.2426    214.1634   1.0914596285e+02   3.8329398131e+00     0.281917    0.1800933  60.94  0.001244174    2.122    0.529
         8 -13.8921    206.2796    204.6605   9.9611707588e+01  -9.4450984005e-01    0.5251286    0.4029298  48.38  0.002377631    1.467    0.318
         9 -13.2185    142.1725    203.2010   1.1323446541e+02   1.1139195248e+01     0.373435    0.2541397 -52.86  0.001785223    1.534    0.348
        10 -15.6934     30.6075    199.6575   1.3845338359e+02   2.9280669379e+01     1.015099    0.5622289 -73.62  0.005438232    1.545    0.353
        11 -14.1110     47.4560    167.0795   1.3060646819e+02   3.5217939610e+01     1.249918    0.9502746 -20.69  0.006711181    1.872    0.466
        12 -14.8239     34.9100    165.2110   1.3353864007e+02   3.7101374584e+01    0.6537096    0.4422702  55.25  0.003023096    1.562    0.360
        13 -13.0880    192.3431    195.7000   1.0073020804e+02   3.2756935256e+00    0.3345327    0.2653446  56.96   0.00173759    1.477    0.323
        14 -13.8539    148.6031    178.8914   1.0712924965e+02   1.5374539579e+01    0.5078831    0.3776094  55.58  0.002391442    1.419    0.295
        15 -14.9128    145.0338    186.5997   1.0949343564e+02   1.4314991834e+01     1.071816     0.582599 -68.64  0.003827795    2.851    0.649
        16 -14.4257    141.2654    177.8153   1.0866409519e+02   1.7077540044e+01     0.633413    0.5197336  51.42  0.002233543    1.216    0.178
        17 -14.6985    117.2158    174.5490   1.1394416748e+02   2.2489228823e+01     1.519262    0.9122528 -71.76  0.006112217    2.101    0.524
        18 -13.6486    140.2916    192.2564   1.1168291103e+02   1.3942127789e+01    0.4421097    0.4312987  87.74  0.002473177    1.029    0.029
        19 -12.8632    189.1340    189.6951   1.0021456638e+02   5.0837654961e+00    0.6013643    0.2077297 -35.98   0.00180375    3.929    0.745
        20 -12.3988    156.4106    192.2172   1.0793503047e+02   1.0848196796e+01    0.2101391     0.144251 -62.30 0.0009471095    1.677    0.404
        21 -14.8241     62.4142    184.8563   1.2937326881e+02   2.8894199071e+01    0.7890472    0.5469414 -77.42  0.003014473    1.345    0.257
        22 -13.8292     68.7613    183.6886   1.2765537782e+02   2.8288086102e+01    0.4728379    0.3426453 -76.95  0.001914945    1.296    0.228
        23 -14.7610    235.8020    183.3348   8.9778011886e+01  -2.0564216019e+00      1.73736     1.256845  88.45  0.007963491    2.843    0.648
        24 -14.8631    247.6220    172.2511   8.5506161199e+01  -2.0135634151e+00     1.502098    0.5604998 -35.85  0.005866864    2.597    0.615
        25 -13.7946    247.4913    155.2449   8.2098316310e+01   1.0835565761e+00    0.7671419    0.4449593 -38.21  0.003212594    1.515    0.340
        26 -14.5916     46.0869    186.7936   1.3353737904e+02   3.0543183056e+01    0.4913209     0.351213  27.64    0.0027231    1.719    0.418
        27 -11.7440    193.8355    187.3177   9.8747602931e+01   4.6772412863e+00    0.2267475    0.1861359  60.69 0.0009800156    1.444    0.307
        28 -13.8696    155.6305    183.2600   1.0635949964e+02   1.2989626401e+01     0.429003    0.3924087  85.54   0.00227434    1.181    0.153
        29 -12.9943    160.5179    180.7520   1.0472640198e+02   1.2579557164e+01    0.5052573    0.2871265  29.41  0.001979213    2.142    0.533
        30 -14.3817     77.9298    179.6203   1.2476012590e+02   2.7934420317e+01    0.7932204     0.638613 -61.39  0.003527156    1.199    0.166
        31 -12.7374    191.6678    178.4123   9.7378109245e+01   6.9145131989e+00    0.3468971    0.1862221  47.63   0.00136746    1.984    0.496
        32 -13.8890     91.1066    175.3144   1.2071037815e+02   2.6907323448e+01     1.003249     0.453771  53.37  0.003660185    2.662    0.624
        33 -14.6043    100.7398    164.3548   1.1621281561e+02   2.7983780199e+01    0.8529442    0.5396261  27.23  0.002950607    1.925    0.481
        34 -15.1276     33.6402    174.5519   1.3502448420e+02   3.4953307690e+01    0.7282946     0.404581 -77.59  0.002683299    1.616    0.381
        35 -14.2400    198.9937    168.0103   9.3670144505e+01   7.6269039479e+00    0.6685307    0.5209712 -47.80  0.003402785    1.256    0.204
        36 -14.1914    201.9310    159.2821   9.1199031593e+01   8.8392851921e+00    0.7558731    0.5461429  -9.39  0.003428648    1.913    0.477
        37 -13.0082    101.6683    171.9834   1.1741066705e+02   2.5933050594e+01    0.3219036    0.2623396  37.58  0.001636561    1.292    0.226
        38 -15.8129     26.3968    174.7131   1.3678196614e+02   3.5668725923e+01     2.376557    0.5853536 -69.88  0.008277214    3.436    0.709
        39 -14.5799    203.6662    165.8647   9.2268531803e+01   7.1474303800e+00      1.15128    0.5113786 -31.64  0.003931681    3.022    0.669
        40 -11.7494    237.8025    163.1659   8.5341515599e+01   1.3087154507e+00    0.4058838    0.1728907  33.65  0.001502867    3.412    0.707
        41 -12.2684    187.9803    161.4034   9.4534535303e+01   1.1227964090e+01     0.387736    0.3169094  18.27  0.001693133    1.423    0.297
        42 -12.1316    128.4907    156.5104   1.0740003754e+02   2.4676916330e+01    0.3003407    0.2629863   6.88  0.001013818    1.367    0.269
        43 -13.5160     90.8254    169.5064   1.1975906078e+02   2.8396176929e+01    0.3549851    0.2770227  -0.32  0.001645256    1.846    0.458
        44 -13.4764    197.7299    197.6273   9.9989088644e+01   1.9105358183e+00     0.485844    0.2834559 -27.11  0.002107483    2.072    0.517
        45 -14.1361    143.6806    152.2234   1.0264204255e+02   2.2586068312e+01    0.8065123     0.548116  30.20  0.003461255    1.714    0.417
        46 -13.9211    104.1771    152.8992   1.1300544984e+02   3.0206242425e+01    0.6140926    0.3815039 -30.04  0.002429745    2.299    0.565
        47 -13.3873    228.8435    141.1923   8.2275548924e+01   7.1267970496e+00     1.512456     0.262607 -45.66  0.003743497    5.553    0.820
        48 -12.5025    199.8941    152.5841   9.0140942647e+01   1.0635026200e+01    0.3119289    0.2718594  29.64  0.001239526    1.250    0.200
        49 -13.8024    142.6269    141.3058   1.0039642837e+02   2.5354601608e+01     1.064057    0.5468349  50.87  0.004004153    2.082    0.520
        50 -15.3017    189.7073    126.3817   8.6209705736e+01   1.8254702579e+01     1.971757     1.833554  75.74   0.01063836    1.102    0.093
        51 -13.2532    211.2146    132.5881   8.3512246371e+01   1.2357410044e+01     0.664008    0.5119409 -27.80  0.003273299    1.426    0.299
        52 -11.3839     99.6545    141.6756   1.1184255978e+02   3.3780975357e+01     0.157875    0.1203888 -18.04 0.0007050228    1.741    0.425
        53 -15.2309    214.7653    145.8384   8.5791007159e+01   8.9889021743e+00     1.669093     1.184048  11.23  0.007503115    2.167    0.539
        54 -11.3854    163.5032    137.0549   9.4392055638e+01   2.1783585889e+01    0.2496174    0.1531417 -46.08  0.001035382    1.597    0.374
        55 -14.9802    130.7763    174.7358   1.1060447481e+02   1.9858911832e+01     1.228806    0.9134681   6.98  0.005396611    1.960    0.490
        56 -12.5693    248.1190    126.1254   7.6022392028e+01   6.2913296422e+00    0.4077247    0.3280457 -40.17  0.001907474    1.137    0.121
        57 -14.9480    236.5707    113.1561   7.5026450125e+01   1.0876060986e+01      2.13113       1.3887 -79.17  0.009970678    2.110    0.526
        58 -12.9525    220.7588    115.3225   7.7991256672e+01   1.3711855453e+01    0.9372436    0.4388947 -43.84   0.00389397    1.936    0.484
        59 -12.8506     48.9841    118.6653   1.2184984999e+02   4.6904696994e+01    0.5202504    0.3888665 -35.24  0.002873326    1.358    0.263
        60 -14.6712    203.1963    131.8789   8.4847308794e+01   1.4193389193e+01     1.487259    0.6067641 -48.09   0.00537644    2.391    0.582
        61 -13.1393     29.8211    114.1816   1.2695351338e+02   4.9938004821e+01    0.2693636     0.238464  -5.25  0.001358726    1.292    0.226
        62 -11.4760    249.8858    110.2389   7.2498799709e+01   8.8072282122e+00    0.2465191    0.1699915 -20.65   0.00122319    2.074    0.518
        63 -14.2538     28.1030    103.3119   1.2537187551e+02   5.2579294251e+01    0.7871924    0.5321437 -35.76  0.004529394    1.420    0.296
        64 -12.6444    102.7227    102.2092   1.0127372647e+02   4.2368770883e+01    0.5038638    0.3736733  27.05  0.002443792    1.479    0.324
        65 -12.6845     95.0232    105.2957   1.0438054177e+02   4.3130074324e+01    0.4765151    0.3286364  50.74   0.00224839    1.616    0.381
        66 -13.3603     96.9423     99.5547   1.0225685287e+02   4.4021041877e+01    0.5543916    0.4563497 -26.15  0.002898636    1.259    0.206
        67 -11.6785     87.0774    104.8130   1.0666036530e+02   4.4632215572e+01    0.2258327    0.2034693  79.43  0.001230583    1.312    0.238
        68 -13.2169    213.8568     99.4753   7.5558204930e+01   1.8150297819e+01     0.642239    0.5698416 -88.54  0.003664918    1.103    0.093
        69 -13.0554    210.5180     91.4820   7.4268399416e+01   2.0335675755e+01    0.8550383    0.4915472  44.69  0.003807539    2.107    0.525
        70 -12.5894     39.1424    101.3535   1.2129481337e+02   5.1968598757e+01    0.4150863     0.249799  19.93  0.002161905    1.930    0.482
        71 -14.0776     68.0672     91.7307   1.0921350177e+02   5.0470147897e+01     1.000869    0.7424333  43.47  0.005387327    1.522    0.343
        72 -15.9398     40.2173     84.4748   1.1686120657e+02   5.5504695168e+01     1.357392    0.9550197 -41.24  0.007930199    1.218    0.179
        73 -14.9811     49.4826     83.5273   1.1332844637e+02   5.4652614890e+01     1.187094    0.7907934 -72.40  0.005869368    2.231    0.552
        74 -14.2092     86.1381     94.6504   1.0420326692e+02   4.6981595039e+01    0.8065575    0.5908995  36.18  0.003836177    1.405    0.288
        75 -14.7256     81.0886     86.9394   1.0361911210e+02   4.9421079742e+01     1.337343    0.7926794  47.98  0.006171494    1.952    0.488
        76 -11.5108     71.4673     99.0622   1.1006334482e+02   4.8396265999e+01    0.2598418    0.1966248  50.67  0.001249849    1.567    0.362
        77 -12.5338     19.3973     96.6633   1.2691667675e+02   5.4771629850e+01     0.318553    0.2567681  13.52  0.002088001    1.445    0.308
        78 -15.1706    206.7800     73.3212   7.0660823401e+01   2.4299918922e+01     2.358541    0.9147622  48.25  0.008703344    3.115    0.679
        79 -13.9878      3.8023     75.0208   1.2786817715e+02   6.0375088387e+01    0.4611122    0.2259019 -42.08  0.002620279    1.619    0.382
        80 -14.4569     79.1380     66.3848   9.8003135597e+01   5.3616825188e+01    0.7852843    0.6511575  21.36  0.004632279    1.155    0.134
        81 -14.3079     95.0652     70.6440   9.4343458190e+01   5.0010677887e+01      1.07479    0.7833917   3.11  0.005416238    1.684    0.406
        82 -12.1086     58.3398     74.2553   1.0755329518e+02   5.5358736195e+01    0.3557474    0.2320258 -34.34   0.00191068    1.426    0.299
        83 -15.7000     44.0017     66.8569   1.1054477096e+02   5.8564967015e+01    0.9425201    0.6396976  28.81  0.005528538    1.566    0.362
        84 -11.6527    191.8923     65.6426   7.1138384153e+01   2.8993278425e+01    0.3222568    0.1977024 -41.94  0.001562042    1.636    0.389
        85 -14.4921    208.3259    223.6695   1.0274116944e+02  -4.6950384741e+00    0.7524764    0.5691256  24.98  0.003771209    1.246    0.198
        86 -13.6169    117.5812     35.1181   7.6896787980e+01   5.0604820537e+01    0.4089425    0.2452184 -31.58  0.002122503    1.849    0.459
        87 -13.6192    224.8234    222.7475   9.9368306004e+01  -7.1479259639e+00    0.4751587    0.3833903  12.22  0.002899115    1.143    0.125
