#   1 NUMBER                 Running object number                                     
#   2 MAG_AUTO               Kron-like elliptical aperture magnitude                    [mag]
#   3 X_IMAGE                Object position along x                                    [pixel]
#   4 Y_IMAGE                Object position along y                                    [pixel]
#   5 X_WORLD                Barycenter position along world x axis                     [deg]
#   6 Y_WORLD                Barycenter position along world y axis                     [deg]
#   7 A_WORLD                Profile RMS along major axis (world units)                 [deg]
#   8 B_WORLD                Profile RMS along minor axis (world units)                 [deg]
#   9 THETA_WORLD            Position angle (CCW/world-x)                               [deg]
#  10 FWHM_WORLD             FWHM assuming a gaussian core                              [deg]
#  11 ELONGATION             A_IMAGE/B_IMAGE                                           
#  12 ELLIPTICITY            1 - B_IMAGE/A_IMAGE                                       
         1 -13.7668     57.4294    129.4900   1.0489269617e+02   4.2348079074e+01     2.763883     0.863025 -71.73  0.006373688    7.242    0.862
         2 -13.9043    226.4616     17.7010   3.6447792199e+01   2.6876325083e+01     1.121637    0.8763336  38.64  0.002659099    1.713    0.416
         3 -13.7079    201.0338     40.2224   4.4702035737e+01   3.0036147830e+01     1.359104     1.027891   8.12  0.004346197    1.871    0.466
         4 -13.7061    208.7613     34.7022   4.2328598933e+01   2.8911194019e+01     1.386189    0.9394562 -28.00  0.006632579    1.596    0.373
         5 -12.6618    216.7974     27.3649   3.9634480866e+01   2.7942585795e+01    0.5582412    0.4254017  38.59  0.001155474    1.687    0.407
         6 -11.3287      2.2383      5.6441   9.2455712926e+01   7.3502701641e+01    0.6183404    0.1014942 -48.22  0.002206353    5.086    0.803
         7  -9.6711    129.7542      8.8088   4.6356222453e+01   5.1024299271e+01     0.237433    0.1596987 -83.53 0.0006897547    1.944    0.486
         8 -11.0155    247.7095      1.7316   3.1420798334e+01   2.4047145053e+01    0.4707678    0.1483555  75.68  0.002096387    3.039    0.671
         9 -11.5769    111.3214    197.9836   1.0205046684e+02   1.8250404508e+01    0.2851035    0.2357405  35.72  0.001217173    1.178    0.151
        10 -14.7800     85.8802    228.6591   1.1145600683e+02   1.5850446174e+01     2.448524     1.214489  41.03  0.008574232    1.723    0.419
        11 -13.9405      3.1657    179.3374   1.2455524274e+02   3.5665916967e+01     2.232283    0.4912117 -79.10  0.005364203    4.033    0.752
        12 -16.4182     31.5961    181.8851   1.1851396243e+02   3.2563093610e+01     9.703217     4.010364  77.37    0.0374965    3.521    0.716
        13 -15.5831      8.3238    239.7921   1.2688661207e+02   2.2848856638e+01     2.027484     1.842369 -80.06   0.01720525    1.486    0.327
        14 -14.7717      9.1531    207.5393   1.2508105399e+02   2.9107693150e+01     1.199407     1.092056 -27.10  0.007272189    1.682    0.406
        15 -11.0878    109.9768    194.0078   1.0176407872e+02   1.9319516267e+01    0.3053239    0.1977824 -78.56 0.0007883504    1.992    0.498
        16 -13.4315     33.2172    206.3316   1.2022563458e+02   2.7005198470e+01    0.6672829    0.4886104 -39.09  0.001340047    2.039    0.510
        17 -13.5282     63.3173    159.7586   1.0816410472e+02   3.4169385272e+01    0.5432966     0.330053 -46.12  0.001823318    1.801    0.445
        18 -12.5317     95.6854    188.0480   1.0424040249e+02   2.2903282616e+01    0.6977406     0.415827  36.04  0.003045378    1.648    0.393
        19 -13.5839    100.6210    179.7123   1.0177490542e+02   2.4006707560e+01      1.92447     1.459155   2.95  0.009589507    1.858    0.462
        20 -14.1431     80.7878    157.2582   1.0316014937e+02   3.2366785337e+01     1.799062     1.062854  60.96  0.002444588    2.096    0.523
        21 -11.0679    169.8769    231.6629   9.4504262687e+01   2.2990450851e+00    0.2807286     0.178586 -41.26  0.001287594    1.801    0.445
        22 -10.0222    144.9910    181.5087   9.1426887710e+01   1.5889183829e+01    0.2318846    0.1375462  38.74 0.0006705392    1.599    0.375
        23 -12.0514     60.9890    178.9892   1.1133311210e+02   2.9890684689e+01    0.4302348    0.2900731 -34.63  0.002186751    2.098    0.523
        24 -11.9220     66.2544    173.5099   1.0934290967e+02   3.0495593168e+01    0.3162612    0.2661817 -41.25 0.0007956683    1.399    0.285
        25 -13.4973     19.6423    220.3766   1.2384786451e+02   2.5496737280e+01    0.7608667    0.4734229  63.29  0.002403625    1.302    0.232
        26 -13.3427     68.4015    144.4345   1.0435941599e+02   3.7249763029e+01    0.9062344    0.6118181  85.28  0.002730947    1.819    0.450
        27 -15.6283     65.1457    248.0542   1.1727378538e+02   1.4989367540e+01     10.12418     2.861142  28.75  0.008196102   10.566    0.905
        28 -10.8170    138.0011    170.8334   9.1046251844e+01   1.9466541561e+01    0.2820162    0.2034826  35.45  0.001362101    1.356    0.263
        29  -9.8818    158.2868    161.2394   8.4237178184e+01   1.7620012635e+01    0.3743945    0.2586122 -85.09  0.001456898    2.739    0.635
        30  -9.7069    174.8735    149.1466   7.7743546534e+01   1.6781256281e+01     0.228449    0.2159905 -85.58 0.0006541724    1.250    0.200
        31 -10.6189    133.6347    144.0548   8.6512089261e+01   2.6300880726e+01    0.9961389     0.248159 -54.34  0.002133544    6.778    0.852
        32 -11.5148     32.6706    144.2688   1.1418739455e+02   4.1361374587e+01    0.3896068    0.3028874  29.97  0.002366169    1.496    0.332
        33 -10.6950     97.6083    143.1710   9.5972383901e+01   3.3139413763e+01    0.3197214    0.2592872 -23.83 0.0009501566    1.452    0.311
        34 -10.0692    100.3074    140.3305   9.4637021648e+01   3.3368070680e+01    0.3713588    0.2451542 -28.44  0.001592804    1.979    0.495
        35 -12.3745     85.7885    141.5647   9.8951229130e+01   3.5437790147e+01    0.3097711    0.2578415 -47.26 0.0003274219    1.188    0.158
        36 -10.2120    158.9107    135.0749   7.8119804251e+01   2.3073517767e+01    0.3287846    0.2505431 -65.41 0.0009075291    1.634    0.388
        37 -10.8806    107.5703    131.3337   9.0630307233e+01   3.4243394393e+01    0.5346957    0.3341034  37.34  0.002344184    1.651    0.394
        38 -11.6486     76.0430    163.8207   1.0546425884e+02   3.1468137403e+01    0.2949884    0.2846447 -74.93 0.0003837552    1.093    0.085
        39 -11.0893    135.4587    124.2704   8.1315567798e+01   3.0409151315e+01    0.6566875    0.1501685 -47.51  0.001650463    4.491    0.777
        40 -10.9500     96.4651    127.6320   9.2961934821e+01   3.7088947910e+01     0.305953    0.2448224 -28.56 0.0006029645    1.375    0.273
        41 -11.2799     24.7743    133.9305   1.1503561768e+02   4.4574627900e+01    0.3746459    0.2161549  65.63   0.00188233    2.055    0.513
        42 -10.3132    115.5615    125.3194   8.6968883831e+01   3.4167605461e+01     0.267836    0.1948721  13.44 0.0008599273    1.767    0.434
        43 -11.9167     66.8421    126.6229   1.0153623924e+02   4.1855549433e+01    0.5151364    0.2664787 -65.49  0.002185944    1.944    0.486
        44  -9.7090    106.2467    120.0297   8.8325172740e+01   3.7162436907e+01    0.2215203     0.194737 -24.88 0.0004575484    1.182    0.154
        45  -9.5025    168.1539    113.2650   7.0447313075e+01   2.5589342442e+01    0.2986069     0.203691 -66.30  0.001212264    2.070    0.517
        46  -9.9988    205.3864    110.3745   6.2076838948e+01   1.7797068824e+01    0.2953427    0.2300715  45.15  0.001014643    1.360    0.265
        47 -10.2329     32.1359    130.1582   1.1243153930e+02   4.4856837876e+01    0.1771129    0.1408515  76.61 0.0004197088    1.309    0.236
        48 -11.1604     53.0608     90.8381   9.8113841045e+01   5.2210482171e+01    0.3183438    0.1783877 -50.96  0.001182816    1.538    0.350
        49 -10.1909     41.6327     92.1010   1.0245949212e+02   5.3166869471e+01    0.1929821    0.1873988  48.24 0.0003936392    1.217    0.178
        50  -9.0838     71.4784     82.9666   8.9475246703e+01   5.1524319673e+01    0.1888502    0.1275756 -75.14 0.0005924104    2.365    0.577
        51  -9.3748    160.4169     81.8177   6.3481388808e+01   3.3474496280e+01    0.2107478    0.1486122 -22.87 0.0005107787    1.591    0.372
        52 -10.5756     13.5145     60.1025   1.0566683439e+02   6.2628624960e+01    0.2055248    0.1816261 -31.26 0.0003847559    1.155    0.134
        53 -13.7804     31.2828    248.0480   1.2336875540e+02   1.8986433241e+01     1.105504    0.7986707  27.13  0.004728873    1.826    0.452
        54 -11.3697    183.5684    215.6946   8.9121631918e+01   2.6719178097e+00    0.3510229    0.2369785  62.59  0.001663412    2.518    0.603
        55 -10.9124    113.1185    207.6340   1.0304256902e+02   1.5951067687e+01    0.2244364    0.1816145 -84.25  0.000744829    1.391    0.281
        56  -9.5392    209.9857    200.0177   8.0972906206e+01   8.5149582702e-01    0.1625378    0.1377147  -3.96 0.0003206774    1.054    0.051
        57 -10.4986    136.5383     42.9347   5.6666730458e+01   4.5534752773e+01    0.2608456    0.2046778  67.52 0.0004870949    1.343    0.255
        58  -9.2426    138.4911     36.9150   5.4225276348e+01   4.5864445678e+01    0.1988541    0.1405976 -30.73 0.0006831205    1.496    0.332
        59  -9.6874    189.5036     15.0919   3.9554070018e+01   3.5773047963e+01    0.1864829    0.1285992 -30.63 0.0008743469    1.563    0.360
        60 -11.3251    193.4825    195.8280   8.3491429833e+01   4.3559929156e+00    0.8222394    0.4396997 -62.80  0.002404276    6.354    0.843
        61 -10.2198     60.6514    198.7402   1.1367335015e+02   2.5456838677e+01     0.208473    0.1592198  55.31 0.0005728051    1.187    0.158
