#   1 NUMBER                 Running object number                                     
#   2 MAG_AUTO               Kron-like elliptical aperture magnitude                    [mag]
#   3 X_IMAGE                Object position along x                                    [pixel]
#   4 Y_IMAGE                Object position along y                                    [pixel]
#   5 X_WORLD                Barycenter position along world x axis                     [deg]
#   6 Y_WORLD                Barycenter position along world y axis                     [deg]
#   7 A_WORLD                Profile RMS along major axis (world units)                 [deg]
#   8 B_WORLD                Profile RMS along minor axis (world units)                 [deg]
#   9 THETA_WORLD            Position angle (CCW/world-x)                               [deg]
#  10 FWHM_WORLD             FWHM assuming a gaussian core                              [deg]
#  11 ELONGATION             A_IMAGE/B_IMAGE                                           
#  12 ELLIPTICITY            1 - B_IMAGE/A_IMAGE                                       
         1 -13.2107     66.1183    142.2164   1.2540715569e+02   3.8604324102e+01     2.474493     1.219772 -87.42    0.0040591    5.121    0.805
         2 -13.9217    203.0855     18.3399   6.2052114328e+01   3.2493480974e+01     1.561027     1.281512 -20.49  0.007540285    1.611    0.379
         3 -13.9313    209.6633     12.4027   5.9999220078e+01   3.1628529139e+01     3.336262     1.709849  33.70  0.001431145    4.966    0.799
         4 -11.5315      2.3487     14.0626   1.1452963397e+02   7.0517667167e+01    0.2919298    0.1944282 -37.18   0.00151724    1.328    0.247
         5 -11.8576      2.0564      4.9605   1.1094099826e+02   7.1780053633e+01    0.5516317    0.2685304 -28.16  0.003653861    1.613    0.380
         6 -10.8147     82.1920    249.0368   1.3613286234e+02   1.2139427297e+01     0.233481    0.1536976  50.57  0.001142739    1.274    0.215
         7 -11.0678    249.3395    247.6624   1.0390716852e+02  -1.4369445395e+01    0.2680936    0.1969049 -28.80  0.001802795    1.424    0.298
         8 -11.3864    101.2224    248.9583   1.3252255144e+02   9.2324945315e+00    0.4337858    0.3039359  52.92  0.002052658    1.176    0.150
         9 -13.3275    108.1244    246.3528   1.3089339936e+02   8.6196526276e+00     1.570379    0.2970036  46.16  0.004978435    4.287    0.767
        10 -10.4322     93.3830    250.1730   1.3414578778e+02   1.0227719814e+01    0.2535451    0.2224684  58.75  0.001517262    1.179    0.152
        11 -12.6991     88.5845    244.1651   1.3442490190e+02   1.2112753966e+01    0.8350454    0.4018185  61.91  0.003171991    2.198    0.545
        12 -13.2937      3.8314    245.9568   1.4951915163e+02   2.2606810205e+01     2.220629    0.6923196 -73.99   0.01162282    2.666    0.625
        13 -13.7364     34.3216    245.6592   1.4445597599e+02   1.9270022794e+01     1.704638     1.312759  13.36   0.01080213    2.554    0.608
        14 -13.8788     10.5665    206.7577   1.4592429454e+02   2.9880829316e+01     1.348389    0.7511343 -57.38  0.003106583    2.021    0.505
        15 -15.4293      3.8809    187.8003   1.4578837828e+02   3.4619579376e+01     7.988012     1.122084 -69.54   0.02822237    4.295    0.767
        16 -15.1221     54.6590    208.7099   1.3741196031e+02   2.4414859822e+01     8.957366     1.379271  48.06   0.02570595    5.886    0.830
        17 -10.7796     75.4903    228.8513   1.3534542978e+02   1.7161203640e+01    0.3143259    0.1869615  80.33  0.001566192    1.801    0.445
        18 -10.7484     69.0485    228.7079   1.3660046857e+02   1.8125496163e+01    0.2935437    0.2319101 -85.26  0.001549983    1.179    0.152
        19 -12.4918     16.2626    241.5321   1.4724314164e+02   2.2150061193e+01     1.276988     0.304697  55.41  0.005184587    3.602    0.722
        20 -10.4451     70.8475    236.2041   1.3700792856e+02   1.6327693718e+01    0.3908776    0.1306757  49.44  0.001676239    2.557    0.609
        21 -11.9771    139.4046    248.6662   1.2504859699e+02   3.0120907063e+00    0.6264927    0.3132659 -62.89  0.002928593    2.692    0.629
        22 -10.1469     58.6185    240.7799   1.3973678461e+02   1.7117186281e+01    0.3451388    0.1210548  45.27  0.001613691    2.356    0.576
        23 -11.5823     99.7314    237.8874   1.3155186480e+02   1.1597691133e+01     0.375534    0.2355608  73.84  0.001348971    1.753    0.429
        24 -12.7720     39.0940    225.7303   1.4206887097e+02   2.2718183443e+01    0.3684657     0.325055 -73.43  0.000823105    1.404    0.288
        25 -10.7948    227.9496    204.3577   1.0000474024e+02  -4.7404386610e+00    0.3166158    0.2391542 -57.44 0.0007814601    1.809    0.447
        26 -11.1634     27.6109    204.3510   1.4245373757e+02   2.8642650039e+01    0.3175213    0.1500282  55.88  0.001250541    1.980    0.495
        27 -11.6179     65.0685    193.1702   1.3339135648e+02   2.6528513666e+01    0.4041531    0.2692051 -49.31  0.001738449    1.765    0.434
        28  -9.8482    191.7190    192.4931   1.0488344789e+02   3.9584712683e+00    0.4662556    0.2544452 -66.22  0.001525549    4.162    0.760
        29  -8.5617    181.5226    192.5109   1.0703429498e+02   5.9297770180e+00    0.1441657    0.1378453  26.79 0.0001409525    1.009    0.009
        30 -11.7677     70.2859    185.9233   1.3126083907e+02   2.7481923358e+01    0.3068765    0.2546289 -50.31 0.0004946853    1.396    0.284
        31 -11.1623     79.6699    174.1987   1.2732836935e+02   2.8882061746e+01    0.2639422    0.2275102 -76.21  0.000350816    1.066    0.062
        32 -13.3183     66.9639    171.5576   1.3000135999e+02   3.1372453745e+01    0.5274731    0.2842294 -45.30  0.001514294    2.225    0.551
        33 -10.6854    104.1307    172.7196   1.2111996510e+02   2.5223415999e+01    0.7504074    0.1828231  48.31  0.001949471    5.090    0.804
        34 -12.1362     62.5999    217.6371   1.3673325897e+02   2.1385003500e+01    0.5627639    0.2481923  50.04  0.002687311    2.040    0.510
        35 -12.0921     86.9061    165.8989   1.2418625561e+02   2.9754008429e+01     0.827448    0.5558069  57.93  0.002663396    1.572    0.364
        36 -11.2332     22.6672    236.3750   1.4582356585e+02   2.2461668192e+01    0.3437972    0.2895339 -29.44  0.001879673    2.254    0.556
        37  -9.7235     99.4445    149.7886   1.1797147455e+02   3.1566676884e+01    0.2886818    0.2546572  -5.35 0.0007695094    1.418    0.295
        38  -9.0957    102.3151    145.6323   1.1636601540e+02   3.2064973936e+01    0.2671306    0.1650774 -39.53  0.001129096    1.843    0.458
        39 -12.1763     88.1288    148.8502   1.2076386483e+02   3.3699535841e+01    0.3003379    0.2591845 -39.21 0.0004846709    1.272    0.214
        40 -11.0455     38.7657    146.7309   1.3338931511e+02   4.0819809752e+01    0.3282892    0.1996183  54.13  0.001238396    1.849    0.459
        41  -9.0158    134.0000    144.9812   1.0804593752e+02   2.6100357226e+01    0.2645145   0.08807567 -49.28 0.0008064959    2.971    0.663
        42 -13.0299     28.4552    141.4182   1.3529362299e+02   4.3108498057e+01    0.7120115    0.4472384 -87.04  0.003883732    1.602    0.376
        43  -9.5234    110.5043    135.5198   1.1198974911e+02   3.2984427750e+01    0.3285824    0.2282728 -14.00   0.00128324    2.339    0.573
        44  -9.3368    107.3306    122.9241   1.0990831939e+02   3.6538757603e+01    0.2059075    0.1796958 -48.36 0.0003077067    1.106    0.096
        45 -10.5945     97.8544    132.5973   1.1476205653e+02   3.5981307188e+01    0.2947292    0.2507141 -19.15 0.0008802076    1.397    0.284
        46  -9.8343    230.7394    167.4747   9.2054019380e+01   1.2441424879e+00    0.3134104     0.099761 -49.83 0.0008995654    4.507    0.778
        47 -11.0583    168.0001    113.0023   9.2117530918e+01   2.5665978600e+01    0.3808702    0.3128979 -81.65 0.0009668974    1.405    0.288
        48  -9.4693    204.9441    110.8925   8.4081806452e+01   1.7499213221e+01    0.4136708    0.1852097  41.02  0.001452976    2.844    0.648
        49 -10.6410    242.5749     93.3059   7.3925570363e+01   1.2415359881e+01    0.2815129    0.1158362 -44.02  0.001142849    2.135    0.532
        50 -11.0344      1.7845     88.9868   1.3475531286e+02   5.6904126633e+01    0.3774417    0.1104673 -63.86  0.001680625    2.520    0.603
        51  -8.5410    184.7020     77.6445   7.9524026260e+01   2.8433186615e+01    0.1479373    0.1191357  15.66 0.0007035385    1.699    0.412
        52  -9.3350    157.4768     77.4841   8.4947834785e+01   3.5047545802e+01    0.1500341    0.1434329  80.19 0.0001919389    1.025    0.024
        53  -8.9591    109.3492     42.9156   8.5944135015e+01   5.1412822105e+01    0.1749132    0.1622134   1.62 0.0003007602    1.085    0.078
        54 -10.4473     28.5294    234.5275   1.4467101014e+02   2.2164830163e+01    0.2251703    0.1203056 -84.96  0.001334553    1.616    0.381
        55 -12.3425     21.2769    230.5641   1.4566928232e+02   2.3787677721e+01    0.5791442    0.3301554  51.41  0.003010782    1.540    0.351
        56 -14.1408     46.3049    216.3717   1.3985665495e+02   2.3814185113e+01     1.357468    0.7501567  67.48  0.007261391    1.715    0.417
