#   1 NUMBER                 Running object number                                     
#   2 MAG_AUTO               Kron-like elliptical aperture magnitude                    [mag]
#   3 X_IMAGE                Object position along x                                    [pixel]
#   4 Y_IMAGE                Object position along y                                    [pixel]
#   5 X_WORLD                Barycenter position along world x axis                     [deg]
#   6 Y_WORLD                Barycenter position along world y axis                     [deg]
#   7 A_WORLD                Profile RMS along major axis (world units)                 [deg]
#   8 B_WORLD                Profile RMS along minor axis (world units)                 [deg]
#   9 THETA_WORLD            Position angle (CCW/world-x)                               [deg]
#  10 FWHM_WORLD             FWHM assuming a gaussian core                              [deg]
#  11 ELONGATION             A_IMAGE/B_IMAGE                                           
#  12 ELLIPTICITY            1 - B_IMAGE/A_IMAGE                                       
         1 -12.8865    163.6519     83.4061   5.6318835143e+01   3.2610495087e+01     1.624909    0.7552857  53.92  0.006378883    2.163    0.538
         2 -12.6503     10.5510     49.9177   9.7905587660e+01   6.5626203544e+01     1.251578     0.748533 -51.19  0.007349749    1.423    0.297
         3 -10.2461    126.4630      2.8457   3.9343716301e+01   5.2003777248e+01    0.2166985    0.1794035  -1.23 0.0007039483    1.456    0.313
         4 -12.3907    128.7507     11.5579   4.1750047697e+01   5.0734001757e+01    0.4249452    0.2985355  83.71  0.002397064    1.495    0.331
         5 -12.6040    129.1544     19.2108   4.4134984094e+01   4.9909306468e+01    0.3242417    0.2524822 -10.01 0.0006186751    1.535    0.348
         6 -10.1235     14.9680     13.9921   8.1914242039e+01   7.1543630630e+01    0.1982833    0.1473304 -11.63 0.0006984385    1.029    0.028
         7 -11.9583      8.3973      9.0219   8.3384047246e+01   7.2885122351e+01     0.469967    0.3035477   5.15  0.002514868    1.321    0.243
         8 -10.8322     15.9541      6.6704   7.7727736871e+01   7.2455027653e+01    0.4807717    0.2268801 -36.08  0.002749063    2.008    0.502
         9 -11.2728     12.1825      2.1610   7.7572006103e+01   7.3442128127e+01    0.2901065    0.1710947   4.29  0.001390361    1.525    0.344
        10 -11.6715     21.8085      5.8574   7.4017528650e+01   7.1884782951e+01    0.5564235    0.3037314 -39.81  0.003193937    2.154    0.536
        11 -11.9680      4.4034     17.8998   8.9850565269e+01   7.1857082725e+01    0.4135255    0.3560984  39.80  0.002151579    1.850    0.460
        12 -11.1648      9.7748     15.6582   8.5692902349e+01   7.1778750879e+01     0.276257    0.1644939 -21.03 0.0006911449    1.408    0.290
        13 -10.5171     14.3260     22.8459   8.6257285024e+01   7.0248053657e+01    0.4246845    0.1838983 -27.30  0.002090228    2.316    0.568
        14 -11.1897     20.0179     17.0521   8.0529131526e+01   7.0576815303e+01    0.3735182    0.2907228   6.40  0.002631501    1.156    0.135
        15 -11.3674     98.6917     22.2873   5.1945133420e+01   5.6537052487e+01     0.454364    0.2960455  36.66   0.00139097    1.433    0.302
        16 -12.1129    238.0513     17.6233   3.0790334297e+01   2.5496627281e+01    0.2973007    0.2298155 -66.78 0.0002865531    1.028    0.027
        17 -11.4339    233.8956     11.3582   2.9862991179e+01   2.7023264660e+01    0.2791784    0.1406421 -35.83   0.00159091    1.961    0.490
        18 -11.1500     48.1964     16.1471   6.6335094232e+01   6.6915781538e+01     0.520574    0.3381212   8.82  0.002687085    1.520    0.342
        19 -10.2917     43.4205      8.5850   6.4776424321e+01   6.8541164925e+01    0.3408452    0.2113314 -26.40 0.0009331733    1.654    0.395
        20 -11.9832     40.8212     16.6609   6.9847933217e+01   6.7982115735e+01    0.5092167    0.3885737 -42.27  0.002537471    1.793    0.442
        21 -10.4904     39.7053     11.0200   6.7645554931e+01   6.8835696101e+01    0.2117249    0.1542732  31.60 0.0005052134    1.296    0.229
        22 -11.1588     70.0036     15.2266   5.7604172223e+01   6.3179491274e+01    0.4260368    0.2432678   1.11  0.001094849    2.242    0.554
        23 -10.9377     77.4845     11.0495   5.3423523664e+01   6.2126390660e+01     0.472838    0.1791484  50.80  0.002131343    2.180    0.541
        24 -10.1823     62.3169     14.8603   6.0146828140e+01   6.4651133253e+01    0.2571008    0.2052527  83.57  0.001469557    2.280    0.561
        25 -10.7966    117.1126     12.5293   4.4239677495e+01   5.3353102287e+01    0.5122024    0.3296011  16.94  0.002698791    1.985    0.496
        26 -10.2307     99.9436     12.4102   4.7932130442e+01   5.7244290228e+01    0.2872787    0.1685359  32.16 0.0008820471    1.765    0.433
        27  -9.2207     31.0056     12.7636   7.2691100645e+01   6.9848697715e+01    0.1611546    0.1232135   6.18 0.0004959197    1.031    0.030
        28  -9.5681     65.5012     11.9725   5.7717104002e+01   6.4367291867e+01    0.1622996   0.09199633  11.28 0.0003908519    2.159    0.537
        29 -11.2626    157.7289     12.6645   3.7645477889e+01   4.3787206972e+01    0.4125991     0.175103 -45.43  0.001865083    2.534    0.605
        30 -11.2821    164.3415      7.8638   3.5507145373e+01   4.2683936683e+01    0.3638625    0.2387238  -4.21  0.001199535    2.247    0.555
        31 -11.6131     26.6166      2.6071   6.9734354442e+01   7.1655532066e+01    0.6413613    0.1813908  34.92  0.002771695    3.210    0.688
        32 -13.0477    214.7728      6.0891   3.0216092105e+01   3.1528454674e+01     1.007296    0.4777058  83.37  0.005351471    1.966    0.491
        33 -11.3632    146.3512      6.9981   3.7599748418e+01   4.6992996825e+01      0.35955    0.2439299  23.80  0.001117112    1.957    0.489
        34 -10.8774    148.5190      2.0149   3.5876002715e+01   4.6904853497e+01    0.2409214    0.1609335  72.27 0.0005905527    1.263    0.208
        35 -11.1833    190.5458      6.7893   3.2447461531e+01   3.6758922528e+01    0.4123487    0.3078387 -79.00  0.002656992    1.169    0.145
        36 -11.1120    194.7092      2.2231   3.1017517415e+01   3.6265737789e+01    0.3128327    0.1703773  88.38  0.001512445    1.685    0.407
        37  -9.7839    100.6536      7.6768   4.5998837289e+01   5.7503016363e+01    0.1812565    0.1230773  -6.17  0.001032836    1.734    0.423
        38 -10.3531     90.0688      7.3116   4.8399284539e+01   5.9842227981e+01    0.2983526    0.1350338  62.87 0.0008058217    2.188    0.543
        39 -11.3803     97.9209      4.4467   4.5405112865e+01   5.8371385949e+01    0.3181565    0.2293643   9.15  0.001485853    1.567    0.362
        40 -10.1072     93.8491      4.0094   4.6179718847e+01   5.9297298835e+01    0.3643883    0.1541719  30.96  0.001526221    2.968    0.663
        41  -9.9804    138.2856     11.3909   4.0110088322e+01   4.8505180208e+01    0.2097459    0.1415574 -55.07 0.0008265337    1.700    0.412
        42  -9.7323    156.4596      6.4289   3.6090948910e+01   4.4662618522e+01    0.1259664    0.1056471  72.65 0.0001240625    1.043    0.041
        43 -10.0443     81.4641      5.6418   5.0005258784e+01   6.1796271571e+01    0.1863044     0.116469 -26.16 0.0003127293    1.806    0.446
        44 -12.1639    179.0173      4.1892   3.2952492434e+01   3.9622511791e+01    0.2338083    0.1942018 -81.12 0.0003466295    1.064    0.060
        45 -10.1686    246.2968      8.3517   2.8452091269e+01   2.4914441161e+01    0.0950835    0.0857193  44.31 0.0007034501    1.687    0.407
        46 -10.3419    118.8852      3.8696   4.0975218102e+01   5.3679349017e+01    0.2357918    0.1632407  75.93  0.001276259    1.397    0.284
        47 -11.2648     67.7508      3.7516   5.3278088249e+01   6.4707532662e+01    0.2490504    0.1640426  39.70 0.0003840931    1.233    0.189
        48  -9.6761    169.5782      2.7501   3.3578603952e+01   4.1925917957e+01    0.1659096     0.102091 -46.82 0.0009436256    1.672    0.402
        49 -10.1426     74.2079      2.3720   5.0684992690e+01   6.3547144155e+01    0.2132057    0.1789698 -85.36 0.0009059935    1.734    0.423
        50 -10.7442    237.1803      2.3886   2.7906845912e+01   2.7318706223e+01     0.162587   0.08569684 -86.16 0.0009571705    1.722    0.419
        51 -10.7649    230.7211      1.7088   2.8191537684e+01   2.8675951326e+01    0.1784437    0.1293687  77.00 0.0004797456    1.337    0.252
        52 -10.6507    108.1404      1.6468   4.2221449518e+01   5.6305601749e+01    0.2085607    0.1438195  53.47 0.0005915262    1.191    0.160
        53  -9.2887     87.2908      2.4012   4.7142542857e+01   6.0834643381e+01    0.1349526   0.07584307  30.17 0.0001127744    1.800    0.444
        54  -9.5063    157.5184    154.9913   7.5557945165e+01   1.9204676789e+01    0.2309093    0.1277085 -25.58 0.0008102585    2.660    0.624
        55 -10.5549    250.2332    246.9660   7.4289848581e+01  -1.1335107636e+01    0.1883577      0.12171  -5.24 0.0009659774    1.262    0.208
        56 -12.0653    232.6276    245.3242   7.7124297385e+01  -9.0786578732e+00    0.5966946     0.184936 -32.11   0.00252789    3.322    0.699
        57 -12.4525    226.6941    245.2778   7.8197195989e+01  -8.3476570115e+00    0.7437047    0.3668711  -0.33  0.003291643    3.094    0.677
        58 -11.6668    235.1135    249.1402   7.7296374746e+01  -9.8858610675e+00    0.2956055    0.1878731 -24.33  0.001909131    1.407    0.289
        59 -11.4585     89.0813    249.5847   1.0692522939e+02   1.0304620456e+01    0.2950431    0.2237419  35.90 0.0008046789    1.191    0.160
        60 -10.2175     72.6111    250.1298   1.1039155763e+02   1.2399854459e+01    0.1992647    0.1646825   1.14  0.001266195    1.682    0.406
        61 -11.8371      4.9591    236.0910   1.2282604967e+02   2.2804422920e+01    0.5718208    0.3356166  39.43   0.00331083    1.588    0.370
        62 -13.0139     19.1992    237.1842   1.2015658047e+02   2.1207676696e+01     1.440506    0.3826267  57.20  0.005541844    3.889    0.743
        63 -13.4074      5.8317    245.1720   1.2309563533e+02   2.0911242933e+01    0.9811302    0.5881338  33.46  0.004849407    1.724    0.420
        64 -12.7355     22.1888    249.0636   1.2026254840e+02   1.8528362423e+01    0.7922404    0.2241667  34.34  0.003646072    2.947    0.661
        65 -11.0298     17.4808    247.4837   1.2105811195e+02   1.9320013340e+01    0.2051735    0.1701321  79.32 -1.517123e-05    1.155    0.134
        66 -10.1654     11.3581    153.4971   1.1560560130e+02   4.1171592767e+01    0.2363598     0.129293  21.23  0.001213595    2.174    0.540
        67  -9.9436    177.3786    150.8918   7.0109416707e+01   1.6176224711e+01    0.2803585    0.2088294  69.80  0.001274778    1.911    0.477
        68  -9.9659     33.0665    147.9837   1.0885372381e+02   4.0725001830e+01    0.2007521    0.1755863 -71.39 0.0003243905    1.020    0.020
        69 -10.3577    207.0536    146.6527   6.3125082339e+01   1.1330321784e+01    0.1940464    0.1813677  18.61 0.0006020846    1.136    0.120
        70 -10.4215     18.0532    146.8227   1.1303325151e+02   4.2327465587e+01    0.3085467    0.1972603 -21.42  0.000931205    2.123    0.529
        71  -9.3930    216.3895    155.2057   6.3227945511e+01   8.0391076730e+00      0.18992    0.1209364 -46.88 0.0003357999    1.553    0.356
        72  -9.8659    220.4645    143.9592   6.0101429868e+01   9.3856858923e+00    0.2138977    0.1235021 -39.98 0.0006501873    1.534    0.348
        73  -9.8165     10.4545    144.4850   1.1493081411e+02   4.3477455340e+01    0.2052825    0.1228858  -7.19   0.00103093    2.394    0.582
        74  -9.6755     82.0299    139.7306   9.2746378937e+01   3.6708449148e+01     0.208488    0.1999124  47.14 0.0008870149    1.087    0.080
        75 -10.3076     55.2838    138.7215   1.0074197030e+02   4.0680885471e+01    0.3545218    0.2611176  44.43  0.001823755    1.459    0.314
        76 -10.1320      9.3139    135.7738   1.1430468471e+02   4.5725542490e+01    0.2887496    0.1069252 -81.37  0.001116188    2.795    0.642
        77  -9.8767    122.8379    135.1815   7.9890891804e+01   3.0602114302e+01      0.21777    0.1852561 -14.98  0.000484357    1.308    0.236
        78  -9.3824     39.9907    135.1959   1.0489377980e+02   4.3300836772e+01    0.1650579    0.1110906  24.86 0.0008325388    1.669    0.401
        79  -9.5343     20.6941    135.2004   1.1083215234e+02   4.5045647887e+01    0.2012222   0.09600752 -62.16 0.0009319067    1.711    0.416
        80 -10.0447    249.2751    134.0202   5.3399491915e+01   6.1879060042e+00    0.1904383    0.1451657 -36.52 0.0007680563    1.085    0.079
        81 -10.7019    112.0867    133.1362   8.2419039508e+01   3.3154551842e+01    0.2467593    0.2106389 -20.86 0.0006695715    1.273    0.214
        82 -11.0267     54.8047    132.7201   9.9812336660e+01   4.2272767690e+01    0.3696454    0.2302065  47.74  0.001179367    1.812    0.448
        83 -11.5308     36.7258    129.6658   1.0502876706e+02   4.5035783924e+01    0.6266287    0.2435068 -47.81  0.002468346    2.423    0.587
        84  -9.8157     59.0549    130.4500   9.8033910388e+01   4.2320742474e+01    0.2268474    0.1704962 -59.61 0.0005240393    1.224    0.183
        85 -11.2423     73.8580    129.3288   9.3103332096e+01   4.0568459898e+01    0.3359986     0.299029 -63.01 0.0009284772    1.095    0.087
        86 -11.4374     13.1759    125.9597   1.1193677802e+02   4.7914487878e+01    0.5028654    0.2256635  17.22 0.0003467585    2.681    0.627
        87 -10.9734     10.3579    122.6931   1.1239742184e+02   4.8912175099e+01    0.2684793    0.2344306  80.08   0.00149282    1.207    0.172
        88 -10.6425     24.3069    126.0732   1.0843161532e+02   4.7056902882e+01    0.2076858    0.1905952  42.33 0.0003748671    1.243    0.195
        89  -9.7026     48.3173    125.6485   1.0058642436e+02   4.4833097019e+01     0.147007    0.1058791  72.57 0.0007047214    1.738    0.424
        90 -10.0164    220.0122    124.3028   5.5896631670e+01   1.3051317013e+01     0.188377    0.1775288 -38.31 0.0005290231    1.065    0.061
        91 -10.3198      2.7119    122.9551   1.1482435531e+02   4.9300525928e+01     0.232633    0.1246485 -67.55 0.0006679946    1.477    0.323
        92  -9.9232      1.4022    119.0657   1.1477483601e+02   5.0325692265e+01     0.192423    0.1029747 -73.22 0.0003489972    1.536    0.349
        93 -10.8763     21.8185    121.3014   1.0851805131e+02   4.8452077385e+01    0.2753939    0.2169333 -16.78 0.0009959422    1.465    0.318
        94  -9.3118     32.4823    121.5526   1.0505841943e+02   4.7488962083e+01    0.1386976    0.1191098 -54.83 1.791164e-05    1.040    0.039
        95 -10.5240     73.0526    118.3478   9.0937002159e+01   4.3424100659e+01     0.391789     0.255998  88.69  0.001559285    2.549    0.608
        96  -9.6298     15.5666    119.5416   1.1029514251e+02   4.9349329905e+01    0.1322304    0.1107472 -65.95 5.085965e-06    1.015    0.015
        97 -10.4337     85.9934    116.4988   8.6307375502e+01   4.1832832633e+01    0.2350974    0.1964623 -47.75 0.0004454362    1.143    0.125
        98  -9.5848     23.6093    117.7215   1.0737053688e+02   4.9206291532e+01    0.1425097   0.08649711 -35.79 0.0006998373    1.739    0.425
        99 -10.4199     16.5240    115.5320   1.0939039606e+02   5.0277962511e+01    0.2657016    0.1415261 -32.36  0.001259164    2.139    0.532
       100 -10.0928    213.9797    115.5257   5.4940379490e+01   1.5808327471e+01     0.193613    0.1411096  50.09 0.0005095052    1.524    0.344
       101 -11.1391    249.3068    112.1975   4.8922289631e+01   9.8178719048e+00    0.2488573    0.1837416 -48.97 0.0003971328    1.188    0.158
       102 -10.1612     95.0592    112.6402   8.2471777628e+01   4.1184394231e+01    0.2642195    0.2157494 -61.23  0.001179004    1.304    0.233
       103 -11.3746     37.5212    110.5626   1.0134586655e+02   4.9754966422e+01    0.5469207    0.3053503  51.29  0.002331248    2.370    0.578
       104 -11.4616     55.2671    110.3390   9.5115609272e+01   4.7831913323e+01    0.3603755    0.2822596 -58.50  0.000538611    1.202    0.168
       105 -10.2243     55.7158    106.6445   9.4119441188e+01   4.8677223545e+01    0.2143669    0.1839971 -22.98 0.0004297461    1.171    0.146
       106 -10.3454      1.4156    108.9655   1.1350286979e+02   5.2787526887e+01    0.3301824    0.1528513 -82.93  0.001323033    2.215    0.549
       107 -10.2341      2.5032    105.4900   1.1266389970e+02   5.3574405533e+01    0.1768232    0.1362216  79.04 -5.491007e-05    1.438    0.305
       108 -12.3837     14.5890    109.2574   1.0907935546e+02   5.1955843932e+01    0.4552411    0.3227804  14.43  0.002638853    1.660    0.397
       109  -9.5213     82.5537    109.0414   8.5558227908e+01   4.4188228597e+01    0.2382445    0.1429456 -51.59  0.001030615    1.602    0.376
       110 -11.5493     33.7717    104.5153   1.0147344249e+02   5.1598792892e+01    0.6723027    0.3663799 -27.51  0.003006474    2.222    0.550
       111 -10.4389     50.7994    104.5261   9.5372027987e+01   4.9793278321e+01    0.3943375    0.1981546 -33.27  0.001579264    2.389    0.581
       112 -10.1431    243.5586    104.5243   4.8097867394e+01   1.2097513939e+01    0.1317315    0.1099624 -45.80 0.0001342149    1.006    0.006
       113  -9.0147    186.6630    104.2928   5.7160675335e+01   2.3577175763e+01    0.1495397    0.1140357 -77.70 0.0007026127    1.644    0.392
       114 -11.1149    120.9193    100.3008   7.1430598884e+01   3.8893794667e+01     0.662481    0.3478989 -23.54  0.002100987    3.460    0.711
       115 -10.5682     66.1772     98.1231   8.8322934902e+01   4.9292092427e+01    0.2341111    0.2058267   9.24 0.0004918376    1.173    0.148
       116 -10.8043      4.8062     98.6472   1.1085346649e+02   5.5102464791e+01    0.2646191    0.2345036 -62.10  0.001596798    1.096    0.088
       117 -12.7822    158.2142     89.4984   5.9124843028e+01   3.2752064607e+01    0.6910678    0.4147096 -50.02  0.002982029    1.752    0.429
       118 -12.1558     36.9421    243.9437   1.1710190884e+02   1.7950139619e+01    0.6614292    0.3097169 -87.94  0.003219601    2.312    0.567
       119 -10.8367     51.3617     98.4806   9.3747155518e+01   5.1175354199e+01    0.4397289    0.2271234 -28.33  0.001739273    2.556    0.609
       120 -11.2978     37.7449     94.9768   9.7969472111e+01   5.3511770551e+01    0.3590095    0.2387473  44.05  0.001065445    1.823    0.451
       121 -10.9255     61.9165     98.8517   9.0026598674e+01   4.9722499440e+01    0.3186992     0.282866 -25.28 0.0009321802    1.072    0.067
       122 -11.3141     25.6612     90.7443   1.0162896315e+02   5.5607131981e+01     0.410797    0.2077647 -57.47  0.001980728    1.649    0.394
       123 -11.5719     21.7006     86.8623   1.0233362944e+02   5.6826128806e+01    0.4737743    0.2526803 -60.36  0.002302399    1.612    0.380
       124  -9.2476    113.4277     93.5163   7.1639575798e+01   4.1891301345e+01    0.1536676    0.1445743  -6.09 0.0001227992    1.057    0.054
       125  -9.4308     31.3706     93.1289   9.9964506028e+01   5.4555137821e+01    0.1802854    0.1195175 -70.03 0.0003684754    1.576    0.365
       126  -9.4546     46.5402     92.5578   9.4083170228e+01   5.3137362118e+01    0.1378745    0.1254898 -40.60   8.4445e-05    1.053    0.050
       127 -10.7380     57.6808     90.0468   8.9262399938e+01   5.2334123422e+01    0.4128855    0.2482657  19.21   0.00160772    1.879    0.468
       128 -10.7716     10.8380     90.3314   1.0722397725e+02   5.6743439005e+01    0.3521386    0.2671145 -61.30  0.001091783    1.128    0.113
       129 -10.5686     96.4164     89.9669   7.5786563903e+01   4.6027238055e+01    0.4111853    0.2090574  29.19  0.001550072    2.382    0.580
       130 -11.5870    143.7661     98.4945   6.4931849385e+01   3.4288214269e+01    0.6540232    0.3870494  51.30  0.002755085    1.737    0.424
       131 -10.3448     83.0351     88.9122   7.9887034405e+01   4.8688203695e+01     0.224628    0.2045213 -19.03 0.0005181183    1.038    0.037
       132 -11.0630     78.1615     88.1927   8.1353799669e+01   4.9671801847e+01    0.3386631    0.3122236 -21.95  0.001900878    1.014    0.014
       133 -10.0932     23.2164     99.1637   1.0425609744e+02   5.3795276104e+01    0.3283776    0.1723933  22.27 0.0008535716    2.139    0.532
       134 -10.4862     65.1364     87.6447   8.5848519319e+01   5.1831133954e+01    0.2953682    0.2301593 -21.90 0.0009751957    1.296    0.228
       135 -10.7147     68.3335     83.3222   8.3429392808e+01   5.2300234937e+01    0.3689925     0.212954  -6.95  0.001355004    3.102    0.678
       136 -10.9170     46.4996     87.3533   9.2776928988e+01   5.4343635796e+01    0.3401045    0.2286915  78.46  0.001476249    2.761    0.638
       137 -11.3229      5.2886     83.9571   1.0819492442e+02   5.8535355320e+01    0.5865627    0.1707114 -43.52  0.002378502    2.790    0.642
       138 -11.5180     30.9212     81.9703   9.7541814908e+01   5.7183963722e+01    0.4145161    0.3423084  10.01   0.00165759    1.301    0.231
       139 -11.2587     19.9213     80.9061   1.0173221432e+02   5.8330990803e+01    0.3510143    0.3475207  13.92  0.001063962    1.233    0.189
       140 -11.1845     14.2723     96.4275   1.0704185162e+02   5.5085384235e+01    0.4897757    0.1427973 -58.79  0.001963516    2.441    0.590
       141  -9.8561     70.9962     79.5087   8.1311809246e+01   5.2697376435e+01    0.1993456    0.1387151  33.53 -9.832429e-05    1.468    0.319
       142 -10.4451     60.9341     78.1577   8.4650610298e+01   5.4505818833e+01    0.3775024    0.2766798  -5.59  0.001411187    1.507    0.336
       143 -10.8620     61.9014     72.3091   8.2477728653e+01   5.5586608185e+01    0.3719933    0.1751524 -43.69 0.0006500859    1.988    0.497
       144 -12.9915     74.7181    237.9776   1.0880261241e+02   1.4526800951e+01     0.815975    0.5253726 -69.52  0.004664596    1.675    0.403
       145 -10.9718      6.5077     41.2970   9.7292333342e+01   6.7571854879e+01    0.2753352    0.1814309 -29.34 0.0008379378    1.220    0.181
       146 -11.9993     31.0584     62.3702   9.2133079996e+01   6.1424480714e+01    0.9320965    0.7599724  69.74  0.005422811    1.922    0.480
       147 -12.8757     10.7514     75.0811   1.0420848538e+02   6.0258025553e+01     1.125496    0.5354139  24.02  0.005682514    2.357    0.576
       148 -14.0491     16.7525     67.4891   9.9856750653e+01   6.1543658173e+01    0.6062998    0.4418038 -36.41  0.002105623    1.138    0.121
       149 -10.9879     10.0117     63.4488   1.0182215818e+02   6.2855159160e+01    0.3013929    0.2322177 -24.18 0.0009847976    1.179    0.152
       150 -11.6940     35.0918     42.6303   8.3605021228e+01   6.4778270487e+01    0.6625873    0.3298166  10.31    0.0029838    2.594    0.615
       151 -13.1387     37.2242     50.0224   8.5321392067e+01   6.3192071327e+01    0.7692345    0.6186481 -11.59  0.003539167    1.070    0.066
       152 -12.1945     26.8282     49.7191   9.0027474598e+01   6.4350190588e+01    0.6504256    0.3516299 -51.20  0.003149045    1.774    0.436
       153 -13.1458      4.9205     65.8775   1.0465523593e+02   6.2614678684e+01     0.706458    0.3956823  85.58   0.00222708    3.420    0.708
       154 -11.7506      5.2745     58.9568   1.0285319118e+02   6.4079461848e+01    0.2549275    0.1933845 -36.93 0.0002889631    1.055    0.052
       155  -9.1829    228.7225     78.6986   4.4508334029e+01   1.9100347895e+01    0.1185609    0.1029775  -2.06 0.0002417551    1.542    0.351
       156 -12.7546     44.7539     75.2347   9.0146803231e+01   5.7240620506e+01    0.2902904    0.2652094  20.44 0.0006397629    1.220    0.180
       157 -10.7740     36.4669     68.8470   9.1721638814e+01   5.9524705365e+01    0.4657487    0.2680196  56.87  0.001885249    3.630    0.725
       158 -10.6423     90.5023     74.9416   7.3089586815e+01   5.0214976647e+01    0.2201635    0.1410307 -40.13 0.0005721682    1.553    0.356
       159 -10.2284     74.9103     75.0829   7.8515639625e+01   5.2972174314e+01    0.2734692    0.2098068   6.99  0.001410595    1.400    0.286
       160 -10.1452     74.0175     71.4931   7.7686299080e+01   5.3840200525e+01    0.2739236    0.1887197 -18.62 0.0009550428    1.628    0.386
       161 -11.0191     77.9229     69.9761   7.5787828236e+01   5.3469995931e+01    0.3677091    0.2594625  46.77  0.001057779    1.584    0.369
       162 -10.8240     54.1539     74.2327   8.6092159841e+01   5.6276542459e+01    0.4440239    0.2294401  34.55   0.00176261    2.029    0.507
       163 -12.0435     50.3370     68.7583   8.5931841838e+01   5.7917904375e+01    0.4493566    0.3243464 -29.25 0.0007369941    1.280    0.219
       164 -11.2136     51.5671     62.8681   8.3530392612e+01   5.8940126918e+01    0.3420279    0.2346534 -33.21  0.001145618    1.337    0.252
       165 -10.6334    207.5432     73.4506   4.6193115562e+01   2.4352005518e+01    0.2207376    0.2040187 -66.34 0.0002158546    1.043    0.041
       166  -9.8340    145.8290     74.1779   5.7572110903e+01   3.8385885119e+01    0.2043665    0.1781464   9.13  0.000989996    1.323    0.244
       167 -10.5242    100.8294     72.2468   6.8924689798e+01   4.8699756805e+01    0.3498244    0.2467534  71.50 0.0007673452    2.195    0.544
       168  -9.9799    128.5626     71.5698   6.0926776381e+01   4.2820563493e+01     0.315331    0.2021274  31.83  0.001382853    1.815    0.449
       169  -9.4559    167.7756     69.8052   5.1816354009e+01   3.3973108319e+01    0.1874759    0.1586003 -79.38  0.000317102    1.250    0.200
       170 -10.2148    123.4256     68.8927   6.1422287547e+01   4.4447788254e+01    0.2718378    0.2015211  24.72 0.0008231938    1.547    0.353
       171 -10.7337    127.7050     66.6818   5.9638122038e+01   4.3857280168e+01    0.2746844     0.216792  41.06  0.001409039    1.237    0.192
       172  -9.9649     42.8108     68.2233   8.8867167709e+01   5.8953872526e+01    0.1906423    0.1828813 -32.77  0.001212606    1.215    0.177
       173 -11.3225     93.8111     66.5277   6.9261695430e+01   5.1158474841e+01    0.3601044    0.2640187   9.53  0.001362765    1.607    0.378
       174 -10.7729     76.8374     63.9592   7.4160438465e+01   5.4800350334e+01    0.3445163    0.2973322 -45.28  0.001952341    1.287    0.223
       175  -9.5423    250.1824     95.8307   4.5443785870e+01   1.2313552058e+01    0.1626353    0.1407183 -25.73 0.0004916069    1.278    0.218
       176 -11.4051    105.5282     63.4747   6.4641436894e+01   4.9296808754e+01    0.3840684    0.2364823  31.07 0.0007519954    1.787    0.440
       177 -10.2404    153.7225     63.5969   5.2828866106e+01   3.8287111027e+01    0.1997926    0.1358831  67.85 0.0007412622    1.554    0.356
       178  -9.2618    201.7167     62.3148   4.4373177291e+01   2.7348879433e+01    0.1397836   0.09421492 -66.62 0.0004587062    1.578    0.366
       179 -10.7689    120.5449     61.3189   5.9777931119e+01   4.6371353302e+01    0.3083375     0.251651  76.65  0.001595126    1.468    0.319
       180 -10.8983     84.5074     60.8973   7.0427206421e+01   5.3960027845e+01    0.4172939    0.2750834  20.05  0.001981202    1.731    0.422
       181  -9.9887    155.2055     60.2132   5.1563931301e+01   3.8464724852e+01    0.1918304    0.1605405 -81.52   0.00021552    1.299    0.230
       182  -9.0774     98.2843     60.3051   6.5758053963e+01   5.1349194943e+01    0.1439002    0.1074692   8.39 0.0001980619    1.561    0.359
       183  -9.4461     69.5089     59.9779   7.5474311331e+01   5.6785769314e+01    0.2019065    0.1100843 -20.85 0.0008100462    2.515    0.602
       184 -11.5392     59.6369     58.4060   7.8742208559e+01   5.8641853699e+01    0.3866406    0.2482855 -31.68  0.001195261    1.496    0.332
       185 -11.3986     62.5990     50.8628   7.4854819129e+01   5.9531356184e+01    0.3559626    0.2125141 -28.57  0.001764722    1.695    0.410
       186  -9.8853    147.1340     56.8782   5.2222279104e+01   4.0889385784e+01    0.2091363    0.1862609 -75.02  0.000368785    1.190    0.160
       187 -10.5855     75.2526     56.1752   7.2013969690e+01   5.6477604237e+01    0.2168029    0.1905193  -1.13 0.0004135344    1.034    0.033
       188 -12.3594    105.1493     52.7922   6.1149373272e+01   5.1124734362e+01    0.3304472    0.2994344  37.91 0.0004307095    1.051    0.048
       189  -9.6379     68.4587     56.4559   7.4626930914e+01   5.7595742813e+01    0.1377282    0.1224839  -0.58 1.650815e-05    1.019    0.019
       190  -9.2814     48.3403     56.2709   8.2639871519e+01   6.0642530790e+01    0.1372081   0.09204943  -9.52 0.0006990444    1.607    0.378
       191  -9.3049    230.6691     55.3068   3.9206320804e+01   2.2193408014e+01     0.134358   0.08240487 -66.65 0.0005725003    1.662    0.398
       192 -10.3230    132.1090     54.4143   5.4749938647e+01   4.4799926815e+01    0.3719022    0.2465804  35.84  0.001770593    1.642    0.391
       193  -9.3858     82.4873     54.4769   6.8858272096e+01   5.5444994319e+01    0.1416681      0.12484   9.06 0.0008098296    1.036    0.035
       194 -10.1337     55.6887     53.8099   7.8706256529e+01   6.0071903084e+01    0.2870324    0.1874807  -0.89  0.001388393    1.791    0.442
       195 -10.1274    120.1458     52.5444   5.7035774845e+01   4.7838586143e+01    0.2808296     0.197355  19.73 0.0007783592    1.773    0.436
       196 -11.3230     88.2752     51.1845   6.5739963268e+01   5.4866092032e+01    0.2732539    0.2340641   7.26 0.0005983377    1.123    0.109
       197 -10.0457     77.8214     51.4972   6.9404421524e+01   5.6806753074e+01    0.2483806    0.2231616 -70.43 0.0008487525    1.539    0.350
       198 -10.7548     45.0163     49.8670   8.1795571970e+01   6.2263199948e+01    0.4062766     0.173506 -45.66  0.001807266    2.261    0.558
       199  -9.6107    237.2435     51.0081   3.7613175297e+01   2.1468347330e+01    0.1636457   0.09208143 -40.12 0.0007232528    1.596    0.373
       200 -11.6756    128.9351     49.0400   5.3782927084e+01   4.6329355620e+01    0.5142658     0.385185  12.27  0.002446067    1.686    0.407
       201 -10.8271     53.4394     49.9620   7.8232801944e+01   6.1086817679e+01    0.2679804    0.1828256  21.85 0.0004271312    1.424    0.298
       202  -9.2951    223.3145     49.3252   3.8714301434e+01   2.4543349564e+01    0.1159025    0.1000194  25.19 0.0003319975    1.666    0.400
       203  -9.0512    205.7097     48.7126   4.0622751809e+01   2.8418618522e+01    0.1183395    0.1017338  32.39  0.000695811    1.539    0.350
       204  -9.6254    151.6683     47.7039   4.8632902166e+01   4.1139456515e+01    0.1422796    0.1033857  32.25 0.0002892794    1.639    0.390
       205  -9.4724    119.9434     47.0551   5.5278983441e+01   4.8687704364e+01    0.1646748    0.1554747  39.38  0.000752839    1.024    0.023
       206 -10.1442     78.4937     46.9099   6.7472388855e+01   5.7419972443e+01    0.2249849    0.1867711 -51.60  0.001272417    1.529    0.346
       207 -10.9110    142.2807     44.9237   4.9630444263e+01   4.3758365431e+01    0.4781319     0.296847 -82.69  0.002014684    2.544    0.607
       208 -10.0960     57.6304     44.4845   7.4434641776e+01   6.1389254449e+01    0.4267648      0.18025 -28.88  0.001689683    2.877    0.652
       209 -10.0735    100.8456     36.3013   5.6537423371e+01   5.4406199216e+01    0.2120965    0.1687721  67.81  0.000763861    1.448    0.310
       210 -10.3214     98.8202     39.5586   5.8290376620e+01   5.4409174991e+01    0.4200953    0.1603055  46.46  0.001664631    2.341    0.573
       211 -10.9018     92.2650     43.6200   6.1723413061e+01   5.5213026019e+01    0.3984656    0.2963645 -59.37  0.002049699    1.914    0.477
       212 -10.4572     95.5472     42.9502   6.0481434848e+01   5.4629067162e+01    0.2739029     0.193595  -7.99  0.000795651    1.651    0.394
       213 -12.0418     66.5593     40.9705   6.9546534191e+01   6.0481746930e+01    0.6752215    0.4819504  45.15  0.003532237    1.521    0.342
       214 -10.9960     71.3907     41.1742   6.7823787208e+01   5.9601166806e+01    0.3791303    0.2158019 -49.55  0.001463443    2.439    0.590
       215 -12.0652     73.9918     36.9787   6.5241375208e+01   5.9740342822e+01    0.6117408     0.415016   0.12  0.002383241    1.690    0.408
       216 -11.3091     70.3596     37.2903   6.6673705018e+01   6.0359448702e+01    0.3488315    0.2480257 -21.40  0.001170686    1.414    0.293
       217 -11.1881    199.9358     49.6344   4.1573080552e+01   2.9577507519e+01    0.2387742    0.2011352 -79.81 0.0003172919    1.089    0.082
       218 -10.7469    124.7574     42.3030   5.2569240577e+01   4.8235248515e+01    0.3028644    0.2258797  89.41   0.00118961    1.738    0.425
       219 -11.0127      8.1590     33.7703   9.3899489498e+01   6.8867357118e+01    0.4403897    0.3091408 -49.52   0.00245292    1.411    0.291
       220 -10.0997     18.5202     42.3295   9.1535619163e+01   6.6496980745e+01    0.3388484    0.1483793 -40.26  0.001242802    1.886    0.470
       221 -11.1798     23.8897     41.5831   8.8604862233e+01   6.6151571277e+01    0.4190315    0.3394519  34.56  0.002721982    1.588    0.370
       222 -11.6930     17.7113     31.5597   8.7982871283e+01   6.8495702741e+01    0.5123734    0.4645751  -8.02  0.003349917    1.308    0.235
       223 -10.8900     22.8615     25.8804   8.2943943400e+01   6.8931468469e+01    0.3483888    0.2468047   7.14 0.0009890152    1.252    0.201
       224 -10.5837     30.0679     32.9227   8.2216236036e+01   6.7008187063e+01    0.3679469    0.2335635 -20.89  0.001185542    1.435    0.303
       225 -12.2903     27.7300     38.0704   8.5404063808e+01   6.6392249210e+01    0.3382808     0.187657  23.78 0.0003788584    1.790    0.441
       226 -11.6859     24.1636     35.0985   8.6034313900e+01   6.7273344676e+01    0.3005139    0.2202651   9.70 0.0007407095    1.278    0.217
       227 -11.5073     53.0791     40.7822   7.4872877018e+01   6.2688194417e+01    0.3330342    0.2178692  31.63  0.001082513    1.469    0.319
       228 -12.6369     57.6075     34.5074   7.0464212445e+01   6.2948184909e+01    0.3531692    0.2898757  -9.67 0.0003157936    1.113    0.101
       229  -9.3803    232.3921     39.8324   3.5761906942e+01   2.3935597481e+01    0.1496579    0.1106896 -31.96 0.0002652054    1.525    0.344
       230  -9.8897    161.2153     39.1038   4.4494789084e+01   4.0004106384e+01    0.3689013    0.1946661 -76.58  0.001353149    3.416    0.707
       231 -10.9955    152.6515     39.0482   4.5933821218e+01   4.2056789656e+01    0.2525583    0.2376474  29.88 0.0005625365    1.182    0.154
       232 -10.1214    111.9772     46.2767   5.7044274263e+01   5.0597830516e+01    0.4213724    0.1493832  42.94  0.001494219    2.849    0.649
       233 -11.0879    225.0974     38.3114   3.6147047998e+01   2.5633489108e+01    0.2743885    0.1913514  78.79 0.0004692232    1.390    0.281
       234  -9.7840    116.7418     39.5760   5.3558564157e+01   5.0441147804e+01     0.189288    0.1278334  65.37 0.0007451467    1.569    0.363
       235 -11.6036     44.3706     38.5349   7.7758718407e+01   6.4301161325e+01    0.3473312    0.2327694  33.68  0.001993888    1.540    0.351
       236 -10.2202      1.6506     37.7924   9.8716751005e+01   6.8523690905e+01    0.1963736    0.1062496 -36.52  0.001072417    1.434    0.303
       237 -10.8280     84.2616     35.5150   6.1197690447e+01   5.7965016693e+01    0.4585705     0.245085  24.62  0.001395249    2.407    0.585
       238  -9.5098     81.3380     33.7174   6.1448888765e+01   5.8783879174e+01    0.2347315    0.1105988  47.51 0.0007221168    1.964    0.491
       239 -10.1727     83.3441     45.2210   6.5183759120e+01   5.6757520324e+01    0.2530308    0.1956945  83.89 0.0004056207    2.227    0.551
       240  -9.9872    107.0072     42.9703   5.7227268030e+01   5.2164889713e+01    0.2097804    0.1854729  42.97 0.0003658463    1.052    0.050
       241 -10.3436    107.3039     34.7195   5.4241985179e+01   5.3190658051e+01    0.3013399    0.1738439  56.81  0.001244308    1.648    0.393
       242  -9.3636    201.8067     34.3643   3.7729221349e+01   3.1167374906e+01    0.1708968    0.1070398  61.66 0.0003253866    1.577    0.366
       243 -10.3438    205.8415     32.5607   3.6864395290e+01   3.0494803233e+01     0.194591     0.180232  73.35 0.0003188481    1.221    0.181
       244 -11.1971    221.7232     32.1263   3.5149758117e+01   2.7120369693e+01    0.2084605    0.1717662 -74.27 0.0002714038    1.017    0.017
       245  -9.4453    185.3050     33.3311   3.9468811903e+01   3.5049534531e+01    0.1264377   0.09805784  35.90 0.0007037409    1.658    0.397
       246  -9.7115    178.0000     32.9860   4.0343654211e+01   3.6792487735e+01     0.199491   0.07398556 -31.42 0.0004013491    2.873    0.652
       247 -10.4918    166.5505     32.7296   4.1902487796e+01   3.9524409784e+01    0.2282336    0.1358707 -24.48  0.001119253    2.016    0.504
       248 -11.2408     97.9407     31.6523   5.5638047251e+01   5.5621002298e+01    0.3669959    0.2478907  66.43  0.001878752    1.752    0.429
       249 -11.5358    102.1769     28.7181   5.3414903503e+01   5.5052040464e+01    0.4140564    0.2997355  72.13 0.0008068706    1.658    0.397
       250 -10.0892     89.5006     31.7138   5.8103258261e+01   5.7395170058e+01    0.2238122    0.1468391  56.86 0.0004663189    1.601    0.375
       251 -10.3759     48.3815     31.6655   7.3159662128e+01   6.4800832367e+01     0.242142    0.1772412   7.85 0.0002072108    1.241    0.194
       252 -10.1005     50.0170     27.9840   7.0877919853e+01   6.5085915752e+01     0.269664    0.1660336  15.27  0.001004433    1.674    0.403
       253 -10.6217    236.2023     30.4257   3.3487481651e+01   2.4352719205e+01    0.2139046    0.2020863 -81.98 0.0008127986    1.291    0.225
       254  -9.5813    145.4328     31.2382   4.4906654594e+01   4.4738078377e+01    0.1896033    0.1176903 -46.03  0.000947636    1.755    0.430
       255 -10.3061    111.1657     28.9421   5.1239860874e+01   5.3021538996e+01    0.2803539    0.1856189 -10.85 0.0007425713    1.843    0.457
       256 -11.1852     69.7243     26.5468   6.2522893063e+01   6.1926258019e+01    0.4470575    0.2438463  31.79  0.001602356    1.760    0.432
       257  -9.7516     60.3351     27.5871   6.6474014181e+01   6.3463675127e+01    0.1683495    0.1565363 -69.44 0.0005944106    1.652    0.395
       258  -9.2476     50.3297    240.3046   1.1413524346e+02   1.7135317549e+01    0.1085765   0.09430199 -25.94 0.0005018063    1.654    0.395
       259  -9.9752    195.4708    238.8512   8.3126588161e+01  -3.2785903349e+00    0.2166409    0.1522767   6.44   0.00127628    1.328    0.247
       260 -11.1402    128.0494     26.8163   4.6807555266e+01   4.9363831819e+01    0.5779518    0.2634768  65.72   0.00247379    2.172    0.540
       261 -10.8842    243.9269    237.3568   7.3794426946e+01  -9.3461358737e+00    0.1945252    0.1437837 -28.40  0.001130322    1.369    0.270
       262 -10.2720    214.6113     25.8595   3.4471635898e+01   2.9391289750e+01       0.1901    0.1505311  74.05 0.0003506285    1.248    0.199
       263  -9.9103    203.7202     25.5502   3.5483207374e+01   3.1804432036e+01    0.2303073     0.121147 -54.84  0.001178841    1.826    0.452
       264 -11.0515    193.1503     25.4064   3.6586733359e+01   3.4191941030e+01    0.2980165    0.1485787 -50.06  0.001081799    1.950    0.487
       265 -10.4812    169.0250     26.0099   3.9737047277e+01   3.9721967189e+01    0.1911099    0.1703315  82.67  0.001207972    1.023    0.022
       266 -12.0095    164.9472     23.1166   3.9522405233e+01   4.1007339240e+01    0.2942035    0.2182324  79.95            0    1.235    0.190
       267 -10.1434    119.0768     25.8623   4.8367669597e+01   5.1559971701e+01     0.195919     0.167586  46.38  0.000298693    1.055    0.052
       268 -10.8153     32.3788     16.9271   7.4012589411e+01   6.9121080749e+01    0.4713096     0.186469  24.47  0.002076666    2.871    0.652
       269 -11.5001     29.7962    232.9980   1.1778849663e+02   2.0970774047e+01    0.3078584    0.2529509 -66.67  0.002128143    1.394    0.283
       270  -9.7321    159.6983    236.3011   9.0106084829e+01   2.3816570039e+00     0.123466    0.0988809  56.81  0.000293596    1.587    0.370
       271  -9.4851     57.3153    244.6645   1.1305568707e+02   1.5409809627e+01    0.1315088   0.07452518  61.91 0.0007047277    1.692    0.409
       272  -9.7175    177.3226    235.3255   8.6248661713e+01  -9.1155949640e-02    0.1355083   0.09100152  -1.58 0.0007047862    1.686    0.407
       273 -10.2615      1.4956     25.9528   9.4751618969e+01   7.0695971590e+01    0.2400121    0.1174257 -33.81 0.0003825981    1.615    0.381
       274 -10.1093    109.4222    242.6709   1.0183187855e+02   8.7480461989e+00    0.2571867    0.1549524  53.18 0.0007889934    1.701    0.412
       275 -10.1795     38.2517    232.8290   1.1604753444e+02   2.0079289650e+01    0.1768239    0.1346526  69.02  0.000602554    1.104    0.094
       276 -10.2074     24.1025    232.4783   1.1890153058e+02   2.1677781190e+01    0.1967491    0.1683454 -62.72 0.0006989401    1.428    0.300
       277 -10.8080     24.7945     20.3681   7.9494878111e+01   6.9564015077e+01    0.2804296    0.1885309 -14.47  0.001779172    1.278    0.217
       278 -11.1519      7.8606     25.1332   9.0821269612e+01   7.0403714336e+01     0.427928    0.1525246  19.77  0.002069153    2.813    0.645
       279 -10.5198     88.8001    241.3568   1.0612737227e+02   1.1935963652e+01    0.2308967    0.1555769 -33.67  0.001226313    2.156    0.536
       280  -9.9574    152.4910    229.9973   9.0695604741e+01   4.6138549065e+00    0.1722135    0.1222394 -84.40  0.000810566    2.590    0.614
       281 -10.3388     22.5278     13.1071   7.7283086643e+01   7.0855160483e+01    0.1654098   0.09819407 -29.82  0.001008419    1.530    0.346
       282 -10.1788    106.4398     22.5093   5.0087525657e+01   5.4799903339e+01    0.2648555     0.175729 -70.50 0.0007759533    2.451    0.592
       283  -9.4723    169.9996    229.2591   8.6813655830e+01   2.0485271767e+00      0.17062    0.1028752  31.86 0.0004602145    1.485    0.327
       284 -10.4495     93.9970     22.7036   5.3355730984e+01   5.7506739149e+01    0.3158388    0.2151742  40.01  0.001762788    1.292    0.226
       285 -10.5028    103.3566     19.7574   4.9833030983e+01   5.5775258500e+01    0.2306429    0.1984393 -76.53 0.0007627044    1.464    0.317
       286 -11.4228    108.5826     17.5306   4.7798790419e+01   5.4827896414e+01    0.3133951     0.200185  48.28  0.000169578    1.344    0.256
       287  -9.8318     62.0000     23.9824   6.4283011624e+01   6.3641006525e+01    0.1902661    0.1281765  -4.05   0.00106261    1.562    0.360
       288 -10.9181     59.0218     21.8546   6.4503477635e+01   6.4423845764e+01    0.2966383    0.1868473 -13.52  0.001137457    1.670    0.401
       289 -10.2294    185.9738     22.9667   3.6813079560e+01   3.6109348329e+01    0.2004033    0.1643059 -82.73 0.0006149274    1.081    0.075
       290  -9.6824    226.3182     22.0607   3.2612946987e+01   2.7365879155e+01    0.1613767    0.1301131 -67.20 0.0005138114    1.041    0.040
       291 -10.4308     67.7099     21.7543   6.1215474356e+01   6.2882707836e+01    0.3552075    0.1561543  51.71   0.00121797    2.398    0.583
       292  -9.9193    120.4586     21.1515   4.6483603324e+01   5.1742774106e+01    0.1720713    0.1319873 -21.37 0.0006427193    1.484    0.326
       293 -11.2865      4.5535    226.7341   1.2243552363e+02   2.4768914415e+01    0.2980636    0.1822897  58.04  0.001919999    1.342    0.255
       294 -11.0078    120.7973    226.5599   9.7233706455e+01   1.0194147785e+01    0.2049496    0.1680339 -68.16 0.0008551867    1.412    0.292
       295  -9.9039    172.9626     20.4513   3.7752348223e+01   3.9407620673e+01    0.1872544     0.097328 -82.69 0.0008079527    2.493    0.599
       296 -10.2417    139.5643     20.0060   4.2528785630e+01   4.7369035434e+01    0.2600625    0.1484797  50.85 0.0006153649    1.599    0.375
       297 -10.0415     66.0391    226.3252   1.0953564923e+02   1.8098472216e+01    0.1951253    0.1721894 -64.49 0.0006407789    1.269    0.212
       298  -9.3520    190.4797    226.4937   8.2091358733e+01  -5.6463616541e-01    0.1339607    0.1097393   3.76 0.0008096797    1.056    0.053
       299 -11.3793     21.0874    222.3705   1.1886059057e+02   2.4127119834e+01    0.2258041    0.1729322  81.58 0.0007939943    1.099    0.090
       300 -10.5220    126.1490    221.9695   9.5364499018e+01   1.0285217914e+01    0.3820972     0.167198  40.53  0.000967163    2.057    0.514
       301  -9.4203    181.5257     19.5085   3.6473014999e+01   3.7515228250e+01     0.126026    0.1103042  80.80 0.0008089395    1.076    0.070
       302 -10.3134     54.7890     19.0183   6.4917124531e+01   6.5490466160e+01    0.1719418    0.1594872  25.85  0.001178111    1.327    0.246
       303 -10.0560     74.7703     16.1706   5.6436388156e+01   6.2156572108e+01    0.3436152    0.1598575  49.39  0.001195495    1.880    0.468
       304 -11.6095     10.0919    217.2103   1.2080160578e+02   2.6296429631e+01    0.3273157    0.2233975  49.21  0.001930172    1.323    0.244
       305  -9.8221     37.9680    217.5358   1.1491407489e+02   2.3404209055e+01    0.1788988    0.1139294  35.45 0.0006741065    1.552    0.356
       306 -11.1699     29.6303    215.9343   1.1659918080e+02   2.4659058588e+01    0.3200633    0.2634955   7.84  0.001664474    1.676    0.403
       307 -10.6180     23.4127    216.8414   1.1799728002e+02   2.5097778572e+01     0.208044    0.1639532   1.40  0.001301739    1.881    0.468
       308 -11.7617    236.0057    214.1905   7.1178075946e+01  -5.0182568044e+00    0.2573706    0.1781537  -6.84 0.0006905191    1.310    0.236
       309  -9.3506     96.5464     13.4592   4.9155667435e+01   5.7892807851e+01    0.1300241    0.1080114  40.93 0.0001121836    1.027    0.026
       310  -9.4737    136.6653    215.6905   9.2006441173e+01   9.8796875994e+00    0.1418269    0.1052694  -4.37 0.0007043043    1.677    0.404
       311 -10.3123     21.6752    212.6362   1.1807135393e+02   2.6201373688e+01    0.2856691    0.1300502  54.78  0.001431013    2.008    0.502
       312  -9.8483    208.8327    211.9619   7.5868680468e+01  -8.5429772790e-01    0.2075941    0.1519307  -7.08 0.0006772079    1.298    0.229
       313 -12.0964      4.9703    208.0198   1.2131962783e+02   2.8767448235e+01    0.5439332     0.297931  84.55  0.003111081    1.594    0.372
       314 -10.4081     10.8748    208.2911   1.2008888879e+02   2.8188748638e+01    0.2158533     0.163995 -59.49 0.0004052883    1.487    0.328
       315  -9.2505    188.2534    205.3468   7.8829532380e+01   3.4723147577e+00     0.139712   0.09681533 -11.46 0.0003554742    1.588    0.370
       316 -11.0031     17.1935    193.5164   1.1765159027e+02   3.0994389098e+01    0.3540949    0.2646269  62.37  0.002231532    1.211    0.174
       317 -10.5871     20.9108    199.4197   1.1726048802e+02   2.9275217317e+01    0.3769628    0.1902778 -46.69   0.00180141    2.611    0.617
       318 -10.2933    175.3511    202.8111   8.1115477839e+01   6.0484901592e+00    0.2238516    0.1808559  37.67 0.0005196885    1.270    0.213
       319 -10.5381    244.0808    202.3066   6.7597481528e+01  -4.2646345782e+00    0.2303012    0.1031923  28.02  0.001087575    2.479    0.597
       320  -9.5079    211.5253    188.4936   7.0929004487e+01   2.7870272655e+00    0.1374835    0.1184324 -11.91 0.0001564288    1.007    0.007
       321 -11.5614     15.9408    183.1767   1.1712038788e+02   3.3551292085e+01    0.5202258    0.2695403  82.15  0.002564584    1.941    0.485
       322 -10.2893    167.9959    183.8080   7.9138691127e+01   1.1084848040e+01    0.2351926    0.1711972  63.23 0.0009174074    1.961    0.490
       323  -9.7721     58.7948    182.1775   1.0627859607e+02   2.9238110773e+01    0.1878138    0.1607021 -39.78 0.0009143612    1.347    0.257
       324  -9.3634      1.6888    180.6853   1.2029882669e+02   3.5294922931e+01    0.1198205   0.08105651 -52.19 0.0003869426    1.635    0.388
       325  -9.8343    244.4683    178.4882   6.3029702934e+01  -5.1629166137e-01     0.239121    0.1018031 -29.94  0.001024754    2.332    0.571
       326 -10.7665     46.4322    177.8249   1.0894905826e+02   3.1797995245e+01    0.3134266    0.2410205 -86.60  0.001234105    1.218    0.179
       327  -9.5528     69.5683    178.2090   1.0291627284e+02   2.8805557257e+01    0.1918422    0.1237193 -52.43 0.0005453031    1.564    0.360
       328 -10.8361     34.1659    174.0630   1.1170463143e+02   3.4053599377e+01    0.2498151    0.1825891 -68.19 0.0005058926    1.242    0.195
       329 -10.6980     18.0094    173.2607   1.1575178604e+02   3.5767912994e+01    0.3420372    0.2101337  66.33  0.001839778    1.626    0.385
       330  -9.3799     74.3299    171.3278   1.0061105028e+02   2.9857522388e+01    0.1486643    0.1094123 -29.13 0.0007051196    1.709    0.415
       331 -12.2079     37.0406    164.2041   1.0980537564e+02   3.6221443102e+01    0.8777472    0.5695549 -63.41  0.004628192    1.385    0.278
       332 -12.7255     49.4756    161.7607   1.0605822914e+02   3.5479915092e+01     0.553107    0.4196312  38.97  0.003018914    1.378    0.274
       333  -9.6284     99.1775    164.8553   9.2707465491e+01   2.7653902772e+01    0.1990753    0.1745319 -24.27 0.0003368103    1.264    0.209
       334 -10.3133     10.3222    162.8638   1.1676663611e+02   3.8937373032e+01    0.2709581    0.1436091  44.53 0.0009723631    1.938    0.484
       335 -12.6270     21.5511    157.2021   1.1321857491e+02   3.9437523118e+01    0.6055291    0.4768107   4.79 0.0008908553    1.618    0.382
