#   1 NUMBER                 Running object number                                     
#   2 MAG_AUTO               Kron-like elliptical aperture magnitude                    [mag]
#   3 X_IMAGE                Object position along x                                    [pixel]
#   4 Y_IMAGE                Object position along y                                    [pixel]
#   5 X_WORLD                Barycenter position along world x axis                     [deg]
#   6 Y_WORLD                Barycenter position along world y axis                     [deg]
#   7 A_WORLD                Profile RMS along major axis (world units)                 [deg]
#   8 B_WORLD                Profile RMS along minor axis (world units)                 [deg]
#   9 THETA_WORLD            Position angle (CCW/world-x)                               [deg]
#  10 FWHM_WORLD             FWHM assuming a gaussian core                              [deg]
#  11 ELONGATION             A_IMAGE/B_IMAGE                                           
#  12 ELLIPTICITY            1 - B_IMAGE/A_IMAGE                                       
         1 -13.1927     65.9952    142.1456   1.2750665342e+02   3.8949898479e+01     2.390411       1.1741 -88.49  0.003803488    5.103    0.804
         2 -14.2260    202.4216     19.2380   6.3102399241e+01   3.2371363188e+01     2.528086     1.532471  32.79   0.01176221    2.708    0.631
         3 -12.2001      2.5721     15.3742   1.1821225413e+02   7.0605278375e+01    0.6538283    0.2029639 -50.82  0.003177464    3.217    0.689
         4 -11.7464      2.1138      5.2774   1.1439366512e+02   7.2072183773e+01    0.5308983    0.2088843 -44.78  0.003098755    2.333    0.571
         5 -15.7654      8.3118    199.6995   1.4767450672e+02   3.1984500547e+01     8.331241     1.581944 -73.29   0.01902905    3.992    0.750
         6 -10.8604    163.1852    249.8409   1.2205337912e+02  -8.3038987745e-01     0.350346     0.168083  52.06  0.001587873    2.173    0.540
         7 -12.5704    139.3893    248.2081   1.2657465408e+02   3.5585309783e+00    0.6441063    0.4187235  59.46  0.003527017    1.555    0.357
         8 -12.1185    125.8447    244.4775   1.2880052042e+02   6.5417733327e+00    0.3493569    0.2071295  30.30  0.001281455    1.943    0.485
         9 -12.5335    101.0737    248.1654   1.3411367426e+02   9.9569185412e+00    0.6653143    0.4088651  65.68     0.003701    1.583    0.368
        10 -13.4442    106.7335    245.9599   1.3276718010e+02   9.4547849260e+00     1.550035    0.3849681  49.51  0.005289567    3.720    0.731
        11 -12.9894     88.1372    243.1732   1.3608412781e+02   1.2928448538e+01    0.6662232      0.52269  49.16 0.0003814853    1.204    0.169
        12 -14.1070     75.1533    228.9820   1.3715995143e+02   1.7705220089e+01     2.500642     1.257841  30.81 0.0006748093    2.630    0.620
        13 -14.8186     27.6824    244.1793   1.4717528685e+02   2.0900473756e+01     11.37025     2.974655  31.21   0.03067592   10.983    0.909
        14 -14.7836     47.0622    217.0154   1.4155721273e+02   2.4055809101e+01     1.972604     1.537693 -87.44  0.007567205    1.140    0.123
        15 -11.3295    142.9608    241.4803   1.2494685793e+02   4.1178514860e+00    0.3511423    0.1602762  45.68 0.0009008365    1.834    0.455
        16 -13.3075      5.5082    239.3725   1.5057752884e+02   2.4219603839e+01      2.04331    0.6399709 -79.73    0.0103717    2.729    0.634
        17 -10.9231    173.3400    220.4450   1.1537624720e+02   2.3854664794e+00    0.3754272    0.2183109  14.07  0.001433109    3.132    0.681
        18  -9.2988     78.6682    210.9341   1.3443394099e+02   2.0998094588e+01    0.1874876     0.153404  87.86 0.0008278013    1.107    0.097
        19 -10.0325    228.7108    205.6823   1.0139438300e+02  -5.1335317000e+00    0.2611895     0.217877 -58.41 0.0006065805    1.669    0.401
        20 -10.9738     27.8277    204.5419   1.4426372151e+02   2.8989723978e+01    0.3214729    0.1254681  53.39   0.00140683    2.365    0.577
        21 -10.0591    192.9748    194.9479   1.0653545215e+02   3.3469257344e+00    0.6787147    0.3191682 -62.57  0.001605536    7.997    0.875
        22 -11.6879     65.5673    193.7924   1.3522741237e+02   2.6731658763e+01    0.4104951    0.2513821 -50.07  0.001657845    1.926    0.481
        23  -8.4850    181.5065    192.4574   1.0851217009e+02   6.0941091610e+00    0.1478722     0.136469  29.11 9.858757e-05    1.010    0.009
        24 -11.7868     70.8758    186.4010   1.3308037852e+02   2.7684336813e+01    0.2936541    0.2462386 -51.97 0.0006929728    1.383    0.277
        25 -11.0791     80.1012    174.5502   1.2919383803e+02   2.9107752340e+01    0.2481739    0.2274161  82.84 0.0004266261    1.053    0.050
        26 -13.3339     67.4933    171.9052   1.3187745228e+02   3.1577184519e+01    0.5291756    0.2923333 -44.72  0.001791819    2.233    0.552
        27 -12.1447     86.9046    165.8785   1.2610774572e+02   3.0120239672e+01     1.074194    0.5720057  55.05  0.004556807    2.092    0.522
        28  -9.8986    249.8089    249.2219   1.0532505653e+02  -1.4624237936e+01    0.1603584    0.1355829  79.33 0.0009496685    2.790    0.642
        29  -9.3215    102.5416    146.2096   1.1833573192e+02   3.2219898526e+01    0.2641568    0.1920502 -14.70 0.0008082737    2.102    0.524
        30 -12.1862     88.4118    149.1256   1.2271186108e+02   3.3926043904e+01    0.2985367    0.2603815 -36.33 0.0006814296    1.288    0.223
        31 -12.8287     30.3029    143.6983   1.3727771619e+02   4.2632594472e+01    0.5372623    0.4055158 -61.59  0.002899888    1.170    0.145
        32  -9.5288    110.7470    135.6850   1.1383842435e+02   3.3222089088e+01    0.3262497    0.2316036 -23.01  0.001385923    1.936    0.484
        33 -10.5241     98.0441    132.8024   1.1671272447e+02   3.6230996870e+01    0.2627013    0.2272989 -27.42 0.0004328601    1.292    0.226
        34 -12.7312     63.3720    218.4992   1.3844614355e+02   2.1581409809e+01    0.7853925    0.3971837  48.92  0.001406124    1.732    0.423
        35 -12.6948     39.9180    226.5990   1.4373995435e+02   2.2939341348e+01    0.3628615    0.2827961  87.23  0.000752404    1.122    0.109
        36  -9.3588    107.3744    122.9709   1.1181321037e+02   3.6847837121e+01    0.2056731    0.1798135 -50.64 0.0005519419    1.117    0.105
        37 -10.6749    167.9414    113.0059   9.3557011528e+01   2.5790306767e+01    0.3834477    0.3057047 -85.88   0.00104282    1.543    0.352
        38  -9.4533    204.2565    110.8616   8.5377605716e+01   1.7539511054e+01    0.3056981    0.1998432  27.95  0.001246707    2.174    0.540
        39  -9.8656     99.7759    149.9994   1.1984289086e+02   3.1796726826e+01    0.3145583    0.2838828  -7.59 0.0007953664    1.344    0.256
        40 -10.7716     42.9329    105.1318   1.2721747261e+02   5.0390562768e+01    0.3500407    0.1638854  41.87  0.001602627    2.563    0.610
        41  -9.2717     11.0618     93.0642   1.3504996455e+02   5.5622108079e+01    0.1691055    0.1309792  78.60  0.000538325    1.594    0.372
        42 -10.5291      1.5727     89.7525   1.3751157016e+02   5.6848536205e+01    0.2880981   0.09482542 -69.09  0.001292012    2.589    0.614
        43  -8.3735    184.7007     77.3109   8.0588975494e+01   2.8484428189e+01    0.1554372     0.114857 -76.08 0.0002589048    1.602    0.376
        44  -9.7057    110.2428     43.3834   8.7473702727e+01   5.1588035829e+01    0.2557329    0.2038281  81.42 0.0006843754    1.773    0.436
        45 -10.2465    198.9729    247.6776   1.1464715412e+02  -6.5942565555e+00    0.2304583    0.1706691 -78.21  0.001188027    2.750    0.636
        46 -12.1803     90.9155    246.9593   1.3594023895e+02   1.1779150186e+01    0.4949752    0.3406952  48.66 0.0007284462    1.231    0.187
