#   1 NUMBER                 Running object number                                     
#   2 MAG_AUTO               Kron-like elliptical aperture magnitude                    [mag]
#   3 X_IMAGE                Object position along x                                    [pixel]
#   4 Y_IMAGE                Object position along y                                    [pixel]
#   5 X_WORLD                Barycenter position along world x axis                     [deg]
#   6 Y_WORLD                Barycenter position along world y axis                     [deg]
#   7 A_WORLD                Profile RMS along major axis (world units)                 [deg]
#   8 B_WORLD                Profile RMS along minor axis (world units)                 [deg]
#   9 THETA_WORLD            Position angle (CCW/world-x)                               [deg]
#  10 FWHM_WORLD             FWHM assuming a gaussian core                              [deg]
#  11 ELONGATION             A_IMAGE/B_IMAGE                                           
#  12 ELLIPTICITY            1 - B_IMAGE/A_IMAGE                                       
         1 -11.2061    210.6297     38.2503   2.2337404531e+01   2.8493141129e+01    0.5709263    0.5506684 -50.83  0.001417379    1.197    0.165
         2 -10.1338    239.5940     15.2969   1.5041895180e+01   2.5334025318e+01    0.6004798    0.4008397 -21.62  0.003879239    1.592    0.372
         3  -9.8611    233.0016     13.7261   1.5026509190e+01   2.6730715893e+01    0.5737566    0.1951893 -36.92  0.002852899    2.063    0.515
         4  -9.7918    236.0069      8.9663   1.3823637041e+01   2.6632600916e+01    0.3616029    0.3070203 -66.17  0.002005123    1.174    0.148
         5  -9.5188    119.9124      9.6239   2.3812852630e+01   5.3805322859e+01      0.46007     0.391112  26.45  0.002581494    1.398    0.285
         6  -7.1350    208.6554      7.7111   1.4909011191e+01   3.2238705326e+01    0.1108325   0.09100479  41.79 0.0002774548    1.653    0.395
         7  -8.1520    171.4696      1.5196   1.5558389688e+01   4.1299880197e+01    0.1329496    0.1098704 -65.90 0.0001899697    1.016    0.016
         8  -8.5133    245.0000    239.5117   5.6774925972e+01  -2.4185278562e+00    0.1916192   0.04529502 -34.42 0.0009333835    3.924    0.745
         9  -9.2556    140.3192    249.3895   7.6146794451e+01   7.2910634825e+00    0.3463872    0.1359072  32.69   0.00184689    1.935    0.483
        10  -8.4630     62.7103    249.7085   9.2332399806e+01   1.5867663282e+01    0.2266629    0.1366608  47.50  0.001315066    1.398    0.284
        11 -13.9375      5.3635    177.3499   1.0268306493e+02   3.5768471119e+01     8.232627     1.278049 -80.84   0.02450405    5.851    0.829
        12  -9.3857     76.9198    233.9369   8.8115849818e+01   1.7006628105e+01    0.2224726    0.1818354 -76.22 0.0004540113    1.544    0.352
        13 -10.0050    126.6267    234.2467   7.7273392249e+01   1.1088945612e+01      0.28758    0.2088953 -43.52  0.000222943    1.674    0.403
        14  -8.3470    185.6272    228.9174   6.4998679675e+01   4.8300601476e+00    0.2437946    0.1027321 -43.75  0.001297817    2.852    0.649
        15  -8.3377    156.9500    228.2077   7.0342124307e+01   8.3062367312e+00    0.1757456    0.1353442  29.40 0.0007008815    1.242    0.195
        16  -9.5462    133.0000    231.9649   7.5678879563e+01   1.0665559239e+01    0.2522683    0.1432828 -43.12  0.001485979    2.083    0.520
        17  -7.8804    107.2436    222.6200   8.0215012051e+01   1.5362904727e+01     0.180708    0.1000302  20.97 0.0009482264    1.669    0.401
        18  -8.8513    151.8921    217.4147   6.9934795571e+01   1.0528000527e+01    0.2972488    0.2641749 -29.97  0.002126332    1.340    0.254
        19  -7.2419    233.6296    217.2691   5.5303127463e+01   1.0096119981e+00   0.08751567   0.07633672  18.72 0.0006995148    1.669    0.401
        20  -9.1808    109.4020    215.9036   7.8979380333e+01   1.6259106127e+01    0.2943506    0.1419997  26.29  0.001447263    1.792    0.442
        21 -14.0039     10.3326    207.4354   1.0233322859e+02   2.8785030166e+01     2.917825     2.142935  23.29   0.01910534    1.350    0.259
        22 -10.1173    120.1797    212.5694   7.6134559752e+01   1.5442918485e+01     0.489267    0.1692499  32.66  0.002064891    2.320    0.569
        23  -7.8183     93.9537    214.0000   8.2360976212e+01   1.8566061856e+01    0.2176478   0.06046905  29.44 0.0008019702    2.939    0.660
        24  -8.6574    106.7743    211.1021   7.9032077558e+01   1.7457324926e+01    0.1977618    0.1348878 -21.92  0.001084382    1.905    0.475
        25  -9.5644    123.3596    205.1463   7.4465430506e+01   1.6319964608e+01    0.3506277    0.2276379  58.21  0.001537528    2.143    0.533
        26  -7.6574    101.6081    203.1879   7.9324569827e+01   1.9608930940e+01    0.1641055    0.1187416 -42.26 0.0008289535    1.623    0.384
        27  -7.6329     90.4578    202.9390   8.2012456648e+01   2.1119852646e+01    0.1756874    0.1048899  74.22 0.0008088602    2.603    0.616
        28  -8.3828     67.8788    202.4971   8.7612077886e+01   2.4020077155e+01    0.2002486    0.1701128  76.03  0.000504493    1.273    0.214
        29  -7.8136     73.0543    204.8225   8.6525383438e+01   2.2926024742e+01     0.197405    0.1434449  51.38  0.001105303    1.280    0.219
        30  -7.6538     88.8832    197.7810   8.1825362413e+01   2.2349678296e+01     0.177298    0.1300179  47.13  0.000288352    1.270    0.212
        31  -7.2471     99.2757    195.6598   7.8979740240e+01   2.1384950064e+01    0.1321487   0.09284547  58.04 0.0003859059    1.616    0.381
        32  -8.0770     60.5952    194.0216   8.8725804382e+01   2.6661879012e+01    0.2872708    0.1901237  41.61  0.001591576    1.263    0.208
        33  -7.8343     56.1833    193.1696   8.9814589112e+01   2.7356761648e+01    0.2528057    0.1628992  54.13  0.001078194    1.437    0.304
        34  -7.4403    103.3238    194.3164   7.7809062895e+01   2.1095602388e+01    0.1326809   0.09801595  -7.65 0.0007043256    1.667    0.400
        35  -7.5025     70.5023    188.4662   8.5563439331e+01   2.6661112700e+01    0.1341249    0.1176536  35.59 1.806334e-05    1.052    0.050
        36  -7.9330     38.6053    176.7647   9.3305696693e+01   3.2980960996e+01    0.2842146    0.1664732  23.45  0.001189406    1.649    0.394
        37 -11.3393     52.3616    179.6687   8.9660831046e+01   3.0808722679e+01       1.5272    0.6549333  54.09  0.006329188    2.408    0.585
        38  -9.4733    139.2649    182.7794   6.7561955270e+01   1.8084219907e+01    0.2434373    0.2131391 -27.68 0.0003776769    1.204    0.170
        39  -8.1175    145.0173    180.4400   6.5882151078e+01   1.7641646426e+01    0.1903747    0.1692515  -4.03 0.0004614967    1.086    0.079
        40  -7.9939     34.4999    178.8669   9.4621741263e+01   3.2905995497e+01    0.2139921    0.1460856  50.88 0.0003393662    1.259    0.206
        41  -8.7857     63.5555    175.7977   8.6122819873e+01   3.0360024049e+01    0.3508859    0.2748227 -19.00  0.001320273    1.640    0.390
        42  -7.8181    103.6750    174.3596   7.4960381270e+01   2.5127666186e+01    0.1465527    0.1008291  61.67  0.000704324    1.780    0.438
        43  -7.4748     28.6314    174.7324   9.6011227715e+01   3.4442059437e+01    0.1255891   0.09876407 -24.16 0.0004485914    1.661    0.398
        44 -10.6330    123.9287    228.5497   7.7205550374e+01   1.2309195839e+01    0.4032682    0.2907422 -74.60  0.002484308    2.180    0.541
        45  -9.0983     70.5743    178.2388   8.4429445458e+01   2.8913885673e+01    0.4342743     0.244691  19.73  0.001941234    1.894    0.472
        46  -7.9375     34.9024    173.1509   9.4096796609e+01   3.4208484034e+01    0.2162291    0.1546484  52.71  0.001206394    1.220    0.180
        47  -8.7653     82.8439    171.3527   8.0164735930e+01   2.8815878332e+01    0.2217984    0.2073332 -25.35 0.0002953839    1.211    0.174
        48  -9.7499     67.9931    168.8661   8.4064107770e+01   3.1402060957e+01    0.3495113    0.2729151  -8.84  0.001846261    1.621    0.383
        49 -10.0710     72.5126    164.3718   8.2188125275e+01   3.1855133873e+01    0.4404368    0.3271873 -33.59  0.001454857    1.667    0.400
        50  -7.9926     59.7880    169.6384   8.6532764065e+01   3.2262077229e+01    0.2145267     0.104835  38.55 0.0009462357    1.744    0.427
        51  -9.0455     50.8584    164.1822   8.8593449549e+01   3.4639137849e+01    0.5408701    0.2630185  69.64  0.002142561    2.663    0.625
        52 -12.1168     57.3216    131.7506   8.2401488211e+01   4.2023490323e+01     2.096144    0.9950499  70.94  0.006687844    3.713    0.731
        53  -9.8507     80.3790    156.4095   7.8762342737e+01   3.2629981858e+01    0.8380882    0.3196419  33.72  0.002479396    2.316    0.568
        54  -8.7458     76.1713    150.2490   7.9099859330e+01   3.4723549231e+01     0.438433     0.282147  58.62  0.001196365    1.700    0.412
        55 -10.5443     68.0619    134.5638   7.9198616813e+01   3.9809379358e+01    0.8442124    0.4919823  87.93  0.003350175    2.399    0.583
        56 -10.8639     70.3032    145.5795   8.0216040802e+01   3.6715689653e+01    0.7680765    0.4150466  57.87  0.003118673    2.181    0.542
        57 -12.9147     31.2801    246.7322   9.8918921001e+01   1.9467067114e+01     1.457046     1.252624 -28.59  0.008104518    1.649    0.394
        58  -7.9511    225.9441    157.7030   4.6593847008e+01   9.3423649598e+00    0.1552251    0.1300623   0.14 0.0004504825    1.118    0.105
        59  -9.9067     29.7661    156.2130   9.4350350357e+01   3.8841724126e+01    0.7415935    0.2073108  32.11  0.002746803    2.744    0.636
        60  -7.7401     47.8306    155.8825   8.8649629766e+01   3.7029882711e+01    0.1901095     0.183082 -18.84 0.0004138443    1.204    0.170
        61  -9.0189     87.2526    151.3955   7.5946316167e+01   3.2786737421e+01    0.3356251    0.2852016  -3.28 0.0007621036    1.370    0.270
        62  -8.9708     91.6906    147.3063   7.3947518356e+01   3.3056069463e+01    0.2587648    0.2410712   0.82 0.0002697979    1.162    0.139
        63  -9.1846     21.7695    151.7900   9.6554651287e+01   4.0675306089e+01    0.2684795    0.2216094 -72.72  0.001570275    1.258    0.205
        64 -10.2517     53.5830    148.6682   8.5989767646e+01   3.8157223838e+01    0.7116651    0.3529454  52.04  0.002959036    2.051    0.512
        65  -9.0347     25.9681    148.0944   9.4924309250e+01   4.1247104314e+01    0.2892316    0.2293119  89.12  0.001095265    1.211    0.174
        66  -8.5453    133.7017    147.2886   6.2536278176e+01   2.5898078911e+01    0.3553934    0.1823608 -60.93  0.001360963    2.811    0.644
        67  -8.1096     37.3159    151.0148   9.1496068128e+01   3.9404100558e+01    0.2006009    0.1679851  72.66 0.0006446991    1.120    0.107
        68  -8.4861     20.7378    145.3085   9.6432258851e+01   4.2414243890e+01    0.2927479     0.165095  47.34  0.001417398    1.588    0.370
        69 -10.7317     69.4954    151.4269   8.1329359314e+01   3.5384616668e+01    0.4638168    0.3798524 -66.58  0.001117527    1.285    0.222
        70  -9.2242     26.9182    139.1423   9.3854698253e+01   4.3474354865e+01    0.4717538    0.2262661  48.06   0.00205307    1.927    0.481
        71  -9.0967    151.8109    137.9244   5.6327332860e+01   2.4498771390e+01    0.3352174    0.2628203 -15.51  0.001092434    1.405    0.288
        72  -6.9967    238.3262    146.7197   4.2769890899e+01   9.1442085863e+00      0.10177   0.08525161 -49.20 0.0003831427    1.596    0.373
        73  -7.4936     41.1342    173.3499   9.2309544340e+01   3.3520586295e+01    0.2567854    0.1110754  32.63  0.000499382    1.926    0.481
        74  -9.7362     89.5708    136.4024   7.2618364122e+01   3.6006281101e+01    0.2715971    0.2639367 -67.51 0.0002922668    1.077    0.072
        75  -7.8629    103.4959    136.0092   6.8370990014e+01   3.3722502130e+01    0.2112874    0.1221428 -31.65 0.0005860805    2.441    0.590
        76  -9.0971     36.8666    131.1073   8.9538107662e+01   4.4619932906e+01    0.2462944    0.2126986 -26.53 0.0003725805    1.360    0.265
        77  -9.2194     44.0534    130.4581   8.6887380780e+01   4.4004218048e+01    0.4645657    0.1193283  39.73  0.001482337    3.232    0.691
        78  -8.5781     30.6373    129.9971   9.1654420268e+01   4.5537242017e+01    0.2755531    0.1662957  51.82 0.0008693668    1.588    0.370
        79  -7.8625    111.0029    128.7140   6.4687510245e+01   3.4045006017e+01    0.2186202    0.1945972  37.74 0.0008208928    1.087    0.080
        80  -9.8626     72.3328    126.3006   7.6309642735e+01   4.1278600331e+01    0.5131811    0.2785753  38.91   0.00215092    1.728    0.421
        81  -7.7533     42.1470    125.9590   8.6975083250e+01   4.5413982885e+01    0.2611898    0.1481094  68.30  0.001087748    2.041    0.510
        82 -10.1233     18.3011    125.7176   9.5753550668e+01   4.7742543927e+01    0.3877339    0.3020217  31.03  0.001337291    1.283    0.221
        83  -8.5087     98.4900    124.5403   6.7476912755e+01   3.7311486327e+01    0.2920401    0.2551748  -5.63 0.0007813339    1.328    0.247
        84  -9.6160     81.0914    161.8798   7.9352432144e+01   3.1239358782e+01    0.4899631    0.3822621  41.10  0.002629052    1.160    0.138
        85  -7.1986    129.7743    122.6327   5.8224852549e+01   3.1789945549e+01    0.1478963    0.1129741 -19.35 0.0001759989    1.586    0.370
        86 -10.3101     57.9694    116.7065   7.9653896221e+01   4.5879067835e+01    0.3333451    0.2777104 -34.19 0.0004518164    1.366    0.268
        87  -6.9091    107.6949    118.2653   6.3296498246e+01   3.7065169050e+01    0.1508453    0.1179419  70.90 0.0001690156    1.528    0.345
        88  -7.7118     69.5485    118.2318   7.5733259224e+01   4.3777384471e+01    0.2039796    0.1392017 -49.17 0.0004122524    1.538    0.350
        89 -12.7902     52.9917    229.9720   9.3277975653e+01   2.0326596710e+01     2.164532     1.515172  83.87  0.002820901    1.656    0.396
        90 -15.1544      5.8933    240.5982   1.0414921351e+02   2.2751642063e+01     3.540538     1.299842  11.99   0.00678538    4.180    0.761
        91  -8.1220    232.7616    235.3551   5.8030737640e+01  -8.6381548620e-01    0.1369347   0.09939524  16.15  0.001077757    1.338    0.253
        92  -9.1632     52.5840    110.6947   8.0602258489e+01   4.8205595887e+01    0.3542055    0.2098576 -51.43  0.001541102    1.727    0.421
        93  -7.3089    109.1720    104.1804   5.9384160709e+01   3.9995539134e+01    0.2011947    0.1732947  72.94 0.0002374353    1.271    0.213
        94  -8.3968     25.7095    100.9726   9.0087593439e+01   5.3823015404e+01    0.2097423    0.1786018 -78.76  0.000638782    1.111    0.100
        95  -8.2085     24.1863     97.1882   9.0227476073e+01   5.4984742716e+01    0.2065939    0.1541346  55.37 0.0004957024    1.350    0.259
        96  -9.2013    114.1336    235.1331   8.0023730728e+01   1.2453139040e+01    0.1862034    0.1384714  12.43   0.00112472    1.252    0.201
        97  -7.2110    136.0082     81.9718   4.5966086129e+01   3.8751869454e+01     0.174382    0.1697696 -86.24            0    1.012    0.012
        98  -7.9862    202.4885     79.8347   3.3463922329e+01   2.4587809271e+01    0.1734657    0.1642195 -52.50 0.0003444098    1.092    0.084
        99  -8.2549    129.0531     78.9628   4.6754083400e+01   4.0943319193e+01     0.217217    0.2124162 -86.29  0.001181939    1.012    0.012
       100  -7.3824    215.4237     76.4964   3.1037996161e+01   2.2564333738e+01    0.1271784    0.1081701 -34.02 0.0001291685    1.059    0.056
       101  -8.8779     99.9240     66.4615   5.0884633726e+01   5.0221226405e+01    0.3041281    0.2252511 -39.53 3.889681e-05    1.406    0.289
       102  -7.8940    144.0328     59.8224   3.7459145558e+01   4.0779372172e+01     0.232468    0.1909421 -71.59 0.0006588968    1.265    0.209
       103 -10.4503    189.6015     55.8345   2.9070336941e+01   3.0716518424e+01    0.5197812    0.2884405 -38.63  0.002285656    1.575    0.365
       104  -7.2717    168.2897     59.3358   3.3030439118e+01   3.5041601391e+01    0.1376585    0.1113904  15.14 0.0005096754    1.635    0.388
       105 -11.1753    200.9333     46.8173   2.5420724344e+01   2.9467933388e+01    0.7844173    0.6037096 -46.10  0.004496936    1.109    0.099
       106  -7.4838     44.2722    249.6352   9.6269770164e+01   1.7736825364e+01    0.1191022   0.06026262  51.44 0.0003109017    1.662    0.398
       107  -8.8620    221.6565     40.3775   2.1914628458e+01   2.6016217120e+01    0.2128698    0.1704928 -67.13 0.0006120083    1.195    0.163
       108  -8.1837    148.4953     43.0574   3.1274407879e+01   4.2244840321e+01    0.2020328    0.1850288 -78.99 0.0003330735    1.019    0.019
       109  -8.6651    185.3095     21.7826   2.0267390145e+01   3.5963565785e+01    0.2093159    0.1901784  71.77  0.000386225    1.238    0.192
       110 -10.2566    102.2821    245.6954   8.3572657685e+01   1.2178580327e+01     0.255035    0.1928224  33.32 0.0005552674    1.087    0.080
       111  -8.0815     90.9319    246.9493   8.6093275386e+01   1.3264093426e+01    0.1885862    0.1068462  48.41  0.001123075    1.717    0.418
       112  -8.8233     48.6307    244.1495   9.5058321745e+01   1.8243219382e+01    0.2034032    0.1336173  49.06 0.0009966085    1.261    0.207
       113  -8.1732     79.9006    244.9061   8.8303503385e+01   1.4818595921e+01    0.1745191    0.1336381  36.82 0.0006186902    1.063    0.059
       114 -14.0193     12.1170    245.8773   1.0295156436e+02   2.1305981504e+01     1.122195    0.5111226 -84.94  0.002842942    2.521    0.603
