#   1 NUMBER                 Running object number                                     
#   2 MAG_AUTO               Kron-like elliptical aperture magnitude                    [mag]
#   3 X_IMAGE                Object position along x                                    [pixel]
#   4 Y_IMAGE                Object position along y                                    [pixel]
#   5 X_WORLD                Barycenter position along world x axis                     [deg]
#   6 Y_WORLD                Barycenter position along world y axis                     [deg]
#   7 A_WORLD                Profile RMS along major axis (world units)                 [deg]
#   8 B_WORLD                Profile RMS along minor axis (world units)                 [deg]
#   9 THETA_WORLD            Position angle (CCW/world-x)                               [deg]
#  10 FWHM_WORLD             FWHM assuming a gaussian core                              [deg]
#  11 ELONGATION             A_IMAGE/B_IMAGE                                           
#  12 ELLIPTICITY            1 - B_IMAGE/A_IMAGE                                       
         1 -11.7188      4.9925     23.1209   1.2472855089e+02   7.0742394687e+01    0.6121289    0.4288158 -22.68  0.004401444    1.325    0.245
         2 -11.7304     50.8141      4.8566   9.4374401898e+01   6.8634632497e+01    0.9523257    0.5601979  46.04  0.005490841    1.917    0.478
         3 -12.3413     42.6469     62.6407   1.2121777315e+02   5.9829282071e+01     1.736733     1.318268 -34.26   0.01071535    1.238    0.192
         4 -11.7997     37.3159     55.1233   1.2102380537e+02   6.1945639038e+01     1.195126    0.3327714 -47.62  0.004743741    2.792    0.642
         5 -11.5622     31.1694     35.6106   1.1700905777e+02   6.6364221659e+01    0.8409708    0.6094095  63.65  0.004800515    2.533    0.605
         6 -12.6794     19.2920     30.1974   1.2037922714e+02   6.8430990398e+01     0.867598    0.6352518 -22.97  0.004156973    1.250    0.200
         7 -12.8464      6.1083      6.6508   1.1730484034e+02   7.3500037853e+01     1.013174    0.7073138 -29.51  0.007488164    1.061    0.058
         8 -13.0031     29.3616      6.1714   1.0472293744e+02   7.1368244000e+01     1.199529    0.7867189  17.01  0.005060634    1.532    0.347
         9 -11.9718     19.8274     11.3258   1.1214381013e+02   7.1609134264e+01     1.113178    0.7988505  73.67  0.004981005    5.592    0.821
        10 -11.6146     74.7751     53.6569   1.0662611028e+02   5.7297248027e+01      1.09989    0.8735049 -71.50  0.005994109    1.727    0.421
        11 -11.4383     87.4926     46.8101   9.9838515726e+01   5.6319513941e+01     1.566092    0.6736194 -33.71  0.006303968    2.349    0.574
        12 -10.8737    119.7572     31.2645   8.4634754885e+01   5.1904438861e+01     2.083155    0.5741517  55.54  0.006787064    3.388    0.705
        13  -9.7543     82.2560      5.8206   8.3871681963e+01   6.2969843401e+01    0.4871802    0.2215809 -17.90  0.001571575    2.316    0.568
        14 -10.7807    100.0104     31.1086   8.9799279626e+01   5.6297502266e+01     1.160828    0.5843555  57.38  0.005025603    2.251    0.556
        15 -10.6772     64.2687     15.6388   9.4586893082e+01   6.5136092821e+01    0.6764529    0.4003356 -38.59  0.002760955    1.776    0.437
        16 -11.3125     71.3672     11.1343   8.9895633633e+01   6.4457774500e+01     0.657159    0.4870787  10.28  0.001773166    1.275    0.216
        17 -11.7911     83.7915     17.5929   8.8859378159e+01   6.1353166850e+01     1.267095    0.6368243 -46.91  0.005191512    2.820    0.645
        18 -10.3260     78.4403     22.1198   9.2620491865e+01   6.1786647268e+01    0.4856854    0.3053154  35.05  0.001200704    1.574    0.365
        19 -10.7329    105.0439     21.7571   8.4569752861e+01   5.6439846449e+01    0.7593886    0.5360146 -53.77    0.0026183    1.845    0.458
        20 -10.1784    114.0468     15.6836   7.9843275126e+01   5.5109478530e+01    0.5008066    0.3120174 -38.71  0.001867741    1.748    0.428
        21 -10.9384    109.6745     16.0055   8.1016089682e+01   5.6072860729e+01     1.026546    0.3064138 -23.61  0.003518639    3.630    0.725
        22 -10.3264    148.1471     18.6033   7.4042645075e+01   4.6478700847e+01    0.4096863     0.313717  -5.17  0.001843272    1.483    0.326
        23 -10.6313    144.6254     24.1303   7.6632071887e+01   4.6745444282e+01    0.4680688    0.3508298 -13.06 0.0009091271    1.472    0.321
        24 -11.6049    244.7841     22.8299   6.3260803413e+01   2.1604090745e+01    0.7881981    0.4267486 -34.76  0.002531553    1.681    0.405
        25  -9.9111    155.0573     22.7483   7.4274738308e+01   4.4247012305e+01    0.4273655    0.3541076  -4.64  0.002315304    1.352    0.260
        26 -10.1551    140.6975     14.4500   7.3890305368e+01   4.8800802409e+01    0.4093305    0.2685267  80.37  0.001975591    1.709    0.415
        27  -9.3710    189.6823     14.8830   6.6796569421e+01   3.6129389416e+01     0.363549    0.2678707 -25.36  0.001395392    1.465    0.318
        28  -9.7649    187.3106     11.5362   6.6095874179e+01   3.7094867222e+01    0.3459769    0.2497141 -17.09  0.001206912    1.592    0.372
        29  -8.7857    230.4370     14.8659   6.2580070994e+01   2.5908148553e+01     0.358597    0.1947694  61.56  0.001753347    1.861    0.463
        30  -9.4499    229.1105     10.7470   6.1670598928e+01   2.6683177042e+01    0.6208217    0.2549859 -66.90  0.002320798    3.164    0.684
        31  -9.1387    214.9861     10.4879   6.2875588157e+01   3.0166911516e+01    0.3139108    0.1188686 -45.98  0.001263107    2.452    0.592
        32  -9.8086    153.5939      9.9502   7.0150807327e+01   4.5976821251e+01    0.3432016    0.2374682 -42.64  0.001446683    1.537    0.349
        33  -9.8130    201.8926      8.2862   6.3567598295e+01   3.3688749318e+01    0.3973406    0.3384848 -35.10  0.001464778    1.238    0.192
        34  -9.3659    203.9825      3.2273   6.1978284667e+01   3.3665237873e+01    0.3581613    0.3214164 -54.77  0.001695342    1.117    0.105
        35  -8.7098    132.4811      9.9863   7.3753882946e+01   5.1286460269e+01    0.2564645    0.1901601  85.87 0.0008930573    1.538    0.350
        36  -8.3127    209.4964      8.9668   6.2997538782e+01   3.1698600061e+01    0.1973468    0.1325802 -26.87  0.001028705    1.587    0.370
        37 -11.0640    171.5618      5.9284   6.6318694702e+01   4.1725132015e+01    0.4378055    0.2913174  50.37  0.001203614    1.483    0.326
        38  -9.0478    224.6051      3.4686   6.0233212978e+01   2.8538902438e+01    0.4270028    0.1828103 -40.47  0.001945882    2.058    0.514
        39  -9.6804    155.7843      2.9708   6.7464031683e+01   4.6057524358e+01    0.3737436    0.2438986 -60.81  0.001654589    1.760    0.432
        40  -8.2941    149.5241      6.1339   6.9465096885e+01   4.7373883924e+01    0.1963881    0.1379225 -18.41  0.001022132    1.564    0.361
        41  -9.0868    183.1205      2.1777   6.3809536673e+01   3.9087971663e+01    0.2625671    0.2186413 -57.76   0.00153069    1.193    0.162
        42  -8.5956    240.4592      2.4726   5.8780360863e+01   2.4883799329e+01    0.1284416    0.1086603 -68.82 0.0003125593    1.022    0.022
        43  -8.3401    140.0522      1.6191   6.9352296695e+01   5.0157507764e+01    0.1972112      0.16031  64.48  0.001131709    1.123    0.110
        44  -8.2055     70.1468      1.2914   8.5426198522e+01   6.5738315959e+01     0.157521    0.1075453  56.31 0.0003675581    1.679    0.404
        45  -8.8944    218.4220    204.2507   1.0880250141e+02  -2.7684632520e-01    0.1536913    0.1186455 -42.62 0.0004854244    1.579    0.367
        46  -8.4088    201.1213    250.5345   1.1904171253e+02  -3.3777804583e+00    0.1711548    0.0881155  38.39 0.0008256566    1.508    0.337
        47 -10.6306    178.5857    249.3745   1.2272857776e+02   2.6542298444e-01     0.304897    0.1922899  28.15  0.001075866    1.535    0.349
        48 -10.3737    212.2511    205.2145   1.1007004194e+02   6.4721545965e-01    0.3361042     0.195268  38.49 0.0009108686    1.512    0.339
        49 -10.2677    123.9931    205.9963   1.2710141167e+02   1.6074450065e+01    0.1838079    0.1554072  58.98  -0.01509786    1.003    0.003
        50  -9.1200     62.4647    201.1113   1.3877789287e+02   2.6346481790e+01     0.339763     0.158056 -76.12  0.001748445    2.135    0.532
        51  -9.3030     43.2559    201.0069   1.4248947110e+02   2.8757817508e+01    0.2232577    0.1281726  83.67   0.00115602    1.538    0.350
        52  -9.7003      6.4663    208.5009   1.4965608500e+02   3.1153808244e+01    0.1847912    0.1060233 -88.77 0.0006431192    1.362    0.266
        53 -11.0652    230.6760    195.5776   1.0509148135e+02  -1.1749665199e+00    0.6634107    0.3225427 -36.94  0.003103352    2.175    0.540
        54 -12.7071    247.0998    196.2950   1.0244538596e+02  -3.9875199445e+00    0.4018478     0.294438  -5.15 0.0007004254    1.274    0.215
        55 -11.9076    200.3429    195.7217   1.1056842354e+02   4.1457963975e+00    0.5049111     0.406858  11.50 0.0006945697    1.266    0.210
        56  -8.8862    138.9320    199.0286   1.2311448902e+02   1.4777262805e+01    0.1906104    0.1685839  54.35  0.001190578    1.026    0.025
        57  -7.9207    138.2952    195.6874   1.2273788073e+02   1.5508519464e+01    0.1710819    0.1253661 -45.29 0.0004987746    1.597    0.374
        58  -9.2697    133.0028    198.9983   1.2430895744e+02   1.5826160183e+01    0.1890371     0.163328  56.26            0    1.010    0.010
        59 -12.5383    209.8839    190.5891   1.0787053712e+02   3.1956960467e+00      3.05304     1.468448 -14.60  0.008921337    6.315    0.842
        60  -9.1663    176.7649    195.0068   1.1493615667e+02   8.5899828269e+00    0.4987991    0.3030726  25.30  0.002378332    2.009    0.502
        61  -8.8905    143.2264    194.2189   1.2150501366e+02   1.4896250766e+01    0.3815209     0.241594 -71.49  0.001865164    2.134    0.531
        62  -9.2861    169.9951    193.2327   1.1596035162e+02   1.0147536935e+01    0.1961526    0.1940242 -16.93 0.0003580725    1.127    0.113
        63  -8.8493     61.0350    194.1942   1.3839721821e+02   2.7940794100e+01    0.1663576    0.1507016  81.26 0.0004517189    1.259    0.206
        64 -11.3645    195.0018    201.5005   1.1257935100e+02   4.2258802248e+00    0.4136028    0.3087411  49.21  0.001171477    1.336    0.252
        65  -7.9354     26.3123    192.3096   1.4508058653e+02   3.2397873583e+01    0.1003359   0.08035331 -60.10 0.0002081057    1.626    0.385
        66  -8.5667     87.4324    191.2563   1.3265969260e+02   2.4834112751e+01    0.2332712    0.1604767  43.93  0.001348474    1.414    0.293
        67  -7.9534     45.0007    187.9717   1.4104988105e+02   3.1225045899e+01    0.1460669    0.1092326  86.43 0.0003127438    1.084    0.078
        68  -9.4170    222.6534    188.4103   1.0515827564e+02   1.2258785837e+00    0.3038398    0.2019517   2.77  0.001582707    1.820    0.450
        69  -8.4268     25.0004    186.0172   1.4488147013e+02   3.3829062603e+01    0.1397028    0.1041184  78.51 0.0004142329    1.018    0.018
        70  -8.6193    122.6274    183.7417   1.2416873419e+02   2.0607166132e+01     0.216398    0.1717882  39.65 0.0006439207    1.288    0.224
        71  -9.2911    212.9700    181.4583   1.0557387629e+02   4.0232350656e+00    0.2402981    0.1939833 -30.28 0.0004443416    1.286    0.222
        72  -9.2059    205.0069    179.4722   1.0666424251e+02   5.8283809262e+00    0.3474221    0.2137757  36.73  0.001077262    1.535    0.349
        73  -9.8224    209.0687    177.6797   1.0555646581e+02   5.3454538416e+00    0.2788271    0.2225382  26.88 0.0003673172    1.177    0.150
        74  -9.5158    187.9469    181.8627   1.1038507989e+02   8.6911321164e+00    0.4353581    0.2364718  52.76  0.001967599    1.975    0.494
        75  -9.0147     75.3338    182.1570   1.3411671663e+02   2.8515869852e+01    0.2191903    0.1618383  54.54 0.0004737712    1.238    0.192
        76  -9.6212     20.3812    179.0181   1.4528557242e+02   3.5752895382e+01    0.2866799    0.1691837  48.13  0.001841933    1.601    0.376
        77  -8.8209    193.3830    176.3442   1.0827131986e+02   8.5740955731e+00      0.21444    0.1587864   7.53  0.001044995    1.652    0.395
        78  -8.9582    101.0368    175.9973   1.2768969447e+02   2.5894413852e+01     0.187768    0.1653656  75.35            0    1.021    0.020
        79  -8.6392    231.9118    174.8356   1.0088676977e+02   1.5500550523e+00    0.1992141    0.1583293  10.80 0.0003516502    1.201    0.167
        80 -10.4856     12.4103    168.3165   1.4612951201e+02   3.8764288988e+01    0.5144832    0.2905271 -64.74  0.003209119    1.691    0.408
        81  -9.7765    244.4508    169.5030   9.7679481167e+01   8.4338972340e-02    0.2659425    0.1232103  45.23  0.001220422    2.204    0.546
        82  -8.2330    129.1094    168.6429   1.2026028403e+02   2.2530579612e+01     0.191502    0.1686438  49.35 0.0006112864    1.108    0.098
        83  -9.5135      5.4816    164.5460   1.4730009668e+02   4.0158862829e+01    0.2387353    0.1400229 -63.28 0.0009358594    1.690    0.408
        84 -10.1382    242.6589    161.8413   9.6399471611e+01   1.5151325397e+00    0.3358102    0.1983984 -46.45  0.001635976    2.041    0.510
        85 -10.4643    231.6864    161.8599   9.8266976171e+01   3.5404520869e+00    0.4437095     0.287002   9.57  0.002130152    1.984    0.496
        86  -9.0880     24.5975    161.5790   1.4298705999e+02   3.9104002386e+01    0.2890701    0.1863326 -45.10  0.001122287    2.176    0.541
        87  -7.8793    181.1900    162.6600   1.0795328429e+02   1.3417359042e+01    0.1987152    0.1251777  36.91 0.0002053899    1.594    0.373
        88  -8.1325    204.7941    160.0143   1.0275882421e+02   9.0877514786e+00    0.1895931    0.1769987  -9.16 0.0002977657    1.053    0.051
        89 -10.1181      5.3163    156.9158   1.4679777187e+02   4.1814278977e+01    0.4351795    0.1760683  58.41  0.002286411    2.369    0.578
        90 -10.0816    163.9661    156.5934   1.1029515894e+02   1.8111236039e+01    0.4462314    0.2412691  47.62  0.001361127    1.784    0.439
        91  -8.0511    227.2519    156.6058   9.7927815224e+01   5.2041025871e+00    0.1882625    0.1216906  34.15 0.0004084504    1.569    0.363
        92  -9.8134    238.5289    151.6443   9.4925308070e+01   3.8141703573e+00    0.2553549    0.1866001  -5.91   0.00136425    1.459    0.315
        93  -8.0868    125.0514    152.4533   1.1819976691e+02   2.6745521770e+01     0.214153    0.1380607  43.78 0.0005234061    1.529    0.346
        94  -9.4951    103.8475    151.3710   1.2303475513e+02   3.0832825192e+01    0.2452937    0.2201671 -70.11 0.0003341091    1.105    0.095
        95  -8.0798    135.8056    151.2739   1.1546954685e+02   2.4916846584e+01    0.1907032    0.1739633  -8.83 0.0006039104    1.334    0.250
        96 -12.0638    189.6181    203.8622   1.1398916069e+02   4.8284704830e+00    0.4345726    0.4143614  43.09 0.0009776767    1.159    0.137
        97  -9.9494      5.3979    148.1736   1.4611894199e+02   4.3716464089e+01    0.3058501    0.1545025 -87.82   0.00177211    1.592    0.372
        98 -10.0392     16.1185    144.4795   1.4334339285e+02   4.3675954110e+01    0.2793053    0.1394233 -81.78  0.001540842    1.635    0.388
        99 -11.3216    239.6562    139.2182   9.2007455599e+01   5.5235676197e+00    0.6926942    0.3546054 -34.25  0.002903329    1.817    0.450
       100 -10.2461    249.9126    143.3394   9.1264621963e+01   2.9291610548e+00    0.5355163    0.2399545 -30.33  0.002320567    2.110    0.526
       101  -9.7591     27.2648    143.5659   1.4060609975e+02   4.2885949578e+01    0.2841664    0.2129544   3.07  0.001754351    2.146    0.534
       102  -8.0307    174.5454    143.4846   1.0520890321e+02   1.8446036976e+01    0.1463883    0.1440894  48.95 5.704948e-05    1.015    0.014
       103  -8.8498     41.5203    132.1214   1.3563391850e+02   4.4093554988e+01    0.2515693    0.2100713  59.41 0.0003775169    1.259    0.205
       104 -10.9881     40.5756    137.5968   1.3661305041e+02   4.2920773525e+01    0.7979367    0.4278463 -85.85  0.004006818    1.867    0.464
       105 -11.2139     34.3320    136.4383   1.3804052997e+02   4.3834101009e+01    0.5310051    0.3095338 -65.89  0.002267271    1.441    0.306
       106 -10.1458     31.9967    132.7097   1.3816778264e+02   4.4925965025e+01    0.2930284    0.2432097 -48.78  0.001056383    1.416    0.294
       107  -9.1345    128.1013    139.0365   1.1474645101e+02   2.9097051757e+01    0.2340886    0.2091492  49.71 0.0003014384    1.126    0.112
       108  -8.6415     10.5813    139.2040   1.4415980810e+02   4.5308434305e+01    0.1685873   0.08239685 -66.87 0.0009431095    1.653    0.395
       109  -9.3687    208.2115    134.9490   9.6539150977e+01   1.2725665684e+01    0.2573668    0.2108016  83.24 0.0008865541    1.603    0.376
       110 -11.3326    247.2025    126.0552   8.7827338798e+01   6.0893323400e+00    0.4830407    0.3712746 -48.90 0.0009593802    1.409    0.290
       111  -9.9262     11.2037    131.9723   1.4331953237e+02   4.6888380805e+01    0.3251449    0.2755011  17.43  0.001813189    1.647    0.393
       112  -9.2799      4.7417    128.2888   1.4456389222e+02   4.8187609087e+01    0.2201905    0.1588477 -89.06 0.0002732656    1.087    0.080
       113  -8.3954    169.9451    133.3126   1.0385046649e+02   2.1456766108e+01    0.2130586    0.2019486  53.29  0.001147196    1.048    0.046
       114  -8.1757     53.3502    131.8266   1.3249817944e+02   4.2821389810e+01    0.1938091    0.1000716 -58.37 0.0009436147    1.713    0.416
       115 -10.0708    235.0849    127.0613   8.9989359080e+01   8.3766089053e+00    0.3540096    0.2279325  34.59  0.001705339    1.731    0.422
       116  -9.3600     17.9578    139.4402   1.4241686153e+02   4.4656012160e+01    0.2803418     0.139728 -79.27  0.001243399    1.628    0.386
       117 -10.2680    222.9767    123.9377   9.1291382437e+01   1.1440487458e+01    0.3121549    0.2733869 -13.71 0.0004747358    1.128    0.113
       118  -8.7297     36.9812    126.2910   1.3601393560e+02   4.5925268572e+01    0.1737648    0.1509945 -81.57 0.0009914405    1.086    0.080
       119  -9.1347     31.7403    126.5649   1.3744073164e+02   4.6375260481e+01    0.1615091     0.104827  51.99 0.0005635693    1.639    0.390
       120 -11.0181    103.7145    123.4678   1.1750651287e+02   3.7235290670e+01    0.4035569    0.3272943   8.67 0.0008036837    1.706    0.414
       121  -9.6593    188.0943    118.5024   9.6451422033e+01   2.0227372005e+01    0.6520639     0.383255 -22.51  0.000895041    2.251    0.556
       122  -8.2509     47.2588    122.7640   1.3271049321e+02   4.5657845614e+01    0.1730974    0.1377991 -49.39 0.0005779868    1.343    0.255
       123  -8.4384    174.6982    122.0755   1.0011050358e+02   2.2615844070e+01    0.2126397    0.1972868 -35.82 0.0004149172    1.081    0.075
       124  -8.1109     10.4824    122.4686   1.4251993318e+02   4.9096365280e+01    0.1200733   0.09100047 -85.59 1.271868e-05    1.049    0.047
       125 -10.2292    238.8181    120.3950   8.7832399021e+01   8.6783093944e+00    0.2956913    0.2266654 -31.29 0.0007256389    1.197    0.165
       126  -8.5985     82.8595    118.9378   1.2216147340e+02   4.1796051261e+01    0.2219405    0.2007043  67.75 0.0003277161    1.137    0.121
       127  -9.4016      1.8098    108.5345   1.4331762330e+02   5.2824645272e+01    0.3190501    0.1308274 -78.03  0.001268645    1.940    0.484
       128  -9.3216      3.6429    112.3131   1.4323177073e+02   5.1860218084e+01    0.2486243    0.1225064  87.96  0.001058789    1.946    0.486
       129  -9.2072      2.5124    118.4991   1.4417925119e+02   5.0537183629e+01    0.1926434    0.1601465 -60.77 0.0007169309    1.286    0.223
       130  -9.2503      1.4361    115.2039   1.4412768577e+02   5.1346104697e+01    0.2740621    0.1799463 -89.15 0.0008092095    1.248    0.199
       131  -8.1860     55.4826    117.9858   1.2962288687e+02   4.5821885407e+01    0.1861957    0.1048092 -89.88 0.0006145264    2.365    0.577
       132 -11.2333     17.6343    114.1671   1.3962633870e+02   5.0459122349e+01    0.6080462    0.4094298 -75.26   0.00384067    1.166    0.142
       133  -8.3403    136.4908    114.8470   1.0704879852e+02   3.2665699662e+01    0.2553732    0.2138512  79.96  0.001261271    1.340    0.254
       134 -11.6087    244.2655     99.3900   8.2010665905e+01   1.0866744562e+01    0.8894202    0.4922351 -43.33  0.004078702    1.694    0.410
       135 -11.4899    240.6694    107.0743   8.4387813323e+01   1.0418446440e+01    0.8989608    0.3288585 -27.89  0.003049485    3.124    0.680
       136  -8.8586    208.5488    110.4559   9.0533148609e+01   1.6977760218e+01    0.4442799    0.2229384 -44.47  0.001487128    1.991    0.498
       137 -11.1514     10.6661    105.9641   1.4052732397e+02   5.2842189663e+01    0.6467404    0.2629958 -80.13  0.003059351    2.253    0.556
       138  -9.7272      6.1211    101.9376   1.4132051793e+02   5.4051492294e+01    0.1921772    0.1789432 -35.48 0.0009100986    1.363    0.266
       139  -9.2339    141.9390    106.8694   1.0364071901e+02   3.3174518345e+01    0.3459579    0.2257825 -49.28  0.001515604    1.527    0.345
       140  -8.8133    103.7014    106.5556   1.1352142537e+02   4.1101143240e+01    0.3732436    0.2506642 -20.14  0.001517093    2.371    0.578
       141  -7.6341    129.9785    106.9968   1.0665032746e+02   3.5756654667e+01    0.1785025    0.1591168 -50.95 0.0009156672    1.093    0.085
       142  -9.8168     59.6441    102.7759   1.2544773284e+02   4.8873740807e+01     0.694499    0.2519751 -59.65  0.002585656    2.402    0.584
       143  -9.4654     66.3476     92.1092   1.2094799941e+02   5.0446466834e+01    0.3949681    0.3068731 -42.50  0.001517235    1.250    0.200
       144 -10.4760     65.2258     97.0278   1.2246921084e+02   4.9473058400e+01    0.4950178    0.4193824 -58.01  0.002940153    1.039    0.038
       145  -9.9618     61.5479     95.4957   1.2325320813e+02   5.0314526012e+01    0.4118235    0.3362346 -21.30  0.001842578    1.485    0.327
       146  -9.2948    102.8159     98.2644   1.1162291386e+02   4.3124599612e+01    0.3823801    0.2637746   7.35  0.001452188    2.461    0.594
       147  -8.9869    218.6588     97.5356   8.5509272067e+01   1.6870752434e+01     0.402622    0.2651913  16.33  0.001665392    2.355    0.575
       148  -9.6833    221.6665     93.2440   8.3925018884e+01   1.6890347385e+01    0.4224876    0.1978075  57.25  0.001671508    2.286    0.563
       149  -7.8632     79.3269     98.7195   1.1859010757e+02   4.7037266807e+01    0.1391513    0.1069582  81.30 0.0003314887    1.597    0.374
       150 -11.3921      5.5781     90.4965   1.3994680578e+02   5.6663461081e+01    0.8570299    0.3580897 -86.79  0.003861633    2.785    0.641
       151 -10.4007    246.0803    108.6522   8.3952956109e+01   9.0336079174e+00    0.4720756    0.3212813  36.28  0.001381015    1.689    0.408
       152  -9.6708    210.9601     93.8286   8.5842266371e+01   1.9301767559e+01    0.5229574    0.2204528 -38.29  0.001943259    2.203    0.546
       153  -8.9860     89.2892     94.0191   1.1441547498e+02   4.6483966019e+01    0.4020722    0.2615415  77.78  0.001321286    2.597    0.615
       154  -8.6251    148.6265     94.6780   9.8677826079e+01   3.4159523772e+01    0.1638352    0.1244548  11.58 0.0001214754    1.812    0.448
       155  -8.1231     78.8390     94.2332   1.1761574369e+02   4.8134423747e+01    0.1941583    0.1556099 -33.38 0.0005532526    1.340    0.254
       156  -8.5498    190.8644     92.3421   8.9051279638e+01   2.4405515428e+01    0.3118657    0.1867237 -26.01  0.001267791    1.893    0.472
       157  -8.0685    164.5514     93.4828   9.4721209115e+01   3.0608837488e+01    0.1553161    0.1513833 -59.97 0.0008081529    1.010    0.010
       158  -8.2315    100.3933     91.6987   1.1052661769e+02   4.5023432579e+01    0.2285925    0.1759393 -88.32 0.0007371652    1.694    0.410
       159  -7.9624    128.1235     90.9097   1.0267854350e+02   3.9570556121e+01    0.1894875    0.1732982  -2.04 -0.0006383859    1.220    0.180
       160  -8.2918     72.5712     90.7752   1.1866561672e+02   4.9863406237e+01    0.1996081    0.1246886 -64.78 0.0009466613    1.655    0.396
       161  -8.8916    185.9984     89.9942   8.9336575602e+01   2.6019514809e+01    0.1913986    0.1789507 -42.15 0.0004430736    1.045    0.043
       162  -9.4015     62.4307     87.8300   1.2113450075e+02   5.1946459607e+01    0.4594272    0.1658878 -47.03  0.001775794    2.537    0.606
       163 -10.3009     65.3973     81.3526   1.1848826738e+02   5.2992146071e+01    0.6161837    0.2674865 -47.43  0.001516893    2.038    0.509
       164  -8.7480     61.4823     80.4732   1.1954532152e+02   5.3716765921e+01    0.2334657    0.2104324 -46.63 0.0006166529    1.043    0.041
       165  -9.5713    103.2305     88.6023   1.0883294963e+02   4.5162342515e+01    0.2121047    0.2004112  32.05 0.0009253159    1.132    0.117
       166  -9.2376    103.9884     80.5897   1.0624952096e+02   4.6714504443e+01    0.4161529    0.2992623 -58.19   0.00123223    1.488    0.328
       167  -8.9287     78.8874     87.3318   1.1578860807e+02   4.9675446072e+01    0.2412015    0.1797959 -46.37 0.0002673795    1.228    0.186
       168  -8.6904    227.9720     86.3823   8.1197428085e+01   1.6550712599e+01    0.3578101    0.1979661 -34.16 0.0008018824    1.678    0.404
       169 -11.0425    241.7325     84.8393   7.8829276448e+01   1.3683133216e+01    0.7012389    0.2917689 -49.69  0.002580744    2.737    0.635
       170 -10.3510      1.7999     82.3209   1.3995191376e+02   5.8696709766e+01    0.4085867    0.1477517 -72.33  0.001246525    2.169    0.539
       171  -8.1353    198.5430     83.4528   8.5216671029e+01   2.4079317898e+01    0.1505009    0.1466487 -41.10 7.494912e-05    1.029    0.028
       172  -8.6765    133.5848     82.8321   9.8882943515e+01   3.9993606984e+01    0.3315014    0.1874641 -53.38  0.001311198    1.995    0.499
       173  -8.2536    148.6877     81.8535   9.4914043367e+01   3.6660125941e+01    0.3242061    0.1442093 -31.57  0.001095106    2.629    0.620
       174 -10.7530     20.3233     40.2652   1.2338888548e+02   6.6440928736e+01    0.4799288    0.3002752  42.04  0.002884754    2.194    0.544
       175  -8.9737     33.4651    248.6791   1.4725157947e+02   2.1113712389e+01    0.1766725      0.13239  73.08 0.0006093737    1.160    0.138
       176  -8.4569     42.9637    247.9627   1.4570845939e+02   2.0136848161e+01    0.1532542    0.1114936  67.94 0.0003603761    1.081    0.075
       177  -8.2646      9.3785    248.1989   1.5092314996e+02   2.3764117583e+01    0.1309153   0.09414808 -89.75 0.0007851199    1.363    0.266
       178  -8.4151    151.6919    247.6983   1.2719073889e+02   4.7410898333e+00    0.1095335   0.08179957  21.91 0.0002969026    1.601    0.375
       179  -9.3081    194.0937    245.5908   1.1955759340e+02  -1.6958414748e+00    0.1851268    0.1601799  27.16  0.000380839    1.125    0.111
       180  -8.7782    145.8344    245.8096   1.2799632997e+02   5.9373569593e+00    0.1592392    0.1136034  58.06  0.000436681    1.302    0.232
       181  -9.0714    126.8316    245.6492   1.3131934511e+02   8.9356775231e+00    0.1604578    0.1587997  70.59 0.0006071904    1.349    0.259
       182 -10.4589     18.5799     46.2965   1.2599591611e+02   6.5379081559e+01    0.3171069    0.2533412 -38.05 0.0006063037    1.093    0.085
       183  -9.1955      2.6005    245.3503   1.5182862572e+02   2.4909165869e+01    0.1702794    0.1346394  84.48 0.0007650998    1.392    0.281
       184  -8.3270    232.8743    244.7254   1.1292741987e+02  -7.4830202005e+00    0.1550874    0.1140911  28.51 0.0005907243    1.094    0.086
       185 -11.8998     25.9174     48.9932   1.2373941145e+02   6.4251894197e+01    0.7223228    0.4512287 -61.63  0.001913039    1.523    0.344
       186 -11.3573     30.9308     43.7746   1.1999125581e+02   6.4837440726e+01    0.3703047    0.3177758  19.13  0.001435756    1.367    0.268
       187  -8.4622    214.2675     81.0331   8.1928523902e+01   2.0649591898e+01    0.3066404     0.205133  87.62  0.001328371    2.026    0.506
       188  -8.2497    121.8284     79.5963   1.0095587579e+02   4.3246629807e+01    0.2192439     0.145228  60.93 0.0009545179    1.774    0.436
       189  -7.9657     70.5879     79.2439   1.1620492630e+02   5.2715427535e+01    0.1970564    0.1151237 -43.20 0.0009354986    1.587    0.370
       190  -8.4965    199.1584     78.2139   8.3667140408e+01   2.4814126283e+01    0.2122437    0.1736778 -69.67 0.0004816795    1.331    0.248
       191  -9.9773    247.1007     76.4238   7.6054019613e+01   1.3777883113e+01    0.3002818    0.1796568 -42.18  0.001366529    1.487    0.327
       192  -9.0170    185.2695     75.8801   8.5493699215e+01   2.8683841410e+01    0.4523623    0.2180647 -23.60  0.001552602    2.761    0.638
       193 -10.1604    189.3411     72.1541   8.3683139432e+01   2.8286270395e+01    0.4483375    0.3275115  -5.65  0.002003218    1.808    0.447
       194  -9.5786    198.3294     74.1721   8.2686518948e+01   2.5692703415e+01    0.3805796    0.2112792  51.57 0.0009875222    1.841    0.457
       195 -10.5796    194.6547     71.4090   8.2539269660e+01   2.7069429522e+01    0.5030746    0.3338682 -48.64  0.001678033    1.513    0.339
       196 -10.2171    240.6115     74.3701   7.6392260559e+01   1.5533330673e+01    0.4333026    0.2186352 -49.87  0.001834624    2.025    0.506
       197  -9.8396    235.1101     70.4279   7.6133358788e+01   1.7385845528e+01    0.3463213    0.2801445  74.42 0.0008185871    1.336    0.251
       198  -8.6217    226.8321     75.4106   7.8553888321e+01   1.8553349670e+01     0.261151    0.1859802 -45.41 0.0006462194    1.312    0.238
       199  -9.4229    249.1985     72.0924   7.4736637357e+01   1.3959784133e+01    0.2796726    0.1678148 -50.03  0.001186662    1.605    0.377
       200  -9.9160     93.7297     70.3009   1.0610046723e+02   5.0764969155e+01    0.4240999    0.3140253  38.64  0.001611026    1.442    0.306
       201  -9.7948     96.3798     66.4196   1.0401528809e+02   5.1040049268e+01    0.8285409    0.5520889 -85.49  0.003207139    3.187    0.686
       202  -8.6255    129.4566     71.0355   9.6250422256e+01   4.3211567624e+01    0.3966146    0.2095703  52.29  0.001598067    1.955    0.488
       203  -8.9786    223.6363     48.8231   7.2041565300e+01   2.3271276301e+01    0.3092318    0.2493457 -65.63  0.001479567    1.207    0.171
       204 -10.7460    224.4296     67.4554   7.6828756151e+01   2.0351285772e+01    0.6938834    0.5027938 -73.36  0.003404501    1.587    0.370
       205  -9.8859    225.4535     53.7629   7.3107797555e+01   2.2130243249e+01    0.3809364    0.2798259 -89.29  0.001221167    1.489    0.328
       206 -11.5442    226.7275     59.1628   7.4352293545e+01   2.1040383737e+01     0.963712    0.5470691 -47.09  0.004367583    1.669    0.401
       207 -11.3912    233.3147     56.5952   7.2848977945e+01   1.9844524805e+01    0.9710811     0.540211 -63.11  0.003491822    2.195    0.544
       208 -10.2011    205.4984     68.9967   8.0070181484e+01   2.4742235156e+01    0.3729448    0.3232916  73.57  0.001689589    1.187    0.158
       209 -10.4559    204.1911     65.5982   7.9336647595e+01   2.5605518316e+01    0.5655137     0.232972  51.54  0.002076194    2.482    0.597
       210 -10.2838    244.7748     66.7602   7.3979651843e+01   1.5726342425e+01     0.462701    0.2182144 -29.67  0.001949919    2.051    0.512
       211  -8.4360    147.7111     67.5658   9.0714866323e+01   3.9525901423e+01    0.2726105    0.1890416 -22.83 0.0005787475    1.631    0.387
       212  -9.1376    127.0500     66.8738   9.5514740667e+01   4.4532054129e+01    0.2258474    0.2199201  16.77  0.000528045    1.036    0.034
       213  -8.9911     82.5152     66.9102   1.0855304462e+02   5.3429080412e+01    0.2220309    0.2001218  29.00 0.0004432804    1.193    0.162
       214  -9.4539    119.3845     64.0754   9.6606594205e+01   4.6760085636e+01    0.3488815     0.274712 -52.60 0.0006071372    1.351    0.260
       215  -8.8289     76.6038     66.0124   1.1021007773e+02   5.4583468654e+01    0.2211519    0.1899192   6.04 0.0008704091    1.282    0.220
       216  -8.9999    175.0809     62.5840   8.3476130696e+01   3.3492374388e+01    0.4024032     0.204557 -55.52  0.001436387    2.580    0.612
       217 -10.1744     99.7941     55.4350   9.9184592006e+01   5.2439040990e+01     0.655952    0.3094802 -35.38  0.001636272    2.099    0.523
       218  -9.6593     83.1130     55.4846   1.0446444569e+02   5.5549202307e+01    0.4110499     0.259149 -38.02  0.001128674    1.473    0.321
       219  -9.8302     83.9941     34.7325   9.6200397659e+01   5.8939569073e+01    0.4559255    0.3808818 -40.16  0.002191167    1.274    0.215
       220  -8.4557     49.9718    242.7636   1.4425782389e+02   2.0177506145e+01     0.147495    0.1202811  65.87 0.0006443302    1.253    0.202
       221 -13.4395    230.4730    236.5449   1.1207441241e+02  -6.2344426850e+00    0.4736025    0.3006546  23.11  0.001092956    1.355    0.262
       222  -9.6823     95.7815     50.6453   9.8663477952e+01   5.4077408428e+01    0.3384402    0.2806129  -3.94 0.0003782788    1.268    0.212
       223 -10.6626     63.9542     49.8113   1.0908732877e+02   5.9693360187e+01    0.4210341    0.3260421  40.16  0.001300661    1.474    0.321
       224 -10.6665     66.1825     45.9548   1.0684754223e+02   6.0072116645e+01    0.3872411    0.3000106 -32.83 0.0005162136    1.145    0.127
       225 -11.0895     61.4085     44.7926   1.0817469728e+02   6.0992841074e+01    0.4692177    0.3211141 -16.34 0.0004531933    1.629    0.386
       226  -9.7863    218.7880     60.0456   7.5659160276e+01   2.2835171524e+01    0.3056066     0.237987 -76.48  0.001220554    1.381    0.276
       227  -9.5635    208.7120     58.9179   7.6797363713e+01   2.5499571455e+01    0.6706805    0.3884556  75.06  0.002847637    2.004    0.501
       228  -9.3187    208.5414     52.7531   7.5119560229e+01   2.6454726354e+01    0.4453816     0.218927 -30.37  0.001811371    2.028    0.507
       229 -10.2396    207.3104     46.0136   7.3421798665e+01   2.7726631124e+01    0.4825635    0.3819401   3.72  0.001035453    1.631    0.387
       230  -8.3661    163.2424     58.5081   8.4511192182e+01   3.7175558734e+01    0.3775066    0.2271596  14.74  0.001302749    3.179    0.685
       231  -9.3262    248.8787     56.2044   7.0916011168e+01   1.6317188562e+01    0.2250881     0.200785 -59.24 0.0004686003    1.042    0.040
       232  -9.3322    241.0507     54.1501   7.1304392223e+01   1.8385974535e+01    0.3760198    0.2271468 -55.21  0.001802483    1.650    0.394
       233 -10.4998    245.5114     50.7538   6.9961372050e+01   1.7835740638e+01    0.4540153    0.2814311  54.51 0.0009482266    1.791    0.442
       234 -10.6170    124.0635     54.3103   9.2018386947e+01   4.7425643878e+01    0.3273449       0.3178  47.36 0.0005348174    1.060    0.056
       235  -9.0250    213.9200     52.9885   7.4431727459e+01   2.5074270273e+01     0.222227    0.2155194 -76.68 0.0008577728    1.065    0.061
       236  -8.4122    141.4406     53.2924   8.7458571067e+01   4.3471604432e+01    0.2086361    0.1393432 -43.33 0.0005703404    1.529    0.346
       237  -7.8719    134.4956     51.4722   8.8450173330e+01   4.5445937241e+01    0.1479182    0.1433202  18.20 3.800047e-05    1.022    0.022
       238  -8.9917    172.0257     49.9970   8.0166681393e+01   3.6240778055e+01    0.2107107    0.2038309 -83.68  0.001156803    1.010    0.010
       239  -9.1278    129.0405     46.5126   8.8017037488e+01   4.7526942511e+01    0.2661589    0.2126091 -31.70 0.0003576326    1.253    0.202
       240  -9.0417    142.5032     43.4878   8.3863637188e+01   4.4718305626e+01    0.3168936    0.1431031 -32.39  0.001219784    2.214    0.548
       241  -8.7507     73.9171     43.9230   1.0330220242e+02   5.9203316906e+01    0.2011322    0.1802974 -20.56 0.0004870617    1.031    0.030
       242  -8.7959    180.6668     42.9827   7.6517685025e+01   3.5011094949e+01    0.2694117    0.2060734  55.18 0.0005103052    1.295    0.228
       243  -8.8959    128.6909     60.0391   9.2811116717e+01   4.5379550762e+01    0.2140823    0.1918356 -32.35 0.0005831939    1.102    0.093
       244  -9.8275      1.4718     32.5813   1.2954007899e+02   6.9159543675e+01    0.4071883    0.1976157 -65.90  0.001673675    1.956    0.489
       245 -10.6903      8.5925     38.7872   1.2812293961e+02   6.7548359063e+01    0.5008428    0.2640691 -69.55  0.002764473    2.082    0.520
       246 -10.1712      5.2411     35.9998   1.2881276578e+02   6.8291638069e+01     0.388835    0.1597424 -56.52  0.001411124    1.799    0.444
       247  -9.9469    233.2001     35.4615   6.7486393638e+01   2.2755962172e+01    0.4887167    0.2737789 -26.22  0.002276917    1.875    0.467
       248  -8.3646    240.4994     40.9967   6.8099371374e+01   2.0309863119e+01    0.2721405     0.189243 -58.45 0.0009730247    1.358    0.264
       249  -9.3383    237.7972     37.9446   6.7625424602e+01   2.1343835211e+01    0.3163607    0.2443206  50.93  0.001754471    1.491    0.329
       250  -9.3700     49.3624     39.9799   1.1101737568e+02   6.3507646337e+01    0.2573784    0.1966634 -24.79  0.000452493    1.172    0.147
       251  -9.6629     53.5857     36.3761   1.0791507119e+02   6.3590244404e+01    0.2765372    0.2572561  47.29  0.001702588    1.406    0.289
       252  -8.9591    112.3502     40.0986   8.9913033238e+01   5.2330550229e+01    0.2734241    0.2154812  60.51  0.001082047    1.388    0.279
       253  -8.7245    190.0343     36.8617   7.3235263755e+01   3.3407190529e+01    0.2534407    0.2041384 -37.23 0.0007100125    1.242    0.195
       254  -9.1317     73.8074     36.0496   1.0020100988e+02   6.0544782713e+01    0.3260031    0.2246532 -53.80  0.001699268    1.865    0.464
       255 -10.0464     89.5026    240.1861   1.3733836229e+02   1.5381964385e+01    0.2837971    0.2544914  -9.02  0.001733381    1.945    0.486
       256  -9.7441     60.5024    239.3861   1.4227140755e+02   1.9443582333e+01    0.2973414    0.2564307   8.26  0.001396578    2.196    0.545
       257 -12.0586    210.8461    231.0294   1.1454591755e+02  -2.5417643208e+00    0.8194871    0.7060143 -16.49  0.004574235    1.305    0.234
       258  -9.6507     96.1742     28.0310   8.9643008562e+01   5.7520504303e+01     0.389078    0.2673158  -1.74  0.001010016    1.667    0.400
       259 -10.4913     69.5727     23.5761   9.6340217630e+01   6.3160159007e+01     0.457781    0.3079248  29.20  0.001313204    1.498    0.333
       260  -9.6562     93.8226     22.2404   8.7881135801e+01   5.8766208845e+01    0.5340769    0.2511943  49.76  0.001759674    2.052    0.513
       261  -9.7816    100.2073    237.5458   1.3520642878e+02   1.4270394858e+01    0.3230247    0.2770062  20.19  0.001109928    1.723    0.419
       262 -10.4423    121.0685    233.5707   1.3103550177e+02   1.1745062902e+01    0.2484458    0.1969296  45.98 0.0004329137    1.156    0.135
       263  -9.4567    134.9792    233.6719   1.2851148210e+02   9.5135966664e+00    0.3225559    0.1504866  54.12  0.001492785    2.034    0.508
       264 -10.2484    250.2615    239.6279   1.0933702531e+02  -9.4372916994e+00    0.1867438    0.1363812 -11.87  0.001358078    1.346    0.257
       265  -8.3876    244.9190    230.9745   1.0881822673e+02  -7.7588933967e+00    0.2304293    0.1504563  56.45  0.001302227    2.616    0.618
       266  -8.4316    154.1574    229.3360   1.2445265285e+02   7.0463513202e+00    0.1702086    0.1263068  47.08 0.0003639351    1.105    0.095
       267 -11.0717    124.5996    226.5357   1.2957747049e+02   1.2351976144e+01     0.310203    0.2450522  31.01 0.0008408013    1.451    0.311
       268  -9.2898    128.7736     33.6692   8.3408621857e+01   4.9453667267e+01    0.4485904    0.2883599  -7.37  0.001870867    1.946    0.486
       269  -7.7740    173.9741     34.0203   7.4821657233e+01   3.7961017632e+01    0.1643426    0.1588198 -75.70 0.0009262238    1.030    0.029
       270  -8.0946     12.7992    226.1779   1.4944398042e+02   2.7250772038e+01    0.1278198    0.1023647 -89.43 0.0005199098    1.367    0.268
       271 -10.2315    142.8380     30.1435   7.9112038944e+01   4.6460735647e+01     0.626215    0.4249582 -61.61  0.002898498    1.851    0.460
       272  -8.4718    167.9072    225.1470   1.2134698245e+02   5.3734027024e+00    0.1882976    0.1461564  53.48 0.0004065135    1.231    0.188
       273  -9.9197     74.1396     28.7286   9.6997329095e+01   6.1624011071e+01    0.3587383    0.2264661  31.52 0.0005899966    1.639    0.390
       274  -9.7099     17.0150    222.3022   1.4855737490e+02   2.7532058491e+01    0.2047002    0.1645926  48.42 0.0006508129    1.500    0.333
       275  -8.9552    174.4711     25.9107   7.2195500439e+01   3.8839818444e+01    0.2936452    0.2691422 -43.67  0.001670062    1.120    0.107
       276  -9.6540    166.4865     26.7415   7.3702167569e+01   4.0820485296e+01    0.2536181    0.2366031  76.18 0.0003703278    1.020    0.020
       277  -9.5696    182.8447     25.1776   7.0756717742e+01   3.6743250830e+01    0.4482287    0.2923513 -90.00  0.001308107    1.694    0.410
       278  -8.8860    118.1305     24.5642   8.2426230896e+01   5.3139816088e+01    0.2766299    0.2037881 -10.37  0.001197053    1.449    0.310
       279  -9.8104    177.7301    221.2017   1.1896211163e+02   4.2900915378e+00    0.2628139    0.1837924  34.96 0.0005112166    1.245    0.197
       280  -8.0355    212.1831     23.2270   6.6557645626e+01   2.9435419860e+01    0.1957274    0.1427598 -63.83 0.0004248168    1.328    0.247
       281  -7.3758    221.6841     21.7650   6.5167246965e+01   2.7243367518e+01     0.128305   0.09927993  47.22   0.00068554    1.503    0.335
       282  -9.0603    219.7810     29.0544   6.7278599742e+01   2.6832878689e+01    0.2565742     0.206517   3.59  0.001379189    1.627    0.385
       283  -9.9370    186.6689    220.1797   1.1716832325e+02   2.9125098595e+00    0.2138099     0.192585  12.74 0.0008183877    1.148    0.129
       284  -8.8123    129.0468     18.1510   7.7518719084e+01   5.1286573463e+01       0.3302    0.2003951  -4.73  0.001506216    2.034    0.508
       285  -8.8330    182.2131     17.9874   6.8660643771e+01   3.7729712399e+01    0.2469147     0.193888  71.71 0.0004722411    1.193    0.162
       286  -8.3139     68.2291    221.4464   1.3951130332e+02   2.1647875908e+01    0.1620967   0.08401351  53.36 0.0004188683    1.554    0.356
       287 -10.4427     56.0218    216.8957   1.4136780755e+02   2.4093233921e+01    0.3109373    0.1411611 -73.02  0.001019457    2.137    0.532
       288  -8.7112    141.9510    218.9885   1.2535496279e+02   1.0754370807e+01    0.1906009    0.1615884  53.10 0.0004578027    1.024    0.024
       289  -8.5691    250.2837    215.4740   1.0535408423e+02  -6.8135954182e+00    0.3203831    0.1508269 -20.04  0.001622132    2.444    0.591
       290  -9.2511    238.7193    214.1671   1.0703657115e+02  -4.8836457751e+00     0.285006    0.2519293 -27.80  0.001568841    1.412    0.292
       291 -10.1154    227.0137    209.2666   1.0817839715e+02  -2.3877018809e+00    0.2724802     0.204194  41.76 0.0006649478    1.340    0.254
       292 -10.6167    234.6080    209.7598   1.0696481932e+02  -3.6856799054e+00    0.5229893    0.4255978 -15.39  0.002662903    1.238    0.192
       293  -8.4409    100.6151    214.6693   1.3275339135e+02   1.8239859581e+01    0.2408311    0.1273109  63.70  0.001214475    1.991    0.498
       294  -8.1797    160.7199     10.4023   6.9233765222e+01   4.4100163116e+01    0.2748589    0.1312034  74.19   0.00113252    2.120    0.528
       295  -9.0892    204.7387    214.0363   1.1291366237e+02   7.0142687463e-01    0.2108161    0.1543484  35.06  0.000438399    1.161    0.139
       296  -8.6989    139.7845    213.5408   1.2503043728e+02   1.2046584735e+01    0.2084657    0.1739781 -83.26 0.0008295778    1.358    0.264
       297  -8.8150    168.2009    212.4659   1.1942122136e+02   7.2847190803e+00    0.1922882    0.1808598 -44.56 0.0003031889    1.248    0.199
       298  -9.8456    236.2218     25.8424   6.4774605296e+01   2.3241878347e+01    0.4217037    0.2118732 -29.65  0.001943059    1.953    0.488
       299  -9.5571    117.8877    212.2916   1.2912191735e+02   1.5933554241e+01    0.2191256    0.1893439  81.82 0.0003932276    1.147    0.128
       300 -12.1666     11.6300    207.2827   1.4869708704e+02   3.0897014277e+01    0.5974343     0.534375  50.66  0.004499411    1.547    0.353
       301  -8.8691     76.8882    208.2709   1.3666082356e+02   2.2963440767e+01    0.1964011    0.1551919 -81.09 0.0004494036    1.255    0.203
       302  -9.6181     46.4646    208.1926   1.4244828135e+02   2.6951584263e+01    0.2723871    0.1330809  54.32 0.0007886604    1.685    0.407
       303  -7.7605     61.3375    208.3181   1.3965440447e+02   2.5064178337e+01    0.1014817   0.09273607 -42.15 0.0007049036    1.704    0.413
       304  -9.5574    230.1440    213.9016   1.0844019907e+02  -3.4897681624e+00    0.3752533    0.2587384  46.61  0.001875788    1.571    0.363
