#   1 NUMBER                 Running object number                                     
#   2 MAG_AUTO               Kron-like elliptical aperture magnitude                    [mag]
#   3 X_IMAGE                Object position along x                                    [pixel]
#   4 Y_IMAGE                Object position along y                                    [pixel]
#   5 X_WORLD                Barycenter position along world x axis                     [deg]
#   6 Y_WORLD                Barycenter position along world y axis                     [deg]
#   7 A_WORLD                Profile RMS along major axis (world units)                 [deg]
#   8 B_WORLD                Profile RMS along minor axis (world units)                 [deg]
#   9 THETA_WORLD            Position angle (CCW/world-x)                               [deg]
#  10 FWHM_WORLD             FWHM assuming a gaussian core                              [deg]
#  11 ELONGATION             A_IMAGE/B_IMAGE                                           
#  12 ELLIPTICITY            1 - B_IMAGE/A_IMAGE                                       
         1 -12.3959    212.2115     37.8722   3.9689771895e+01   2.8225832362e+01    0.9837795     0.942734  88.03  0.006631101    1.260    0.206
         2 -10.8538    219.9863     30.6074   3.7268304066e+01   2.7462002575e+01    0.4664698    0.3721833  41.37  0.001390385    1.781    0.439
         3 -11.7749    229.7713     21.7333   3.4496894200e+01   2.6470361640e+01    0.6977679    0.5449215 -62.90  0.002710935    1.079    0.073
         4  -9.7676    249.0649      2.9656   2.9436384666e+01   2.4712419840e+01    0.3382509    0.2117091 -63.33  0.001857345    1.225    0.183
         5  -8.9428      2.1388      2.1760   8.5348353253e+01   7.4427698469e+01     0.199535   0.09872521 -33.51  0.001240701    1.694    0.410
         6  -9.6905     32.8897    234.7965   1.1798507636e+02   2.0630961473e+01    0.2562677    0.1444667 -89.47  0.001099748    1.667    0.400
         7  -8.0578     81.5079    250.5284   1.0952157051e+02   1.1289028582e+01    0.2148269   0.08540291  45.68 0.0005959687    2.028    0.507
         8 -14.1766     38.8543    192.7909   1.1328453189e+02   2.9270935637e+01      9.44867     3.673359  77.26   0.02907604    5.028    0.801
         9  -9.8619    162.3128    225.5834   8.9462485124e+01   3.6112791437e+00    0.3121984    0.2170916  42.76  0.001702167    1.371    0.270
        10 -10.5967     74.4741    219.6233   1.0790128129e+02   1.8554904347e+01    0.6434785    0.2198815  50.75  0.002446516    2.934    0.659
        11 -10.4726     84.8724    219.9621   1.0562703494e+02   1.6986437837e+01    0.4013103    0.2705627 -84.86 0.0008932354    1.631    0.387
        12  -9.2367     32.7001    222.2927   1.1713943281e+02   2.3291930185e+01    0.2750949    0.1312517 -77.21  0.001420533    1.972    0.493
        13 -10.2022     43.7731    218.2142   1.1447938393e+02   2.2885211793e+01    0.4914717     0.272152  65.51  0.001517697    1.712    0.416
        14 -13.5704      9.4705    208.1291   1.2100778431e+02   2.8812362896e+01     2.070539     1.088109 -83.58   0.01096061    1.629    0.386
        15 -11.5364     57.2236    240.3714   1.1352826029e+02   1.6531606374e+01    0.7320831    0.4527668  35.27   0.00103259    1.587    0.370
        16  -7.4519     57.2826    194.2965   1.0906438913e+02   2.6655539227e+01    0.1237321    0.1021305 -40.99 0.0001858446    1.542    0.351
        17 -13.1243      6.5807    245.4674   1.2356268765e+02   2.1294669864e+01     1.693978     1.273653  58.77     0.012667    1.147    0.128
        18 -10.3043     58.1533    176.7980   1.0673451164e+02   3.0771757531e+01    0.3958953    0.2957668 -35.23  0.001350957    1.757    0.431
        19 -10.0694     63.6409    171.4092   1.0458365548e+02   3.1371881070e+01    0.3377945    0.2701231 -38.74 0.0008363566    1.514    0.339
        20 -12.0213     11.1120    232.9026   1.2210127221e+02   2.3360593268e+01    0.9294669    0.5259502  81.04   0.00354678    1.485    0.327
        21  -9.9720     12.1862    170.5190   1.1766189398e+02   3.7294105654e+01    0.2464577    0.1553291  73.10 0.0008301024    1.467    0.318
        22 -13.2376     36.9501    249.2520   1.1815442816e+02   1.7258926687e+01      4.36429     1.261105  26.43   0.01174968    9.255    0.892
        23  -7.5296     48.6425    169.3491   1.0824864756e+02   3.3817418045e+01    0.1531698   0.09131876  67.47  0.000703063    1.846    0.458
        24 -10.2029     73.9666    162.0390   1.0040935032e+02   3.2249670828e+01    0.3412659    0.2812446 -50.00 0.0004339026    1.278    0.218
        25 -12.0964     79.8164    155.3029   9.7668992822e+01   3.3060173082e+01     1.432571    0.9929788  64.49  0.005402487    1.622    0.383
        26 -11.6861     68.4286    144.7395   9.9044209844e+01   3.7424133281e+01    0.8101842      0.56649  78.88  0.002648737    1.698    0.411
        27 -11.7498     60.9084    157.9021   1.0334609050e+02   3.5128809006e+01    0.5480376    0.3288177 -43.27  0.001317572    1.943    0.485
        28  -9.3586     32.5851    157.1229   1.1102105745e+02   3.8672581000e+01    0.3416791    0.2085896 -89.85  0.001554228    1.623    0.384
        29  -8.4171    148.6672    229.2910   9.2898094891e+01   5.1239779573e+00    0.1316655   0.09676825  60.51 0.0007021198    1.631    0.387
        30 -10.9012    100.6634    235.6120   1.0399485355e+02   1.1414168295e+01    0.4978578    0.3388133  49.75  0.002837676    1.280    0.219
        31 -10.6128     84.4212    140.4689   9.3590244525e+01   3.6061852845e+01    0.3780776    0.2695174 -51.50 0.0007038547    1.363    0.267
        32  -9.3609     97.6290    140.7358   8.9860841461e+01   3.3761320151e+01     0.514129    0.3561996  -5.79   0.00208944    2.416    0.586
        33 -10.4077     59.2573    135.5591   1.0012213353e+02   4.1014640193e+01    0.4327675    0.1948292 -65.79  0.001713306    2.161    0.537
        34 -10.0909     70.8569    132.0540   9.5941855866e+01   4.0277511034e+01     0.700325    0.3819861  79.64  0.002210529    4.106    0.756
        35  -9.2865    107.1489    131.0091   8.5041038601e+01   3.4406107225e+01    0.4224631     0.311246  45.52  0.001884756    1.383    0.277
        36 -10.1786     55.6828    124.0115   9.9074619998e+01   4.4389677796e+01    0.4963492     0.282152  79.91  0.001861265    3.055    0.673
        37  -8.0332    105.7680    119.2571   8.2655891602e+01   3.7479664096e+01    0.2009016    0.1762837 -21.14 0.0003281322    1.279    0.218
        38  -8.5257     95.0829    127.1263   8.7628491147e+01   3.7559092255e+01     0.278619    0.2458229 -29.34  0.001042068    1.236    0.191
        39 -11.4619     29.4819    203.1225   1.1634537872e+02   2.7912742331e+01    0.4487077    0.3857483 -45.19  0.001337777    1.545    0.353
        40  -7.8903    205.4978    110.4517   5.7560423503e+01   1.7942131971e+01    0.1443304    0.1313554 -55.75 0.0005520152    1.016    0.016
        41  -8.3340     41.5597     92.2148   9.7136563099e+01   5.3786342796e+01    0.1894051    0.1092645 -47.19 0.0003756767    1.542    0.352
        42  -8.3041     53.4938     90.5231   9.2367835446e+01   5.2746493963e+01     0.139636    0.1254811 -38.24 0.0008100984    1.023    0.022
        43  -7.8345    161.5240     83.4941   5.9087058247e+01   3.2864478959e+01    0.1485027    0.1428597 -82.27 0.0001360475    1.021    0.021
        44 -10.7992      2.2538     78.1279   1.0917805423e+02   6.0173494380e+01    0.7626291   0.08720107 -63.22  0.002488157    4.283    0.767
        45  -8.2460     33.1704     62.0090   9.2474692944e+01   6.1296824935e+01    0.1938786    0.1486423 -88.65 0.0008627843    2.016    0.504
        46  -9.2928     13.1624     60.6805   1.0079023596e+02   6.3308402979e+01    0.2673004    0.1400585 -52.98 0.0009188532    1.551    0.355
        47  -8.6317     34.7025     55.8976   8.9926481538e+01   6.2354677918e+01     0.221134     0.173137  30.78  0.000564501    1.424    0.298
        48 -12.2295    203.6520     43.4970   4.1981337151e+01   2.9388682354e+01    0.9841772    0.7708188  -0.90  0.005389772    2.016    0.504
        49 -11.7973    125.6385    230.0440   9.7931815192e+01   8.6517807625e+00      0.82672    0.4135814  35.37   0.00388191    1.806    0.446
        50 -11.6064     97.8939    229.1008   1.0383012061e+02   1.3135534274e+01    0.7360587    0.3363304  48.87  0.002824046    2.018    0.504
        51  -9.9989      1.8032     47.3307   1.0248672057e+02   6.6730764316e+01    0.4147031    0.1408352 -65.24  0.001765523    3.157    0.683
        52  -8.6108    193.9484     39.6766   4.2263473621e+01   3.2141118100e+01    0.2251828   0.07121791  48.69 0.0003946254    4.562    0.781
        53  -7.9516    131.6370     39.2850   5.2395595403e+01   4.7086469265e+01    0.1419587    0.1040854 -81.23 0.0003358094    1.687    0.407
        54 -10.4997    102.6283    226.7731   1.0251600064e+02   1.2891890719e+01    0.3939538    0.2944758  24.68  0.002018267    1.489    0.329
        55  -9.5282      2.3232     24.1543   9.4836096340e+01   7.0996323495e+01    0.2306685   0.06611232 -46.65   0.00108403    2.566    0.610
        56  -9.8704      2.9462     12.9959   8.9957629780e+01   7.2773900631e+01    0.1957978    0.1320591   6.78  0.001375888    1.374    0.272
        57 -11.9614    112.8009    231.6210   1.0090850688e+02   1.0353305857e+01      1.02936    0.5650228  45.72  0.005084698    1.608    0.378
