#   1 NUMBER                 Running object number                                     
#   2 MAG_AUTO               Kron-like elliptical aperture magnitude                    [mag]
#   3 X_IMAGE                Object position along x                                    [pixel]
#   4 Y_IMAGE                Object position along y                                    [pixel]
#   5 X_WORLD                Barycenter position along world x axis                     [deg]
#   6 Y_WORLD                Barycenter position along world y axis                     [deg]
#   7 A_WORLD                Profile RMS along major axis (world units)                 [deg]
#   8 B_WORLD                Profile RMS along minor axis (world units)                 [deg]
#   9 THETA_WORLD            Position angle (CCW/world-x)                               [deg]
#  10 FWHM_WORLD             FWHM assuming a gaussian core                              [deg]
#  11 ELONGATION             A_IMAGE/B_IMAGE                                           
#  12 ELLIPTICITY            1 - B_IMAGE/A_IMAGE                                       
         1 -11.9590     21.6003      8.6795   6.0840401193e+01   7.0361904674e+01    0.6911927    0.4045655  26.12  0.004453185    1.809    0.447
         2 -10.6912      3.4772      3.4592   6.7817782729e+01   7.2637640746e+01    0.2845551     0.189855   3.85  0.002100626    1.451    0.311
         3 -12.7272      8.7580     21.4894   7.2417449207e+01   6.9368882033e+01    0.6961925    0.4744844 -28.67  0.004762664    1.137    0.121
         4 -11.4014      4.7196     13.1999   7.1267103785e+01   7.1021443270e+01    0.4330408    0.2363143  24.23   0.00282108    2.125    0.530
         5 -11.3132      8.6628      7.4360   6.6832013047e+01   7.1659999740e+01    0.3681277    0.2542118 -19.94  0.002246301    1.109    0.098
         6 -11.0047     23.5153     20.4919   6.5037457691e+01   6.8366466144e+01    0.2539104     0.152874  -4.17  0.001532723    1.754    0.430
         7 -10.8683    108.4945      5.3709   2.8004946634e+01   5.6153988689e+01    0.2528241     0.201955  52.74  0.001395596    1.161    0.139
         8 -11.6090    244.9346      2.7260   8.5365956897e+00   2.2649952495e+01     0.642785    0.2172148  78.48  0.002601042    2.981    0.665
         9 -10.1979     38.9064      1.8880   4.9418306358e+01   6.9271499167e+01    0.2792202    0.1368458  26.10  0.001526349    2.017    0.504
        10 -11.7692    115.5227    213.7023   8.0358738329e+01   1.4740628271e+01     0.905262     0.579432 -49.01  0.004956224    1.919    0.479
        11 -12.3659    172.5835    247.3573   7.3838964502e+01  -4.8240994011e-01    0.4765514    0.3753805  23.66  0.003195213    1.262    0.207
        12  -9.3067    126.8815    250.5441   8.2580551758e+01   6.5863047809e+00    0.1873627   0.09279113  44.11  0.001018165    1.558    0.358
        13 -12.3678    112.1834    247.7652   8.4936078695e+01   9.3568665046e+00    0.8941531    0.3619883  48.76  0.003535069    1.921    0.479
        14 -10.0596     82.9960    250.4912   9.0343450168e+01   1.3294967246e+01    0.3145173    0.1272278  42.56  0.001656342    2.024    0.506
        15  -9.8420     86.4954    248.4884   8.9564352435e+01   1.3123326617e+01    0.2691802     0.155937  58.49  0.001079168    1.374    0.272
        16 -13.3113     15.7585    189.7105   9.7810278987e+01   3.3113243394e+01     1.212449    0.6381341 -72.59   0.00658257    1.635    0.388
        17 -13.8319      4.7556    174.0806   9.8861049501e+01   3.7354274640e+01     3.237172    0.3769748 -74.46   0.01016407    6.019    0.834
        18 -15.6742      8.9650    241.7027   1.0190157844e+02   2.3924811003e+01     2.773034     1.931284  67.20   0.01531888    1.102    0.092
        19 -11.1822    117.8690    232.1233   8.2164901967e+01   1.1046810500e+01    0.5090685    0.3014222  47.79  0.002450522    1.355    0.262
        20 -12.9699    107.2644    229.2452   8.3855650810e+01   1.3266511063e+01     1.134173    0.7268511  48.95   0.00675853    1.264    0.209
        21 -10.7502    155.0965    227.7977   7.4429290412e+01   5.4186144515e+00    0.3160318    0.1501794  37.43  0.001494797    1.872    0.466
        22 -11.9119     94.0023    217.0049   8.5049596477e+01   1.7610277284e+01    0.7549432    0.5652408 -68.02  0.004764146    1.456    0.313
        23 -11.9729     75.1945    225.8984   8.9561272518e+01   1.8739606930e+01    0.6219316    0.4264183  69.31  0.003130219    1.230    0.187
        24 -10.1467     68.2869    207.6322   8.9119571440e+01   2.3241020937e+01    0.3951703    0.2059619  82.40  0.001944043    2.287    0.563
        25 -12.1430     52.4532    204.1384   9.1889297086e+01   2.6052144737e+01    0.8622909    0.4509488  70.26  0.004647292    1.886    0.470
        26 -10.3285     50.7369    192.0189   9.1095564728e+01   2.8768922405e+01    0.3352825    0.2017206 -55.19   0.00190643    1.943    0.485
        27  -9.5177     56.5074    217.9169   9.2325594808e+01   2.2805808159e+01     0.184958    0.1327883  57.67  0.001241869    1.162    0.139
        28 -10.7523    100.4800    198.3326   8.1455567963e+01   2.0245122242e+01    0.6982781    0.2734423  57.71  0.002549599    3.303    0.697
        29 -11.1966     39.9232    197.0190   9.3709096108e+01   2.9033308699e+01    0.5028029    0.2517091  57.53  0.002439559    1.764    0.433
        30 -11.9004     35.4945    191.0596   9.4074298613e+01   3.0775580167e+01    0.5270786    0.3725678  70.53  0.003528628    1.161    0.139
        31 -11.1180     32.5569    187.1218   9.4324908005e+01   3.1926151178e+01    0.4117591    0.3055397  53.60  0.002280878    1.301    0.232
        32  -9.4150     77.0588    198.0495   8.6322260510e+01   2.3938056130e+01    0.2184061    0.1297795  69.11  0.001146485    1.706    0.414
        33 -10.2854     89.3689    193.7487   8.3217528076e+01   2.2966937880e+01    0.3966092    0.2915475  14.53  0.002072519    2.238    0.553
        34 -10.1178     59.0289    190.5990   8.9245569603e+01   2.8005399339e+01    0.4103017    0.2030305  69.02   0.00194626    2.289    0.563
        35 -11.8760     53.8076    182.6328   8.9499293446e+01   3.0383603233e+01    0.8791471    0.4418164 -83.14  0.004115547    2.061    0.515
        36  -9.3472     95.5301    184.1076   8.0584003716e+01   2.4017351507e+01    0.1983597    0.1277217 -64.61  0.001029357    1.585    0.369
        37  -9.3240     80.9355    181.6915   8.3487598561e+01   2.6827095303e+01    0.1899531    0.1564706  61.21  0.001152667    1.101    0.091
        38 -10.5130     35.9424    178.6738   9.2875623456e+01   3.3355087103e+01    0.3354948    0.2622753  83.74   0.00125513    1.008    0.008
        39 -11.2789     31.1398    175.8092   9.3616501833e+01   3.4492253305e+01    0.5837575    0.3385718  42.16  0.003501124    1.746    0.427
        40 -11.5947     17.5633    172.6277   9.6165114505e+01   3.6528004449e+01    0.5435632    0.2920859 -86.36   0.00211562    1.556    0.357
        41 -11.0891     24.0475    162.1485   9.3864865047e+01   3.8192076199e+01    0.5371254    0.2401315  39.03  0.002561443    2.275    0.561
        42 -11.5521      2.4970    145.8597   9.7181712265e+01   4.3589158707e+01    0.4564239    0.2537054  88.14  0.002515748    1.524    0.344
        43 -11.2568     11.1787    157.6176   9.6265822327e+01   4.0341860060e+01    0.4249527    0.2240757  59.81  0.002486078    1.848    0.459
        44 -12.0668      4.0544    154.7139   9.7567453078e+01   4.1544750020e+01    0.5698553    0.4554501  89.16  0.003563531    1.081    0.075
        45 -10.2293     25.4168    153.0736   9.2656718403e+01   4.0078553462e+01    0.4576994    0.2436649  77.84  0.002330285    1.981    0.495
        46 -10.3767     26.8763    147.6713   9.1738546908e+01   4.1155953105e+01    0.2765685    0.1987325  20.55  0.001725501    1.893    0.472
        47  -9.9740     42.1493    151.9063   8.8602850298e+01   3.8623513771e+01    0.2983578    0.1786278  41.69   0.00166854    1.748    0.428
        48 -12.2973    238.8834    144.3314   4.2267590713e+01   3.1246480270e+00     0.660451    0.3761535 -32.83  0.003092697    1.665    0.400
        49 -10.0187     17.1892    147.3818   9.3974424675e+01   4.2093998628e+01    0.3545774    0.1948327  86.63  0.001823387    1.709    0.415
        50 -12.1141     25.6390    128.1538   8.9712206291e+01   4.5716875633e+01    0.7668344    0.4233006 -77.61  0.002698546    1.585    0.369
        51 -11.2617     14.2280    140.0585   9.3928634644e+01   4.3978225058e+01    0.4940798    0.2527581  59.13  0.002690178    2.102    0.524
        52 -12.9471     15.0865    129.1683   9.2537288789e+01   4.6361719904e+01     1.083556    0.5514051 -64.57  0.004642539    1.562    0.360
        53  -9.7990     47.7250    143.5675   8.6148562449e+01   3.9911218001e+01    0.2183961    0.1313457  25.87   0.00107463    2.122    0.529
        54 -11.6332     36.7832    138.9801   8.8275484452e+01   4.2163800979e+01    0.7360586    0.3890029  77.44  0.003454151    2.402    0.584
        55 -11.5961    248.8474    144.2782   4.0561079318e+01   1.2022017032e+00    0.4065794     0.254444 -35.00  0.002054163    1.490    0.329
        56 -11.4721     28.7609    139.3385   9.0320616694e+01   4.2871682818e+01    0.4881573    0.2803257 -85.68  0.002094034    1.635    0.388
        57 -12.5200      3.1751    125.9617   9.5172461007e+01   4.7935119565e+01    0.8129499    0.3980785 -71.85   0.00322362    1.548    0.354
        58 -12.0068    246.0542    111.8188   3.3657882157e+01   6.9648121372e+00    0.5028507    0.3224652 -24.38  0.002421742    1.597    0.374
        59  -9.9605     49.0619    113.0651   8.0918573327e+01   4.6871057560e+01    0.3148981     0.156091  45.93  0.001471404    2.313    0.568
        60 -11.5788     21.0178     83.6220   8.4027640006e+01   5.6176409708e+01    0.4854076    0.3475996  10.83  0.002783471    1.746    0.427
        61 -13.6036      6.0400     99.6317   9.1281000946e+01   5.3622218842e+01     1.524367    0.7865243 -55.27  0.007222925    1.564    0.361
        62 -12.1866      2.7888     82.8598   8.9795874676e+01   5.7490969566e+01    0.9908335    0.3070193 -69.85  0.004187534    2.611    0.617
        63 -12.4472     10.7257     76.3694   8.6075882883e+01   5.8448866678e+01    0.6790758    0.5362849  68.52  0.003854431    1.587    0.370
        64 -12.4818      6.7131     66.9144   8.5637839797e+01   6.0695717314e+01    0.7059333    0.4755777 -39.89   0.00427619    1.330    0.248
        65 -11.6376      2.0948     60.3092   8.5972433134e+01   6.2312480506e+01    0.5200437    0.2193897 -63.60  0.002227693    1.827    0.453
        66 -10.8784    231.8071    101.1848   3.3390294897e+01   1.1801656379e+01    0.4858713    0.3171229   3.26  0.001991478    2.509    0.601
        67 -10.6499     41.9442    103.0763   8.1159614711e+01   4.9948312721e+01    0.4644201     0.347086   3.38  0.002713923    1.759    0.431
        68 -11.1573    247.7015     97.2160   2.9998871486e+01   8.9695484161e+00    0.3676173    0.2740996 -42.34  0.001960166    1.236    0.191
        69 -10.7154    222.7260     94.5662   3.3246929642e+01   1.4994475068e+01    0.3987767    0.2106269 -63.23  0.001332321    3.411    0.707
        70  -9.9885     75.0073    102.5218   7.0998445113e+01   4.5929298160e+01    0.2067827    0.1405376  35.08  0.001038026    1.608    0.378
        71  -9.8370     55.7048     93.0329   7.4768885019e+01   5.0696337487e+01    0.2414543    0.1879539  64.98  0.001356119    1.601    0.376
        72 -10.6978     95.6362     79.3716   5.8446761192e+01   4.7564694606e+01     0.305987    0.2337874  16.26  0.001525105    1.519    0.342
        73  -9.4991     54.9851     79.9883   7.1814512001e+01   5.3672661704e+01    0.2192487    0.1457724 -27.22  0.001136969    1.683    0.406
        74 -10.7192     30.2429     75.5916   7.9223025706e+01   5.7193572757e+01    0.3342544    0.2625983  46.81  0.002139175    1.592    0.372
        75  -9.9641    117.7710     75.9711   5.0893618528e+01   4.3808152924e+01     0.283946    0.2255994  43.65  0.001411262    1.260    0.207
        76  -9.8829    239.4938     66.5052   2.3831237707e+01   1.5592717039e+01    0.2503643     0.137478 -21.38  0.001037072    2.330    0.571
        77 -10.3945     29.5935     62.6463   7.6293104796e+01   5.9988910734e+01    0.3387169    0.2157569 -44.50  0.002018432    1.277    0.217
        78 -10.2328     23.3613     58.2916   7.7505184023e+01   6.1393591815e+01    0.4046118     0.187538 -23.81  0.001830423    3.001    0.667
        79  -9.7298     66.6620     57.6823   6.1167165371e+01   5.6686254816e+01    0.1409771   0.09645244 -12.54 0.0007048909    1.704    0.413
        80  -9.8708     21.8000     51.3458   7.6238527818e+01   6.2911552434e+01    0.2474578    0.1865631 -20.19  0.001661104    1.300    0.231
        81 -11.5887      8.9950     48.9981   8.0727514944e+01   6.4239680609e+01    0.4772118    0.3523555 -10.42  0.003358226    1.469    0.319
        82  -9.7555    250.4906     48.9668   1.8370824779e+01   1.5639179521e+01    0.2091894    0.1212473 -36.73 0.0006936927    1.589    0.371
        83 -11.7811     33.5762     43.5665   6.9104638801e+01   6.3390098607e+01    0.5389631     0.453453 -28.24  0.002678531    1.065    0.061
        84 -11.0098      4.1348     41.3755   8.0733664891e+01   6.6002114903e+01    0.3328873    0.1947164 -38.52  0.002006763    1.363    0.266
        85 -10.9886     18.4079     33.4785   7.2178103563e+01   6.6565080090e+01    0.4392234    0.2257201  -7.40  0.002305962    2.523    0.604
        86 -11.0579     16.5028     28.1620   7.1194773857e+01   6.7658997892e+01    0.3337394     0.188829 -13.07  0.001967279    1.911    0.477
        87 -13.1955    151.7363    244.4201   7.7300012994e+01   3.4286134250e+00    0.8681023    0.4594172  45.21  0.004182874    1.480    0.324
        88 -11.0861    130.5040    247.1983   8.1548172581e+01   6.5181498864e+00      0.50552    0.1780326  52.01  0.002162735    2.692    0.629
        89 -10.0288     76.2481    247.3037   9.1242925935e+01   1.4786447806e+01    0.2130942    0.1337263  84.59 0.0009403456    1.592    0.372
        90 -13.2177     12.7852    224.8194   1.0046981406e+02   2.6557535774e+01    0.6744154    0.4296182  48.13  0.003864968    1.481    0.325
        91 -12.4813     90.4701    239.3260   8.8022309699e+01   1.4095602031e+01      1.04093    0.4240361  55.85  0.004272338    2.220    0.550
        92  -9.8981     88.9836    230.6432   8.7451186978e+01   1.5852254291e+01     0.301111    0.1685145  79.46  0.001589229    2.152    0.535
        93 -13.1088    134.7138    232.4331   7.8984854619e+01   8.1846351818e+00    0.9023169    0.5826764  36.26  0.005170163    1.458    0.314
        94 -11.6745    124.5875    225.3325   8.0045122214e+01   1.1105546312e+01    0.6234609    0.5058342  88.70  0.003990267    1.357    0.263
