#   1 NUMBER                 Running object number                                     
#   2 MAG_AUTO               Kron-like elliptical aperture magnitude                    [mag]
#   3 X_IMAGE                Object position along x                                    [pixel]
#   4 Y_IMAGE                Object position along y                                    [pixel]
#   5 X_WORLD                Barycenter position along world x axis                     [deg]
#   6 Y_WORLD                Barycenter position along world y axis                     [deg]
#   7 A_WORLD                Profile RMS along major axis (world units)                 [deg]
#   8 B_WORLD                Profile RMS along minor axis (world units)                 [deg]
#   9 THETA_WORLD            Position angle (CCW/world-x)                               [deg]
#  10 FWHM_WORLD             FWHM assuming a gaussian core                              [deg]
#  11 ELONGATION             A_IMAGE/B_IMAGE                                           
#  12 ELLIPTICITY            1 - B_IMAGE/A_IMAGE                                       
         1 -15.8319    223.7888    173.9828   3.1996035871e+01   2.5832599134e+00     7.144951      3.10225 -26.26   0.01887222    4.023    0.751
         2 -14.2210    179.8083     92.0437   2.2175273140e+01   2.6797997966e+01     1.909083    0.8198762 -34.11  0.004806276    2.845    0.648
         3 -15.1987    243.6581     13.4038   3.5820932280e+02   2.4712780529e+01     4.501698     2.238263  83.24   0.02749187    1.801    0.445
         4 -16.0116    232.7687     61.1869   7.9936451217e+00   2.0586450999e+01     3.873889     1.639803 -50.81   0.01876314    2.021    0.505
         5 -16.5544    240.7216     91.4258   1.3030771872e+01   1.4369010597e+01     5.021335     2.205543  44.30   0.01812575    3.640    0.725
         6 -12.2471    223.1424     13.0413   3.5957556317e+02   2.8768652900e+01    0.4231286    0.3168897  32.60  0.002116948    2.582    0.613
         7 -10.4309    155.2768     14.2231   6.5756744110e+00   4.3588371704e+01    0.2092074    0.1187658 -16.96 0.0009530982    2.639    0.621
         8 -10.5717    138.0296      6.5005   6.8826267750e+00   4.8314247760e+01    0.1702359    0.1618422 -82.97 0.0005640759    1.209    0.173
         9  -9.9499    210.5005      1.4612   3.5830036289e+02   3.2596161072e+01    0.1150148   0.08671676 -82.86 0.0002169491    1.034    0.033
        10 -11.9240    248.4983    189.8808   3.0805530256e+01  -3.7836087226e+00    0.2713543    0.1762509 -17.55  0.001546014    1.588    0.370
        11 -12.4921    247.9148    247.4417   4.0863151058e+01  -1.2521192866e+01    0.4800683    0.2973931 -16.20    0.0031008    1.365    0.267
        12 -11.8488    247.9834    185.6958   3.0123249897e+01  -3.0167545798e+00    0.2442468    0.1534779 -42.99 0.0009240874    1.422    0.297
        13 -10.4195    194.0578    225.2431   4.7267664891e+01  -2.1940064104e+00    0.2316195    0.1719804  43.62  0.001173938    1.585    0.369
        14 -11.1812    203.1608    173.4798   3.5727862387e+01   6.0828130261e+00    0.3393749    0.1927678 -59.77  0.001397995    2.510    0.602
        15 -13.6374    199.0127    163.4015   3.4489011849e+01   8.8084748170e+00     1.324661    0.8545228 -18.11  0.003694752    2.088    0.521
        16 -13.2552    190.1560    154.5467   3.4395774137e+01   1.2247310941e+01    0.7825017    0.5889217 -56.38  0.003324691    1.396    0.284
        17 -12.7132    177.9177    169.0086   4.0008553908e+01   1.1539286907e+01    0.7614827    0.3560489 -41.68  0.002991505    2.087    0.521
        18 -11.9385    185.9084    170.1076   3.8530499566e+01   9.8275525881e+00    0.3274624    0.2538068  49.70 0.0009448449    1.440    0.305
        19 -10.3628    212.6521    161.3160   3.1481771924e+01   6.8086234391e+00    0.2088164    0.1637034 -73.45 0.0007085142    1.714    0.416
        20 -11.7972    165.2802    157.4072   4.0359580423e+01   1.6490780462e+01    0.2998869    0.2538719 -56.82  0.001044884    1.220    0.180
        21 -11.6589    133.5897    145.3007   4.5404174868e+01   2.5690978530e+01    0.9979464    0.2584482 -54.26  0.002328932    5.352    0.813
        22 -10.6058    132.2364    138.9498   4.4294616723e+01   2.7464157962e+01    0.4191779     0.183255 -48.46  0.001465551    2.275    0.561
        23 -10.6008    172.6612    149.6982   3.7024371408e+01   1.6697003759e+01    0.1538853    0.1198825  -2.78 0.0004228083    1.668    0.401
        24 -11.2022    143.8893    146.2631   4.2992682294e+01   2.3351573961e+01    0.4056472    0.2116688 -64.35  0.001340705    2.958    0.662
        25 -12.5250     67.6655    144.3262   6.4370722066e+01   3.7871036076e+01    0.8554161     0.455221  55.50  0.003243716    2.481    0.597
        26 -10.6899    187.2982    175.0238   3.9243278344e+01   8.5628953728e+00    0.2105906    0.1801809 -42.18  0.000771003    1.135    0.119
        27 -10.9022    219.2554    141.8386   2.6339709961e+01   9.3611581137e+00    0.2164999    0.1887653  71.77 0.0007673515    1.360    0.265
        28 -12.8549    140.6184    116.7916   3.6754091710e+01   3.0688912210e+01     1.049926    0.5227398 -59.83  0.003569973    2.814    0.645
        29 -13.3465    135.6086    123.3390   3.9657997537e+01   3.0336461282e+01     1.569182    0.6225843 -48.98  0.005281625    2.569    0.611
        30 -12.0720    134.6844    112.5024   3.7160668412e+01   3.2922903417e+01    0.6053915    0.2753149 -45.36  0.001757525    2.213    0.548
        31 -12.2211    134.2382    103.0809   3.4816293026e+01   3.5014373637e+01    0.6053131     0.414715 -52.93  0.002546197    1.532    0.347
        32 -13.3508     28.9024    133.1859   7.4851743994e+01   4.5464414935e+01    0.5344594    0.4979616 -16.33  0.001617186    1.179    0.152
        33 -13.2220     43.9032    131.5988   6.9631524339e+01   4.4289341063e+01    0.8035425    0.5145832 -49.64  0.001871011    1.449    0.310
        34 -13.5139     36.8165    131.3716   7.1942370109e+01   4.5133149258e+01    0.9442142    0.7032681 -46.78  0.003230221    1.269    0.212
        35 -10.0258    130.6799    133.9372   4.3522573099e+01   2.8959436171e+01    0.2270861    0.1972954 -55.61 0.0005220436    1.160    0.138
        36 -12.0225     55.4575    123.4527   6.4137653336e+01   4.4919193359e+01    0.8945018     0.486671 -75.42  0.002662117    2.507    0.601
        37 -12.7177    174.1559    127.4452   3.1667605306e+01   2.1112134608e+01    0.6930689    0.3102774 -56.10  0.002362787    2.854    0.650
        38 -10.3694     69.1608    130.9267   6.1167447806e+01   4.1082674192e+01    0.2373799     0.207065  81.73  0.001140559    1.283    0.221
        39 -10.1181    210.9267    130.4740   2.5376354393e+01   1.3056219254e+01    0.1930209    0.1403462  51.12 0.0004577395    1.531    0.347
        40 -12.2101    160.4155    128.4186   3.4891581517e+01   2.3849384872e+01     0.580913    0.3925123 -64.40  0.002511452    1.776    0.437
        41 -13.3399    156.1899    119.0200   3.3592696493e+01   2.6777320805e+01    0.6022873     0.536303  60.36  0.002742879    1.139    0.122
        42 -12.1796    189.8462    160.8403   3.5789060402e+01   1.1011168812e+01    0.3966121    0.3721652 -34.55 0.0009340138    1.020    0.019
        43 -11.1350    195.1346    117.2594   2.5258464353e+01   1.8739476590e+01    0.3188061    0.1878695 -48.48 0.0007746685    1.586    0.369
        44 -10.7160    218.3357    123.4212   2.2664937869e+01   1.2974634121e+01    0.3681279    0.1180302 -37.67  0.001231729    3.329    0.700
        45 -12.5438    126.8311    107.7188   3.7965208883e+01   3.5675123389e+01     1.074667    0.4299306 -50.04  0.003624055    2.691    0.628
        46 -11.2129    116.3367    110.2184   4.1504504731e+01   3.7385249760e+01    0.2666528    0.2308322  48.23 0.0007648524    1.149    0.130
        47 -11.4303    150.5593    108.2408   3.2205710660e+01   3.0281688557e+01    0.3490922    0.2930801  57.45 0.0006019771    1.191    0.161
        48 -11.8111    168.9449    105.6999   2.7573878414e+01   2.6657871044e+01    0.4215494    0.2546794  48.45  0.001046164    1.699    0.411
        49 -12.6963    161.5416    105.8984   2.9172275468e+01   2.8281331228e+01    0.7042351     0.333342  45.24  0.002707866    2.213    0.548
        50 -11.3468    144.4077     99.3803   3.1358541834e+01   3.3469859479e+01    0.3209897    0.2770466 -88.52 0.0008121711    1.258    0.205
        51 -12.5439    161.0127     98.5224   2.7440479410e+01   2.9847943981e+01    0.3454477    0.2832616 -42.35 0.0006674008    1.242    0.195
        52 -14.5336    201.5526     97.8014   1.9809331919e+01   2.1018501612e+01     2.706193     0.513096  48.43  0.006900733    6.584    0.848
        53  -9.4831    113.4432     95.4173   3.8306153538e+01   4.1165238502e+01    0.1502976    0.1452602  40.41 6.213442e-05    1.007    0.007
        54 -11.0973    237.0141    218.9843   3.7967325469e+01  -7.0344596575e+00    0.1526169    0.1227491 -11.03 0.0005423672    1.028    0.028
        55 -10.9176    195.3784     89.9014   1.9018311102e+01   2.3739036233e+01    0.2446737    0.1987694  54.09 0.0004254277    1.336    0.252
        56  -9.9533    199.7430     88.7217   1.8061724129e+01   2.3002327113e+01    0.1977949    0.1482944 -73.26  0.001053219    1.361    0.265
        57 -10.4875    169.2401     77.9296   2.0638465500e+01   3.1696310143e+01    0.4318718    0.1594941 -39.16  0.001343559    2.770    0.639
        58  -9.8733    206.9660     76.7918   1.4355335042e+01   2.3458662751e+01    0.1793774    0.1546698 -83.55  0.001087636    1.066    0.062
        59 -11.0460    218.3992    210.4742   3.9850886588e+01  -3.1394394584e+00    0.2202818    0.2110474 -14.02 0.0002445002    1.287    0.223
        60 -11.0557    194.0932     64.7806   1.3475635596e+01   2.8164877165e+01     0.412769    0.3129568  21.02  0.001581359    2.261    0.558
        61 -11.7153    216.9971     62.8570   1.0090100608e+01   2.3524365138e+01    0.3891877    0.2775597  73.46  0.001511926    1.382    0.276
        62  -9.3755    162.5182     61.4458   1.7657196990e+01   3.5937639158e+01    0.1398936    0.1260138  81.07 5.545984e-05    1.021    0.021
        63 -10.6558    206.0814     58.2942   1.0443707823e+01   2.6514804535e+01    0.1794977    0.1609443 -77.50 0.0003722783    1.123    0.110
        64 -14.9541    247.0677    109.8209   1.5824276096e+01   1.0188108353e+01      2.47243     1.151191 -34.54  0.007778571    2.322    0.569
        65 -11.2548    197.8576     55.2718   1.0820822662e+01   2.8752632806e+01    0.2710294    0.2283351 -47.24  0.000436015    1.266    0.210
        66 -11.0241    163.2193     53.0296   1.5371175909e+01   3.7021213508e+01     0.329164    0.1981468 -22.96  0.001509357    2.361    0.576
        67  -9.6109    196.2525    179.6763   3.8336249111e+01   6.0497935283e+00    0.1322549    0.1110709 -70.98 0.0001587303    1.542    0.351
        68 -12.2858    152.8060     47.8380   1.5791543910e+01   4.0213117478e+01    0.4299705    0.3167523  78.97  0.002344735    1.309    0.236
        69 -12.5332    153.5611     39.6433   1.3475354983e+01   4.1119701996e+01    0.3365911    0.2613305 -49.04  0.001958605    1.365    0.268
        70 -10.2376    159.0000     40.9371   1.2934911298e+01   3.9667760937e+01    0.1972457   0.07620493 -34.04 0.0004360757    2.861    0.651
        71 -11.6773    132.9026     37.0617   1.6455574054e+01   4.6329562964e+01    0.2838569    0.2132364  54.51  0.001564352    1.199    0.166
        72 -10.3110    182.9752     35.2584   8.1567701492e+00   3.4815295574e+01     0.200367    0.1692095 -59.95 0.0006070324    1.189    0.159
        73 -10.5997    191.4375     35.5337   7.1973707249e+00   3.2868147843e+01    0.3932007     0.215996  46.31  0.001905845    2.469    0.595
        74 -14.6847    244.5980     52.2546   5.1319332443e+00   1.9593776170e+01     1.031464    0.5916648 -55.26  0.003897397    1.412    0.292
        75 -11.4192    232.3109     27.0771   1.4948931301e+00   2.5284401065e+01    0.1888062    0.1363144  74.70 0.0007167202    1.389    0.280
        76 -11.5080    242.7142    207.9749   3.5032690495e+01  -5.9956195396e+00    0.1810265     0.137402 -26.64 0.0006060869    1.090    0.083
        77 -14.5194    249.6970     74.8555   8.8561636610e+00   1.5347585253e+01     1.302041    0.4923019 -44.95  0.004142936    2.128    0.530
        78 -12.5520    232.1269    207.0437   3.6713463474e+01  -4.4545046827e+00    0.3286121     0.294753   5.09  0.001471577    1.202    0.168
        79 -14.5709    222.0302     89.5742   1.5029070061e+01   1.8246166708e+01     1.066361    0.5459589 -61.95  0.004750549    2.266    0.559
        80 -11.4563    238.8725    204.6688   3.5101065789e+01  -4.9589825387e+00    0.1992698     0.140952   0.12 0.0006064192    1.465    0.317
        81  -9.7230    218.3414     13.7607   7.9351379968e-02   2.9667434209e+01    0.1559103    0.1193899 -66.14 0.0001744812    1.131    0.116
        82 -10.6922    189.8938     15.0191   2.8308872790e+00   3.5613470157e+01    0.2413769    0.1463372  76.52 0.0009836023    1.390    0.281
        83 -11.1260    248.7127    202.6914   3.3081776980e+01  -5.9054686735e+00    0.2100442    0.1529341  58.47  0.001187503    2.504    0.601
        84 -12.2962    192.2221    194.3555   4.2024355146e+01   3.8408809078e+00    0.9790086    0.4979711 -63.76  0.002960481    5.224    0.809
        85 -13.0865    233.0249    184.2521   3.2349616066e+01  -6.6741703815e-01     0.505359    0.2555797  41.43  0.002090907    2.292    0.564
