#   1 NUMBER                 Running object number                                     
#   2 MAG_AUTO               Kron-like elliptical aperture magnitude                    [mag]
#   3 X_IMAGE                Object position along x                                    [pixel]
#   4 Y_IMAGE                Object position along y                                    [pixel]
#   5 X_WORLD                Barycenter position along world x axis                     [deg]
#   6 Y_WORLD                Barycenter position along world y axis                     [deg]
#   7 A_WORLD                Profile RMS along major axis (world units)                 [deg]
#   8 B_WORLD                Profile RMS along minor axis (world units)                 [deg]
#   9 THETA_WORLD            Position angle (CCW/world-x)                               [deg]
#  10 FWHM_WORLD             FWHM assuming a gaussian core                              [deg]
#  11 ELONGATION             A_IMAGE/B_IMAGE                                           
#  12 ELLIPTICITY            1 - B_IMAGE/A_IMAGE                                       
         1 -12.4239    126.1116     28.6210   2.9059287361e+01   5.0226941944e+01    0.6585758    0.4154002  57.38  0.003245646    1.489    0.328
         2 -13.3412    119.5265     38.9791   3.4354063864e+01   5.0396994209e+01     2.099173    0.6623175 -31.52   0.00385389    3.289    0.696
         3 -11.5435     61.1204     36.1296   5.1860006368e+01   6.2074755815e+01     0.596509    0.3206463 -16.41  0.001657607    2.490    0.598
         4 -12.8071    160.0282     29.7237   2.2666247174e+01   4.1760386947e+01    0.4942302    0.4532047  21.89 0.0005032145    1.204    0.169
         5 -10.9878    105.5425      2.2597   2.3849461560e+01   5.7647582248e+01    0.4566335    0.3062112 -58.98  0.002292654    2.195    0.544
         6 -12.3632    104.8408     12.9736   2.8266252345e+01   5.6823230119e+01      0.56086    0.4015546 -20.41  0.002026631    1.483    0.326
         7 -12.0644    105.9024     20.7924   3.1067587814e+01   5.5754282496e+01    0.3691513    0.3363675 -35.87 0.0005797955    1.260    0.206
         8 -11.8842     26.3201     28.3393   6.3638103106e+01   6.7632661682e+01      0.56829    0.3327601 -31.92  0.002833345    1.412    0.292
         9 -11.9883     20.3227     22.0412   6.3979725318e+01   6.9230669904e+01    0.6952052     0.319371 -31.47  0.002612067    1.917    0.478
        10 -11.1444      5.9430     10.4854   6.6541716685e+01   7.2224719183e+01    0.4422663    0.3141321   0.96  0.003277685    1.342    0.255
        11 -10.5824     12.2263      8.3721   6.2161622187e+01   7.2065034422e+01    0.4026025    0.2284235 -51.78  0.002392188    2.255    0.557
        12 -12.3263     16.4219     13.8011   6.2419785014e+01   7.0883621472e+01    0.6703207    0.3125492 -23.89  0.003404234    2.157    0.536
        13 -10.8431    119.8157     16.6590   2.6142521662e+01   5.3056839299e+01    0.3857501    0.2982353  50.51  0.001379641    1.153    0.133
        14 -10.0744    121.3281     11.7869   2.4020279342e+01   5.3192376631e+01    0.5391809    0.2002093  61.91  0.002011267    2.484    0.597
        15 -11.4999    135.8438     22.7825   2.4923827072e+01   4.8580103950e+01     0.883539     0.347544  49.72    0.0035306    2.253    0.556
        16 -10.2695    127.6006     11.8151   2.2741981522e+01   5.1708471294e+01    0.2707328    0.2155917 -73.15  0.001323799    1.542    0.352
        17 -11.1573    135.0674     15.0572   2.2418948339e+01   4.9593565427e+01    0.6114451    0.3123466  58.97  0.002486335    1.706    0.414
        18 -10.8641    127.6464     16.1630   2.4282286234e+01   5.1265009674e+01     0.374851     0.235618  45.06  0.001265558    1.453    0.312
        19 -11.1200    178.9522     20.7958   1.7072646475e+01   3.8026913767e+01    0.5755823    0.2572099  41.40   0.00219678    2.978    0.664
        20 -12.0664     47.9475     12.7934   4.7010395188e+01   6.7373806583e+01    0.5853637    0.3030267  40.19  0.003199903    2.003    0.501
        21 -11.8806     35.6361     17.9974   5.4895029301e+01   6.8276143744e+01    0.5542382     0.213496 -30.62  0.001919479    2.554    0.608
        22 -13.0732    164.1463     18.5847   1.8578711874e+01   4.2005689676e+01    0.5460079    0.3016807  39.49   0.00189435    2.112    0.526
        23 -11.6754     67.7934     18.2985   4.1776779510e+01   6.3547754275e+01     0.486066    0.4167286  40.72  0.003173335    1.341    0.254
        24 -12.1816    227.6437     15.1042   1.0136166902e+01   2.6813408842e+01     0.640455    0.3388936 -86.68  0.003095683    1.998    0.500
        25 -11.5893     86.2456     14.2635   3.3902945515e+01   6.0590630737e+01     0.501365    0.3950207 -19.43  0.001848243    1.301    0.232
        26 -10.1727     87.4857      7.4064   3.0596879070e+01   6.1040187130e+01    0.5039736     0.287245  53.30  0.002222656    1.647    0.393
        27 -11.5085    192.5804      8.6011   1.2044396450e+01   3.5933430381e+01    0.6686383    0.4131795  12.06  0.002661611    2.797    0.643
        28 -12.3426    237.6135     16.0051   9.4618688756e+00   2.4437075584e+01    0.4430571    0.2781053  82.46  0.002492242    1.500    0.333
        29 -11.6509    225.1358      2.7528   7.5281563974e+00   2.8746228656e+01    0.5772569    0.2657008  89.56  0.001053995    2.244    0.554
        30 -11.3165    212.4498      8.8481   1.0070798167e+01   3.1079370635e+01    0.5980514    0.3681932   5.47  0.002714635    3.110    0.678
        31 -10.9188    218.5113      3.8959   8.3450421853e+00   3.0166849407e+01    0.3177283    0.2328322 -89.24 0.0006472171    1.187    0.157
        32 -10.9851    232.7220      7.3361   7.9424150650e+00   2.6522667331e+01    0.3051412    0.2143734 -76.24   0.00115788    1.242    0.195
        33 -12.1241    233.8890      3.1121   6.9184344006e+00   2.6714885561e+01    0.6348181    0.2699805 -71.55  0.001892906    2.731    0.634
        34 -10.4220    148.1658     16.1795   2.0417929050e+01   4.6261714402e+01    0.4401325    0.2042395  42.45  0.001516561    2.301    0.565
        35 -11.0015    169.6998      9.2767   1.5015320639e+01   4.1567557701e+01    0.4504522    0.1815293  55.83  0.001904731    2.171    0.539
        36  -9.8077    145.2058      9.7357   1.8819004207e+01   4.7630714706e+01     0.229022    0.1507194  27.23 0.0003913976    1.799    0.444
        37 -11.9709    247.0927      6.2324   6.6046757408e+00   2.3458694075e+01    0.4299964    0.3471699  21.42  0.002686201    1.992    0.498
        38 -11.1552    243.5782      2.7316   6.1207498538e+00   2.4606336666e+01     0.407209    0.2185549  59.20  0.002200368    2.050    0.512
        39 -10.2869      1.1554      7.4651   6.7884044547e+01   7.3019742445e+01    0.2993804   0.06349532 -44.99   0.00133892    3.109    0.678
        40 -10.9465      2.5037      1.9734   6.4578950763e+01   7.3763823553e+01    0.3145134     0.168749  -8.10  0.001995522    1.834    0.455
        41 -10.5948    185.2002      7.3362   1.2540327269e+01   3.7887719380e+01    0.2761154    0.2134256 -79.32 0.0009445437    1.230    0.187
        42 -10.3907    183.5043      4.5054   1.1966897795e+01   3.8584011091e+01    0.2256645    0.1492252  25.90  0.001139057    2.131    0.531
        43  -9.3491    157.1565      3.3944   1.4978452658e+01   4.5245794445e+01     0.193973    0.1152057  83.54 0.0009412636    1.733    0.423
        44  -9.9380    152.9978      7.4838   1.6856014841e+01   4.5910909239e+01    0.3472387   0.07372245  58.04  0.001158578    3.292    0.696
        45 -10.0989     62.1001      7.6918   3.8973937825e+01   6.5755325680e+01     0.225907    0.1546056  -8.34 0.0007149701    1.371    0.271
        46 -11.0716    122.3088      5.2354   2.1421795212e+01   5.3560405103e+01    0.2320416    0.2124587  30.45 0.0004580732    1.094    0.086
        47  -9.3506     78.0211      7.5264   3.3481528994e+01   6.2895579583e+01    0.2652401    0.1658454  67.58  0.001334606    2.396    0.583
        48  -9.9632     76.6537      3.6657   3.2162501538e+01   6.3529015344e+01     0.268316    0.1511873   7.14  0.001361396    2.068    0.516
        49 -10.3678     73.1481      3.1456   3.3031122026e+01   6.4241244394e+01    0.3378579    0.2309876  28.71  0.002053552    1.262    0.208
        50 -10.3096    176.4885      5.7113   1.3126425749e+01   4.0213931388e+01    0.3860554    0.1797674  80.22  0.001033629    2.199    0.545
        51  -9.3358    163.2662      6.3540   1.5025092491e+01   4.3455893929e+01    0.1342418   0.09336917  36.36 0.0004513473    1.627    0.385
        52 -11.9071     22.4773     11.5115   5.8265561222e+01   7.0661056100e+01    0.4251667    0.2706259   4.05  0.002565174    1.499    0.333
        53 -10.2311     41.5296      4.1093   4.5510639425e+01   6.9342831980e+01    0.2679383    0.1574381  -1.09  0.001015831    1.766    0.434
        54 -11.1842    206.1904      2.7439   9.1744359450e+00   3.3208778563e+01    0.4367393    0.2541962  83.38  0.002293657    1.567    0.362
        55 -11.6214    133.7189      2.5597   1.8362501053e+01   5.1069060605e+01    0.4009199    0.2749636  67.41  0.002205451    1.317    0.241
        56  -9.3755    128.6723      1.2879   1.8808254762e+01   5.2383328920e+01    0.2165267    0.1222142  69.96 0.0005707651    1.686    0.407
        57 -11.1741     22.6136      3.1575   5.4086673473e+01   7.1803564353e+01    0.2516999    0.1623698  24.63  0.001705071    1.546    0.353
        58 -10.0951    141.4264      3.1999   1.7289375675e+01   4.9143789591e+01    0.2645403    0.1690037  65.07   0.00140372    1.363    0.266
        59 -11.2500    113.9564      2.2030   2.1991779635e+01   5.5752824147e+01    0.4868464     0.225317  64.56  0.001483081    2.038    0.509
        60  -9.9143    152.4837      1.4249   1.5033046978e+01   4.6573923545e+01    0.2602241     0.115021  68.92  0.000577728    1.982    0.495
        61 -10.1037     13.2718      1.9111   5.8435740632e+01   7.2899578497e+01    0.1989691    0.1317538   2.64 0.0009124576    1.330    0.248
        62 -10.5922    104.5084    154.7796   7.0703423108e+01   2.9286628684e+01    0.2924457    0.2748362 -84.30  0.001652029    1.023    0.023
        63  -9.2653    188.4111    250.2346   6.8149715796e+01  -3.6419048778e+00    0.1445396     0.117832 -54.09 0.0005041334    1.708    0.414
        64 -10.7552    174.7183    247.6093   7.0333779010e+01  -1.1140433391e+00    0.3462713    0.2894297  84.36  0.002259369    1.748    0.428
        65 -11.1749     50.1346    249.3082   9.3531916656e+01   1.7162843023e+01    0.3340702    0.1353726  60.53  0.001769043    2.170    0.539
        66  -9.5440    142.9574    152.7130   6.0728826310e+01   2.2445802444e+01    0.2171896     0.196801  47.71 0.0006164028    1.085    0.078
        67  -9.9300      4.2330    153.4363   9.5491802244e+01   4.1919692892e+01    0.1561917   0.09282906  49.68 0.0009525946    1.723    0.420
        68 -10.1006     30.4773    151.9936   8.9111070679e+01   4.0026404149e+01    0.2079212    0.1825143 -17.97  0.001294349    1.578    0.366
        69 -10.4045    215.6676    150.5915   4.4519536208e+01   7.7436674523e+00    0.3894069    0.1294957 -33.73  0.001234634    3.391    0.705
        70 -10.4819     64.6720    150.0301   8.0172085454e+01   3.6577052125e+01    0.5418444     0.305092   8.72  0.002019975    3.973    0.748
        71  -9.1938    227.3330    150.6803   4.2379758603e+01   5.4325841732e+00    0.1378721    0.1132655 -72.59 0.0007049025    1.697    0.411
        72 -11.1842     47.5648    146.3049   8.4070153677e+01   3.9586962718e+01    0.4252057    0.3463613 -17.05  0.002496174    1.717    0.418
        73 -10.4945     16.4930    147.8406   9.2087164770e+01   4.2254133321e+01    0.2117555    0.1754035  78.67 0.0003626241    1.138    0.121
        74  -9.5960      3.2648    147.7396   9.5240024849e+01   4.3287753105e+01    0.1600771    0.1105587 -63.28  0.001043875    1.344    0.256
        75 -10.1970    239.6695    146.9520   3.9396218824e+01   3.7257864408e+00    0.2013935    0.1681134 -27.94 0.0007114506    1.080    0.074
        76 -11.4491      5.8087    142.2040   9.4140622353e+01   4.4378441975e+01    0.4312668    0.2397924  76.85 0.0003130876    1.757    0.431
        77 -10.5144      2.0181    140.0334   9.4864504265e+01   4.5137977414e+01    0.3301914    0.1410628 -69.88  0.001535064    1.764    0.433
        78 -11.4403    249.3031    143.7354   3.7094234803e+01   2.4854299748e+00    0.5716808    0.1885549 -39.90  0.002131345    2.717    0.632
        79  -9.6557     74.0149    146.0570   7.7074319626e+01   3.6247983277e+01    0.2127888    0.1623138 -35.20 0.0005473252    1.618    0.382
        80 -11.0134     33.4426    144.3124   8.7453546534e+01   4.1559845500e+01    0.3224187    0.2430204  60.31 0.0008288136    1.357    0.263
        81  -9.2649     16.2941    141.3185   9.1461747660e+01   4.3794261712e+01    0.1217211   0.07784882 -51.90 0.0002547742    1.607    0.378
        82 -10.1188    217.4274    138.9521   4.1559972123e+01   9.5039073349e+00    0.2531205      0.21266  70.60 0.0006140469    1.478    0.324
        83 -10.4535     80.0421    137.9576   7.4002551578e+01   3.7328442593e+01    0.3217072    0.2983069  65.09  0.000974338    1.109    0.099
        84 -10.3498     39.9768    137.8532   8.4886453298e+01   4.2448900923e+01     0.261044    0.1838928  57.48 0.0008944047    1.506    0.336
        85  -9.8165     39.3674    133.5678   8.4439359862e+01   4.3544373135e+01    0.1886888    0.1660053   1.60 0.0007683695    1.481    0.325
        86 -11.0552     23.0602    136.3056   8.9161209154e+01   4.4416539941e+01    0.4611901    0.3238456  47.82  0.002836192    1.554    0.357
        87  -9.8666     31.8257    137.4630   8.7001428300e+01   4.3351928425e+01    0.2999278    0.1808968  46.08  0.001194057    1.788    0.441
        88 -11.0127     29.9856    133.0835   8.6915497685e+01   4.4570848540e+01     0.344951    0.2382878 -43.32 0.0007597542    1.621    0.383
        89 -10.8194     11.7595    136.3371   9.2080465427e+01   4.5309052434e+01    0.4563449     0.166545 -56.14  0.002133175    2.363    0.577
        90  -9.6288     47.4436    135.0100   8.2447994036e+01   4.2330725685e+01    0.2089057    0.1144491 -66.42  0.000748642    1.571    0.363
        91 -10.1082    234.7548    144.7597   3.9758955293e+01   5.0290763331e+00    0.3794819    0.2019142 -53.93  0.001521562    2.631    0.620
        92 -10.5934     73.4919    133.3433   7.4945855520e+01   3.9415540782e+01    0.3819772     0.200307 -42.85  0.001612331    2.175    0.540
        93 -10.2191    104.1107    130.9800   6.5973533477e+01   3.5025387439e+01    0.2373458    0.2172699  46.23 0.0004342302    1.134    0.118
        94  -9.7540     93.1563    129.8441   6.8751087425e+01   3.7204066990e+01    0.2376291    0.1998167  85.77  0.001240332    1.282    0.220
        95 -10.8950     10.9913    126.6381   9.1216932958e+01   4.7631997565e+01    0.3719694    0.1445107 -71.28  0.001070211    1.989    0.497
        96  -9.9238    242.3192    127.6764   3.4672804977e+01   6.4870383591e+00    0.1398111    0.1060068 -64.19 0.0003595009    1.673    0.402
        97 -10.0222     26.7214    126.5860   8.6929925174e+01   4.6413622039e+01    0.3542455   0.06951321 -63.88  0.001229455    3.407    0.706
        98  -9.6600     22.7279    127.0500   8.8091233942e+01   4.6640623239e+01    0.1751015    0.1300097 -72.78 0.0003747675    1.086    0.079
        99  -9.6523      1.9943    125.9928   9.3526202950e+01   4.8373290907e+01    0.1933048      0.11548  74.42  0.001125663    1.707    0.414
       100  -9.5546     78.9517    123.9315   7.1532752688e+01   4.0898343436e+01    0.2379656    0.1718372  80.35  0.001139191    1.733    0.423
       101 -12.0946    103.8546    122.3842   6.4094349187e+01   3.7114170284e+01    0.3621547    0.3395281  64.00  0.001975761    1.099    0.090
       102 -10.2495     49.7734    123.0473   7.9833166141e+01   4.4967990922e+01     0.239904    0.2053738  -5.92  0.001431149    1.480    0.324
       103  -9.1199     56.6564    122.2983   7.7695056148e+01   4.4339263540e+01    0.1398032   0.09927495  73.42  0.000703508    1.671    0.402
       104  -9.1082    221.4852    120.4897   3.6514919896e+01   1.2007049275e+01    0.1472001    0.1362225 -41.43 0.0008099709    1.047    0.045
       105 -10.2496     48.7453    112.4226   7.8204088885e+01   4.7644567234e+01     0.396008    0.1977053 -50.47  0.001846104    1.782    0.439
       106 -10.2046     44.6913    119.7117   8.0738199887e+01   4.6332979654e+01    0.2310974     0.195153  58.37 0.0006748468    1.302    0.232
       107 -10.3618     43.5374    116.4835   8.0517387224e+01   4.7232074995e+01    0.2777228    0.2527273  66.36 0.0008868372    1.206    0.171
       108 -10.2784      7.1972    114.8488   9.0865806897e+01   5.0633372398e+01     0.424742    0.1264543 -60.56  0.001895127    2.360    0.576
       109 -11.2715      5.2222    105.3992   9.0240432961e+01   5.2938577817e+01    0.3467681    0.2850128  42.63  0.002440442    1.485    0.327
       110 -11.9468      2.5070    112.0483   9.1854369522e+01   5.1561867777e+01    0.4791185    0.2148195 -76.25 0.0008378723    1.801    0.445
       111 -10.5493      5.7214    109.3201   9.0599760080e+01   5.2004596681e+01    0.2074846    0.1399174 -73.04 0.0002778806    1.157    0.135
       112 -10.1442     79.0497    114.6636   6.9497263840e+01   4.3113804971e+01      0.28587    0.1985271 -49.79 0.0009727366    1.335    0.251
       113  -9.3828     67.7365    114.9586   7.2953920851e+01   4.4679199137e+01    0.2069772    0.1500429  64.99  0.001039494    1.672    0.402
       114  -9.4692     58.1396    114.9375   7.5843506247e+01   4.5935667410e+01    0.2328204    0.1502679  88.88  0.001076975    2.048    0.512
       115 -10.9512     30.3342     97.5387   8.1173132316e+01   5.2979442174e+01    0.6147469    0.4050405 -46.56  0.003535488    1.368    0.269
       116 -11.6217     25.7960    106.8117   8.4237288490e+01   5.1185139917e+01     1.339135    0.6761467  -5.48  0.005691261    3.756    0.734
       117 -10.6390     35.1349     92.6802   7.8632277751e+01   5.3679916011e+01    0.3869841    0.2179008 -63.77  0.001506219    1.538    0.350
       118 -11.6364     27.4515     84.5389   7.9554475891e+01   5.6205137907e+01    0.5609859    0.4807712 -22.41  0.002285801    1.265    0.210
       119 -12.1701     43.0767     85.0760   7.4234550414e+01   5.4642442234e+01    0.8662701    0.3856295  16.72  0.002682969    3.233    0.691
       120 -13.2162     17.4986    100.4063   8.5770468440e+01   5.3311091267e+01    0.3197564    0.2969551 -87.30 0.0005346588    1.189    0.159
       121 -11.7014      9.7227     97.4337   8.7745988818e+01   5.4505154226e+01    0.4708827    0.4529275 -13.35  0.001590164    1.296    0.229
       122 -11.2263     23.0806     94.7264   8.3015923552e+01   5.4218621392e+01    0.3208303    0.2699288   6.13   0.00110044    1.458    0.314
       123 -11.0997     17.9355     91.1754   8.4070774906e+01   5.5408415837e+01    0.4175399    0.2432342 -72.63  0.001495321    1.539    0.350
       124 -11.1451     21.6194    114.4927   8.6674995354e+01   4.9705230555e+01    0.4240528    0.2549291   3.36  0.002265609    2.450    0.592
       125 -11.2610     28.2464    113.2193   8.4528127682e+01   4.9465576933e+01    0.3125756    0.2666675  -6.92 0.0007856415    1.479    0.324
       126 -10.2677    107.8296    112.3619   6.0537771009e+01   3.8720939743e+01    0.2752484    0.2088929 -60.57 0.0009399065    1.352    0.260
       127 -10.0087    170.3288    111.0792   4.4291791954e+01   2.5418906219e+01    0.3375117    0.2296352 -36.87  0.001479243    1.482    0.325
       128 -10.8788    102.0096    109.1716   6.1398898350e+01   4.0546138563e+01    0.4310407    0.3147721 -13.28  0.001376772    1.918    0.479
       129  -9.9081     66.7901    110.7000   7.2327653938e+01   4.5828904269e+01    0.2635611     0.209803 -22.29  0.001418211    1.492    0.330
       130  -9.9717    121.2124    108.3544   5.5765106604e+01   3.6983050116e+01    0.3121775    0.2465688   6.93  0.001442353    1.640    0.390
       131 -11.2748     79.5822    108.2192   6.7848760522e+01   4.4563675821e+01    0.5024098    0.3159611  26.40  0.001571298    1.898    0.473
       132 -10.2038     15.6755    108.7045   8.7589873610e+01   5.1505069283e+01    0.2280887    0.2179362  65.86 0.0008383615    1.253    0.202
       133 -10.0557    181.3660    105.2012   4.0369241465e+01   2.3996045494e+01    0.4303102    0.2667166  20.17  0.001537464    2.822    0.646
       134  -9.8258    143.4702    105.9974   4.9285173572e+01   3.2679906573e+01    0.3047612      0.22936  69.10  0.001359694    1.600    0.375
       135 -10.0817    118.3601    105.3751   5.5756460678e+01   3.8234667156e+01    0.2240793    0.1813511  -7.46 0.0003866561    1.540    0.351
       136 -10.4684     86.0112    103.8164   6.4808692494e+01   4.4572601746e+01     0.241645    0.2081489  24.81 0.0006895598    1.278    0.217
       137  -9.7782     64.7254    101.6603   7.0936057249e+01   4.8248198234e+01    0.2809264    0.1872316 -47.34 0.0002597317    1.362    0.266
       138 -11.9080     68.7555     95.6460   6.8187930196e+01   4.9093146621e+01    0.3943318    0.3173596  -5.48 0.0004756123    1.480    0.325
       139 -10.8331     51.9014     99.4629   7.4558861295e+01   5.0362642955e+01    0.6483413    0.1972778 -48.96  0.002239205    2.825    0.646
       140  -9.3751    120.4552    101.4958   5.4120823824e+01   3.8662534107e+01    0.1537658    0.1491024 -35.75 3.940368e-05    1.015    0.014
       141  -8.8011    158.7032     99.7269   4.3884186128e+01   3.0461811080e+01    0.1537477    0.1249816  11.40            0    1.525    0.344
       142 -10.4974     80.9899     98.2326   6.4940934065e+01   4.6670497106e+01    0.2513874    0.1997039  48.79 0.0005767808    1.401    0.286
       143  -9.8967     77.6662     96.7143   6.5599178445e+01   4.7536695334e+01    0.2348583    0.1950413 -40.94 0.0004903313    1.132    0.116
       144 -10.8255     82.9823     93.4760   6.3056919059e+01   4.7433374276e+01      0.59712    0.3879808  73.15  0.002410077    2.787    0.641
       145 -10.8424     78.4433     93.2899   6.4454224973e+01   4.8196415769e+01    0.4782365    0.3347514  44.76  0.002400449    1.587    0.370
       146  -9.2682    210.0333     97.7771   3.2963237666e+01   1.8655344490e+01    0.1938774    0.1245589  56.25 0.0006363811    1.645    0.392
       147 -10.7778     42.8777     94.5086   7.6438854313e+01   5.2502945121e+01    0.3496599    0.2974634 -62.68  0.002173492    1.075    0.070
       148 -11.9934    125.9392     94.6716   5.0701058069e+01   3.8973504225e+01    0.5123009    0.3831538  81.78 0.0001876512    1.885    0.470
       149 -10.9593    121.7117     93.6643   5.1569522859e+01   4.0092464356e+01    0.4656101    0.3690259  64.58  0.001687396    1.462    0.316
       150 -11.1648    104.3085     87.5700   5.4799389655e+01   4.4928840761e+01    0.3680162    0.2627915 -38.50  0.001019716    1.368    0.269
       151 -10.8410     98.6869     91.1914   5.7542059542e+01   4.5212149651e+01    0.2993684    0.2646165  48.71  0.000576036    1.214    0.176
       152 -11.5768     90.0752     88.4924   5.9433040877e+01   4.7348500838e+01    0.7419758    0.3544373 -40.45  0.002278197    2.097    0.523
       153 -10.5740     49.4253     91.4366   7.3559875103e+01   5.2507743421e+01    0.3319344    0.2618445  26.38  0.001769346    1.453    0.312
       154 -11.6964      6.9298     88.8809   8.7311280496e+01   5.6615661158e+01    0.4758583    0.3374462  10.00  0.002196916    1.801    0.445
       155 -10.0757     66.4255     88.6612   6.7161706885e+01   5.1008669486e+01    0.3355633    0.2181402 -12.08  0.001434975    2.247    0.555
       156  -9.5029    199.6537     88.0819   3.2306689641e+01   2.2830574399e+01    0.2134845    0.1919978 -40.94 0.0006322697    1.082    0.075
       157  -9.5446    184.0105     88.0414   3.5234771373e+01   2.6619984082e+01    0.2555461    0.1887183 -73.20  0.001140431    1.685    0.407
       158 -10.8469    143.2000     84.5887   4.3273790609e+01   3.7134334298e+01    0.2717858    0.2614643 -31.34 0.0003139359    1.040    0.039
       159  -9.9220    133.5054     84.9713   4.5847136541e+01   3.9294426260e+01    0.2993771    0.2181556  70.62  0.000726336    1.741    0.426
       160 -10.9408    121.0455     84.7762   4.9139802532e+01   4.2087009851e+01    0.3233514    0.2638626  26.75  0.001266171    1.324    0.244
       161 -10.6021     80.1788     84.0252   6.1328685777e+01   4.9978750507e+01    0.4092787    0.3716699  35.23  0.002357116    1.192    0.161
       162 -10.5074     76.3584     80.8865   6.1683921084e+01   5.1262167410e+01    0.3295498    0.2579141 -32.85 0.0003794359    1.224    0.183
       163 -10.9794     73.0214     77.9967   6.1961127429e+01   5.2393977984e+01    0.5757458    0.3932295   7.45  0.002781226    1.920    0.479
       164  -9.4485    165.5190     84.0013   3.7928441254e+01   3.1888339587e+01    0.2418628    0.1510959 -40.79  0.001024814    1.586    0.369
       165 -10.8007    113.2696     82.9013   5.0771655103e+01   4.4109407354e+01    0.3432492    0.3141233 -69.27 0.0009608167    1.214    0.176
       166  -9.6962    107.5593     81.5008   5.2012511245e+01   4.5558374360e+01    0.3656631    0.1899352 -36.37  0.001458067    2.005    0.501
       167 -10.0817     66.8904     81.6806   6.5110527106e+01   5.2493717207e+01    0.3499931     0.280815   5.93  0.001948381    1.411    0.291
       168  -9.4557     46.4304     75.8087   7.0710951469e+01   5.6342348532e+01     0.221141    0.1627817 -12.78  0.001247634    1.543    0.352
       169 -11.5173     53.2429     76.2747   6.8382897440e+01   5.5455626991e+01    0.5962302    0.3749718 -59.99  0.002762545    1.599    0.374
       170 -11.4609     59.0398     77.8016   6.6748133551e+01   5.4399675884e+01     0.595427      0.36966 -29.10  0.002668923    1.780    0.438
       171  -9.7630      1.3415     80.8032   8.7872588993e+01   5.8711937413e+01    0.2023341   0.08794016 -69.05 0.0004650623    1.807    0.446
       172  -9.4863    103.2678     80.0012   5.2836152136e+01   4.6714428102e+01    0.2148477    0.1798717 -38.61 0.0003971047    1.151    0.131
       173  -9.3828     92.1294     71.9359   5.3766703378e+01   5.0451302469e+01    0.4185113    0.3155487  21.19  0.002127579    1.463    0.317
       174 -10.9246     93.0505     77.1711   5.5123212831e+01   4.9223323572e+01    0.7118785    0.3800732  26.84  0.002698766    2.470    0.595
       175  -9.8454     88.1639     77.3801   5.6750795461e+01   5.0052089260e+01    0.3334747    0.2412333  30.32  0.001533902    1.475    0.322
       176  -9.7428    233.1411     77.8487   2.4411438868e+01   1.6786379091e+01    0.2243765    0.1787354 -60.41 0.0006682949    1.217    0.178
       177 -11.8398     13.0536     73.6087   8.2412246874e+01   5.9663528664e+01    0.5633835    0.3641039 -69.78  0.002751404    1.408    0.290
       178  -9.8003     14.4580     67.5161   8.0582368002e+01   6.0898473232e+01    0.3821818    0.1759377  13.80  0.001965416    2.712    0.631
       179  -8.9359    134.5021     77.4559   4.3311377173e+01   4.0533225704e+01    0.1508162    0.1502232  85.82 9.703808e-05    1.034    0.033
       180  -9.3484    112.6863     75.4156   4.8620980915e+01   4.5731443214e+01     0.206812    0.1415495  35.24 0.0005895531    1.535    0.349
       181  -9.8203    103.5714     74.6786   5.1082035825e+01   4.7729355014e+01     0.325787    0.2259528  79.15   0.00133256    2.590    0.614
       182 -11.1185      2.0089     71.8162   8.6081360220e+01   6.0653280961e+01    0.3642172    0.1421957 -59.99  0.001590218    1.801    0.445
       183 -11.4526    186.8519     71.5383   3.0159057070e+01   2.8830515555e+01    0.5774813    0.3927704 -46.77  0.001827775    1.458    0.314
       184  -9.2540     66.2861     74.6481   6.3293767396e+01   5.4093208534e+01    0.1323726    0.1085968 -84.80 0.0004231826    1.663    0.399
       185  -9.4314     24.6161     74.2489   7.8310212877e+01   5.8722234574e+01    0.2962514    0.1601091 -40.24  0.001233741    1.671    0.402
       186 -10.1654     29.1932     71.6372   7.5992566874e+01   5.8922412903e+01    0.2814227    0.1840254  13.75  0.001632435    1.816    0.449
       187 -11.0460     35.1496     71.9255   7.3841482709e+01   5.8331567818e+01     0.435677    0.2684874  32.78  0.001913803    1.897    0.473
       188 -10.4502     41.0005     73.0393   7.1961558715e+01   5.7519369598e+01    0.2634593    0.2133633 -36.79 0.0007132959    1.089    0.082
       189 -11.6301     40.6006     69.1346   7.1058332996e+01   5.8398335971e+01    0.2946804    0.2422107   5.51 0.0008192938    1.339    0.253
       190  -9.8687    153.2515     72.9255   3.7397551098e+01   3.6915031529e+01     0.368455    0.1890791  38.62  0.001362491    2.318    0.569
       191  -9.0657     19.3329     72.2507   7.9810088160e+01   5.9548382601e+01    0.1228333    0.0753712 -35.07 0.0002795318    1.557    0.358
       192 -11.6586    123.1272     68.8743   4.3606366880e+01   4.4719714739e+01    0.5356011    0.3270923  45.21  0.002366708    1.626    0.385
       193 -11.0416     78.7128     67.7672   5.6854621534e+01   5.3608434486e+01    0.5888784    0.3997025 -71.40   0.00262129    2.452    0.592
       194 -12.5876     74.5925     51.7774   5.2818277921e+01   5.7306098729e+01     1.010248     0.508786 -51.38  0.002374565    2.456    0.593
       195 -11.0414     82.6355     47.6783   4.8524254877e+01   5.6636903973e+01    0.5690211    0.2946515 -25.84  0.002080993    2.218    0.549
       196 -10.5483    219.7424     66.9038   2.3620729372e+01   2.1600638510e+01     0.411416    0.2152956  68.74  0.001745781    2.140    0.533
       197  -9.5216     25.9800     65.7362   7.5735927777e+01   6.0453750362e+01    0.1561496    0.1418413 -31.81 0.0004241255    1.144    0.126
       198 -12.7180      6.3835     61.8079   8.2426084473e+01   6.2581974355e+01    0.6332189    0.4231517 -32.58  0.002924542    1.406    0.289
       199  -9.5391     13.8244     56.4010   7.8177005894e+01   6.3281128604e+01    0.1724973    0.1059906 -39.46 0.0002890689    1.347    0.257
       200  -9.1868    192.4927     65.5372   2.7515110342e+01   2.8421504596e+01    0.1503059     0.138924 -74.38  0.000394132    1.045    0.043
       201  -9.9421     84.9405     61.6686   5.2725506119e+01   5.3731862902e+01    0.3182911    0.2498936  32.07  0.001222894    1.302    0.232
       202 -10.1588     91.8662     57.3335   4.8955991351e+01   5.3267333901e+01    0.2979288    0.2391016  60.58 0.0008505592    1.569    0.362
       203 -10.8285     87.9832     56.0109   4.9754757600e+01   5.4224429863e+01    0.5470186    0.1919464 -36.00  0.001586129    2.968    0.663
       204 -10.9926     91.8240     62.5815   5.0778853407e+01   5.2314916134e+01    0.4065616    0.3142416  65.05  0.001448862    1.754    0.430
       205  -9.6952     51.3721     56.4670   6.3104596410e+01   5.9775855358e+01    0.2691167    0.2112269 -26.70 0.0006845343    1.127    0.113
       206 -10.1400     47.6274     54.2101   6.3824034805e+01   6.0668554039e+01    0.2478105    0.1742163 -37.08 0.0005484156    1.217    0.178
       207 -10.4610     51.8041     48.1259   6.0075841370e+01   6.1303583448e+01    0.2783337    0.2183591  26.88 0.0006418527    1.376    0.273
       208 -11.0405     40.7164     56.8696   6.7421532828e+01   6.0919552405e+01    0.3587446    0.2283414  23.93 0.0009813306    1.743    0.426
       209 -11.5354     45.3353     49.6727   6.3210184946e+01   6.1806558182e+01    0.6824371    0.2995071 -40.99  0.003207423    1.972    0.493
       210 -11.1618     44.0519     43.9724   6.1729581858e+01   6.3013399059e+01    0.2601474    0.2099734 -12.22 0.0002943836    1.119    0.107
       211 -11.5293     39.7995     44.0984   6.3548494655e+01   6.3472190356e+01    0.5529522     0.305166  11.86  0.002065175    2.228    0.551
       212 -10.3968     50.5314     61.4786   6.5037652195e+01   5.8883277412e+01     0.308201    0.2198062  34.80  0.001495179    1.599    0.375
       213 -11.2391     43.1651     62.3576   6.8137241549e+01   5.9546148170e+01    0.3180431    0.2217409 -47.33 0.0005628404    1.236    0.191
       214 -10.8715     46.1457     59.1385   6.5994720556e+01   5.9868372015e+01    0.2796628    0.2457725 -56.34 0.0009326229    1.278    0.217
       215  -9.8165    199.4405     64.0060   2.5951276219e+01   2.6949859532e+01    0.3915058    0.2378918 -74.23   0.00158343    2.323    0.569
       216 -10.4580    157.9657     63.2544   3.3428971130e+01   3.7426583196e+01     0.508808    0.2212942  47.83   0.00135346    2.285    0.562
       217 -10.1263    154.7365     60.7004   3.3336990868e+01   3.8649130269e+01    0.2175397    0.2060493  33.92   0.00117851    1.079    0.073
       218 -10.3534    105.9884     63.5014   4.6701437801e+01   4.9374673991e+01    0.3565201    0.2346443  57.07  0.001635004    1.799    0.444
       219 -10.8550    106.7040     59.1222   4.5001043327e+01   5.0012094481e+01    0.4361751    0.3217578 -71.02  0.001826775    2.066    0.516
       220 -10.4566     58.7198     63.1902   6.2497987028e+01   5.7499096180e+01    0.3354304    0.2840409  75.82  0.001342747    1.723    0.420
       221 -10.1248     64.5058     61.3155   5.9760112524e+01   5.7069986250e+01    0.3659585    0.2641712  31.96  0.002027555    1.484    0.326
       222 -10.9767    234.8425     61.1901   2.0200974418e+01   1.9002256001e+01    0.3617037    0.3349096 -82.89  0.002054282    1.093    0.085
       223  -9.4370    113.4722    249.4825   8.2124776922e+01   8.2934283275e+00    0.1209804   0.09677567  51.65 0.0003074889    1.033    0.032
       224 -10.7572    109.9301     41.1216   3.7677708351e+01   5.2230729416e+01     0.614098    0.4918814 -14.98  0.003087729    1.285    0.222
       225 -10.6255    112.1995     50.8209   4.0529629327e+01   5.0244865221e+01    0.3205293    0.2872832  -4.52 0.0007889358    1.103    0.094
       226 -11.5768    116.0113     49.0147   3.8843216884e+01   4.9695908462e+01    0.4395578     0.297953 -39.29 0.0003982269    1.530    0.347
       227  -9.6536    213.5122    248.4781   6.3299266147e+01  -7.2421962029e+00    0.1205225   0.09309383  20.15  0.000810064    1.022    0.021
       228 -11.5501     31.8945     53.1847   6.9848430652e+01   6.2528853960e+01     1.155099    0.3343825  18.69  0.003779525    5.861    0.829
       229 -11.0166     24.9951     59.5108   7.4483041332e+01   6.1838584693e+01    0.6044826    0.2248846  24.77  0.002802288    3.041    0.671
       230 -10.9729     25.0252     56.1730   7.3545586383e+01   6.2521844571e+01    0.4831019    0.2567948  -0.74  0.002382774    2.528    0.604
       231  -9.5153    135.7313     58.4688   3.6979164271e+01   4.3634436401e+01    0.2614466     0.185547  -5.19  0.001167728    1.855    0.461
       232 -10.6195    158.2699     55.5002   3.0991707410e+01   3.8603712942e+01    0.4550678    0.3542585 -80.77  0.002212632    1.539    0.350
       233 -10.1698    154.8318     49.7356   2.9905439889e+01   4.0345503897e+01    0.5238537    0.2589979 -13.82  0.001687163    3.817    0.738
       234  -9.8713    125.2957     56.6279   3.8994287921e+01   4.6372869039e+01    0.2474048    0.2402382   0.23 0.0008876403    1.031    0.030
       235  -9.5495     66.9984     55.0154   5.6709151246e+01   5.7910118816e+01    0.1921622    0.1673953 -75.82 0.0007939772    1.616    0.381
       236 -10.0609    138.9105     54.1494   3.4809491089e+01   4.3575237259e+01    0.4484354    0.1526621  54.31  0.001499359    2.817    0.645
       237 -10.7182    145.9106     48.5823   3.1418588390e+01   4.2729272311e+01    0.6180847    0.3231536 -12.59  0.002145969    3.317    0.698
       238 -11.6114     60.9226     47.9217   5.6449736196e+01   6.0100720215e+01    0.7922677    0.2877725 -40.81  0.003233709    2.515    0.602
       239  -9.9769    240.2805     50.6193   1.7071547415e+01   1.9333223273e+01    0.2093545     0.166712 -10.15 0.0007387073    1.685    0.407
       240  -9.1329     55.5876     50.5410   5.9446009912e+01   6.0362569615e+01    0.1310197    0.1105057 -23.11 0.0001049402    1.012    0.012
       241 -10.6408    200.8735     45.0940   2.0680915011e+01   2.9433043343e+01    0.5411504    0.2360728  76.94    0.0019085    3.083    0.676
       242 -10.5574    173.3444     48.3194   2.5951451115e+01   3.5890505243e+01    0.5061476    0.3251349  84.99  0.002215505    1.930    0.482
       243 -10.2990     26.2521     48.3441   7.0706777259e+01   6.3982697019e+01    0.2719205    0.1737836 -20.70  0.001067246    1.572    0.364
       244 -10.2849     22.4431     37.0997   6.8675104673e+01   6.6431195747e+01    0.3090806    0.1741136  35.31  0.001539765    2.253    0.556
       245 -10.9376     20.9111     45.8190   7.2215337480e+01   6.4907110980e+01    0.3931233    0.1899673 -35.16 0.0009671804    1.836    0.455
       246 -10.9060     26.3203     42.7647   6.8875744187e+01   6.5047400638e+01    0.3042606     0.256583  71.11   0.00156097    1.919    0.479
       247  -9.6910      1.9032     49.1454   8.1313537214e+01   6.5421514543e+01    0.1595458    0.1403126 -60.84 0.0008807152    1.241    0.194
       248 -10.1424     96.5015     64.5571   4.9958373782e+01   5.1061703652e+01    0.3789954    0.2612259  14.47  0.001762449    1.835    0.455
       249  -9.8361     13.7246     46.1814   7.5445632703e+01   6.5348599929e+01    0.2370716    0.1120631 -42.94  0.001305668    1.632    0.387
       250 -11.2436    137.0511     44.9061   3.2182253215e+01   4.5430380485e+01    0.8281519    0.2649343  44.87  0.002338717    3.285    0.696
       251  -9.4693    161.4371     43.9583   2.6812783125e+01   3.9527590371e+01    0.3328759    0.1876265  81.61   0.00128332    2.513    0.602
       252 -10.7453    155.6887     42.3779   2.7423166762e+01   4.1195237033e+01    0.3416991     0.316414 -20.92   0.00110842    1.159    0.137
       253 -10.1278    153.6673     37.4254   2.6248560174e+01   4.2376888529e+01    0.3124159    0.2522146 -17.86 0.0009162394    1.384    0.277
       254 -10.0215     92.0648     42.2941   4.3409495707e+01   5.5745253634e+01    0.3471867    0.2465202  67.91  0.001686426    2.113    0.527
       255 -11.2553      4.7621     35.8842   7.6428918075e+01   6.7873588620e+01     0.540619     0.314146 -53.39  0.002524931    1.385    0.278
       256 -10.3368     11.9654     30.0126   7.1096733736e+01   6.8513650687e+01     0.364473    0.1406864 -42.44  0.001336098    1.939    0.484
       257 -10.4215      7.4722     30.4720   7.3419544783e+01   6.8722418666e+01    0.3078585    0.1578458  -9.88  0.001472493    2.230    0.552
       258  -9.4961     17.2743     41.5438   7.2478350999e+01   6.6002430306e+01    0.2661302   0.09237669 -44.76  0.001270075    2.151    0.535
       259  -9.4824    189.0000     39.9561   2.1011788462e+01   3.3108486970e+01    0.2262576   0.08075031 -30.95 0.0005075622    2.909    0.656
       260 -10.4042     88.5295     29.4201   3.9494256538e+01   5.8299786196e+01      0.42864     0.224833  40.16  0.001840808    1.803    0.445
       261 -10.4862     79.3948     38.7928   4.6241612950e+01   5.8650861401e+01    0.4392793    0.2922436  67.29   0.00198729    2.802    0.643
       262 -11.4168     79.9405     33.2590   4.3855025683e+01   5.9383512565e+01     0.686586    0.3820599  29.31  0.003284915    1.919    0.479
       263  -9.5149    193.9779     38.5164   1.9891527497e+01   3.2053860397e+01    0.2084782    0.1301961  62.72 0.0005092049    1.521    0.343
       264 -11.9563    126.4416    241.7512   7.8796391558e+01   7.5754528261e+00    0.3921829    0.2856225  68.72  0.001839043    1.463    0.317
       265  -9.3997     70.5453     34.4728   4.7652243475e+01   6.0839394375e+01    0.2112875    0.1866685  18.10 0.0006395554    1.136    0.120
       266 -10.3826     67.5274     32.0894   4.7788480609e+01   6.1696785777e+01    0.3173394    0.2288446  13.60    0.0012163    1.374    0.272
       267 -11.2516     57.1311     30.6502   5.1187808743e+01   6.3527510269e+01    0.4385812      0.27762 -14.58  0.001323726    1.642    0.391
       268 -11.5631     48.7613     30.4716   5.4530132600e+01   6.4726713721e+01    0.5578789     0.241883  29.46  0.002136734    2.473    0.596
       269  -9.9098     43.2033     28.0202   5.5877323051e+01   6.5830532762e+01    0.1828973     0.143688  -9.74            0    1.066    0.062
       270  -9.1685    206.4878     37.4595   1.7918010524e+01   2.9095841460e+01    0.1398713    0.1253652 -79.57 0.0002156647    1.004    0.004
       271 -11.3066    176.2907     35.0123   2.1560471278e+01   3.6976245336e+01    0.6081892    0.3548187 -54.28  0.001596011    1.919    0.479
       272 -10.7564    181.8206     27.0090   1.8431973125e+01   3.6578010190e+01    0.6360143    0.3222922  33.51   0.00237738    3.263    0.694
       273  -9.4998     12.7207     36.6793   7.2988094396e+01   6.7239825125e+01    0.1992226    0.0856986 -55.15 0.0006955135    1.991    0.498
       274  -9.8090     94.0615     35.8447   4.0314400511e+01   5.6313163138e+01    0.1915802    0.1848939 -75.07 0.0005716983    1.316    0.240
       275 -12.2834     22.2924    149.5616   9.0851128759e+01   4.1356936500e+01     0.565429    0.2964879 -41.00  0.002240459    2.651    0.623
       276 -11.9913    164.3276     27.8219   2.1354752052e+01   4.0905293811e+01    0.3264518    0.2827116  70.13 0.0004952938    1.065    0.061
       277  -9.4479    163.0297    243.4906   7.1981482699e+01   1.3802116086e+00    0.1961521    0.1023859  39.42  0.001024301    1.565    0.361
       278 -11.1686     67.1879    240.6537   8.9866098729e+01   1.6541010179e+01    0.4232784    0.1614964  46.77   0.00214893    2.049    0.512
       279 -11.5847    167.4866    237.8537   7.0334951078e+01   1.5198283150e+00    0.2538334    0.2435481 -23.18 0.0009007699    1.239    0.193
       280 -11.7572    106.4873     32.5541   3.5435783193e+01   5.4176273178e+01    0.6577665    0.3797916   9.80  0.002468262    2.722    0.633
       281 -12.2684    113.4980     24.9430   3.0722335955e+01   5.3583125120e+01    0.6748875    0.3065118  50.56  0.001871155    1.953    0.488
       282 -10.2954    239.8021     32.8825   1.3052314401e+01   2.1860418192e+01    0.3387611    0.1861506  60.71  0.001714676    1.895    0.472
       283  -9.8422    148.5778     32.2020   2.5552124019e+01   4.4323646606e+01    0.1804509    0.1398331  -7.45 0.0006614068    1.518    0.341
       284 -11.0381     32.4507     31.1236   6.1912102696e+01   6.6551663207e+01    0.2186531    0.1694949 -26.26 0.0002591106    1.049    0.047
       285  -9.5946    232.6298    236.1434   5.7911529171e+01  -8.5086768569e+00    0.1669166   0.09836016 -18.43 0.0009516739    1.808    0.447
       286 -10.1111    200.4998    226.4689   6.2222356875e+01  -2.2015333287e+00    0.1990007    0.1390776   9.47 0.0007635586    1.544    0.352
       287 -11.2238    197.0106    232.0391   6.3787168676e+01  -2.4483726902e+00    0.4404575    0.2409521  28.25  0.001939274    1.733    0.423
       288  -9.5325     15.4185    233.7517   9.8521578414e+01   2.3982698460e+01    0.1926262    0.0840893 -85.34  0.001123807    1.997    0.499
       289 -11.9344    146.8629    237.8453   7.4342396389e+01   4.9214646447e+00    0.5126787    0.3218724  55.87  0.001976932    1.629    0.386
       290 -10.9108    188.9237     28.3678   1.7820262641e+01   3.4624721921e+01    0.3852929    0.3051202  -1.46  0.001396867    1.657    0.396
       291  -9.4309    230.0112     30.5257   1.3493995893e+01   2.4392346983e+01    0.1894699    0.1219591  75.38 0.0003553334    1.511    0.338
       292 -10.3763    197.8330     29.2679   1.6883770117e+01   3.2288569658e+01    0.3200715    0.2680223  51.47  0.001520397    1.293    0.227
       293  -9.9050    150.1579     27.8031   2.3827403910e+01   4.4469934415e+01    0.2049108    0.1564759  38.00 0.0009317907    1.355    0.262
       294  -9.6776     97.0175     26.6743   3.5828848405e+01   5.6946616935e+01    0.3113056     0.132982 -28.63  0.001314324    2.419    0.587
       295  -9.9737    241.7574     27.4259   1.1637196886e+01   2.2122333075e+01    0.2439255    0.1184891  78.97  0.001143051    2.154    0.536
       296  -9.7803    230.3009     26.9074   1.2618790827e+01   2.4783111631e+01    0.1853669    0.1541639 -53.42 0.0008887455    1.124    0.111
       297 -10.6314    154.9458     24.4009   2.1880632036e+01   4.3671162829e+01    0.4285707    0.2437041  81.52  0.001605267    2.138    0.532
       298 -10.2022    156.4157     20.5284   2.0411041900e+01   4.3738034821e+01    0.3304154    0.1781985  50.80  0.001519479    1.724    0.420
       299 -10.7770    143.2397     25.2325   2.4292666386e+01   4.6489319140e+01    0.3770402    0.2394376  62.99  0.001851781    1.468    0.319
       300 -10.9136    148.0328     22.6415   2.2542810793e+01   4.5597926397e+01    0.4405646    0.1594775  59.08   0.00168883    2.363    0.577
       301 -10.5984     90.8675     22.7859   3.6076774242e+01   5.8685579471e+01    0.3581505     0.266914 -10.23  0.001659584    1.350    0.259
       302  -9.6886    213.7362     24.3942   1.3745412301e+01   2.8997485967e+01    0.2473009    0.1611109  64.19  0.001307183    1.486    0.327
       303 -10.5652    122.9613    232.4760   7.8354807428e+01   9.7490922565e+00    0.2313242    0.1722866  87.68  0.001152663    1.586    0.370
       304 -10.2071    247.1559    231.1905   5.4537966762e+01  -9.9739233239e+00    0.1477829     0.130604  14.26 0.0006202841    1.329    0.247
       305  -9.6562    166.6068    225.7735   6.8724019010e+01   3.6029808318e+00    0.1609839    0.1268399 -61.43 0.0005595591    1.619    0.382
       306  -9.8950     75.6306    224.2365   8.6801161103e+01   1.8516840727e+01    0.1745245    0.1295703  62.84 0.0008408605    1.101    0.092
       307  -9.7354    234.0089    223.3361   5.5494107968e+01  -7.0528818537e+00     0.176319    0.1341994  21.77 0.0005789818    1.121    0.108
       308  -9.4221    180.9817    228.5051   6.6312948384e+01   7.2999447486e-01    0.1791298    0.0993965  20.64 0.0008072131    2.348    0.574
       309 -10.0306     59.7198     23.6325   4.7171175770e+01   6.4164271001e+01    0.2127019    0.1476849 -26.34 0.0004238541    1.336    0.251
       310  -9.8247    132.7089     37.0599   3.0509576119e+01   4.7573900483e+01    0.3635469    0.2005439  78.80  0.001334685    3.069    0.674
       311  -9.7886     49.6721    222.6792   9.1669247056e+01   2.2260347448e+01    0.1022713   0.09089757 -46.66 0.0007047953    1.687    0.407
       312  -9.4390    169.1705     23.6225   1.9320168453e+01   4.0174695646e+01    0.2134195    0.1109262  55.60 0.0009515024    1.752    0.429
       313  -9.1796    152.9919    219.4941   7.0518054803e+01   7.0212003543e+00     0.183668    0.1088121  20.36 0.0006289942    2.416    0.586
       314 -11.2898     38.9184     22.2307   5.5287793353e+01   6.7252594491e+01    0.2179006    0.1802515 -11.33 0.0004099911    1.088    0.081
       315  -9.4202     99.6718    218.6702   8.1377256941e+01   1.6053653115e+01    0.1177379    0.1026743  -7.84 0.0007051278    1.710    0.415
       316  -9.6989    223.0591     22.0568   1.2201201669e+01   2.7063791327e+01    0.2159785    0.1327629 -67.82 0.0006268257    1.613    0.380
       317  -9.6618      5.7660     22.0065   7.1280688124e+01   7.0331672394e+01    0.1774738    0.1321231 -16.90 0.0006946936    1.183    0.155
       318  -9.3445    216.4218     20.7744   1.2570250024e+01   2.8788081976e+01    0.1654779    0.1299206 -16.87 0.0009003357    1.613    0.380
       319  -9.2008    136.4870    216.4818   7.3473831908e+01   1.0420572261e+01    0.1340746    0.1160663  49.93 9.466235e-05    1.009    0.008
       320 -10.3267    127.2973     21.6716   2.6319539188e+01   5.0758249498e+01    0.2265352    0.1334236  62.10 0.0005253061    1.625    0.385
       321  -9.5474    113.5846     60.7505   4.3566447373e+01   4.8271404562e+01    0.2821051    0.1417946 -33.40  0.001135617    2.065    0.516
       322  -9.4849    144.5108    214.5134   7.1516171520e+01   9.3972751116e+00    0.1348962    0.1178776  46.36 0.0008104391    1.006    0.006
       323  -9.9872     74.7932     19.5649   3.9872279396e+01   6.2156229683e+01    0.2385002    0.1653724   8.85 0.0006346945    1.458    0.314
       324  -9.8467     47.0005     19.4708   5.0512282400e+01   6.6610413176e+01    0.2398668    0.1465899 -17.06  0.001366533    1.572    0.364
       325  -8.8211      1.4995     20.4872   7.2917930068e+01   7.0847305891e+01    0.1151773   0.07800621 -32.47 -1.845641e-05    1.093    0.085
       326 -10.1289    164.6281    212.0715   6.6968089596e+01   6.2913101367e+00    0.2300561    0.1656137  47.80 0.0005717365    1.306    0.234
       327  -9.7325     80.9768     19.4717   3.7775000368e+01   6.1020591113e+01    0.3032057    0.1487496  48.43  0.001343063    1.964    0.491
       328  -9.7328    203.1216    207.2162   5.8403485147e+01   3.1591870214e-01    0.3256147    0.1504135 -49.76  0.001358277    2.955    0.662
       329 -10.3646    153.2862    207.3215   6.8557944309e+01   9.1795065369e+00    0.3853055    0.2519651  69.22  0.001792061    2.211    0.548
       330  -9.3976     61.5014    206.5144   8.7901864963e+01   2.4070464266e+01    0.1269356      0.10128  73.36 0.0002355529    1.018    0.017
       331  -9.5921     74.7576     13.6002   3.7257490180e+01   6.2865423117e+01    0.1684285    0.1166199  54.87 0.0009479815    1.683    0.406
       332  -9.4265      4.2802    205.3560   9.8963475464e+01   3.0647358112e+01    0.1019468    0.0719352 -63.32 0.0007013668    1.660    0.397
       333 -10.3436    237.8305    204.1564   5.1354475052e+01  -4.9848803811e+00    0.1833206    0.1318021   0.24  0.001074029    1.336    0.251
       334  -9.5624     78.5627    203.7625   8.4044821254e+01   2.2294754828e+01    0.1714043     0.112863 -86.23 0.0006072165    1.540    0.351
       335  -9.2886    245.6336    201.2742   4.9436149271e+01  -5.7937838450e+00    0.1091251    0.1022999  67.04 0.0007004186    1.670    0.401
       336 -10.3277    140.1539    199.2860   7.0067141149e+01   1.3090035567e+01    0.4417146    0.2213942  64.16  0.001491787    3.835    0.739
       337 -10.2612      6.3291    198.4427   9.8190138238e+01   3.1889792123e+01    0.2023079   0.08258849 -80.05  0.001088609    1.992    0.498
       338 -10.5010    233.8500    196.8108   5.0683769541e+01  -3.2665203263e+00    0.2841127     0.217367 -31.03  0.000893592    1.320    0.242
       339 -10.3605    186.8919     15.0173   1.4426373593e+01   3.6672324037e+01    0.2271679    0.1805597  74.68 0.0004568583    1.130    0.115
       340  -8.9209    131.3273    198.3216   7.1839203925e+01   1.4863719359e+01    0.1351635    0.1101442  -0.96 0.0007048131    1.688    0.407
       341  -9.9961    228.0499    196.4712   5.1677225323e+01  -2.2544873700e+00    0.1958055    0.1194532  36.63 0.0005572863    1.567    0.362
       342 -10.3629    246.4012    191.8123   4.7494723181e+01  -4.5517141711e+00    0.1877913    0.1075968 -22.45 0.0009578867    1.730    0.422
       343  -9.4044    172.3193    190.3041   6.1571932906e+01   8.8614529263e+00    0.1428155    0.1082565   5.78 0.0004482198    1.630    0.386
       344 -11.4703      5.1322    185.7011   9.7638547921e+01   3.4693914224e+01    0.3566932    0.2856447  70.75  0.002215703    1.167    0.143
       345  -9.6716    216.5435    186.5304   5.1903294389e+01   1.3191719879e+00      0.25346     0.125019  51.73  0.001042768    2.612    0.617
       346  -8.9158     86.5274    185.4988   8.0004094387e+01   2.5107384838e+01    0.1366246    0.1194398  76.60 -2.930595e-06    1.002    0.002
       347  -9.2742    239.5451    184.4710   4.7258542735e+01  -2.3333865190e+00    0.1322751     0.113019  -3.42  9.25857e-05    1.006    0.006
       348 -10.5786    250.5001    177.4339   4.3949391636e+01  -3.0672732255e+00    0.2768457    0.1157967 -34.35  0.001218527    2.198    0.545
       349  -9.1863    113.4931    175.9785   7.2260896306e+01   2.2815234739e+01    0.1946353    0.1187299 -34.16 0.0008081876    2.418    0.586
       350 -10.2175     51.8544    173.2980   8.6455210895e+01   3.2684648349e+01    0.4141082    0.1817124 -84.95  0.001663011    2.848    0.649
       351  -9.3976    207.0271    172.6894   5.0950088223e+01   5.4565252825e+00    0.2012746    0.1785515  20.08  0.000883738    1.071    0.066
       352  -9.3251     39.4980    173.5216   8.9314073976e+01   3.4067201220e+01    0.1274201    0.1031943  86.79 0.0001127519    1.001    0.001
       353  -9.0953    170.3216    172.2792   5.8513517535e+01   1.2754737949e+01    0.1469288    0.1140383   7.25 0.0003818868    1.584    0.369
       354  -9.3383    198.2082    167.8028   5.1693475732e+01   8.0596711386e+00    0.2033778    0.1651471   5.04 0.0007281575    1.330    0.248
       355  -9.6240    187.4973    167.9696   5.3940258901e+01   1.0160276541e+01    0.2197627     0.143147 -38.92 0.0006359405    1.564    0.361
       356 -11.3236      9.2882    166.5768   9.5416564637e+01   3.8553633000e+01     0.271505    0.2520989  37.11  0.001454205    1.440    0.306
       357  -9.8741     18.5061    165.0315   9.3242634962e+01   3.8112280975e+01    0.1955641    0.1742206 -26.95  0.001372244    1.606    0.377
       358  -9.5595     66.3987     10.4225   3.8699079952e+01   6.4717500534e+01    0.2385641    0.1012569  41.84  0.001134458    2.131    0.531
       359 -10.0018    204.9914    163.3113   4.9375716429e+01   7.5478569578e+00    0.2608606    0.2071911 -41.85 0.0006458796    1.290    0.225
       360 -10.3034     28.0458    161.8721   9.0753422035e+01   3.7949528795e+01    0.3149075    0.1460352 -64.94  0.001598679    1.820    0.451
       361 -11.4951    246.7415    159.9921   4.0994848972e+01   2.9676426259e-01    0.5311041    0.1491347 -40.64  0.001831716    3.366    0.703
       362  -9.5145     38.3301    160.2031   8.8136750342e+01   3.7291858573e+01    0.1992279    0.1375969 -62.27 0.0007393643    1.361    0.265
       363 -10.0250     14.0865    159.3264   9.3739078521e+01   3.9800084519e+01    0.1618586    0.1334146  75.26 0.0008716512    1.145    0.127
       364  -9.9305    215.5999    157.2563   4.6000209599e+01   6.5555719049e+00    0.2546969     0.175968 -25.83 0.0008021736    1.468    0.319
       365  -9.5573    223.7597    156.9646   4.4405994386e+01   5.0235474017e+00    0.1905373    0.1127393 -35.54 0.0008804524    1.604    0.377
       366 -10.3174      9.5845    155.5621   9.4442407666e+01   4.1027642177e+01    0.2281766    0.1473235 -77.17  0.001345278    1.221    0.181
