#   1 NUMBER                 Running object number                                     
#   2 MAG_AUTO               Kron-like elliptical aperture magnitude                    [mag]
#   3 X_IMAGE                Object position along x                                    [pixel]
#   4 Y_IMAGE                Object position along y                                    [pixel]
#   5 X_WORLD                Barycenter position along world x axis                     [deg]
#   6 Y_WORLD                Barycenter position along world y axis                     [deg]
#   7 A_WORLD                Profile RMS along major axis (world units)                 [deg]
#   8 B_WORLD                Profile RMS along minor axis (world units)                 [deg]
#   9 THETA_WORLD            Position angle (CCW/world-x)                               [deg]
#  10 FWHM_WORLD             FWHM assuming a gaussian core                              [deg]
#  11 ELONGATION             A_IMAGE/B_IMAGE                                           
#  12 ELLIPTICITY            1 - B_IMAGE/A_IMAGE                                       
         1 -15.0147      8.3763    141.2189   1.4272489185e+02   4.4699484721e+01     7.189576     2.028632 -79.25   0.02457436    4.444    0.775
         2 -13.3067    197.9806     27.4697   6.7893023329e+01   3.2599780378e+01     1.512233     1.292411  22.61  0.008467189    1.522    0.343
         3 -13.3293    213.4158      8.9703   6.1648699863e+01   3.1012404454e+01    0.9496039    0.8064919  58.52  0.006132165    1.311    0.237
         4 -12.9753      3.8603     11.4922   1.1578486977e+02   7.0569736543e+01     1.692509     0.261591 -43.59  0.006873745    4.251    0.765
         5 -11.7194    152.9697    248.4728   1.2589014691e+02   1.6857636396e+00    0.5120178    0.1876481  50.65    0.0021083    2.666    0.625
         6 -11.4650    140.0775    250.3559   1.2854589876e+02   3.5593326293e+00    0.5632583    0.1196494  42.37  0.001890061    3.896    0.743
         7 -11.0585     97.6829    248.6664   1.3613047886e+02   1.0731789519e+01    0.2887633    0.2273743  65.13  0.001420002    1.009    0.009
         8 -11.1132    100.8497    246.1813   1.3529433979e+02   1.0687867184e+01    0.3421139    0.1956658 -72.46 0.0005834948    1.961    0.490
         9  -8.6895     66.5350    250.4822   1.4176518362e+02   1.4966635293e+01     0.117504   0.08759042  69.94 7.458746e-05    1.002    0.002
        10 -12.0903     31.1475    249.1821   1.4749926752e+02   1.9732425005e+01    0.6097395    0.2905025  44.97  0.003775177    1.902    0.474
        11 -11.8452     35.3765    244.2548   1.4648986463e+02   2.0144910220e+01    0.3679963    0.3267334  89.57  0.002937441    1.456    0.313
        12 -12.2546     12.1906    240.9532   1.4998451174e+02   2.3371349465e+01    0.4658069    0.2860575 -71.86  0.003339057    1.619    0.382
        13 -10.5565      2.6645    249.9009   1.5190312521e+02   2.2714487034e+01    0.2418514    0.1740414  59.73  0.001685456    1.328    0.247
        14 -10.8360      2.5209    245.9847   1.5173028806e+02   2.3437960513e+01    0.3274381    0.1401163 -86.13  0.002042833    1.883    0.469
        15 -10.6098     81.2521    248.5697   1.3904616109e+02   1.3222660210e+01    0.3033579    0.1616646  64.58  0.001683189    1.741    0.426
        16 -10.0506     47.2045    249.6014   1.4493257240e+02   1.7691970441e+01    0.1662343   0.09072187  48.87 0.0003877462    1.572    0.364
        17 -10.8587    197.7467    245.5271   1.1705986700e+02  -5.4693240177e+00    0.2327261    0.1578346 -57.36  0.001302637    2.166    0.538
        18 -10.4425    106.7866    249.1049   1.3452992002e+02   9.2288320469e+00    0.2156984    0.1600974  21.66  0.001250567    2.083    0.520
        19 -11.3373    129.8054    244.7150   1.2975536607e+02   6.2423992431e+00    0.3121216    0.2160712  11.33  0.001536607    2.786    0.641
        20 -11.0257     19.2285    241.8818   1.4893289261e+02   2.2441339329e+01    0.2400082    0.1520943 -64.63  0.001358737    1.842    0.457
        21 -11.1199    119.7976    238.3332   1.3085392816e+02   9.0539654751e+00    0.2883827    0.1656462 -79.28  0.001409473    2.406    0.584
        22 -10.9933     50.0355    235.8143   1.4338573233e+02   1.9936327141e+01    0.2728578    0.2186532 -63.58  0.001929282    1.591    0.371
        23 -11.2748     15.8438    250.0640   1.4993481702e+02   2.1301917580e+01    0.4970397    0.1902245  41.91  0.002896747    2.448    0.591
        24 -12.9382     55.5093    210.7902   1.4011768383e+02   2.4297619972e+01      2.56755    0.5805286  56.01  0.005507946   11.568    0.914
        25 -11.6970    239.3964    248.2352   1.0994136858e+02  -1.2417705431e+01    0.4064769    0.2282966  44.24  0.002305052    1.874    0.466
        26 -13.8073     37.0252    226.3650   1.4489794045e+02   2.3407384698e+01    0.7439868    0.5192297  70.14  0.002360635    1.121    0.108
        27 -12.7593    110.5436    231.2430   1.3175249390e+02   1.1911528763e+01     1.284424    0.1634351  45.11  0.003488033    5.838    0.829
        28 -11.9525     89.2287    226.5854   1.3531012067e+02   1.6221275085e+01    0.8566937    0.1917988  49.56  0.002847637    4.169    0.760
        29 -10.3989    151.1177    230.1143   1.2365455929e+02   5.1263295691e+00    0.2028807    0.1722833  28.88 0.0008540701    1.254    0.202
        30  -9.1421     54.9674    230.1698   1.4203700611e+02   2.0401662075e+01    0.1949467    0.1242244  68.12   0.00085581    1.300    0.231
        31  -9.9735      4.9216    228.5161   1.5042267989e+02   2.6473386986e+01    0.1437087   0.08965753  49.01 0.0006767539    1.577    0.366
        32  -9.7084    173.2429    222.5627   1.1809290358e+02   2.4613383475e+00    0.2735931    0.1162864  45.70  0.001151656    2.123    0.529
        33  -8.7562    152.5290    213.0663   1.2072980277e+02   8.0101988026e+00    0.1797487    0.1372337 -54.93  0.000333538    1.448    0.309
        34 -12.3271      9.9572    207.1360   1.4822839431e+02   3.0237242030e+01    0.6006231    0.4169122  32.50  0.002862136    1.956    0.489
        35 -10.5835     58.5244    207.2480   1.3916798020e+02   2.4652017800e+01    0.3440847    0.1773441  65.27  0.001208629    1.976    0.494
        36 -11.5667     59.2069    199.2529   1.3816889723e+02   2.6288597216e+01    0.2958557    0.2211343 -76.59 0.0005503679    1.201    0.167
        37  -8.9266    194.5387    198.5394   1.0955703862e+02   2.7330841046e+00    0.2469543    0.1321122 -54.30  0.001031567    2.447    0.591
        38 -11.6999     12.2556    195.5319   1.4696513541e+02   3.2434950467e+01    0.2522799    0.1775827  74.90 0.0004717032    1.160    0.138
        39  -8.5953    191.3173    191.9746   1.0894528971e+02   4.5570873567e+00    0.2248251    0.1145026 -62.91 0.0007048883    4.325    0.769
        40 -11.8200     65.7211    190.6937   1.3581558749e+02   2.7299333613e+01    0.2739329    0.2287251 -66.03 0.0005036049    1.266    0.210
        41 -11.6517      2.2605    184.1920   1.4797400207e+02   3.5741796439e+01    0.6124119    0.1652507 -73.14   0.00277428    2.753    0.637
        42 -13.0614     62.8127    175.7381   1.3452566562e+02   3.1092484870e+01    0.5163679    0.2760286 -46.71  0.001601533    2.309    0.567
        43 -10.6532     76.2667    177.7061   1.3177456063e+02   2.8749639625e+01    0.2382208    0.2051182 -87.81 0.0003405587    1.018    0.018
        44  -9.1155     96.6575    173.7555   1.2649184026e+02   2.6473899688e+01    0.2193218    0.1806527  64.33 0.0004635891    1.167    0.143
        45 -11.5902     83.8821    168.8691   1.2867967648e+02   2.9654893476e+01    0.5956604    0.5368968  -7.34  0.003480656    1.521    0.342
        46  -9.2921     94.1167    168.0808   1.2613921509e+02   2.8210583340e+01    0.2420441     0.192546  54.05 0.0006680615    1.249    0.200
        47 -12.0832     22.3430    126.7866   1.3743761573e+02   4.6864852313e+01    0.8385876    0.2841345  50.46  0.003184153    4.535    0.779
        48  -9.9166     96.7425    152.8405   1.2277438605e+02   3.1356625196e+01    0.3086821    0.2725769 -55.05 0.0008416123    1.145    0.126
        49 -11.8703     85.2701    151.7124   1.2542393697e+02   3.3483519989e+01    0.3028546    0.2436361 -47.78 0.0004675525    1.302    0.232
        50  -8.8179     99.8023    148.2645   1.2112420510e+02   3.1917360345e+01    0.1873223    0.1662314 -32.30 0.0003821905    1.308    0.236
        51 -12.0336     67.4418    143.6104   1.2848662763e+02   3.8010447880e+01    0.6543106    0.4301479  68.62  0.002774788    1.835    0.455
        52  -9.7217    109.0982    137.4052   1.1649752880e+02   3.2820624601e+01    0.4531543    0.2841162 -23.61  0.001379637    2.748    0.636
        53 -10.3321     96.0142    134.7617   1.1933254506e+02   3.5749178262e+01    0.2463601    0.2157762 -39.82 0.0003852764    1.208    0.172
        54  -8.6965     77.8555    130.6087   1.2330067859e+02   3.9609206839e+01    0.1968386    0.1240251  52.07 0.0009352217    1.800    0.445
        55  -9.4886     84.4177    126.7805   1.2072722472e+02   3.9510481744e+01     0.276724    0.1978079  69.33  0.000727103    1.758    0.431
        56  -8.8193    106.2961    124.0433   1.1420634302e+02   3.6436487577e+01    0.1967684    0.1767583 -56.89 0.0002959246    1.054    0.051
        57  -9.9351    168.0957    113.2670   9.6170419454e+01   2.5658032441e+01    0.3163085    0.2634692  82.86 0.0006756092    1.378    0.275
        58  -9.1247    203.4665    111.5191   8.8446908693e+01   1.7692165363e+01    0.1517499     0.146612 -50.63 6.335297e-05    1.024    0.023
        59  -9.6522     42.3088     96.9695   1.2642230271e+02   5.1743079335e+01    0.4210991    0.2107393  54.50  0.001783447    3.420    0.708
        60 -10.8356    241.0039     93.6318   7.7859357775e+01   1.2421469307e+01    0.3087173    0.1543829 -28.14  0.001216166    2.459    0.593
        61 -12.7102     46.8729    215.5787   1.4221080141e+02   2.4400010495e+01    0.9148284     0.635312 -83.90  0.004619559    1.221    0.181
        62  -9.6449    158.1564     76.8334   8.8439784911e+01   3.5077289791e+01    0.2325341    0.2065868 -79.79 0.0005245873    1.223    0.182
        63  -9.1415     47.9875     70.1539   1.1788871046e+02   5.6730343661e+01     0.260462    0.1476657  52.43  0.001208591    3.007    0.667
        64  -8.6006     38.9178     65.4620   1.1970312171e+02   5.8604006751e+01    0.1501312    0.1003782  54.12 0.0008059537    2.414    0.586
        65 -12.7510     31.9927    233.0845   1.4626568914e+02   2.2677290505e+01    0.2978394    0.2357322 -79.17 0.0007896915    1.355    0.262
        66 -12.3059      6.6459     51.7447   1.2773627831e+02   6.3748990578e+01    0.5734336    0.3669283  37.04  0.001201627    2.169    0.539
        67 -11.1577    172.3548    247.8142   1.2215647985e+02  -1.5188236916e+00    0.2697889    0.2380059  79.59  0.001792257    1.379    0.275
        68 -10.7397    162.7758    249.5747   1.2420262895e+02  -1.6023913252e-01    0.3250259    0.1011646  44.22   0.00130129    2.653    0.623
