#   1 NUMBER                 Running object number                                     
#   2 MAG_AUTO               Kron-like elliptical aperture magnitude                    [mag]
#   3 X_IMAGE                Object position along x                                    [pixel]
#   4 Y_IMAGE                Object position along y                                    [pixel]
#   5 X_WORLD                Barycenter position along world x axis                     [deg]
#   6 Y_WORLD                Barycenter position along world y axis                     [deg]
#   7 A_WORLD                Profile RMS along major axis (world units)                 [deg]
#   8 B_WORLD                Profile RMS along minor axis (world units)                 [deg]
#   9 THETA_WORLD            Position angle (CCW/world-x)                               [deg]
#  10 FWHM_WORLD             FWHM assuming a gaussian core                              [deg]
#  11 ELONGATION             A_IMAGE/B_IMAGE                                           
#  12 ELLIPTICITY            1 - B_IMAGE/A_IMAGE                                       
         1 -14.3429     62.6295     29.3434   8.8442932598e+01   6.1421883662e+01     1.553072     1.067953  53.77  0.009153406    1.895    0.472
         2 -12.7232     16.5892     51.6651   1.1433375817e+02   6.3738193096e+01     1.106336    0.3097867 -43.92    0.0047516    2.733    0.634
         3 -12.5443     30.9907     14.1203   9.4362186114e+01   6.7726232696e+01    0.6171598     0.257249 -36.22  0.002227117    2.512    0.602
         4 -12.7227      2.4228      9.8836   1.0572423989e+02   7.1192086474e+01    0.6852655    0.2251651 -31.34  0.001243029    2.755    0.637
         5 -12.7762     32.2928     29.4032   9.9977685169e+01   6.5661273661e+01    0.9877852    0.4324597  13.36  0.004136062    3.716    0.731
         6 -13.2681     20.3272     26.2774   1.0392048706e+02   6.7392248132e+01     1.317641    0.4026418 -36.79  0.006163167    2.921    0.658
         7 -13.5647     10.5396     18.0641   1.0516006733e+02   6.9434912815e+01    0.6228491      0.42695  15.58   0.00272873    1.366    0.268
         8 -12.9195     19.5640      3.5164   9.4712876852e+01   7.0242420908e+01     0.855256     0.543564  22.15  0.006207684    1.319    0.242
         9 -11.8533     42.0937     10.0850   8.8206389115e+01   6.6671777811e+01    0.2872459    0.1989397   7.34 0.0007589852    1.231    0.188
        10 -13.1650     50.3398      8.4951   8.4512097594e+01   6.5599236048e+01     0.701045     0.630299 -28.56  0.005251902    1.553    0.356
        11 -12.7076     41.7785     21.6151   9.3070464773e+01   6.5451618408e+01    0.8495625    0.4475329  23.36     0.004843    1.818    0.450
        12 -12.1824     39.3634     15.8313   9.1665993893e+01   6.6444532319e+01    0.3098162    0.1922624  27.75 0.0005735988    1.383    0.277
        13 -11.6827     77.1691     20.5493   8.0551066341e+01   5.9900348922e+01    0.3823874    0.3248076  32.31  0.002650575    1.088    0.081
        14 -11.5581     26.0782      7.4832   9.3599675928e+01   6.9058011920e+01    0.3130381    0.1865674  10.51 0.0003950214    1.494    0.331
        15 -11.8813     58.9196     16.6935   8.4847143140e+01   6.3436444356e+01     0.345978    0.3153193 -73.71  0.001638208    1.855    0.461
        16 -11.3371     59.0781     11.5136   8.2746301154e+01   6.3922086676e+01    0.3742471    0.2236773  19.47  0.001835196    1.627    0.385
        17 -11.8624    249.0189     12.3413   5.2207436636e+01   2.4014353431e+01    0.2548163    0.1919102  63.02  0.001808212    1.663    0.399
        18 -11.2551     86.7234     13.7276   7.5442136675e+01   5.8765244406e+01    0.2388591    0.1673809  -8.81  0.001501991    1.585    0.369
        19 -11.9606     82.9936      7.7654   7.4281864256e+01   5.9996711875e+01    0.4528442    0.2890039  49.62   0.00282956    1.313    0.238
        20 -12.2348     68.6724      7.7602   7.8263197835e+01   6.2625925719e+01    0.5987793    0.2652665  32.59  0.003056864    2.180    0.541
        21 -12.5846     75.4272      4.1502   7.4968157690e+01   6.1705625880e+01    0.5887731      0.27143  40.75  0.001349641    1.767    0.434
        22 -11.6518     59.2526      3.9144   7.9648217180e+01   6.4568909104e+01    0.3815914    0.2219331   2.76  0.001581514    1.903    0.474
        23 -10.0252    197.8035      5.8077   5.5229108308e+01   3.5335347355e+01    0.1690437    0.1139185 -73.57 0.0008572936    1.334    0.251
        24  -9.7932    148.2124      5.8185   6.1038225601e+01   4.6375632920e+01     0.159152    0.1198083  49.96 0.0003291823    1.298    0.230
        25 -10.1400    222.7463      3.4490   5.2585538465e+01   3.0276600641e+01    0.1500336   0.08905621  69.70 0.0004360716    1.529    0.346
        26 -11.6215    247.6524      3.6408   5.0804419155e+01   2.5267900935e+01    0.2806668    0.1882661 -41.76  0.001951472    1.664    0.399
        27 -10.3208     35.2154      2.0310   8.7407815244e+01   6.8410990822e+01     0.184745    0.1234322  17.91 0.0009747463    1.176    0.149
        28 -10.6027     93.5185    244.5461   1.2814922880e+02   1.0039669528e+01    0.2232893    0.1858227  48.64 0.0006085726    1.119    0.106
        29 -10.2027    249.8581    249.9135   9.7462626642e+01  -1.4733554690e+01    0.1843704    0.1258068  -5.65  0.000699821    1.298    0.230
        30 -10.6506    218.7624    249.9961   1.0320091010e+02  -1.0679168096e+01    0.4668687    0.2217232  12.07  0.001562199    3.973    0.748
        31 -11.7754    225.1093    247.5529   1.0158575932e+02  -1.1185462641e+01    0.3174098    0.2973393 -72.45  0.001881918    1.698    0.411
        32 -11.3430    233.8983    243.9410   9.9328314343e+01  -1.1829376840e+01    0.3295784    0.2111671  16.26 0.0005201914    1.509    0.337
        33 -10.2711    232.0237    250.7777   1.0084054112e+02  -1.2595101733e+01    0.3545894    0.1388763  37.11  0.001211086    2.533    0.605
        34 -10.3583    233.7229    247.6738   1.0000014096e+02  -1.2362715131e+01    0.2267361    0.1577189 -21.14 0.0005658432    1.299    0.230
        35 -11.8844    166.3246    248.4222   1.1341096984e+02  -2.4711002020e+00    0.2395134    0.2265508 -10.49 0.0002807739    1.126    0.112
        36 -12.4161    139.9319    246.6955   1.1866763334e+02   2.1520220737e+00    0.4665782    0.3221473  12.30 0.0008144054    1.945    0.486
        37 -10.3222     87.5961    249.8391   1.2997730381e+02   9.8542306409e+00    0.1971398     0.163597  40.72 0.0005158743    1.240    0.194
        38  -9.2250     79.2976    250.6797   1.3174598113e+02   1.0914172158e+01    0.1339972   0.08329809  67.79  0.000702053    1.618    0.382
        39 -10.0936     72.6996    250.6276   1.3305905876e+02   1.1880007162e+01    0.1989684    0.1108951  37.52 0.0003614682    1.749    0.428
        40 -11.8351     46.0507    249.9049   1.3817664104e+02   1.5649997542e+01    0.3602132     0.189738  45.29  0.001996927    1.665    0.399
        41 -10.5271      1.6526    248.9907   1.4612282034e+02   2.0931186770e+01    0.2631959    0.1149168 -75.21  0.001495916    1.953    0.488
        42 -10.7696     80.8447    244.3097   1.3074434774e+02   1.2004012468e+01    0.2253978    0.1953499  44.41 0.0004438799    1.220    0.181
        43 -10.1947     41.5319    244.6148   1.3859540509e+02   1.7328311153e+01    0.1919138    0.1644217  62.63 0.0005355412    1.196    0.164
        44 -11.7254    177.0449    243.2020   1.1036770117e+02  -3.2719445228e+00    0.2926253    0.2434992   6.36 0.0005092134    1.192    0.161
        45 -10.2581     98.4825    241.3222   1.2671648445e+02   9.9384339450e+00    0.2285891    0.1946995  43.28  0.000692976    1.160    0.138
        46 -11.0687    103.3830    240.0485   1.2551649150e+02   9.4303193672e+00    0.2333492    0.1971873  43.74 0.0004407702    1.138    0.121
        47 -11.1794     51.5858    240.3513   1.3625925222e+02   1.6945141339e+01    0.2266368    0.1971065 -71.31 0.0003298675    1.315    0.240
        48 -10.7828    247.0398    238.7723   9.6044348483e+01  -1.2774045357e+01     0.240913    0.1474906 -22.25 0.0009162687    1.491    0.329
        49 -10.9550     68.9262    239.9173   1.3271673859e+02   1.4665753222e+01     0.242582    0.1979526  28.24 0.0005208469    1.520    0.342
        50 -10.5088     61.8936    239.1168   1.3406948437e+02   1.5822402778e+01    0.2141916    0.1816864  76.02 0.0005807871    1.050    0.048
        51  -9.4943     35.5742    240.1478   1.3936857962e+02   1.9011161567e+01    0.1555191   0.09922411 -65.19  0.000460612    1.606    0.377
        52 -11.6285     26.5677    238.5871   1.4096089290e+02   2.0408376175e+01     0.407242    0.3089131 -27.26  0.001182039    2.463    0.594
        53 -12.1663     34.8979    230.7996   1.3871602524e+02   2.1122447818e+01      0.48463    0.3690093  25.54  0.002502559    1.777    0.437
        54 -11.4621    230.4314    233.1800   9.8091415598e+01  -9.6889694916e+00    0.2442415    0.2113928   8.80 0.0004255982    1.131    0.116
        55 -10.8961    226.6074    229.9089   9.8226602430e+01  -8.6184325133e+00    0.3581726    0.2018649 -30.81   0.00133909    1.700    0.412
        56 -11.8804    236.3353    226.0088   9.5714002994e+01  -9.3654515288e+00    0.5332112    0.3486708 -53.82 0.0004257322    2.147    0.534
        57 -11.2328    229.7490    225.1772   9.6784197940e+01  -8.2945934793e+00     0.493821    0.2361746 -24.94  0.001913513    2.555    0.609
        58 -10.6866    249.2950    232.4424   9.4529675132e+01  -1.2113167687e+01    0.3476588    0.1927448 -16.00  0.001800598    2.022    0.505
        59 -12.3446    234.9653    238.3402   9.8159105624e+01  -1.1120899894e+01    0.9606087    0.4287189  21.10   0.00358416    2.915    0.657
        60 -12.5976    246.6568    206.1081   9.0188522327e+01  -7.5360768712e+00    0.5592337    0.3077389 -30.88  0.002163708    1.657    0.396
        61 -10.8091    250.6278    198.2557   8.8019139961e+01  -6.7728650285e+00    0.3201682    0.1558076 -32.04 0.0004021725    1.917    0.478
        62 -11.7728    248.5306    212.6778   9.1083754175e+01  -8.8900967828e+00    0.3247704    0.2255701 -14.85 0.0005504122    1.384    0.278
        63 -12.4285    246.8046    218.0916   9.2384388444e+01  -9.5341427255e+00    0.3638622    0.2051912 -41.84 0.0009325719    1.692    0.409
        64 -12.0574    244.7084    230.9361   9.5078935950e+01  -1.1283193046e+01    0.4683586    0.2942074   3.30  0.002190945    1.764    0.433
        65 -12.7748    245.4243    225.0699   9.3898848571e+01  -1.0462011855e+01     0.455842    0.4259859  19.36  0.001813054    1.362    0.266
        66 -10.4547    134.9162    238.6720   1.1856340913e+02   4.5455616878e+00    0.2028111    0.1852516 -33.57 0.0003381758    1.238    0.192
        67 -11.0281      9.6818    238.6748   1.4408929848e+02   2.2238708156e+01    0.2113871    0.1654344  86.48 0.0005415804    1.122    0.109
        68 -11.0487    148.6617    237.9165   1.1549844073e+02   2.3887595396e+00    0.2557317    0.2026746  34.02  0.000390059    1.164    0.141
        69 -11.4331    184.0838    236.4846   1.0780307302e+02  -3.2125312354e+00    0.2843797    0.2270428  -0.40  0.000479772    1.300    0.231
        70 -10.2756     41.3357    236.1776   1.3791081371e+02   1.9159189222e+01    0.2221394    0.1588237  73.00  0.001013034    1.173    0.148
        71 -11.8474    159.0163    234.9491   1.1281386451e+02   1.2191207727e+00    0.3559667    0.2566347  34.49 0.0008145048    1.282    0.220
        72 -11.3708    140.6605    234.6965   1.1672457824e+02   4.3732191245e+00    0.4404081    0.2353183  43.35  0.001085857    1.721    0.419
        73 -11.0753     91.1832    235.7655   1.2757979181e+02   1.2252859396e+01    0.2402157    0.2287912 -26.42 0.0005017127    1.350    0.259
        74 -12.0533     87.0890    233.3073   1.2815436875e+02   1.3414763620e+01     0.508088    0.2968707  56.09  0.001477944    1.652    0.395
        75 -11.0955     77.2452    235.2262   1.3047391905e+02   1.4475571474e+01     0.330954    0.2342045  62.63  0.001048939    1.292    0.226
        76 -11.6097    128.6392    233.8094   1.1920338021e+02   6.5832755566e+00    0.3686589    0.2809822  57.08  0.002015501    1.310    0.237
        77 -11.3068    124.0372    230.4941   1.1972034424e+02   8.0478851837e+00    0.3436763    0.2431794  27.66 0.0005783407    1.531    0.347
        78 -11.2522    177.7833    232.0308   1.0835663497e+02  -1.3711540092e+00    0.2944589    0.2252343  -9.49 0.0005739644    1.481    0.325
        79  -9.5172    152.9781    232.9379   1.1378526876e+02   2.6313533188e+00    0.1589737    0.1485684  30.63 0.0003774967    1.016    0.016
        80 -10.6519    165.1583    232.3439   1.1107694779e+02   6.8258261009e-01    0.3423035    0.1563655  35.22  0.000954742    2.087    0.521
        81 -11.6802     55.2769    230.1294   1.3451860928e+02   1.8690100075e+01    0.4213105    0.2627501 -66.09  0.001401314    1.563    0.360
        82 -10.8801      9.8176    231.5858   1.4359273468e+02   2.3735178711e+01    0.2179188     0.163911 -78.80 0.0005314573    1.252    0.201
        83 -11.6040    216.7546    230.2130   1.0016460190e+02  -7.2235626349e+00    0.2813906    0.2214425  -5.06 0.0004805173    1.189    0.159
        84 -11.0736    211.1143    215.8932   9.8660770299e+01  -3.8626143394e+00    0.3742442    0.2648441   6.71  0.000401471    1.583    0.368
        85 -11.5530    228.3040    217.4913   9.5648057225e+01  -6.7936944970e+00     0.306121    0.2301231 -21.06 0.0005412915    1.211    0.174
        86 -12.2440    223.7996    213.1742   9.5695850275e+01  -5.3661698606e+00    0.5606365    0.3573527 -30.13  0.001938775    1.481    0.325
        87 -11.7954    222.3419    224.9892   9.8150562404e+01  -7.1783955770e+00    0.4322585    0.2655733  29.00  0.001425614    1.618    0.382
        88 -12.3741    216.5995    220.3362   9.8407728179e+01  -5.5107392780e+00     0.521441    0.3556904 -39.69  0.001340094    1.434    0.302
        89 -12.8717    216.9459    205.8182   9.5620650737e+01  -2.9675512093e+00    0.5621353    0.3850483 -28.58  0.001748379    1.403    0.287
        90 -12.5391    224.7324    203.6890   9.3722954746e+01  -3.8233074422e+00    0.5333118     0.388978 -55.42  0.002079622    1.689    0.408
        91 -10.5905    187.7398    231.3431   1.0616969715e+02  -2.8809010768e+00    0.2666545    0.1908253  28.91 0.0008412772    1.317    0.241
        92 -10.0056    191.3203    230.3169   1.0525539190e+02  -3.2766562606e+00      0.26046    0.1856921  10.26 0.0009339537    1.538    0.350
        93 -11.1134    145.5244    230.4854   1.1500898490e+02   4.3914719204e+00    0.2843315    0.2544318  -1.57 0.0006482071    1.239    0.193
        94 -10.3478    143.9027    225.5065   1.1456454411e+02   5.6870341350e+00    0.3016941    0.2049487 -51.57  0.001032186    1.571    0.363
        95 -10.8265    100.5950    230.2004   1.2482911891e+02   1.1974331868e+01    0.2540834    0.2256906 -41.86 0.0006598488    1.357    0.263
        96 -11.6682    103.8691    227.7939   1.2378277230e+02   1.1971114393e+01    0.3483402    0.2562284  35.55  0.001107357    1.375    0.273
        97 -10.6323    134.4336    230.2480   1.1739840597e+02   6.3362553706e+00    0.2576873    0.1764544  40.28 0.0006091229    1.347    0.257
        98 -10.5593     44.9615    229.1719   1.3654539646e+02   2.0245031448e+01    0.2039055    0.1678927 -73.95 0.0005087558    1.248    0.199
        99  -9.7057    158.6442    228.9900   1.1191786293e+02   2.4408412174e+00    0.1815031    0.1730604 -15.21   0.00041668    1.092    0.084
       100 -11.3101    113.7017    227.8328   1.2161326800e+02   1.0346152961e+01    0.3689156    0.2572746  25.79   0.00105045    1.658    0.397
       101 -11.2986    115.1511    222.3505   1.2048649932e+02   1.1298449535e+01    0.4913057    0.2724369 -73.13  0.001870408    2.412    0.585
       102 -10.3674      3.8373    234.9876   1.4490861554e+02   2.3612589557e+01    0.1662768    0.1305851 -77.54 0.0005483539    1.311    0.237
       103  -9.9970     92.9237    227.8010   1.2619352452e+02   1.3718761280e+01    0.1851552    0.1833566   3.77 0.0004977401    1.243    0.196
       104 -10.7736     78.7380    226.6761   1.2914985728e+02   1.6143071315e+01    0.4237464    0.2195562 -77.47  0.001168168    2.235    0.553
       105 -11.3624     19.3562    227.2043   1.4146809823e+02   2.3684895724e+01    0.3894288    0.2681756 -88.88  0.001524718    1.180    0.153
       106 -11.3400     16.1861    221.3374   1.4163327755e+02   2.5322426389e+01    0.4020221    0.2443495 -84.74  0.001725109    1.361    0.265
       107 -11.2305    169.9044    222.5439   1.0839267049e+02   1.7726440174e+00     0.346432    0.2366565 -59.81  0.001323897    1.791    0.442
       108 -11.5205    164.0860    225.0359   1.1007665240e+02   2.2853651300e+00    0.4159588     0.291536  31.33 0.0009284973    1.377    0.274
       109 -11.0411    165.8188    220.1262   1.0885234007e+02   2.9613643193e+00    0.3080708    0.2329836   9.01  0.000804568    1.552    0.356
       110  -9.6431    138.9496    226.7215   1.1585273492e+02   6.2920813754e+00    0.1936323    0.1695215  42.94 0.0003416303    1.063    0.059
       111 -11.0717     68.0060    226.9141   1.3149200238e+02   1.7653526018e+01    0.2635894    0.1987641  40.15   0.00050991    1.372    0.271
       112 -10.0644      1.6105    227.0584   1.4481071035e+02   2.5526543100e+01    0.1665754    0.1147606 -86.93 0.0007745093    1.150    0.131
       113  -9.9334    184.8776    225.8279   1.0579907841e+02  -1.3968282422e+00    0.2015518    0.1702184  -1.43 0.0004373555    1.184    0.155
       114 -11.2806    202.5509    215.6369   1.0032221249e+02  -2.4297423098e+00    0.2919438    0.2351984 -22.95 0.0005037241    1.192    0.161
       115 -10.2438    199.5605    224.5247   1.0254989144e+02  -3.5645127644e+00    0.2224232    0.1787594 -22.56 0.0001333068    1.207    0.171
       116 -10.2703    200.1215    220.2017   1.0165332567e+02  -2.8710976650e+00    0.2609804    0.1742087 -25.17 0.0006423608    1.588    0.370
       117 -10.2111    120.7981    224.7953   1.1958751929e+02   9.8105782561e+00    0.1950636    0.1881209   8.06 0.0005377695    1.172    0.147
       118 -10.4882      7.8676    224.8932   1.4349712529e+02   2.5385597093e+01    0.1687468    0.1381313 -79.35  0.000481471    1.259    0.205
       119 -10.2052    129.6548    223.7942   1.1745534293e+02   8.5116177005e+00    0.2256604    0.1828911  28.83 0.0005523797    1.277    0.217
       120 -11.1643    207.1338    222.4960   1.0066329707e+02  -4.4111960272e+00    0.2396262     0.205568 -16.39 0.0004136692    1.077    0.071
       121 -10.4339    191.0927    223.0222   1.0401077124e+02  -1.9070256881e+00    0.2059632    0.1813892  -5.83 0.0004479694    1.077    0.071
       122  -9.3045    155.4795    223.3964   1.1166980090e+02   4.1057339281e+00    0.1397593    0.1284617  28.22 0.0001355883    1.032    0.031
       123 -10.6015    135.9311    222.7822   1.1589357536e+02   7.6411939921e+00    0.2310617    0.2088462 -59.48 0.0005053288    1.173    0.148
       124 -10.3618     82.6882    222.8233   1.2780690324e+02   1.6417020471e+01    0.2118255     0.181664  34.15 0.0005638832    1.313    0.238
       125 -10.6231     50.1307    222.3504   1.3480104421e+02   2.1119760371e+01     0.219238    0.1906895 -72.19 0.0005369363    1.241    0.195
       126  -9.6735     97.8761    221.8543   1.2429641848e+02   1.4257992936e+01    0.1890312    0.1831766 -34.40  0.000409545    1.243    0.195
       127 -10.3235     74.3241    222.1576   1.2956592207e+02   1.7817921370e+01    0.2050686    0.1794205  39.59 0.0003580416    1.273    0.214
       128 -10.5520     28.6387    221.6887   1.3918210540e+02   2.3884907784e+01     0.213531    0.1643949 -82.02 0.0005564075    1.150    0.130
       129 -10.2562    180.8835    220.7945   1.0574371347e+02   2.2913950460e-01    0.2046172    0.1745338   1.83 0.0004575524    1.184    0.156
       130 -10.3029    174.8414    220.5346   1.0698102632e+02   1.3151346985e+00    0.2341495    0.1924538 -40.51 0.0003552679    1.254    0.203
       131 -10.8544    148.5555    219.9420   1.1261368006e+02   6.0295071630e+00    0.2659816    0.2409694 -32.64 0.0005604313    1.177    0.150
       132 -10.6402     68.3184    221.1286   1.3075788141e+02   1.8922123838e+01    0.2057116    0.1857879  37.59  0.000677301    1.300    0.231
       133 -10.7725     59.1004    219.9087   1.3262265707e+02   2.0487158430e+01    0.3092282    0.2066415  82.47  0.001106014    1.470    0.320
       134 -11.2242     40.1708    220.6352   1.3671937174e+02   2.2764495130e+01    0.2409895    0.2293901 -56.63 0.0006293167    1.393    0.282
       135  -9.9004    140.5437    219.9459   1.1440087859e+02   7.4373889687e+00    0.1980934    0.1408306 -52.92 0.0003345409    1.486    0.327
       136 -10.3461    186.1394    218.9243   1.0430180243e+02  -3.0610329621e-01    0.2059242    0.1877558  -1.02 0.0004689613    1.030    0.029
       137 -10.8934    159.1796    217.5291   1.0984923712e+02   4.6546962922e+00     0.273627    0.2525103 -23.68 0.0008228548    1.123    0.110
       138 -10.7558    109.3665    218.8233   1.2126846602e+02   1.3053337478e+01    0.2351719     0.174924  50.77 0.0003909635    1.265    0.210
       139 -11.5925    132.3892    213.4544   1.1516906526e+02   1.0279956897e+01    0.3409898    0.2460371  29.73 0.0005360122    1.458    0.314
       140 -11.1282    135.9593    217.5093   1.1502958945e+02   8.7649714493e+00     0.236409    0.2003496 -74.74  0.000499238    1.299    0.230
       141 -11.9029    137.1695    213.3859   1.1406740189e+02   9.4471182398e+00    0.3444012    0.2985703 -39.10  0.001628967    1.245    0.197
       142 -11.8689    241.5867    175.4576   8.5149068424e+01  -1.3545249221e+00    0.7236035    0.2533326 -38.64  0.002652655    2.591    0.614
       143 -11.1805    238.9217    215.7546   9.3367047834e+01  -8.0490843341e+00    0.5648564     0.260634 -26.06  0.002418399    2.592    0.614
       144 -11.3894    233.8620    209.4605   9.3117185139e+01  -6.2430828314e+00    0.5884789    0.2994731  41.11  0.001100006    2.188    0.543
       145 -10.3145    244.0735    186.4585   8.6882392027e+01  -3.7401123966e+00    0.3405501    0.1888454 -32.82 0.0004320651    1.657    0.396
       146 -12.6768    249.5410    183.6633   8.5406329626e+01  -4.0761273613e+00    0.5003365    0.2657193 -38.87   0.00136501    1.605    0.377
       147 -10.9333    235.5128    201.9210   9.1386276316e+01  -5.1771230317e+00    0.3492855    0.2157584 -29.74    0.0010103    1.506    0.336
       148 -11.9324    239.2534    205.8678   9.1459041848e+01  -6.4231032954e+00    0.5898579    0.3030723 -46.02  0.001888954    1.958    0.489
       149 -12.1937    242.9078    198.0017   8.9312833467e+01  -5.6019419612e+00    0.5290208    0.3752707 -18.46  0.001721203    1.384    0.277
       150 -11.6335    237.6936    196.2183   8.9898055114e+01  -4.5011887161e+00    0.6496559    0.2835346 -33.46  0.002131993    2.269    0.559
       151 -12.0237    245.9468    191.5592   8.7545872311e+01  -4.9281696339e+00    0.4627904    0.3519006  26.37   0.00194591    1.444    0.307
       152 -11.4631    247.7977    175.4336   8.4092516288e+01  -2.3360196139e+00    0.4283081    0.2369968 -33.64 0.0009681011    1.653    0.395
       153 -11.3593    250.6284    171.7787   8.2906268009e+01  -2.1192611974e+00    0.3345377    0.1101192 -43.42  0.001072648    2.593    0.614
       154 -10.2990    119.8208    216.4369   1.1852333161e+02   1.1812841692e+01    0.2568057    0.2063966 -52.90 0.0005016295    1.311    0.237
       155 -11.4651    119.0372    212.1304   1.1802072380e+02   1.2915636154e+01     0.364906     0.249512  31.11  0.001184591    1.558    0.358
       156 -11.0628    193.7072    215.5164   1.0210514513e+02  -9.3687935265e-01    0.2597555    0.2211971  -7.59 0.0004139242    1.152    0.132
       157 -10.2893    174.3426    227.1135   1.0823866877e+02   1.2952484539e-01    0.2178923    0.1784085  17.35 0.0004451968    1.207    0.171
       158  -9.8456    179.9397    215.2495   1.0494265426e+02   1.4698027314e+00    0.1896544    0.1696346  17.99 0.0003050119    1.067    0.063
       159  -9.9082    124.4524    215.4842   1.1731442155e+02   1.1223307992e+01    0.1422426    0.1346185  59.47 0.0001160261    1.011    0.011
       160  -9.8667     83.1911    215.1816   1.2670091407e+02   1.8094197286e+01    0.1904539    0.1819278 -52.03 0.0005299693    1.247    0.198
       161 -10.6506     31.3913    214.1730   1.3794110419e+02   2.5284950351e+01    0.2236662    0.1790897 -53.15 0.0005812623    1.520    0.342
       162  -9.9595    186.6263    213.8685   1.0327524706e+02   5.8408572512e-01    0.1901978    0.1674808 -34.37 0.0006435502    1.139    0.122
       163 -10.9585    171.3343    213.5822   1.0648851037e+02   3.3102129780e+00    0.2533536    0.2502164  19.17 0.0003427288    1.080    0.074
       164 -10.3504    165.6462    213.8748   1.0778131426e+02   4.2587510521e+00    0.2622171    0.1928946  17.97 0.0005836351    1.529    0.346
       165 -10.4040    143.5299    214.0624   1.1274007828e+02   8.1672120820e+00    0.2523853    0.1946212  21.08 0.0004463031    1.445    0.308
       166 -11.5566     63.6795    213.2003   1.3084208346e+02   2.1415055901e+01    0.2742446    0.2453434  46.77 0.0005430044    1.234    0.190
       167 -10.2645     51.9423    212.4356   1.3335323977e+02   2.3176834465e+01    0.2223925    0.1654682 -59.14 0.0004639193    1.415    0.293
       168 -10.6211     41.2966    212.3353   1.3565832444e+02   2.4541834011e+01    0.2038417    0.1811162 -71.01 0.0006509513    1.248    0.199
       169 -11.0721      4.1383    212.6778   1.4334636530e+02   2.8455484699e+01    0.2797725    0.1718895  26.35  0.001666081    2.155    0.536
       170  -9.9558    154.6911    212.0322   1.0987695786e+02   6.6013808698e+00    0.1981869    0.1784354 -40.47 0.0004239871    1.149    0.130
       171 -11.0089      7.9633    216.0171   1.4284176505e+02   2.7341711539e+01    0.2533465    0.1993851 -50.90  0.001023813    1.664    0.399
       172 -10.0681     97.0128    212.2144   1.2312397561e+02   1.6601131157e+01    0.1973035    0.1909603  -4.75 0.0005507128    1.250    0.200
       173 -10.3719    210.8761    210.6030   9.7717343362e+01  -2.8623699849e+00    0.2261101    0.1692526 -26.35 0.0004195795    1.277    0.217
       174  -9.7562    198.3462    211.3316   1.0037323298e+02  -9.2489081347e-01     0.241871    0.1336173  27.92 0.0007748225    1.990    0.497
       175 -10.4536    201.7224    209.5673   9.9353667716e+01  -1.1582824640e+00    0.4389518     0.297913  62.94  0.002023536    2.378    0.579
       176 -11.2178    124.2829    210.2740   1.1650656638e+02   1.2419798063e+01    0.3593045    0.2259401  78.52  0.001296649    2.541    0.606
       177 -10.1969     25.3880    210.4322   1.3885404818e+02   2.6819431421e+01    0.2272635     0.150861 -55.79 0.0007866491    1.663    0.399
       178 -10.8668     18.3202    210.5811   1.4033322669e+02   2.7535551400e+01     0.238479    0.1909582 -51.71 0.0008850859    1.564    0.361
       179  -9.7988    106.8341    209.9472   1.2050694449e+02   1.5501933825e+01    0.2064152    0.1887249 -32.58 0.0004052392    1.288    0.224
       180 -10.3225     56.2901    209.8980   1.3210212080e+02   2.3201083616e+01    0.2003893     0.179964  10.61 0.0005870187    1.515    0.340
       181  -9.4898    187.0045    209.0334   1.0229541311e+02   1.4645775334e+00    0.1647403    0.1536263  -0.14 0.0003196397    1.003    0.003
       182 -10.8819    161.1732    208.4430   1.0778536185e+02   6.1907130967e+00    0.2740802    0.2430759  17.91 0.0004419197    1.145    0.127
       183  -9.6698     78.4450    208.7286   1.2692077284e+02   2.0329834539e+01    0.1806322     0.124872 -55.91 0.0006597238    1.489    0.328
       184 -10.3915    177.0225    207.9819   1.0422629281e+02   3.4357952502e+00    0.2097308    0.1971183  -5.33 0.0003389091    1.027    0.026
       185 -11.4616    147.3735    206.2907   1.1050550542e+02   9.1624504423e+00    0.6022235    0.3619152   9.65  0.002145424    3.300    0.697
       186 -11.2540    144.8740    200.1176   1.0996054864e+02   1.0988450068e+01     0.370583    0.2219377  39.56 0.0008796906    1.635    0.388
       187 -12.0544    132.5665    206.7937   1.1400105845e+02   1.1732408863e+01    0.4559608    0.3154007  27.73  0.001372279    1.598    0.374
       188 -11.7556    139.3839    203.2648   1.1180166701e+02   1.1291200179e+01    0.4753333     0.332053  -3.29  0.001221046    2.304    0.566
       189  -9.6494     93.5285    208.5093   1.2339083953e+02   1.8030673273e+01    0.1406961    0.1320839  81.66 0.0002185454    1.058    0.055
       190 -10.3527     72.8319    207.6559   1.2807116071e+02   2.1418131618e+01    0.1953368    0.1750506  25.28 0.0004831381    1.364    0.267
       191  -9.8589    193.0933    207.4990   1.0073256257e+02   7.0813044346e-01    0.1968983    0.1349307  36.04 0.0003979144    1.456    0.313
       192 -10.6703    169.3005    205.9770   1.0553314398e+02   5.2359768378e+00    0.4624559     0.240054  35.29  0.001947127    1.948    0.487
       193 -10.6704    120.2857    206.6191   1.1683301024e+02   1.3954616354e+01    0.2338303    0.2033451 -55.06 0.0006409721    1.189    0.159
       194 -12.1431     15.5177    206.4205   1.4055868767e+02   2.8779249153e+01    0.4049227    0.2377108  22.21  0.002199891    2.398    0.583
       195 -10.5237    206.7571    205.8337   9.7630037517e+01  -1.2963023242e+00    0.2251302     0.211486 -18.74 0.0005506916    1.091    0.084
       196  -9.8060     66.2473    206.5782   1.2944461737e+02   2.2622269312e+01    0.1710021    0.1348256  25.18 0.0004539205    1.571    0.363
       197 -10.7450     47.1305    206.0584   1.3370900028e+02   2.5298751519e+01    0.2271964     0.198878  19.20 0.0005125944    1.518    0.341
       198  -9.6770     32.2221    206.5331   1.3703207102e+02   2.6969007843e+01    0.1433529    0.1282951  15.11 0.0005469996    1.551    0.355
       199  -9.4270    183.5188    205.4370   1.0235466465e+02   2.7944082622e+00    0.1431076    0.1319931  -0.71 0.0001049827    1.043    0.041
       200 -11.4031    114.7333    206.4072   1.1809945806e+02   1.4972126798e+01    0.3298048    0.2479414  54.66  0.001409535    1.314    0.239
       201 -10.3656     86.3822    204.8149   1.2452615143e+02   2.0041807930e+01    0.2429466    0.2031534  33.82 0.0008357049    1.319    0.242
       202 -11.4729      6.6778    203.9404   1.4217545587e+02   3.0202884955e+01    0.2792078    0.2254044 -38.44  0.001276717    1.763    0.433
       203 -11.5064    109.8699    201.3779   1.1842832555e+02   1.6988925264e+01    0.4405358    0.3103586 -81.66  0.001640736    1.662    0.398
       204  -9.7625    179.2745    202.0769   1.0262387478e+02   4.2382186047e+00    0.1907769    0.1784858 -26.76 0.0003052032    1.053    0.050
       205  -9.4210    173.4691    202.4084   1.0394747436e+02   5.2227904553e+00     0.143442    0.1361493   8.99 9.531632e-05    1.020    0.020
       206 -11.3134     56.2866    201.6488   1.3111762120e+02   2.5171465092e+01    0.2402211    0.2127414 -69.48 0.0004478667    1.178    0.151
       207 -11.1220     21.0249    201.9911   1.3900626418e+02   2.9250163390e+01    0.1921479    0.1571524 -88.12 0.0004891246    1.058    0.055
       208 -10.5979    198.3730    200.9595   9.8389059914e+01   1.0706214014e+00    0.2308335    0.1963871  15.11 0.0004319271    1.180    0.152
       209  -9.8900    186.9280    200.8479   1.0075219050e+02   3.1125127183e+00    0.2075311    0.1801215  -6.02  0.000365821    1.176    0.150
       210 -11.1890    164.3821    200.0703   1.0551150014e+02   7.3852080252e+00    0.5472527    0.2838503  29.53  0.001828371    2.267    0.559
       211  -9.3615     34.2868    201.2807   1.3604841842e+02   2.7976597136e+01    0.1191626   0.09320272 -49.93 0.0001997127    1.521    0.342
       212 -10.5839     28.7359    201.0091   1.3724283184e+02   2.8661586778e+01    0.1842469    0.1409433 -82.29 0.0004439951    1.093    0.085
       213  -9.7616    131.5000    200.1106   1.1308222164e+02   1.3444710429e+01    0.2071168    0.1456493 -52.98 0.0004186777    1.446    0.308
       214  -9.7377     98.4936    200.4815   1.2100017823e+02   1.9125635889e+01    0.1436986    0.1365686  85.52 0.0002449564    1.054    0.051
       215 -11.6460     70.0259    199.4916   1.2763359871e+02   2.3789371973e+01    0.3810716    0.2537939 -30.39  0.001157962    2.374    0.579
       216 -10.7822    230.2677    198.1726   9.1627319221e+01  -3.6992129968e+00    0.2554877    0.1952039 -10.31  0.000555787    1.338    0.252
       217 -10.7435    209.9864    197.9655   9.5466251808e+01  -3.4523360661e-01    0.3002596    0.2424394 -61.05 0.0005298702    1.530    0.346
       218 -10.6232    209.6481    192.2825   9.4414310238e+01   8.0811854531e-01    0.3285362    0.2576413  -8.02  0.001095454    1.387    0.279
       219 -10.7828    202.6665    194.7679   9.6302765469e+01   1.5370770961e+00    0.3800533    0.2717519  -7.23  0.001266236    1.732    0.423
       220 -10.4978    210.3246    187.2942   9.3285479211e+01   1.6640383940e+00    0.2278736    0.1652562 -25.90 0.0004311747    1.398    0.285
       221 -10.7028    205.4847    189.4758   9.4683412418e+01   2.0856466724e+00    0.3236209    0.2506469 -47.62  0.001179788    1.298    0.230
       222 -10.1469    207.3336    186.7195   9.3761270547e+01   2.3040263755e+00     0.248962    0.2007988  29.05 0.0005098102    1.299    0.230
       223 -10.0317     41.8683    198.9577   1.3409772629e+02   2.7644755968e+01    0.1921313    0.1616568 -58.79 0.0004922378    1.303    0.233
       224 -10.9051    103.5233    197.7000   1.1934714996e+02   1.8949168271e+01    0.3338056    0.2407927  71.35  0.001098473    1.571    0.363
       225  -9.5060     80.5602    198.5772   1.2500189335e+02   2.2445600993e+01    0.1421299    0.1278909  83.75 8.499416e-05    1.005    0.005
       226 -10.3333     49.4925    197.9959   1.3224099070e+02   2.6936252116e+01    0.2062905    0.1922878 -19.70 0.0005562295    1.435    0.303
       227 -10.0200    169.9820    195.8441   1.0345364157e+02   7.2514363000e+00    0.2180074    0.1921909  -1.11  0.000426739    1.211    0.174
       228 -11.2899    157.5420    194.3358   1.0595995394e+02   9.9109486777e+00    0.3858308    0.3669365 -27.46  0.001869922    1.064    0.060
       229 -10.2260    149.1976    196.3252   1.0825566712e+02   1.1034283901e+01    0.2252854    0.1808174  19.46 0.0003945773    1.400    0.286
       230  -9.5062    124.9946    196.2400   1.1393801802e+02   1.5523665840e+01    0.1850719    0.1234562  40.11 0.0002881722    1.478    0.323
       231 -10.9779     89.2093    195.5857   1.2247093818e+02   2.1820362247e+01    0.2571734    0.2210532 -51.26 0.0005371025    1.248    0.199
       232  -9.7115     61.1189    195.7928   1.2924443540e+02   2.5942282868e+01     0.176592    0.1581643 -49.36 0.0004318887    1.301    0.231
       233 -10.5124    184.4495    194.4147   1.0002369668e+02   4.8771715501e+00    0.2396036    0.2220133   1.54 0.0004789154    1.063    0.059
       234 -10.0697    176.3394    195.1838   1.0192657082e+02   6.2107981069e+00    0.1932441    0.1766464 -46.72 0.0003558932    1.116    0.104
       235  -9.8722    140.5258    195.0203   1.1003294875e+02   1.2949202928e+01    0.2205627    0.1477966 -54.21 0.0004573106    1.523    0.343
       236 -10.1918    144.0178    193.5097   1.0893052257e+02   1.2641118835e+01    0.2979858    0.1858188  87.51  0.001022286    3.354    0.702
       237 -10.0447    113.0940    193.7134   1.1636117537e+02   1.8250097760e+01    0.2001875    0.1895522  41.97 0.0003684028    1.104    0.094
       238 -10.8860     81.6262    193.4279   1.2398172834e+02   2.3539046943e+01    0.2626778    0.2104146  53.96 0.0006691054    1.225    0.184
       239 -10.5671    215.5147    195.8129   9.3961530446e+01  -8.6738991610e-01    0.2893715    0.2018833 -27.25  0.000844021    1.412    0.292
       240  -9.1841    133.2742    193.3105   1.1143186519e+02   1.4690989003e+01    0.1465309    0.1186058 -17.36 0.0002893265    1.553    0.356
       241 -10.2430     74.5022    193.4863   1.2571907337e+02   2.4601795953e+01    0.1425418    0.1290088 -87.88 0.0008103586    1.029    0.028
       242  -9.7031     36.2662    192.7604   1.3468155594e+02   2.9798107201e+01    0.1708886    0.1395531 -56.25 0.0006386279    1.334    0.251
       243 -12.9485    233.8407    187.2497   8.8844253098e+01  -2.2769114464e+00    0.5897443    0.4159133 -17.55  0.001988864    1.521    0.343
       244  -9.6003    194.2471    192.3827   9.7556384602e+01   3.5110045365e+00    0.1755211    0.1363984  46.45 0.0002358949    1.394    0.283
       245  -9.6920    168.6476    192.1723   1.0303269567e+02   8.2916647373e+00    0.2079456    0.1845819  47.65 0.0008754148    1.164    0.141
       246 -10.9930    151.7497    191.1896   1.0668504294e+02   1.1708163517e+01    0.3431742    0.2867571 -32.65 0.0009164261    1.272    0.214
       247 -10.7364    156.1260    181.3072   1.0371246590e+02   1.3105837596e+01    0.3984047    0.2348406  35.49  0.001673389    1.787    0.440
       248 -10.3510    162.0508    190.0445   1.0409804767e+02   1.0006137232e+01    0.2896707    0.2463487 -73.82 0.0007184182    1.353    0.261
       249 -11.4411    158.3699    186.1393   1.0416508267e+02   1.1579944273e+01    0.4258455    0.3478298  28.18  0.001181219    1.287    0.223
       250  -9.7751    104.7712    191.4265   1.1799871722e+02   2.0249998414e+01     0.190374    0.1452995  24.29 0.0003560262    1.546    0.353
       251  -9.2412     26.6690    191.7345   1.3675893938e+02   3.1098767529e+01    0.1197049   0.09245098 -45.68  0.000312155    1.578    0.366
       252 -10.6596    224.9090    190.0218   9.1031003056e+01  -1.3385237174e+00    0.2093691    0.1795272 -20.90 0.0004474985    1.059    0.055
       253 -10.6571     96.7740    188.6587   1.1950203779e+02   2.2279611461e+01    0.4145767    0.2212677 -58.57  0.001092978    1.817    0.450
       254  -9.2553     42.5560    190.4618   1.3295373257e+02   2.9623916625e+01    0.1350261    0.1142982 -84.39 0.0001190653    1.027    0.026
       255 -10.8998    199.2507    188.7005   9.5789081350e+01   3.3526833858e+00    0.2688678    0.2360395 -27.35  0.000372947    1.074    0.069
       256  -9.9399    172.6842    188.9675   1.0150088948e+02   8.2221111932e+00    0.2071912    0.1819529 -40.40 0.0003636968    1.121    0.108
       257 -11.3832     72.7009    188.1975   1.2538178190e+02   2.6173163608e+01    0.3925484    0.2350395  54.45   0.00181716    1.754    0.430
       258 -10.0420     64.4859    189.5236   1.2758379871e+02   2.7019527944e+01    0.2041336    0.1425928  18.76 0.0005163212    1.934    0.483
       259  -9.6427    179.2304    187.8270   9.9836568076e+01   7.2299604534e+00    0.1944162    0.1656944 -11.61 0.0003326473    1.268    0.211
       260 -10.0057     77.5522    188.5217   1.2423515635e+02   2.5370609239e+01     0.144435    0.1306516 -86.41 8.926269e-05    1.013    0.013
       261 -10.3487    215.2766    186.3815   9.2137103535e+01   9.8055660346e-01    0.2432074    0.2062249 -39.37 0.0006539019    1.119    0.106
       262 -10.1054    116.6995    187.4923   1.1437825549e+02   1.9103044540e+01    0.3999721    0.2108122  26.04  0.001478595    2.598    0.615
       263  -9.6269    193.8174    186.1411   9.6392820323e+01   4.8634156526e+00     0.194314    0.1622884 -12.35 0.0003236849    1.272    0.214
       264 -10.8219    127.8408    185.2578   1.1123652942e+02   1.7597005693e+01    0.4235913    0.2094342  35.66  0.001561887    2.133    0.531
       265  -9.5190     80.5597    184.5206   1.2286520162e+02   2.5906243996e+01    0.1454176    0.1330397 -81.23 0.0001381559    1.029    0.028
       266 -10.0406     34.9491    184.4651   1.3403675591e+02   3.1968695378e+01    0.1744154    0.1323856  33.11 0.0007159731    1.539    0.350
       267 -11.5325    211.0954    179.8242   9.1621871815e+01   3.0016349921e+00    0.4319834    0.2832216 -35.73  0.001248275    1.444    0.307
       268 -10.8480    205.1760    174.8831   9.1770377300e+01   5.0700786043e+00    0.3002587    0.2389158 -15.81 0.0005952003    1.379    0.275
       269 -10.8048    210.0366    173.5247   9.0532491854e+01   4.4512655391e+00    0.3231056    0.3022025 -56.25 0.0009832806    1.148    0.129
       270 -10.3647    141.0501    182.3971   1.0748869355e+02   1.5772511819e+01    0.5213549    0.3033163 -25.16  0.001079496    2.979    0.664
       271 -11.2643    139.8800    175.9815   1.0648700016e+02   1.7507495666e+01    0.3936879    0.2177376 -42.36 0.0009800654    1.904    0.475
       272 -11.2109    146.5179    174.6368   1.0461368494e+02   1.6525536700e+01    0.2886541    0.2730876   3.20 0.0006822146    1.136    0.120
       273  -9.9904    167.0336    184.2025   1.0180438923e+02   1.0342407688e+01    0.2236695    0.1980658  -4.54 0.0004296145    1.233    0.189
       274 -10.0094     67.1314    182.5205   1.2591746882e+02   2.8389880728e+01    0.2129561    0.1768404 -72.73 0.0006381441    1.095    0.087
       275  -9.6962    224.0450    181.6826   8.9530892446e+01   3.8231108674e-01    0.1792158    0.1652456  -7.51 0.0003832492    1.082    0.076
       276  -9.3151     72.7036    182.6377   1.2453953184e+02   2.7557368737e+01    0.1465624    0.1066493 -36.75 0.0007032366    1.712    0.416
       277  -9.3349    218.2503    181.6538   9.0615162681e+01   1.3824018147e+00     0.134869    0.1072663 -65.43 0.0003494556    1.582    0.368
       278 -10.9803    197.9945    174.2276   9.3079913283e+01   6.5459612024e+00    0.3258945    0.2536511 -64.95 0.0003901574    1.528    0.345
       279 -10.2859    203.3747    180.8066   9.3351449582e+01   4.1994484357e+00    0.2800647    0.2520836 -74.00 0.0004922291    1.324    0.245
       280  -9.9506    200.9993    177.5121   9.3152194777e+01   5.3070602095e+00    0.2404986    0.1887434  11.62  0.001215887    1.495    0.331
       281 -10.0518    184.1176    180.7253   9.7334762021e+01   7.8157086354e+00    0.2008242    0.1860405  15.67 0.0004202149    1.105    0.095
       282  -9.4091    197.5465    180.5500   9.4481608269e+01   5.3241361268e+00    0.1456309    0.1355879 -23.96 0.0001413503    1.011    0.011
       283 -10.9817    175.1506    179.3503   9.9001576241e+01   9.8377150844e+00    0.3480379    0.2605685 -52.10  0.001288711    1.351    0.260
       284 -10.1997     55.6315    179.8325   1.2839963273e+02   3.0624689809e+01    0.2031747    0.1964753 -14.10 0.0006322147    1.282    0.220
       285  -9.8225    235.8378    178.9042   8.6835599726e+01  -1.0589917617e+00     0.199274    0.1605969 -18.59 0.0003973226    1.218    0.179
       286  -9.1526    106.3086    179.6798   1.1554468929e+02   2.2859437737e+01    0.1571112     0.115178  77.18 0.0007033853    1.641    0.391
       287  -9.5164    231.0472    178.0059   8.7510771481e+01  -9.9845181379e-02    0.1644586    0.1378787 -33.48  0.000344628    1.048    0.046
       288 -10.2305    191.0219    176.8765   9.5073899302e+01   7.3145523619e+00    0.2210852    0.2048028 -18.18 0.0004587443    1.063    0.059
       289  -9.6197    134.5287    177.5151   1.0809805893e+02   1.8177347506e+01    0.1530252    0.1492358 -84.42 0.0002631284    1.005    0.005
       290 -10.3526     64.9925    177.0492   1.2563012281e+02   3.0061825549e+01    0.1737393    0.1536717 -81.11 0.0004587612    1.007    0.007
       291  -9.9468    169.5088    176.0707   9.9576245297e+01   1.1661977163e+01    0.2258592    0.1471364 -46.01 0.0004338587    1.499    0.333
       292 -10.5447     60.0097    176.2997   1.2678400711e+02   3.0931396163e+01    0.1934762    0.1791787  74.14 0.0004514109    1.103    0.093
       293 -10.0323    219.3522    174.9576   8.9044870765e+01   2.4938963164e+00     0.199607    0.1572634 -37.39 0.0003835818    1.147    0.128
       294 -11.0980    152.5011    173.6467   1.0298733198e+02   1.5574687266e+01    0.4775423    0.3014537   9.67   0.00169648    2.985    0.665
       295  -9.6174     46.7955    174.8518   1.2991736409e+02   3.2978432462e+01    0.1943523    0.1474423  74.75 0.0009612013    1.328    0.247
       296  -9.9289    182.9064    173.8979   9.6173667540e+01   9.5124072085e+00    0.2234709    0.1951335 -14.79  0.000345682    1.222    0.182
       297 -11.2279    161.7789    173.7149   1.0084030377e+02   1.3718512668e+01    0.2937487    0.2380417  -3.21 0.0005134086    1.533    0.348
       298 -10.9241    127.8984    173.4960   1.0892982667e+02   2.0410359993e+01    0.5070324     0.274461  27.96  0.001494669    2.393    0.582
       299  -9.4342    112.6786    174.3319   1.1292710374e+02   2.3041162152e+01    0.1609743    0.1180548  78.37 0.0007049508    1.698    0.411
       300  -9.0738     38.2989    174.3408   1.3197294136e+02   3.4094397313e+01    0.1370497   0.09266684 -44.87 0.0007035017    1.666    0.400
       301  -9.7346    233.2411    172.2616   8.5963252239e+01   6.1581087947e-01    0.1672563    0.1457802 -54.03 0.0002851179    1.227    0.185
       302  -9.6410     24.7583    172.1382   1.3503629733e+02   3.6062034535e+01    0.1709799    0.1356276 -51.72 0.0004844469    1.340    0.254
       303 -10.7232    225.9066    170.6147   8.6944019207e+01   2.1881033342e+00    0.2161517     0.174623 -28.53 0.0004269567    1.161    0.139
       304 -10.0309    192.9982    171.0293   9.3435912221e+01   8.1675498174e+00    0.2231811    0.2078953 -30.18 0.0004063803    1.022    0.022
       305  -9.5671     76.4099    170.8565   1.2168362889e+02   2.9969230448e+01    0.2086749    0.1247732 -51.22 0.0006251195    1.627    0.385
       306 -10.3222    200.9936    170.0247   9.1591003628e+01   6.8486327010e+00    0.2258353    0.1727565 -10.92 0.0003356477    1.590    0.371
       307  -9.7739    183.7183    169.9579   9.5165820271e+01   1.0203719821e+01    0.2193547    0.1802977 -41.99 0.0007290618    1.165    0.142
       308  -9.4280     44.5372    170.4884   1.2988350242e+02   3.4338906181e+01    0.1386846    0.1189974 -73.08 0.0001277741    1.043    0.041
       309 -10.9823    245.7135    166.8171   8.2735176512e+01  -4.3340610377e-01    0.4075208    0.1842503 -37.42 0.0007624477    1.986    0.496
       310 -10.4909    143.8733    177.5506   1.0584239758e+02   1.6361308231e+01    0.4076022    0.2732755  62.28  0.001735557    1.856    0.461
       311  -9.2343    119.3021    169.7083   1.1033405906e+02   2.2956916650e+01    0.1557461    0.1198311  78.45  0.000312859    1.569    0.363
       312 -10.6146    231.8578    157.3883   8.3169431563e+01   3.6920535835e+00    0.3238864    0.1831652 -34.28 0.0005450779    1.726    0.421
       313 -10.6955    233.1904    151.7267   8.1771342120e+01   4.5420407588e+00    0.3790165    0.1878155 -53.86    0.0013392    2.209    0.547
       314 -10.8979    239.9293    151.0321   8.0504807163e+01   3.4830941749e+00    0.4782995    0.2930054  35.55  0.002356947    2.041    0.510
       315 -10.5248    240.1327    162.3001   8.2760979021e+01   1.3286566095e+00    0.2688245    0.2092018 -16.90 0.0004360848    1.411    0.291
       316 -11.0190    237.5725    156.8699   8.2088619335e+01   2.7895884766e+00    0.4008874    0.2235104 -32.85  0.001149263    1.800    0.445
       317 -11.2731    237.4647    166.6593   8.4095500356e+01   9.6007629322e-01    0.3757907    0.2410264 -53.20  0.001124593    1.622    0.383
       318 -10.9928    234.0686    162.0273   8.3739677656e+01   2.4169236590e+00    0.2796832    0.2334338 -41.81 0.0004616209    1.062    0.058
       319  -9.5963    188.0031    170.5512   9.4380138681e+01   9.2371860780e+00    0.2115848    0.1484887  41.03 0.0003713232    1.493    0.330
       320  -9.9856    134.9975    167.4947   1.0593602313e+02   2.0482106986e+01    0.2426178    0.2042568 -49.39 0.0004845655    1.170    0.145
       321  -9.4730    211.9719    167.4841   8.8900093932e+01   5.3102306761e+00    0.2700808    0.2169396 -88.36 0.0008612077    1.728    0.421
       322 -10.2812    209.9941    164.5173   8.8656949348e+01   6.2779961130e+00    0.2759438    0.1991471 -20.80  0.001084479    1.611    0.379
       323 -11.2828    205.5907    166.1102   8.9850775098e+01   6.7832941938e+00    0.4051287    0.2399136 -31.83  0.001766019    1.817    0.450
       324 -11.6337    205.8679    158.4716   8.8169518951e+01   8.2983329489e+00    0.4705627    0.3381237 -26.68  0.001496242    1.523    0.343
       325 -10.8143    206.0080    152.0300   8.6752460778e+01   9.5953731548e+00    0.2562754    0.1991129 -43.81  0.000432531    1.183    0.155
       326 -10.9266    150.2330    166.5384   1.0202618566e+02   1.7678595425e+01     0.244199    0.2092229 -27.00 0.0004903265    1.273    0.214
       327  -9.8256    140.5651    166.6878   1.0439518089e+02   1.9575913643e+01    0.2089946    0.1497974 -61.96 0.0009271915    1.485    0.327
       328  -9.8321     84.5198    166.9893   1.1887167935e+02   2.9691199308e+01     0.222895    0.1400875 -61.75 0.0003780915    1.507    0.336
       329  -9.5949     53.8115    167.3643   1.2703353023e+02   3.3990155330e+01    0.1727998    0.1380071  15.26 0.0004255311    1.595    0.373
       330 -10.9473    218.9636    165.1319   8.7088573064e+01   4.4972282812e+00    0.2257516    0.1884013 -36.67 0.0003492821    1.083    0.077
       331  -9.9394    179.1055    166.1895   9.5355686243e+01   1.1938460292e+01    0.2242574    0.2010543 -13.94 0.0004211459    1.194    0.162
       332  -9.8474    169.9708    166.4752   9.7437591098e+01   1.3710104215e+01    0.2212295    0.1528326  42.68  0.000349218    1.493    0.330
       333  -9.8834    250.8098    165.0280   8.1547186160e+01  -9.2641831596e-01    0.1850574   0.08863408 -42.13 0.0005710711    1.759    0.431
       334  -9.1296    127.7141    165.6860   1.0737969887e+02   2.2337196378e+01    0.1546319    0.1235731 -18.17 0.0003187409    1.582    0.368
       335 -10.3299    192.0131    162.4493   9.1807587942e+01   1.0176799818e+01    0.2187387    0.1928507 -40.65 0.0003851016    1.070    0.065
       336  -9.9243    184.9840    163.2854   9.3463231323e+01   1.1395046092e+01    0.2035996    0.1933051  33.82 0.0003209382    1.103    0.094
       337 -10.6944    159.5220    162.9783   9.9068566264e+01   1.6621009817e+01    0.2355569    0.2098933  41.00 0.0004657287    1.154    0.133
       338 -10.0714    111.2861    162.9878   1.1104294488e+02   2.6100057933e+01     0.219393    0.1932008 -54.72  0.000386722    1.104    0.094
       339  -9.5635     80.5373    163.4752   1.1929525246e+02   3.1204663219e+01    0.1489469    0.1370658 -72.18 0.0001248338    1.011    0.011
       340  -9.8113    199.9674    162.5009   9.0198855602e+01   8.6071761593e+00    0.2054638    0.1482494  41.26 0.0003776662    1.487    0.327
       341 -10.7338    158.2940    168.6312   1.0057221964e+02   1.5573627734e+01    0.2071585    0.1928495 -58.31 0.0009675947    1.069    0.065
       342  -9.9635    221.1961    159.8355   8.5571453718e+01   5.1367794301e+00    0.2078013    0.1852794 -64.06 0.0006192719    1.216    0.178
       343 -10.6385    213.2265    160.0895   8.7103955676e+01   6.5659052736e+00    0.2176089    0.2069686  14.01 0.0004208965    1.134    0.119
       344 -11.0498    153.0199    159.7515   9.9891350527e+01   1.8693309001e+01    0.2782559    0.2389749  24.84 0.0004130743    1.283    0.220
       345 -12.0181    156.3640    157.1602   9.8528269730e+01   1.8605858983e+01    0.5345956     0.362374  64.53  0.002249344    1.886    0.470
       346 -11.5712     53.3690    158.3583   1.2573604016e+02   3.6316909843e+01    0.5522083    0.3077113  14.89  0.002329418    2.732    0.634
       347  -9.6987     31.6726    159.7297   1.3171117612e+02   3.8436591900e+01    0.1304106   0.09286485 -40.95 0.0002149836    1.579    0.367
       348 -10.6515    250.5546    156.5069   7.9898186819e+01   6.6889773174e-01    0.3060657     0.112763 -42.57  0.001235614    2.279    0.561
       349  -9.5853    168.2961    157.2976   9.5808054141e+01   1.6111059502e+01    0.1531123    0.1232715  -7.85  0.000265754    1.569    0.363
       350 -10.0041    140.7654    156.7639   1.0220255406e+02   2.1893007132e+01    0.2534453    0.1814705  84.72 0.0008302452    2.018    0.505
       351  -9.2493     99.0083    156.0235   1.1288256767e+02   3.0034844430e+01    0.2137726    0.1767918  77.43 0.0004138415    1.345    0.257
       352  -9.7438     95.4333    154.2168   1.1348270660e+02   3.1105163217e+01     0.249758    0.1820309  75.50  0.001118594    1.729    0.422
       353  -9.4565    246.4334    155.4486   8.0343601976e+01   1.5461242896e+00    0.1359311    0.1145856 -37.84 0.0001236153    1.024    0.024
       354 -10.1162    221.8284    154.4168   8.4318627385e+01   6.0903305342e+00    0.2309969    0.1765362 -41.76 0.0005205773    1.170    0.145
       355 -10.6532    221.5438    150.6786   8.3579759796e+01   6.8820075632e+00    0.3040914    0.1822012 -41.76 0.0005471688    1.497    0.332
       356  -9.8569    226.2422    154.3163   8.3511589230e+01   5.2974189091e+00    0.2010064      0.17415  10.64 0.0006218583    1.349    0.259
       357 -10.0366    216.3190    153.9851   8.5230473683e+01   7.2090342308e+00    0.2611333    0.1917806 -63.73 0.0002603056    1.573    0.364
       358  -9.9861    215.3044    146.9693   8.3914749752e+01   8.8098977671e+00    0.2613855    0.2181914 -26.40 0.0006751245    1.248    0.199
       359 -11.2326    212.9774    150.0087   8.4997661978e+01   8.6483891529e+00    0.4145706    0.3043142  70.20  0.001289145    1.793    0.442
       360 -10.1089    211.3432    146.6975   8.4585895025e+01   9.6362939034e+00    0.3670231    0.2096229  45.56  0.001635036    1.926    0.481
       361  -9.8806    197.4462    154.4815   8.8968877357e+01   1.0781540298e+01    0.1500822    0.1390334 -38.27 0.0001055997    1.027    0.026
       362 -11.5057    166.6517    152.6642   9.5144718282e+01   1.7495031588e+01    0.3887079    0.3376795  22.43  0.001951076    1.288    0.224
       363 -10.3565    157.4413    150.7484   9.6835842211e+01   1.9856068714e+01    0.2147257    0.1474555 -37.10  0.000405707    1.529    0.346
       364 -10.6592    144.8437    151.1826   9.9953354433e+01   2.2376127845e+01    0.3067086    0.2229291 -45.03 0.0008061741    1.353    0.261
       365  -9.8844    144.0353    147.4976   9.9312891299e+01   2.3407321920e+01    0.3511711    0.2243198  63.50 0.0009739937    2.048    0.512
       366  -9.6571    107.8477    151.1707   1.0948434191e+02   2.9658044660e+01    0.2053099      0.18342 -16.05 0.0004124641    1.285    0.222
       367 -11.2928     20.1866    151.3844   1.3360262257e+02   4.1585662415e+01    0.2167574    0.1655037  77.93 0.0008687181    1.352    0.261
       368 -11.8524     19.3476    148.2820   1.3341086660e+02   4.2417717466e+01     0.237022    0.1782679 -31.76 0.0008126506    1.583    0.368
       369 -10.8702    249.5964    148.0346   7.8356012432e+01   2.3833894786e+00     0.369283    0.1916427 -34.05  0.001484745    1.904    0.475
       370  -9.9684    228.0415    150.4650   8.2391294445e+01   5.7186039720e+00    0.1907585    0.1420993  47.00 0.0005200792    1.523    0.344
       371  -9.5032    202.5290    149.5087   8.6876119804e+01   1.0804485217e+01    0.1492484    0.1377162 -43.83 0.0001747632    1.007    0.007
       372 -11.5904      5.0973    147.5335   1.3707409061e+02   4.3720614683e+01    0.4259626    0.2102185  71.87  0.001912747    2.765    0.638
       373 -10.3604    122.3985    146.7626   1.0464462365e+02   2.7967717052e+01    0.4564815    0.3704907  56.12  0.002204763    1.305    0.234
       374 -10.1133    120.0000    143.9929   1.0464853715e+02   2.9107034047e+01    0.4321367    0.3064452  -3.47  0.001437463    2.267    0.559
       375 -11.2109    243.7013    145.7062   7.8810696403e+01   3.8252109173e+00    0.4260707    0.2140185 -49.17  0.001104492    1.813    0.449
       376 -10.6534    161.7914    147.3940   9.5059175745e+01   1.9705904068e+01    0.2835112     0.152973  48.13 0.0005512999    1.938    0.484
       377 -10.9591    159.8040    144.2013   9.4783458133e+01   2.0849910717e+01    0.2974702    0.1868344 -37.59 0.0005512743    1.678    0.404
       378 -10.0589    150.1730    146.8477   9.7671146307e+01   2.2277658833e+01    0.2149724    0.1871146 -19.48 0.0004017875    1.300    0.231
       379  -9.7272     98.2067    146.5438   1.1111707491e+02   3.2536157524e+01    0.2057841    0.1523982  20.40 0.0006119684    1.649    0.393
       380 -12.5838     37.1022    143.7471   1.2785807846e+02   4.1845189917e+01    0.5439034    0.2850322 -58.39  0.002321226    1.591    0.371
       381 -12.7560     26.4161    144.2190   1.3091316150e+02   4.2782179304e+01    0.4519646    0.3078737  61.56  0.002461049    1.714    0.417
       382 -11.2144     13.5300    143.4992   1.3433451269e+02   4.4060028437e+01    0.1955434    0.1236809  -5.03 0.0008251076    2.319    0.569
       383  -9.9304    223.5099    144.4578   8.1912257252e+01   7.7370955703e+00    0.1433483    0.1280099 -41.78 7.784543e-05    1.030    0.029
       384  -9.7642    208.5002    142.9011   8.4288356366e+01   1.0969278750e+01      0.21842    0.1354115 -43.07 0.0004633883    1.478    0.324
       385 -10.8156    248.5763    133.5195   7.5589760970e+01   5.2294712844e+00    0.2834391    0.2113035 -31.15 0.0006098339    1.372    0.271
       386 -10.4945    247.6622    142.2902   7.7499421854e+01   3.7728904302e+00    0.1720725    0.1389212  83.47 0.0007592237    1.593    0.372
       387 -11.2235    250.1715    139.3473   7.6524623023e+01   3.8821416438e+00    0.3759808    0.1929723 -39.06 0.0009023165    1.715    0.417
       388  -9.0897    171.6751    142.7124   9.1750352456e+01   1.8656272562e+01    0.1535901    0.1246592  -0.70 0.0003245885    1.607    0.378
       389  -9.8053    113.2425    142.1347   1.0603188844e+02   3.0862352501e+01    0.3047608    0.2001478  66.88  0.001223785    2.108    0.526
       390 -10.7395    234.8894    143.7783   7.9839222510e+01   5.7570185627e+00     0.219373    0.2007052 -33.68 0.0005455017    1.098    0.089
       391 -10.2439    131.3015    138.9887   1.0053704476e+02   2.8037169657e+01     0.256654    0.2223208  26.80 0.0004032399    1.266    0.210
       392  -9.5952    139.0392    140.9791   9.9041163184e+01   2.5971637360e+01    0.2125836    0.1888262  -0.35 0.0004466304    1.315    0.239
       393 -10.4765    135.7862    138.8381   9.9356693694e+01   2.7148221718e+01    0.2892167    0.2708529 -45.01 0.0006490402    1.057    0.054
       394  -9.5266    155.6728    140.6996   9.4933186039e+01   2.2523726124e+01    0.1576059    0.1268594  -2.87 0.0007030003    1.639    0.390
       395 -11.2216     28.5240    139.9362   1.2967355509e+02   4.3635972796e+01    0.2310553    0.1715848  52.29  0.000692573    1.545    0.353
       396 -10.4844    238.3859    138.5515   7.8189408411e+01   6.1143003898e+00    0.3724682    0.1763255 -53.75  0.001543198    2.236    0.553
       397 -10.2017    109.5689    138.5743   1.0621614686e+02   3.2421437047e+01    0.2664872    0.2070179 -31.97 0.0005526994    1.423    0.297
       398  -9.7801    243.5434    137.9427   7.7253165966e+01   5.3017681799e+00    0.2027933    0.1173566 -41.68 0.0004441781    1.486    0.327
       399 -11.1267    166.2384    137.3158   9.1705355131e+01   2.1014445796e+01    0.3290534     0.241638 -57.40 0.0007920666    1.398    0.284
       400  -9.8198     90.8213    134.4301   1.1053050012e+02   3.6792265357e+01    0.2098733    0.1492226  19.66 0.0009501058    1.732    0.423
       401 -10.8944     11.1214    134.1342   1.3371872321e+02   4.6497133384e+01    0.1996833    0.1411616 -53.29 0.0003985832    1.233    0.189
       402  -9.5723    218.6018    135.5345   8.0855200676e+01   1.0442306115e+01    0.1452767    0.1271674 -50.73 8.916947e-05    1.027    0.026
       403 -10.8145     39.0408    131.6404   1.2523433025e+02   4.4618646002e+01    0.3170238    0.1771333 -45.61  0.001145605    1.681    0.405
       404 -11.1939    249.0683    122.6646   7.3326326440e+01   7.1228660022e+00    0.3240646    0.2795224 -16.69  0.001327718    1.435    0.303
       405 -10.8270    242.4736    131.4872   7.6096391660e+01   6.6957567605e+00    0.2506136     0.200499 -38.30 0.0005326024    1.165    0.142
       406 -11.2858    246.7292    127.7971   7.4704681613e+01   6.6080787909e+00    0.4342754    0.3181954 -10.37  0.001792363    2.081    0.519
       407  -9.6364    208.4995    132.0042   8.1884163546e+01   1.3173521945e+01    0.1992823    0.1263426 -21.35 0.0007141117    2.342    0.573
       408  -9.1644     96.6502    132.6768   1.0846369002e+02   3.6208222687e+01    0.1591611    0.1188617 -17.07 0.0007048759    1.749    0.428
       409 -11.2508      6.4908    131.5582   1.3466154177e+02   4.7438078889e+01    0.2237817    0.1250401  20.91  0.001218023    2.226    0.551
       410 -12.5668    231.3617    111.2680   7.3566920672e+01   1.2554290016e+01     0.742303    0.2746052 -33.89  0.002431531    3.745    0.733
       411 -12.8996    247.9433    102.4921   6.9415241723e+01   1.0926277986e+01    0.8672436    0.3789504 -50.42  0.003866273    2.007    0.502
       412 -12.7881    239.5937    112.5602   7.2623201029e+01   1.0716937132e+01    0.7279996    0.3512338 -38.34  0.003229524    1.989    0.497
       413 -12.0411    244.8275    109.2210   7.1197735157e+01   1.0324733018e+01     0.847667    0.4869844 -81.47  0.003486474    3.098    0.677
       414  -9.6436    137.4612    129.5187   9.6693008251e+01   2.8952547909e+01    0.1563366    0.1521938 -47.96 7.119699e-05    1.026    0.026
       415  -9.4230     80.4997    130.4767   1.1264369391e+02   3.9446758251e+01    0.1496033    0.1377049 -44.72 0.0008098881    1.041    0.039
       416  -9.2649    192.6871    126.7319   8.3671673790e+01   1.7562528769e+01     0.142583    0.1202184   4.07 0.0002498384    1.547    0.354
       417  -9.9485    102.7469    125.8760   1.0511893074e+02   3.6730703666e+01    0.2632882    0.1658376 -15.19  0.000946301    2.863    0.651
       418 -11.4789    145.6087    123.1791   9.3110007423e+01   2.8629940889e+01    0.2998902    0.2814417  53.47  0.001563331    1.085    0.079
       419 -10.8750      5.4142    124.2019   1.3393402439e+02   4.9244248368e+01    0.1737531    0.1022985 -77.81 0.0006543553    1.574    0.364
       420 -10.7044    240.6180    122.7740   7.4583548980e+01   8.6521763086e+00    0.5632579     0.229129 -33.39  0.002026065    3.167    0.684
       421  -9.7714    153.5087    122.0962   9.0955286029e+01   2.7139351424e+01    0.2311502    0.1513815 -45.55  0.000310147    1.492    0.330
       422  -9.0201    180.2864    121.3174   8.4882575344e+01   2.1380360650e+01    0.1481833    0.1227511  -4.68 0.0003715378    1.589    0.371
       423  -9.7937    127.5369    121.4766   9.7247166241e+01   3.2861801848e+01    0.1546888    0.1507383 -60.06 0.0008090431    1.008    0.008
       424 -10.8167     13.1658    118.8287   1.3080760087e+02   4.9972402714e+01    0.2539798    0.1341175 -79.49  0.001218462    2.073    0.518
       425 -10.3747     16.4812    115.4694   1.2922766741e+02   5.0511458520e+01    0.1306978    0.1030723 -52.75 0.0008089417    1.057    0.054
       426  -9.6404      2.3316    114.3093   1.3337886688e+02   5.1730169998e+01    0.1307446   0.07135263 -42.90 0.0007041706    1.669    0.401
       427 -10.4969     90.4058    111.6770   1.0518144037e+02   4.2226799725e+01    0.2633048    0.2395716 -16.79 0.0005312022    1.123    0.110
       428 -11.3272      6.2772    112.0143   1.3180980188e+02   5.2015393637e+01     0.184597    0.1358651 -62.25   0.00105081    1.092    0.084
       429 -10.5643     24.2694    109.6144   1.2569492326e+02   5.1245025452e+01    0.1592308    0.1193182  -7.06  0.000805235    1.557    0.358
       430 -11.6724     17.9960    109.2850   1.2764703208e+02   5.1825167104e+01    0.2313794    0.1608263  22.59 0.0009745436    1.705    0.413
       431  -9.4419    133.5177    107.5094   9.2101082193e+01   3.4646366167e+01     0.151475    0.1497067 -21.74 5.764695e-05    1.034    0.033
       432 -11.9587     28.2752    106.3019   1.2373403616e+02   5.1655553599e+01    0.4255321    0.2482299  13.56  0.002204024    2.092    0.522
       433 -10.8610      2.3028    108.5429   1.3248354980e+02   5.3046670962e+01    0.2656192     0.134117 -39.27  0.000837243    1.882    0.469
       434 -11.0191    231.2156    128.8604   7.7312286303e+01   9.2874650296e+00    0.4112777    0.3395094   2.48   0.00189856    1.662    0.398
       435 -11.2066     59.6853    101.1684   1.1217087933e+02   4.9317352712e+01     0.340342    0.2564586 -77.43   0.00170751    1.750    0.429
       436 -10.2868     89.2803    102.8687   1.0321670948e+02   4.4376069033e+01    0.2379678    0.2096078  27.69  0.000833263    1.170    0.145
       437 -12.7071    233.0484    120.6410   7.5289410670e+01   1.0485622170e+01    0.7691475    0.5355754  44.06  0.004045196    1.725    0.420
       438 -11.2428      6.5131    101.5300   1.2995001875e+02   5.4372012225e+01    0.2715814    0.1401908 -11.89  0.001023807    2.616    0.618
       439  -9.4733     34.6530    100.7109   1.2041749253e+02   5.2320010938e+01    0.1377833   0.08663364 -29.52 0.0005323792    1.659    0.397
       440 -11.5616     25.0057     98.8818   1.2327395002e+02   5.3610733129e+01     0.366162    0.1936485 -42.12  0.001190469    1.653    0.395
       441  -9.5742    105.6829     98.3394   9.7132253152e+01   4.2312589324e+01    0.1495928    0.1197344 -89.07 0.0007048748    1.706    0.414
       442 -10.2673     44.4712     98.0637   1.1648599321e+02   5.1874939577e+01    0.2507073    0.1744652 -14.48  0.001104832    1.646    0.392
       443 -10.1733    214.5252     97.4819   7.3163604760e+01   1.8541212466e+01    0.1437064    0.1244785 -67.18 0.0001317661    1.036    0.034
       444 -11.3539     86.9510     95.7544   1.0199493974e+02   4.6298450828e+01    0.4134845    0.3147917 -26.94  0.001209923    1.362    0.266
       445 -11.6463    248.0000     92.0144   6.7309206253e+01   1.2719750639e+01    0.3137236    0.1661221 -48.79  0.001432126    1.586    0.369
       446 -10.2047     63.6489     96.6965   1.0971439948e+02   4.9751647586e+01    0.1458995    0.1006094 -17.88 0.0007040345    1.702    0.412
       447 -10.9131      7.3965     96.2542   1.2868765101e+02   5.5485036405e+01    0.1710518    0.1026813 -70.82 0.0009489522    1.619    0.382
       448 -11.1817     21.6879     94.0247   1.2336358108e+02   5.4954887471e+01    0.3312231    0.1574363 -30.93  0.001532034    2.358    0.576
       449 -10.3601     68.3772     93.7751   1.0737687170e+02   4.9695102629e+01    0.2941649    0.2007733  38.18  0.001506112    1.577    0.366
       450 -11.1971     45.4379     91.4957   1.1452781555e+02   5.3189933670e+01    0.3003041    0.1333169  24.36  0.001302512    2.581    0.612
       451 -10.4331      2.4328     99.2157   1.3087399799e+02   5.5127379580e+01    0.1699433    0.1017983 -74.95 0.0008109076    1.664    0.399
       452 -10.7416    198.2193     91.4459   7.4439521147e+01   2.3195124799e+01    0.3848531    0.1941303 -60.33  0.001485735    2.502    0.600
       453 -10.7653    235.0066    114.7445   7.3752443539e+01   1.1200792400e+01     0.250065    0.1687974 -61.43 0.0007227233    1.481    0.325
       454  -9.8491     35.3010     91.5420   1.1806318329e+02   5.4266481320e+01    0.1619335    0.1183849  -4.79 0.0006042129    1.505    0.336
       455 -10.0779     91.0373     89.5315   9.8987657434e+01   4.6855681080e+01    0.2179845    0.1395758  38.21  0.001028918    1.584    0.369
       456 -10.1902     24.2112     87.8514   1.2109194980e+02   5.6076790154e+01    0.2417983    0.1608231  -9.70  0.001295431    1.687    0.407
       457 -10.3147    249.4533     86.4883   6.6033151978e+01   1.3370197810e+01    0.2144159    0.1154277 -34.40 0.0006674199    2.118    0.528
       458  -9.4944    220.4832     85.9922   6.9745419867e+01   1.9304237687e+01    0.1894913   0.09956292 -61.90 0.0003915554    2.181    0.542
       459 -12.0775     11.0941     83.7467   1.2485193979e+02   5.7934823674e+01    0.4354061    0.2477339 -36.85  0.002495215    1.528    0.346
       460 -10.2890    229.9217     84.3696   6.8088848518e+01   1.7607757137e+01    0.2726261    0.1582809 -57.22  0.001172044    1.617    0.381
       461 -10.1140    201.9892     84.2980   7.2164141249e+01   2.3621451957e+01    0.1964745    0.1690724  79.22 0.0004183682    1.134    0.118
       462 -11.1780      2.5672     82.6296   1.2767250170e+02   5.8691288648e+01    0.2611804    0.1947252  88.03  0.001427142    1.814    0.449
       463 -11.6774    243.0589     81.3214   6.5780450903e+01   1.5467407408e+01    0.2132552     0.179648 -27.15  0.000811093    1.555    0.357
       464  -9.8541    101.3172     82.3226   9.3826889972e+01   4.6340351289e+01    0.1476653    0.1105965   1.09  0.000704308    1.666    0.400
       465  -9.5270     64.7223     82.3067   1.0538875269e+02   5.2581749299e+01     0.123149    0.1092019 -88.93 0.0001908676    1.552    0.356
       466 -10.9966     37.5666     80.4724   1.1444007506e+02   5.6349065621e+01     0.381723    0.2033904 -31.71   0.00187516    1.895    0.472
       467 -12.2590    249.6119     78.1309   6.4370891963e+01   1.4709938297e+01    0.4392489    0.2840179 -49.40  0.001474963    1.309    0.236
       468 -11.6637    239.1767     80.1481   6.6021292708e+01   1.6431928328e+01    0.1889749    0.1712778 -55.90 0.0006387877    1.208    0.172
       469 -11.7663     47.0903     79.3556   1.1069970087e+02   5.5504407801e+01    0.3513176    0.2083795  21.33  0.001818561    1.831    0.454
       470 -10.3961     58.3008     81.3167   1.0730566505e+02   5.3681208793e+01    0.1390236   0.09445591 -18.25 0.0002954481    1.617    0.382
       471  -9.6115    135.4766     76.4890   8.3135388678e+01   4.0210882486e+01    0.1435622    0.1382858  47.76 0.0008100401    1.020    0.020
       472 -11.5082      6.8100     74.5199   1.2434666736e+02   6.0109530439e+01    0.3194585    0.2052746  63.83  0.001677181    2.954    0.661
       473 -10.5308    217.6084     72.6116   6.7242603718e+01   2.2156817321e+01    0.3421764    0.2413088 -15.07  0.001646741    2.441    0.590
       474  -9.9474     90.8430     74.6104   9.4634741216e+01   4.9738210929e+01    0.2065412    0.1279973  51.60 0.0009620449    1.850    0.460
       475 -11.4711    126.6778     72.5055   8.4119742976e+01   4.2843710778e+01    0.4737756    0.2503905  40.05  0.001785385    1.990    0.498
       476 -11.9480    101.4636     68.9128   8.9747438472e+01   4.8715135258e+01     0.461765    0.2900541 -25.73  0.001226808    1.815    0.449
       477 -11.9801     53.1844     70.9684   1.0606557581e+02   5.6360727798e+01    0.3366022    0.2553627  26.83 0.0008783428    1.362    0.266
       478  -9.2183     20.4913     72.5614   1.1869288582e+02   5.9523842984e+01    0.1266465   0.09519681 -31.63 0.0002636602    1.101    0.092
       479 -11.0426     10.1141     70.9644   1.2224697917e+02   6.0608185519e+01    0.2990476      0.24154  88.22  0.001787689    1.826    0.452
       480 -12.4924    242.6887     67.9845   6.3165538836e+01   1.7680633054e+01    0.4080426     0.169108 -46.89  0.001889223    2.046    0.511
       481 -10.4209    106.6669     68.1718   8.8057658713e+01   4.7800367166e+01    0.1945045    0.1781211  54.35  0.001129693    1.159    0.137
       482 -10.2879     86.4958     65.5135   9.3142029728e+01   5.2115912396e+01    0.1367065    0.1229931   6.25 0.0008104309    1.022    0.021
       483 -11.1243     43.9555     64.0195   1.0732601882e+02   5.8794527373e+01    0.4383963    0.1954553 -36.10  0.002036916    2.134    0.531
       484 -12.2531    247.7710     61.8513   6.1411945575e+01   1.7617642485e+01    0.3713865    0.2264231 -53.40  0.002133372    1.370    0.270
       485  -9.4281    139.2874     64.7068   7.8936038336e+01   4.1307832754e+01    0.1378474    0.1086136 -80.81 0.0002261701    1.544    0.352
       486  -9.5077     28.8081     64.2061   1.1317987182e+02   6.0392181240e+01    0.1748609    0.1157078 -24.08 0.0005697092    1.376    0.273
       487  -9.3506     54.3678     62.2759   1.0292997878e+02   5.7773311047e+01    0.1337326   0.08928053  -5.12 0.0007006669    1.677    0.404
       488 -11.0458     11.9697     44.2180   1.1395390995e+02   6.5379757924e+01    0.7721406    0.3419243 -14.47  0.003546295    3.142    0.682
       489 -10.0359    182.2454    249.3408   1.1029336967e+02  -5.1565223603e+00    0.2340432     0.148186  41.86 0.0008952498    1.532    0.347
       490 -11.8514    157.3872    245.5155   1.1482267101e+02  -4.9474882866e-01    0.5507481    0.3866481  14.71  0.002187984    1.667    0.400
       491 -11.1949    154.3094    240.7809   1.1474006279e+02   8.9588173634e-01     0.339346    0.2029377  56.73  0.001052465    2.097    0.523
       492 -10.7774    170.9902    232.6717   1.0989411293e+02  -3.5939368816e-01    0.2152867     0.194033 -33.13 0.0004246916    1.168    0.144
       493 -12.7223     30.7878     38.3602   1.0394272651e+02   6.4548816593e+01    0.7699277    0.5180152  -9.35  0.002198012    1.344    0.256
       494 -11.9709    170.4267    239.6076   1.1115793760e+02  -1.5516848146e+00    0.4996168    0.3624284 -16.41  0.001542568    1.664    0.399
       495 -11.2548    165.8356    240.2029   1.1221624955e+02  -9.0575765095e-01     0.394237    0.2737668 -15.92  0.001376993    1.882    0.469
       496 -11.4556     61.5185    248.3326   1.3504580470e+02   1.3922428601e+01    0.2528607    0.2076308 -87.99 0.0005816228    1.163    0.140
       497 -11.0180     17.5930    247.8203   1.4326856038e+02   1.9482366691e+01    0.3389288    0.1681344 -54.82  0.001386705    2.648    0.622
       498 -12.4132      4.9550     59.5210   1.2136211760e+02   6.3145194749e+01     0.623367    0.3147638  -3.28  0.003437675    2.290    0.563
       499 -11.8992      3.6050     53.2306   1.2021168919e+02   6.4387379929e+01    0.5240878    0.2454894 -50.89  0.002621698    1.725    0.420
       500 -11.5850      9.3876     52.7156   1.1765051372e+02   6.4099070713e+01    0.3892849     0.198609 -28.75  0.001711699    1.750    0.428
       501 -10.6137      8.8306    248.3273   1.4484719681e+02   2.0324760401e+01    0.1924247    0.1460735 -82.80 0.0004106096    1.265    0.209
       502  -9.6414    119.3250    248.0210   1.2318642658e+02   5.2562962838e+00     0.181584    0.1656894  59.95  0.001059075    1.052    0.049
       503 -11.2043     31.4392    246.8185   1.4067432030e+02   1.8099426613e+01    0.2981165    0.2013646  79.54 0.0006993049    1.220    0.180
       504 -12.3270    210.8413    245.8526   1.0402840287e+02  -8.9062875993e+00    0.2971176    0.2403817 -16.47 0.0005413672    1.158    0.136
       505 -10.8952     60.3074     59.8895   1.0002610710e+02   5.7345316093e+01    0.2281727    0.1679395  36.92  0.001331003    1.446    0.309
       506 -12.4786     82.5051     49.1524   8.9023221846e+01   5.5398991754e+01     0.352889    0.3077092 -26.54   0.00222818    1.214    0.176
       507 -11.0812     26.9651     55.3605   1.1123346953e+02   6.2168398360e+01     0.408433    0.1853092  21.32  0.001704398    2.347    0.574
       508  -9.7700    198.3064     55.0453   6.5992439009e+01   2.9152854616e+01    0.1874145    0.1563437 -65.26 0.0004203849    1.112    0.101
       509  -9.8468    250.5286     54.4964   5.9727901805e+01   1.8172728979e+01    0.1240492   0.09790932 -69.30 2.789829e-05    1.020    0.020
       510 -11.2686     45.9619     53.8489   1.0329465638e+02   6.0309745973e+01    0.2789316    0.1891418  13.56  0.001644953    1.458    0.314
       511  -9.7865    221.3317     53.3141   6.2653649139e+01   2.4329333351e+01    0.1174282    0.1012392  36.61 0.0003404399    1.680    0.405
       512 -10.0342    131.4848     52.9911   7.7297104789e+01   4.4828320238e+01    0.1982518    0.1365742 -34.63 0.0006922945    1.574    0.365
       513  -9.5618     63.4530     52.4754   9.6443349312e+01   5.8080881070e+01    0.1303864     0.107878  -0.30 0.0002830271    1.071    0.066
       514 -10.5702    248.5155     50.4976   5.9171680725e+01   1.9146390864e+01     0.123436   0.09766226 -70.70 1.998972e-05    1.026    0.025
       515 -12.0330     50.0343     42.8334   9.7942027456e+01   6.1497830348e+01    0.3730149    0.2181507  22.57  0.001564118    1.686    0.407
       516 -11.5818     48.3234     47.6800   1.0029720022e+02   6.0994609035e+01    0.2574651    0.2148086  21.14 0.0007557038    1.228    0.185
       517 -10.0951     42.1456     49.6873   1.0335689950e+02   6.1465062766e+01    0.2358823    0.1306347 -19.10 0.0007976841    2.038    0.509
       518 -10.5220    137.2114     49.3937   7.5019569105e+01   4.4042768236e+01    0.1946477    0.1231313  67.58 0.0005254414    1.657    0.397
       519  -9.8725     39.0524     57.5089   1.0714238410e+02   6.0520768102e+01    0.1745456    0.1131601  20.14 0.0007273389    1.549    0.354
       520  -9.6050    193.5489     45.9495   6.4562575728e+01   3.1525735819e+01    0.1843857     0.125672 -40.52 0.0005996901    1.544    0.352
       521 -10.3159    246.3000     45.6707   5.8475682329e+01   2.0268736553e+01    0.1301571   0.07361948 -68.04 0.0003003077    1.643    0.391
       522 -11.2779    108.3189     45.0509   8.0387539912e+01   5.0936264886e+01    0.1787412    0.1665168  -6.29 0.0004400281    1.130    0.115
       523 -11.3567    118.2197     41.6949   7.6922852942e+01   4.9272532707e+01    0.2816754    0.2257786  43.96  0.001014205    1.127    0.113
       524 -10.2444    127.4277     40.5328   7.4507827099e+01   4.7403123133e+01    0.3125703     0.178198  28.11  0.001384723    2.466    0.595
       525 -12.2618    248.5378     35.7209   5.6420913791e+01   2.1187385369e+01    0.3272839    0.2848382  53.55  0.002302093    1.675    0.403
       526 -11.1594    239.9705     33.9976   5.6866933971e+01   2.3122130369e+01    0.2004603    0.1133726 -70.47 0.0007372788    1.635    0.388
       527 -11.2821      4.9374     29.3125   1.1206660370e+02   6.8289390629e+01    0.3920413    0.2049613  10.56  0.002451767    1.888    0.470
       528 -11.7141     49.2920     32.5288   9.4432011706e+01   6.3041534004e+01    0.3365293    0.1794647  30.85  0.001872895    1.734    0.423
       529 -12.7034    247.1930     23.4102   5.4300483028e+01   2.3036852081e+01     0.351724    0.2638491  55.96  0.002369635    1.809    0.447
       530 -12.2490    204.6743    231.4654   1.0275914636e+02  -5.5962449416e+00    0.5102078    0.3062485  23.59  0.000628666    1.720    0.419
       531 -12.1802    192.0307    243.9395   1.0743270852e+02  -5.7655724700e+00    0.3854658    0.2659318 -22.01 0.0005453625    1.577    0.366
       532 -10.8584     70.8436     20.0522   8.2276223332e+01   6.1080844482e+01    0.1664457    0.1626169  26.60  0.001222697    1.352    0.260
       533 -11.6123    225.7902    240.0448   1.0016793724e+02  -1.0123313743e+01    0.3043894    0.2279612 -14.53 0.0004156736    1.212    0.175
       534 -12.0260    220.4896    238.8871   1.0097335940e+02  -9.1896945762e+00    0.7520161    0.3883446 -20.51  0.002952478    2.517    0.603
       535 -12.5897    210.6007    237.6603   1.0267296960e+02  -7.5436862025e+00    0.6910946    0.3437866  38.07   0.00337659    1.971    0.493
       536  -9.8670    178.9797     14.7123   5.9213564756e+01   3.8601308821e+01    0.1732931    0.1333995  79.43 0.0003616223    1.074    0.069
       537 -11.3774    202.1930    239.8365   1.0470621830e+02  -6.6374266020e+00    0.2625657    0.2308658  27.19 0.0005103517    1.173    0.148
       538 -12.1824    198.2690    237.7637   1.0513511712e+02  -5.6835482949e+00    0.5007294    0.3309078  22.89  0.001645595    1.477    0.323
       539 -10.4328    124.1719    246.8828   1.2201525266e+02   4.6947045889e+00    0.1927006    0.1762034  44.93 0.0005370872    1.057    0.054
       540 -10.9106    132.9313    245.1554   1.1992550753e+02   3.5989724883e+00     0.236349    0.2230104  51.16 0.0004436261    1.060    0.057
       541 -11.4183    125.4647    239.8055   1.2075845702e+02   5.8906045835e+00    0.4413584    0.2956704  72.99 0.0004610174    1.970    0.492
       542 -11.1164    113.2247    244.3933   1.2399266684e+02   6.9627188951e+00     0.362094    0.2637871 -25.90  0.001401243    2.056    0.514
       543 -11.3574    117.9354    238.8296   1.2223947847e+02   7.3299035618e+00    0.5045083    0.3443249   5.38  0.001986617    2.515    0.602
       544 -10.6690    114.0964    238.9803   1.2308484338e+02   7.9265976241e+00    0.3902785    0.2186611  73.21  0.001555105    3.017    0.669
       545  -9.5525    243.3632    245.2252   9.7822140262e+01  -1.3254398733e+01    0.1424002    0.1014737 -34.95 0.0002870389    1.418    0.295
