#   1 NUMBER                 Running object number                                     
#   2 MAG_AUTO               Kron-like elliptical aperture magnitude                    [mag]
#   3 X_IMAGE                Object position along x                                    [pixel]
#   4 Y_IMAGE                Object position along y                                    [pixel]
#   5 X_WORLD                Barycenter position along world x axis                     [deg]
#   6 Y_WORLD                Barycenter position along world y axis                     [deg]
#   7 A_WORLD                Profile RMS along major axis (world units)                 [deg]
#   8 B_WORLD                Profile RMS along minor axis (world units)                 [deg]
#   9 THETA_WORLD            Position angle (CCW/world-x)                               [deg]
#  10 FWHM_WORLD             FWHM assuming a gaussian core                              [deg]
#  11 ELONGATION             A_IMAGE/B_IMAGE                                           
#  12 ELLIPTICITY            1 - B_IMAGE/A_IMAGE                                       
         1 -14.9057    171.1239     42.9658   7.0275931002e+01   3.7197582041e+01     1.176486     1.052946  -0.85  0.004097253    1.408    0.290
         2 -14.4791    188.9051     14.5726   6.0709723255e+01   3.6398586393e+01     1.435233    0.4226577  62.79  0.004014314    2.710    0.631
         3 -14.8822    187.3824      9.2869   5.9651380382e+01   3.7298570085e+01     3.544411     0.623814  64.92   0.01081334    3.945    0.746
         4 -11.8759    125.0487    244.1087   1.2481405388e+02   5.8391333181e+00    0.2330543    0.1765317 -59.11 0.0005413517    1.488    0.328
         5 -12.7937    198.0322    245.7776   1.1029177628e+02  -6.5404276110e+00    0.3846168    0.2358741  48.41  0.001739236    1.839    0.456
         6 -12.6180    191.7378    249.4198   1.1211288460e+02  -6.1172054381e+00    0.4198401    0.2126981  43.10  0.001920185    1.868    0.465
         7 -10.8484    175.7900    250.4153   1.1542521273e+02  -3.7133473246e+00    0.1833074    0.1083976  29.42 0.0004356952    1.599    0.375
         8 -11.0699    139.3472    248.4824   1.2248947627e+02   2.6512981220e+00    0.4207211    0.2616995 -62.65  0.002218508    1.976    0.494
         9 -14.1773    100.4251    245.1817   1.2994287474e+02   9.6155352185e+00    0.9250581    0.8080994  74.74   0.00604341    1.088    0.081
        10 -19.4376     59.6267    158.1656   1.2740575696e+02   3.5624353231e+01     19.70168     6.142494 -66.11   0.06560198    3.280    0.695
        11  -9.9567    113.6989    208.5920   1.2219527693e+02   1.5113341891e+01    0.2136182     0.158596  80.99 0.0002993666    1.519    0.341
        12 -11.1267     30.6931    205.1314   1.3997429018e+02   2.7876508690e+01    0.1504378   0.08629185  25.28  0.000774316    2.408    0.585
        13 -16.1154     88.0092    182.0625   1.2406790985e+02   2.5607416351e+01     7.122142     2.438095 -41.10   0.01524118    8.952    0.888
        14 -11.2729     38.7214    199.7988   1.3776685733e+02   2.8178684534e+01    0.5078263    0.2664132  23.23  0.002396716    2.833    0.647
        15  -9.8806    125.5116    238.9788   1.2403006967e+02   6.7487248122e+00    0.2432662    0.1101945 -41.49 0.0009690468    3.219    0.689
        16 -10.6449    120.9741    197.1047   1.1867725968e+02   1.6418253257e+01    0.2103979    0.1959513  59.90 0.0003243034    1.034    0.033
        17 -11.1296    169.7099    195.5813   1.0730758783e+02   7.5949218523e+00    0.2384472    0.1811343 -72.96  0.000548943    1.716    0.417
        18 -12.0897    159.0274    195.2342   1.0961269533e+02   9.7108903247e+00    0.3154643    0.2701119 -39.33   0.00103272    1.221    0.181
        19  -8.3726      8.9059    195.1507   1.4357245511e+02   3.2348307890e+01    0.1576754    0.1125302 -64.26  0.001021325    1.404    0.288
        20 -11.5703    180.5651    193.2050   1.0448734798e+02   6.0132344972e+00    0.2846318    0.2387359  75.67  0.001209288    1.504    0.335
        21 -11.6188    175.4902    186.6343   1.0428963607e+02   8.3465726589e+00    0.3303007    0.2483188 -89.89  0.001503737    1.983    0.496
        22 -11.9261    164.3405    186.9749   1.0682894489e+02   1.0452059747e+01    0.3481155    0.2098313  56.13  0.001460061    1.963    0.491
        23 -11.5366    116.2340    183.6026   1.1745903697e+02   2.0410212299e+01    0.5333965    0.2449481 -45.68  0.001586124    2.405    0.584
        24  -9.8438    242.3031    184.6742   9.0618860309e+01  -3.4410126232e+00     0.125514     0.105102 -67.53 0.0003590398    1.642    0.391
        25 -11.9356    189.0685    176.7916   9.9352178333e+01   7.7317658568e+00    0.7284483    0.4045016 -62.70  0.002689013    2.831    0.647
        26 -11.2217    185.1244    169.7395   9.8707870167e+01   9.9885771731e+00    0.4541152    0.2698223 -56.11  0.001278557    1.936    0.484
        27 -11.9336    204.3601    175.1771   9.5854582583e+01   5.0848480129e+00    0.4430726    0.3737423 -68.41  0.001469521    1.435    0.303
        28 -11.6791    196.3795    175.3452   9.7519396728e+01   6.5944759330e+00    0.4221402    0.3669577 -89.86   0.00173301    1.445    0.308
        29 -11.9917    230.5519    167.4837   8.9231630555e+01   1.6842325284e+00      0.45147    0.1773988 -51.18  0.001571796    3.187    0.686
        30 -12.0342    170.6058    178.8889   1.0380174993e+02   1.0955028255e+01     0.597335    0.3616959  74.04  0.002003344    3.579    0.721
        31 -11.3103    162.2860    167.5998   1.0332772284e+02   1.5115595531e+01    0.3098336    0.1452656  47.27  0.001144239    2.190    0.543
        32 -11.5573    192.3972    164.5383   9.6050536417e+01   9.6068021008e+00    0.4666261    0.2899688 -55.00  0.001498891    1.785    0.440
        33 -11.6723    131.7716    159.3951   1.0889625624e+02   2.3210322517e+01    0.2956285     0.256191 -34.55 0.0007889175    1.248    0.199
        34  -9.9455    150.8270    243.8393   1.1949037650e+02   1.5665339623e+00    0.1679327    0.1430924  62.90 0.0004045254    1.245    0.197
        35 -12.1616    189.2756    154.8224   9.4575749537e+01   1.2284360166e+01    0.5487943     0.531306  27.26  0.002319292    1.067    0.063
        36 -11.5951    125.9833    140.0106   1.0608291912e+02   2.8967633752e+01    0.2933764    0.2370054  60.26 0.0008414099    1.328    0.247
        37 -14.2598    133.9119    145.9579   1.0541113724e+02   2.5955529218e+01     1.698535    0.5542369 -56.47  0.004542697    4.197    0.762
        38 -13.7643    135.9213    128.7057   1.0083232829e+02   2.9539935225e+01     2.393848    0.4136546 -50.74  0.004520559    8.115    0.877
        39 -12.0210    134.5702    109.5574   9.6311327421e+01   3.4076303968e+01     1.200683    0.1611996 -45.45  0.002390434    7.446    0.866
        40 -12.9628    151.9300    151.5806   1.0225038159e+02   2.0898271321e+01    0.6545671    0.4235576 -88.98   0.00202529    2.903    0.655
        41 -14.5259    144.2761    144.9598   1.0259930853e+02   2.4034857682e+01     1.344178    0.7483866 -66.27  0.004726902    2.650    0.623
        42 -12.3423    164.4114    152.6886   9.9572785416e+01   1.8003541694e+01    0.4114679    0.3544954  72.44  0.001078571    1.288    0.223
        43 -11.2863    174.4658    148.7320   9.6404462338e+01   1.6729191018e+01    0.3565001    0.2917771 -78.95  0.001061432    1.455    0.313
        44 -12.3510    160.5023    127.6756   9.4597493497e+01   2.4404552333e+01    0.5087453    0.3765899 -71.65  0.001548735    1.657    0.396
        45 -11.6634    168.4368    113.5575   8.9295273654e+01   2.5616040582e+01    0.4523859    0.3335955 -78.49 0.0008895925    1.749    0.428
        46 -13.3484    119.0013    110.0623   1.0055821165e+02   3.7246426814e+01    0.6569149    0.4610757  77.48  0.002749542    2.160    0.537
        47 -10.9079    205.2310    110.3407   8.1167057964e+01   1.7888615299e+01    0.3484782    0.2420567  44.52   0.00106589    1.597    0.374
        48 -10.7590    168.0106    242.8709   1.1583338736e+02  -1.1565884450e+00    0.2131636    0.1897752 -39.00 0.0008574536    1.267    0.211
        49 -10.6612    109.0340    240.6916   1.2765479281e+02   9.1284882412e+00    0.2351663    0.1671143 -33.55  0.001236914    2.113    0.527
        50 -10.9745    131.1201    236.8172   1.2256178447e+02   6.2234250783e+00    0.1959045    0.1763063 -77.52 0.0002976281    1.212    0.175
        51 -13.1082    175.9366    231.1391   1.1232649942e+02  -4.3326127191e-01    0.6199798    0.2431976 -45.12  0.002529899    2.780    0.640
        52 -10.4418    133.3206    228.8130   1.2093840129e+02   7.4253370549e+00    0.2048866    0.1672435 -89.42 0.0005594413    1.396    0.284
        53 -10.4451    147.9273     81.4847   8.5403371819e+01   3.6646642959e+01    0.2281927    0.1434852  51.13 0.0005967583    1.547    0.353
        54 -10.4965     91.6858     78.9080   9.9705302605e+01   4.8926407901e+01    0.2210361    0.1839618  18.85 0.0002904729    1.220    0.180
        55  -9.5710    117.4821     78.4490   9.2114788734e+01   4.3965408235e+01    0.1455508    0.1376035  15.30 0.0008078548    1.040    0.039
        56 -14.5190    158.2515     57.7050   7.6577341273e+01   3.8171913381e+01     1.342705     1.156806  60.73 0.0009276603    1.085    0.078
        57 -10.3094    112.4322    214.6690   1.2339292531e+02   1.3990891866e+01    0.2096094    0.1509663 -80.41 0.0005047526    1.552    0.355
        58 -10.7441     13.4572     59.6555   1.2182826732e+02   6.2382058911e+01    0.1982616    0.1561135 -36.86 0.0004485141    1.039    0.038
        59 -10.0142    134.1248    208.5830   1.1758793283e+02   1.1492923659e+01    0.2435468    0.1866521 -71.12 0.0007562662    1.458    0.314
        60 -12.9628    175.5613     35.7572   6.7701393830e+01   3.7077013308e+01    0.3761306    0.3543579  16.90  0.000970835    1.315    0.239
        61 -10.2705    133.6573    246.3393   1.2335441122e+02   3.9905099222e+00     0.143549    0.1231574 -48.67 0.0002967016    1.362    0.266
