#   1 NUMBER                 Running object number                                     
#   2 MAG_AUTO               Kron-like elliptical aperture magnitude                    [mag]
#   3 X_IMAGE                Object position along x                                    [pixel]
#   4 Y_IMAGE                Object position along y                                    [pixel]
#   5 X_WORLD                Barycenter position along world x axis                     [deg]
#   6 Y_WORLD                Barycenter position along world y axis                     [deg]
#   7 A_WORLD                Profile RMS along major axis (world units)                 [deg]
#   8 B_WORLD                Profile RMS along minor axis (world units)                 [deg]
#   9 THETA_WORLD            Position angle (CCW/world-x)                               [deg]
#  10 FWHM_WORLD             FWHM assuming a gaussian core                              [deg]
#  11 ELONGATION             A_IMAGE/B_IMAGE                                           
#  12 ELLIPTICITY            1 - B_IMAGE/A_IMAGE                                       
         1 -10.4579     38.9683      7.3476   7.3541124400e+01   6.9665850787e+01    0.9864703    0.3499169 -26.52  0.004301163    3.018    0.669
         2 -10.4667     50.2342     37.0620   8.1889348070e+01   6.3782489982e+01    0.7971533    0.6326322  79.81  0.004118262    2.803    0.643
         3 -10.6890     39.6179     29.5176   8.3602564977e+01   6.6402337252e+01    0.5940444    0.3050638 -42.88  0.003026638    1.904    0.475
         4 -11.9122     44.9156     22.5823   7.8089801627e+01   6.6787951531e+01    0.9753038    0.8265141 -45.90  0.006212044    1.667    0.400
         5 -11.3918    128.5892     15.0523   4.8274663905e+01   5.0874184243e+01    0.9369473    0.7297943 -27.66  0.005232708    1.442    0.307
         6 -11.9238    115.7188      4.3523   4.7041140928e+01   5.4916600578e+01     2.581557    0.5392982  65.25  0.007330198    5.036    0.801
         7 -11.9495     84.1955      3.8244   5.4564270750e+01   6.2011277111e+01      2.01561     1.059518   9.37  0.009450912    2.434    0.589
         8 -11.5555    155.6442     20.8673   4.5290809775e+01   4.3572628286e+01    0.8499954    0.4898391  60.38  0.002841824    1.513    0.339
         9 -13.6667    166.3652     11.5750   4.0925671745e+01   4.1830711763e+01     3.183327      1.71683  69.33   0.01537448    1.627    0.385
        10 -10.7825    115.1684     16.9783   5.1860100632e+01   5.3891773058e+01    0.6715465     0.591747 -76.67  0.004022804    1.393    0.282
        11  -9.1226     93.8773     16.9842   5.7367867346e+01   5.8690353712e+01     0.457037     0.281637  77.87  0.001982808    2.895    0.655
        12 -10.1202    247.9358     16.8535   3.3921288366e+01   2.2225901993e+01    0.4176961     0.310195  11.02  0.002411494    2.429    0.588
        13 -10.2707    249.0406      3.6971   3.1190077501e+01   2.3445205445e+01    0.4501133    0.3218365  -8.82  0.002735222    2.256    0.557
        14  -9.7793     69.9308     13.9579   6.3784270153e+01   6.3832094674e+01    0.3481412    0.2634851  -9.71  0.002134112    1.277    0.217
        15  -8.9857     20.6856     13.7613   8.6237795980e+01   7.0958751312e+01    0.4585127    0.1941311 -26.36  0.002223187    2.423    0.587
        16  -9.6531    104.5300     12.5536   5.2724866669e+01   5.6782918224e+01    0.4374719    0.2926696 -11.56  0.002368818    1.667    0.400
        17 -11.0364     60.3897      4.8897   6.3032324222e+01   6.6529265195e+01    0.7851207      0.47323 -21.80  0.004536499    1.676    0.403
        18  -8.1215     52.2970      1.9273   6.4762566849e+01   6.8221999929e+01    0.3098006    0.1431467  38.69  0.001609485    1.855    0.461
        19 -10.0198     71.4428      5.7210   5.9439507218e+01   6.4401735130e+01    0.4907447    0.3299144  44.37  0.002015137    1.324    0.245
        20  -9.8368    203.7961      4.0214   3.4756161247e+01   3.3434813430e+01    0.2675313    0.2470241 -78.20  0.001823717    1.146    0.127
        21 -11.1543    131.3215      3.6000   4.3814591627e+01   5.1230788065e+01     1.415871    0.2863261  63.34  0.004597633    3.639    0.725
        22  -8.6713     17.4949      2.4942   8.2414474006e+01   7.2895470878e+01    0.2605684    0.1788824 -50.98  0.001585194    2.469    0.595
        23  -9.4921    218.3134      2.4576   3.3151847868e+01   3.0231315088e+01    0.3045686    0.1097353  78.39  0.001302158    2.646    0.622
        24  -7.3499      1.2922      1.3383   9.1794619590e+01   7.4449240545e+01    0.1176089   0.05970779 -22.45 0.0003889139    1.646    0.392
        25  -9.0525     45.0604     63.4205   9.3435840508e+01   5.9445003403e+01    0.4906634    0.1752406 -43.32  0.001978089    2.442    0.591
        26  -8.3557     16.0066     59.1717   1.0457205483e+02   6.2898740577e+01    0.3960461   0.06623863 -51.23  0.001449625    3.296    0.697
        27  -8.8105     76.1056     59.3071   7.9881988045e+01   5.5875934647e+01    0.3494453    0.1757403 -33.42  0.001487872    2.046    0.511
        28  -9.6876    198.5693     56.2757   4.8565332568e+01   2.8322194865e+01    0.4096615    0.2828688  62.25  0.001638616    1.423    0.297
        29  -9.0029     66.1262     53.3415   8.1537248496e+01   5.8601942870e+01    0.3940171     0.187116 -49.57   0.00166097    2.403    0.584
        30  -8.0678     35.2666     53.0173   9.4330714775e+01   6.2603260784e+01    0.1854725    0.1448859 -37.12 0.0008379445    1.096    0.087
        31  -8.0787     23.5198     52.5295   9.9418233449e+01   6.3747715352e+01    0.1258549    0.1012325 -34.31 5.836811e-05    1.013    0.013
        32  -9.2047     80.6997     36.9748   6.9800264080e+01   5.8816508064e+01    0.4007509    0.3467886  41.25  0.002386313    1.260    0.206
        33 -10.0560     82.6174     47.5121   7.3226537636e+01   5.6804195002e+01    0.5510452     0.441884  30.23  0.002869847    1.186    0.156
        34  -7.1643     96.2894     47.3353   6.8564459768e+01   5.4156613372e+01    0.1476093    0.1045455   8.90 0.0007020287    1.633    0.388
        35 -10.2048      3.1746     40.7526   1.0555031963e+02   6.7395667173e+01    0.4147986    0.3665946 -73.19  0.002493808    1.432    0.302
        36  -9.0102     11.7629     34.1856   9.9236283772e+01   6.8184772425e+01    0.4579279    0.1616644 -47.78  0.002055487    2.097    0.523
        37  -9.0733      5.6491     35.3533   1.0272541258e+02   6.8326106807e+01     0.292715    0.2057049  28.54  0.001936977    1.803    0.445
        38  -9.2919    183.6375    246.3515   9.3011204996e+01  -2.2184908864e+00    0.1813911    0.1433588  54.87  0.001124537    1.678    0.404
        39 -10.4446    172.7062    242.4506   9.4607642461e+01   4.5264151046e-02    0.4572433    0.2042147  22.13  0.001792656    3.210    0.688
        40  -8.8196    158.7662    239.4043   9.6990560728e+01   2.7210453379e+00    0.1908716    0.1044247  28.99 0.0009548198    1.685    0.406
        41 -10.5401    203.9449    226.1774   8.5814688052e+01  -2.3982783069e+00    0.3455555    0.1556518  37.88  0.001632257    1.980    0.495
        42  -8.7785     67.9902     35.8742   7.4062512224e+01   6.1255542407e+01    0.5345015    0.1837677  45.17  0.002012343    3.179    0.685
        43  -7.8946     34.1662     35.1282   8.8473448073e+01   6.6078524257e+01     0.155951    0.1403055 -32.89  0.001055403    1.318    0.241
        44  -7.7833     27.9964     34.9982   9.1403302054e+01   6.6728975036e+01    0.1528474    0.1204868 -20.40  0.001002245    1.010    0.010
        45  -9.4341     86.0196     31.6938   6.5844870176e+01   5.8536881914e+01    0.2932862      0.25692  17.35  0.001206073    1.025    0.025
        46 -10.4919     90.0880     28.1901   6.3102029318e+01   5.8175732801e+01     0.572512    0.4833023 -79.03  0.003208653    1.808    0.447
        47  -9.3939     66.7235     29.6081   7.1934404649e+01   6.2402450942e+01    0.3155438    0.1894897 -16.50  0.001592282    1.787    0.440
        48 -10.2286    225.2407     28.7132   3.8476392767e+01   2.5751823835e+01    0.4910632    0.3294331  66.76  0.002131619    1.470    0.320
        49  -8.1973    239.3239    202.9993   7.4955848353e+01  -4.4047893398e+00    0.2102895   0.08786435 -18.71 0.0007047392    4.271    0.766
        50 -11.3640     10.2064    139.4047   1.1949367619e+02   4.4609169035e+01    0.5482139    0.3274287 -65.70  0.003169898    1.385    0.278
        51 -12.5863    241.5851    132.3480   6.0064665095e+01   6.4770415018e+00     1.406259       1.1797  37.53  0.005682025    1.316    0.240
        52  -8.1157     41.6930    141.6646   1.1108772954e+02   4.1359364615e+01    0.1378809   0.09170354 -41.91 0.0007041163    1.672    0.402
        53  -9.5552     21.2209    108.9484   1.1247312557e+02   5.1157053518e+01    0.3670287    0.2237457 -61.69   0.00202698    1.334    0.250
        54  -8.9740     17.4505    104.9154   1.1308250247e+02   5.2386204030e+01    0.3304232    0.1708649 -56.29  0.001719529    1.551    0.355
        55  -8.4306     97.4174     27.5054   6.0587816794e+01   5.6718080304e+01    0.3146113    0.1356137 -21.54  0.001243744    2.809    0.644
        56  -9.1364    132.4012     26.5973   5.1481276591e+01   4.8720595514e+01    0.3047103    0.1875017  44.22  0.001476417    1.517    0.341
        57  -8.0647      8.0149     19.5131   9.5846386372e+01   7.1070117540e+01    0.1928303    0.1437642  79.62  0.001039378    3.521    0.716
        58  -9.0053     30.1279    102.2248   1.0839380303e+02   5.2078325167e+01    0.3782904    0.1970095 -31.93  0.001745157    2.291    0.563
        59  -8.6220     46.6256     99.5133   1.0216967029e+02   5.1156300407e+01    0.2921193     0.170871 -23.50   0.00131345    2.245    0.555
        60  -9.4278      2.3592     86.9978   1.1547898713e+02   5.7428055907e+01    0.7757291     0.161843 -69.95   0.00272731    3.756    0.734
        61  -9.4412     64.9425     16.2124   6.6677724078e+01   6.4475252136e+01    0.2866707    0.1996951  55.86   0.00128693    1.902    0.474
        62  -9.9802     25.0616     65.7112   1.0240025103e+02   6.0856763312e+01    0.6149736    0.1974556 -50.05   0.00262631    2.316    0.568
        63 -10.9479      5.0341     76.6363   1.1278951801e+02   5.9663743441e+01    0.6994246    0.4630544  56.74  0.004101976    2.052    0.513
        64 -11.3183     14.4799     73.1452   1.0844453425e+02   5.9944638985e+01    0.8834606    0.6381861  41.82  0.005435029    1.766    0.434
        65  -8.6661    103.5496     26.1653   5.8311456397e+01   5.5539296379e+01    0.2934941    0.1747925  44.92  0.001445715    1.480    0.325
        66  -7.8458     83.4886     89.5051   8.6836931021e+01   4.8416925337e+01    0.1471061    0.1386131 -26.08 0.0008104371    1.025    0.024
        67 -11.9152     42.9182     81.3488   9.9278708749e+01   5.5775419504e+01     1.073727    0.7365452   1.45   0.00575508    1.699    0.411
        68  -8.4843     77.4884     78.4929   8.5665378243e+01   5.1800623761e+01    0.1446007    0.1334782 -20.32 0.0008104378    1.022    0.022
        69  -8.9275    227.5884     79.4454   5.0085103603e+01   1.8066488525e+01    0.4079005    0.2541097 -21.12  0.001883521    1.994    0.499
        70  -8.1015    138.4097     79.7900   6.7417522931e+01   3.9137171594e+01    0.2112228    0.1492913 -24.16 0.0005276079    1.594    0.373
        71 -10.0940     74.3194     69.5513   8.3993295829e+01   5.4170162590e+01    0.4570235    0.3522893  54.09   0.00236787    1.671    0.402
        72  -8.9397     83.5229     68.5223   8.0360937889e+01   5.2822178126e+01     0.316083     0.251839  -6.50   0.00166034    1.308    0.236
        73  -8.0829     22.0175     23.0135   8.9643881532e+01   6.9361126042e+01    0.2692948    0.1328229   4.69  0.001341494    2.441    0.590
