#   1 NUMBER                 Running object number                                     
#   2 MAG_AUTO               Kron-like elliptical aperture magnitude                    [mag]
#   3 X_IMAGE                Object position along x                                    [pixel]
#   4 Y_IMAGE                Object position along y                                    [pixel]
#   5 X_WORLD                Barycenter position along world x axis                     [deg]
#   6 Y_WORLD                Barycenter position along world y axis                     [deg]
#   7 A_WORLD                Profile RMS along major axis (world units)                 [deg]
#   8 B_WORLD                Profile RMS along minor axis (world units)                 [deg]
#   9 THETA_WORLD            Position angle (CCW/world-x)                               [deg]
#  10 FWHM_WORLD             FWHM assuming a gaussian core                              [deg]
#  11 ELONGATION             A_IMAGE/B_IMAGE                                           
#  12 ELLIPTICITY            1 - B_IMAGE/A_IMAGE                                       
         1 -19.4295    188.0101    130.0226   8.5061709175e+01   1.8221695750e+01     8.607664     8.208655  -2.72   0.04818903    1.010    0.009
         2 -11.2808     13.2887     14.5476   1.0380360837e+02   7.1281151661e+01    0.2399045    0.1607662 -40.43  0.000623094    1.217    0.178
         3 -12.7565    239.1228     16.0559   4.8133273075e+01   2.3664437700e+01    0.2678675    0.2532832 -39.49  0.001788644    1.171    0.146
         4 -14.0080    238.6561      5.0444   4.5576725943e+01   2.4930447062e+01    0.8380882     0.574293  44.00  0.004760201    1.856    0.461
         5 -12.7891    245.0771      9.3390   4.6090499156e+01   2.3053972697e+01    0.3479991    0.2585767 -81.09  0.002035759    1.266    0.210
         6 -12.5525    248.6008      4.5680   4.4753004462e+01   2.2775014668e+01    0.5478477    0.3147856 -40.72  0.002658652    1.509    0.338
         7 -11.0245    100.9719      9.2035   6.6375202197e+01   5.8154792437e+01    0.2103054    0.1781727  -0.56 0.0003141833    1.150    0.131
         8 -12.0948    178.6456      5.7252   5.1419489218e+01   3.9409147186e+01    0.2534751     0.239217 -28.59 0.0002761039    1.154    0.133
         9 -11.9283    224.2729      4.9741   4.6688381045e+01   2.8247775464e+01    0.1804008    0.1575027 -53.72 0.0004439872    1.088    0.081
        10 -11.3732    202.0145      3.9768   4.8417435108e+01   3.3710421345e+01    0.1996979    0.1792483 -84.81 0.0003365018    1.007    0.007
        11 -11.2432    208.0175      1.7675   4.7271850491e+01   3.2447148082e+01    0.1989167    0.1736002 -87.10  0.000642585    1.037    0.036
        12 -10.3857     93.9011      2.1570   6.5076083897e+01   6.0361765477e+01    0.1798576    0.1737959  19.47 0.0004585515    1.186    0.157
        13 -10.3728     26.0151      1.3798   9.0424049418e+01   7.2060476596e+01    0.1493325   0.09938574  23.61 0.0009737994    1.507    0.336
        14 -12.1282    234.4197    235.5407   9.7004030148e+01  -5.9387782995e+00    0.2324561    0.1862777  21.93  0.001699132    1.176    0.150
        15 -13.2658    243.8380    246.1127   9.7090920368e+01  -8.3633884219e+00    0.6414709    0.3925284  14.49  0.004297925    1.387    0.279
        16 -13.7704    232.2048    248.8695   9.9415362711e+01  -7.0573525233e+00    0.7089902    0.2776555  39.39  0.003793566    2.139    0.532
        17 -14.0854    234.6581    242.9812   9.8120737277e+01  -6.7789563779e+00     1.825149    0.5212093  29.56  0.006737563    4.405    0.773
        18 -12.3832    202.4052    250.2401   1.0464382287e+02  -2.9532517921e+00    0.3747067    0.1336093  38.65  0.001853471    2.195    0.544
        19 -12.3372    192.7841    233.0297   1.0386769605e+02   6.2292606473e-01    0.3443175    0.2075856 -30.25  0.001513266    1.969    0.492
        20 -11.6263    245.6881    233.7155   9.4842178793e+01  -7.3276238001e+00     0.199069     0.132364  12.25 0.0006146748    1.239    0.193
        21 -12.6524    175.5569    230.4687   1.0663368031e+02   3.6957138213e+00    0.4063613    0.3192949 -13.21    0.0026769    1.506    0.336
        22  -9.9131     58.2980    233.3389   1.2863416990e+02   2.0437673991e+01   0.09153701   0.08560888 -41.83 0.0005775813    1.660    0.398
        23 -10.6978    249.8486    232.1520   9.3908181477e+01  -7.7361377730e+00    0.1614834    0.1356141  11.39  0.000774774    1.274    0.215
        24 -10.7518    144.8295    231.0853   1.1244336429e+02   8.4966846717e+00    0.1788563    0.1407649  56.42 0.0004074188    1.249    0.199
        25 -10.5510     81.3453    230.6394   1.2426225821e+02   1.7957005580e+01    0.2046044    0.1379343  18.57 0.0006858336    2.443    0.591
        26 -10.2144     69.1895    230.1807   1.2644107935e+02   1.9632875202e+01    0.1566975    0.1318829  57.35 0.0004289755    1.171    0.146
        27 -11.0899    184.1290    228.7655   1.0480927315e+02   2.5637285106e+00    0.2111651    0.1657961   1.29  0.001042894    1.385    0.278
        28 -12.4088    197.2674    226.5889   1.0208503261e+02   7.6591660275e-01    0.3358173    0.2423331  27.75  0.001480658    1.141    0.123
        29 -11.5259    203.0585    225.6210   1.0088942171e+02  -2.2571815991e-02    0.2671354    0.1930511  14.98 0.0004533969    1.296    0.228
        30 -10.7590    206.4152    221.8308   9.9683425252e+01  -5.7080561517e-02    0.2634822    0.1594467  11.73  0.001408777    1.964    0.491
        31 -12.6647    233.3822    225.7470   9.5601695023e+01  -4.6769917754e+00    0.2248737    0.1794265   7.33 0.0004940949    1.085    0.078
        32 -10.4936    149.4985    227.0631   1.1103791069e+02   8.3774630940e+00    0.1621002    0.1231026 -48.71  0.001034582    1.596    0.373
        33 -13.8029    247.0787    220.8669   9.2488215208e+01  -6.1096505569e+00     0.344131    0.2501953  -2.10 0.0008679598    1.184    0.156
        34 -11.5915    175.5904    220.7308   1.0519726751e+02   5.0933973858e+00    0.2285102    0.1862059 -87.92  0.001393014    1.909    0.476
        35 -10.5326    223.2566    223.5628   9.6984368334e+01  -2.8981795821e+00      0.16925   0.09281661  28.45 0.0009417539    1.577    0.366
        36 -12.2499    182.3880    221.9427   1.0410648317e+02   3.8034692976e+00    0.2851014    0.2192266  12.22  0.001266673    1.335    0.251
        37 -12.1988    130.4482    219.4691   1.1370493297e+02   1.2652386817e+01    0.2841659      0.21448 -29.00  0.001716564    1.843    0.457
        38  -9.9797     15.4896    223.5396   1.3545148825e+02   2.6876952501e+01    0.1051853   0.07470391  70.69 0.0001595971    1.004    0.004
        39 -11.9219     91.0949    219.0814   1.2131403847e+02   1.8666065805e+01    0.2070139    0.1680352  77.19 0.0002776649    1.156    0.135
        40 -11.9906     92.9621    214.5939   1.2047656625e+02   1.9220001043e+01    0.3310249     0.245519  36.75  0.001889938    1.381    0.276
        41 -12.8426    214.8102    216.0959   9.7236596457e+01  -6.3889452509e-01    0.5539976    0.3697199  19.59  0.003325742    1.371    0.270
        42 -13.4012    220.8378    207.8511   9.4750027008e+01  -5.1673763564e-01    0.3829885     0.293638  21.50  0.000770569    1.086    0.079
        43 -11.3903    170.8825    217.6778   1.0562919183e+02   6.3282453107e+00     0.250107    0.1904853  43.65  0.001473696    1.186    0.157
        44 -10.7637    121.2179    217.9733   1.1531989555e+02   1.4363282265e+01    0.2292978    0.1822378 -84.34 0.0008756663    1.448    0.310
        45 -12.4611    124.5331    215.2497   1.1432352608e+02   1.4315577768e+01    0.3747104    0.2803597  50.71  0.001775128    1.151    0.131
        46 -12.4704    205.7594    215.0983   9.8702474297e+01   9.4785589729e-01    0.3263615    0.2466789  53.24 0.0004017533    1.672    0.402
        47 -11.8771    142.9420    215.9008   1.1078394064e+02   1.1234539503e+01    0.2537756    0.2370944  55.42 0.0007277026    1.118    0.106
        48 -11.7707    138.0205    215.8631   1.1174522746e+02   1.2043931265e+01    0.2472748    0.1856957  51.60 0.0007141705    1.201    0.168
        49 -11.5558     58.8056    216.2864   1.2721991529e+02   2.3467931718e+01    0.3095083    0.2490107  14.54  0.001821233    1.939    0.484
        50 -11.1430    234.9469    215.1333   9.3550505615e+01  -3.6469154962e+00    0.2793775    0.1791689  14.13  0.001144545    1.452    0.311
        51 -16.5566    148.4874    194.8085   1.0651042854e+02   1.3944147493e+01     4.151381     1.682392  51.51   0.01609467    2.828    0.646
        52 -16.3116    230.9930    122.3358   7.5267550930e+01   1.0464514466e+01     2.204167      1.84092 -85.66   0.01189861    1.690    0.408
        53 -16.0113    218.8921    104.4034   7.2950711284e+01   1.5926645417e+01     1.901691      1.20464 -47.96  0.008089907    1.682    0.405
        54 -15.9533    171.5150    156.0768   9.4419216982e+01   1.6790820518e+01     2.226525     1.055746  29.48  0.007933714    2.951    0.661
        55 -16.8019    209.1050    140.0833   8.3284194104e+01   1.2003942466e+01     2.320987      1.52294   7.68   0.01028726    2.084    0.520
        56 -10.5910     30.1292    249.0652   1.3431679233e+02   2.0970163652e+01    0.1386175    0.1121673  74.12 0.0004309838    1.234    0.189
        57 -12.9319    101.6628    149.9975   1.0945689395e+02   3.1196203392e+01    0.5506181    0.3347901  71.43  0.002340847    2.388    0.581
        58 -11.0426     67.3168    157.1158   1.1904129180e+02   3.4696470433e+01    0.2064311    0.1473146 -51.64  0.001158321    1.502    0.334
        59 -10.8691     82.0174    155.9624   1.1529709805e+02   3.2917026283e+01    0.1965137    0.1810857 -88.89 0.0003152328    1.044    0.042
        60 -11.4592     78.3101    155.9872   1.1620582541e+02   3.3445781880e+01    0.2312952     0.198949 -86.92 0.0003550458    1.067    0.063
        61 -13.4145     80.4043    150.0497   1.1476313022e+02   3.4491462855e+01    0.4040318    0.2978426 -70.27 0.0008605994    1.292    0.226
        62 -12.5583    146.4399    208.2642   1.0899912686e+02   1.1941173073e+01    0.4154448    0.3392249 -27.76  0.002566973    1.497    0.332
        63 -12.0732     90.3465    150.2340   1.1231109445e+02   3.2957758381e+01    0.4187469    0.2055219 -46.97  0.001797999    2.225    0.551
        64 -11.0534     72.0446    152.1440   1.1716828369e+02   3.5191047508e+01    0.1918935     0.169853 -50.97 0.0003429092    1.259    0.205
        65 -11.0066     42.0751    149.6388   1.2421759959e+02   3.9400743103e+01    0.2222202    0.1469407 -86.61 0.0009026667    1.383    0.277
        66 -11.4432     57.4548    145.8424   1.1990135211e+02   3.8520356990e+01    0.3701213      0.20546  58.30  0.001415197    1.998    0.499
        67 -10.8369    101.5969    194.6770   1.1634809402e+02   2.1741165580e+01    0.2482895    0.1396227  43.54 0.0007069967    1.593    0.372
        68 -12.7014     98.7863    140.0986   1.0833878577e+02   3.3905978973e+01    0.6071131     0.187738  41.29  0.001389435    3.180    0.686
        69 -10.2812     11.6822    207.7208   1.3530722562e+02   3.0174978295e+01   0.08938847   0.07602531 -64.22 0.0002086487    1.577    0.366
        70 -11.5230     71.1444    137.8286   1.1513283375e+02   3.8613280947e+01    0.3535887    0.1880186  56.77  0.001572459    2.246    0.555
        71 -10.7372     41.9903    138.4611   1.2283971563e+02   4.1978265862e+01     0.168253     0.126623  29.95  0.001017115    1.577    0.366
        72  -9.6032     32.7152    136.2992   1.2495237225e+02   4.3403455827e+01    0.1245898   0.08180827  74.24 0.0002333309    1.550    0.355
        73 -12.9564    117.8943    192.1122   1.1253216999e+02   1.9654139407e+01    0.5578725    0.3277609  33.44  0.002795053    1.771    0.435
        74 -11.8784     69.0486    129.1982   1.1420443852e+02   4.0913905912e+01    0.3638443    0.1969421 -55.63  0.001729415    1.680    0.405
        75 -10.9963     93.1208    128.8792   1.0760560467e+02   3.7406863201e+01    0.2150296    0.1852106 -88.55 0.0004150707    1.204    0.169
        76 -11.3895     87.5980    128.2213   1.0896421245e+02   3.8440183550e+01    0.2871494    0.2050815 -31.93  0.001412781    1.743    0.426
        77 -11.4914     77.2200    128.2636   1.1179956047e+02   3.9992108726e+01    0.4272547    0.1939695  28.31  0.001694783    2.847    0.649
        78 -16.3748    192.9036    199.0480   9.8363608549e+01   5.4236926482e+00     3.446629     1.898931 -39.73   0.01536429    2.009    0.502
        79 -12.0556     94.2370    124.0515   1.0629519401e+02   3.8336667162e+01    0.3214365    0.2546658  33.13  0.001701576    1.377    0.274
        80 -10.6243     63.8181    122.3107   1.1441325572e+02   4.3221447069e+01    0.2141675     0.164882 -72.32 0.0003475335    1.204    0.170
        81 -10.8490    226.9459    190.7465   9.0552763245e+01   8.0726167408e-01     0.251919    0.1954435 -22.56   0.00104031    1.276    0.216
        82 -11.4020     34.3838    118.2143   1.2206773310e+02   4.7454900548e+01    0.2305446    0.1707212 -59.02 0.0009458407    1.206    0.171
        83 -12.5943     92.8981    116.1879   1.0493974362e+02   4.0368674154e+01    0.5217466    0.3097878 -38.06  0.002301587    1.912    0.477
        84 -11.3603      5.6669    117.0009   1.2987445748e+02   4.9972552576e+01    0.1703565    0.1215112 -77.31 0.0004752147    1.087    0.080
        85 -13.0091    248.7476    114.5829   7.0661418372e+01   8.1361036168e+00    0.3938968    0.3128932   2.95   0.00102011    1.336    0.252
        86 -11.4868     67.1090    113.7802   1.1183000470e+02   4.4794830477e+01    0.3834478    0.1926178 -72.21  0.001061955    2.444    0.591
        87 -10.1719     83.6291    192.2995   1.1985831491e+02   2.4877578771e+01    0.2035595    0.1253033  69.10  0.000915573    1.741    0.426
        88 -11.9951     90.6027    109.3464   1.0401210171e+02   4.2318656114e+01    0.4534846    0.2091105 -59.17  0.001754335    2.312    0.568
        89 -10.0273     66.3267    109.2588   1.1113173215e+02   4.5958778257e+01    0.1321438    0.1017469 -26.85 0.0003029869    1.558    0.358
        90 -11.0187     85.8861    105.0151   1.0435623554e+02   4.4076600416e+01     0.532832    0.2486806 -38.43  0.002015246    2.594    0.615
        91 -11.6078     86.0090     99.1348   1.0287025547e+02   4.5396012816e+01    0.3960472    0.2434619 -24.32  0.001644865    2.411    0.585
        92 -11.1160    241.2841    104.2296   6.9347017336e+01   1.1199163751e+01    0.2273904     0.165255 -23.22 0.0004656337    1.296    0.228
        93 -11.2442    101.0898    103.2822   9.9497369095e+01   4.1883975430e+01    0.2601238    0.1898948 -39.47 0.0006713092    1.364    0.267
        94 -10.7721     79.0505    103.3068   1.0598680138e+02   4.5532527190e+01    0.1839981    0.1793625  54.10 0.0003106137    1.112    0.101
        95 -11.1943    101.0654     98.2990   9.8199857129e+01   4.2995240508e+01    0.3427455    0.1793613  34.07 0.0009153535    2.179    0.541
        96 -10.4099     72.4992     97.4642   1.0659406198e+02   4.7840417372e+01    0.1400962    0.1265552 -50.56  2.02001e-06    1.015    0.015
        97 -11.5032     76.8675    201.2980   1.2227288016e+02   2.4016934432e+01    0.3225605    0.1621611 -66.96   0.00169957    2.035    0.509
        98 -10.0199     32.8723     95.1598   1.1870109708e+02   5.2975153088e+01      0.17636    0.1245009 -47.77 0.0004038643    1.303    0.233
        99 -10.3586     51.2030     90.7694   1.1183618735e+02   5.2127013460e+01    0.1854648    0.1409504 -35.57 0.0004951162    1.347    0.257
       100 -16.9495    176.8811    115.2825   8.3727524811e+01   2.3435185080e+01     2.695205     1.487639 -23.11   0.01010973    2.422    0.587
       101 -11.1558    248.1300    185.3127   8.5866844538e+01  -1.9180435528e+00     0.474842    0.1715332  32.17  0.001915882    3.099    0.677
       102 -10.7151    230.8871     85.1282   6.6222917070e+01   1.6344165927e+01    0.2224277    0.1989531  33.76  0.001268468    1.214    0.176
       103 -10.6807     45.1940    201.7014   1.2864075749e+02   2.7899898372e+01    0.1973389    0.1328628 -50.70  0.001229729    1.993    0.498
       104 -11.0536    107.4589     82.9677   9.1986838043e+01   4.5074120418e+01    0.2098551    0.2005037  15.68 0.0003224869    1.071    0.066
       105 -10.6066     87.7362     89.0857   9.9687643325e+01   4.7356224704e+01    0.2748723    0.1912583  -0.52  0.001231017    2.136    0.532
       106 -10.9677    232.4728     81.2905   6.5032530045e+01   1.6577342684e+01    0.2535868    0.1888151  56.18 0.0009873161    1.457    0.314
       107  -9.6273     52.4553     81.4572   1.0919153155e+02   5.4097691777e+01    0.1347319    0.1150746 -46.89 0.0003132742    1.024    0.023
       108 -10.6414    250.6360     80.1745   6.2303988153e+01   1.2852667904e+01    0.1906541     0.115697 -32.90 0.0003831234    1.450    0.310
       109 -12.9689    107.9478     70.4759   8.7928147005e+01   4.7482835697e+01    0.7318025    0.4045608 -53.94  0.002153815    2.222    0.550
       110 -12.0758    112.5911     77.8634   8.8943731247e+01   4.5083746760e+01     0.349512    0.2860809  70.50 0.0006562308    1.526    0.345
       111 -11.8142    108.4917     77.5736   9.0033748593e+01   4.5970871723e+01    0.3300016    0.3190864 -33.86  0.001136487    1.053    0.050
       112 -10.8281     70.1137     77.9775   1.0224504966e+02   5.2546315488e+01     0.202403    0.1826335 -42.29  0.000378997    1.023    0.023
       113 -15.0973    229.7006    156.4087   8.3149721431e+01   5.3600617423e+00     1.861603     1.458343  -2.65   0.00655888    1.225    0.184
       114 -12.4417    227.4737    198.9068   9.1974029296e+01  -3.9584467515e-01    0.2531845     0.213425  16.94 0.0003827704    1.091    0.083
       115 -12.7293    119.3422     71.3816   8.4989441511e+01   4.4927903777e+01    0.4124101    0.2515925  42.11  0.001075862    1.677    0.404
       116 -10.4404     92.2902    183.3411   1.1685709268e+02   2.5452638809e+01    0.1210418    0.1016993 -26.99  0.000296601    1.648    0.393
       117  -9.8547     77.5688     73.2039   9.8335618086e+01   5.2434581131e+01    0.1884778    0.1224124 -37.55 0.0003595292    1.459    0.315
       118 -11.5803     85.8540    181.1208   1.1798395216e+02   2.6867947117e+01    0.3287728    0.2007906 -85.34 0.0008314481    1.920    0.479
       119 -10.4385    225.8843     71.2420   6.3423109072e+01   1.9562916239e+01    0.2773352    0.2050738 -20.20  0.001416105    1.412    0.292
       120 -12.8431     87.5350    173.9131   1.1663315525e+02   2.8152881619e+01    0.4924405    0.2617474 -63.53  0.002353628    1.885    0.470
       121 -10.7644     88.7943     72.1283   9.4331974664e+01   5.0781161728e+01    0.2065595    0.1876698 -52.70 0.0003209522    1.160    0.138
       122 -10.6904    100.0021     71.4646   9.0620380558e+01   4.8855082430e+01    0.2125388    0.1448261  43.63 0.0006169505    1.544    0.352
       123  -9.5922     20.6976     75.7190   1.1903109693e+02   5.8397230854e+01    0.1246124   0.07570577 -40.80 0.0001967735    1.550    0.355
       124 -11.1759     43.9039     67.4271   1.0854415202e+02   5.8154240826e+01    0.2894918    0.1624306 -54.82 0.0005132227    1.536    0.349
       125 -10.8218     31.9283    180.0795   1.2955019117e+02   3.3763997196e+01    0.1737062    0.1380176  82.67 0.0003311976    1.020    0.020
       126 -10.6886    236.6759     62.0811   5.9665200278e+01   1.8442287397e+01    0.4134964     0.198904 -44.60 0.0008890014    1.949    0.487
       127 -11.7621    126.3789     65.4041   8.1137915182e+01   4.4480184678e+01    0.3136937    0.2552023 -77.45  0.001251953    1.626    0.385
       128 -11.0209     52.4704     65.9629   1.0495575712e+02   5.7486394195e+01    0.2170823    0.1958123  19.28 0.0003579037    1.245    0.197
       129 -10.8271     11.1761     65.7817   1.2047535685e+02   6.1230162841e+01    0.1734173    0.1083242 -44.61 0.0006062143    1.370    0.270
       130 -11.6653    111.6808     64.2292   8.4772354173e+01   4.7894822122e+01    0.3379609    0.2731785  -0.32  0.001222452    1.377    0.274
       131 -10.7252     21.7641    176.0810   1.3135276684e+02   3.5600216237e+01    0.2035651    0.1208989  62.02 0.0007229415    1.494    0.330
       132 -10.6113     75.1444     62.2870   9.5670067153e+01   5.5057289666e+01    0.2297052    0.1703951 -33.32 0.0003197547    1.245    0.197
       133 -11.5413    101.4777     61.2321   8.6752611076e+01   5.0533471546e+01    0.3332632    0.2223654  24.06 0.0006594541    1.779    0.438
       134 -10.6071     10.7305     59.1159   1.1920830350e+02   6.2706528853e+01    0.2786068    0.1129247 -38.10  0.001341989    2.403    0.584
       135 -10.2798     11.1367    174.8900   1.3346171603e+02   3.6797569042e+01    0.1658938    0.1147106  74.14 0.0003048286    1.166    0.143
       136 -12.2966    101.3549    172.4754   1.1326577355e+02   2.6335038502e+01    0.3987747    0.2899313  84.72  0.001277528    1.562    0.360
       137 -12.4431    160.1302     55.8116   7.0155403456e+01   3.7995388720e+01    0.5178805    0.3147925 -55.57  0.001722773    2.063    0.515
       138 -12.4475    131.3376     60.4747   7.8217660150e+01   4.4209981170e+01    0.3700603    0.2637952   6.94  0.000736459    1.835    0.455
       139 -10.9384     62.4113    173.4934   1.2227196442e+02   3.1699018640e+01    0.2094835    0.1753094  74.03 0.0002765687    1.044    0.042
       140 -11.8773    243.8023     66.0430   5.9757067356e+01   1.6315826931e+01    0.5983409    0.3211574  83.38  0.002446804    2.968    0.663
       141 -11.5568    115.5768     55.7660   8.0754270976e+01   4.8566248892e+01     0.318832      0.16228  37.83 0.0009295567    2.148    0.535
       142 -10.6777     78.8607    171.8771   1.1833579507e+02   2.9847091728e+01    0.1831226    0.1700121 -53.18 0.0003458285    1.273    0.215
       143 -10.0195     23.4970    198.9288   1.3261782136e+02   3.0755516082e+01    0.1540667    0.0900483 -82.21  0.000344844    1.472    0.321
       144 -10.1313     51.7743     54.7934   1.0171914129e+02   5.9882960852e+01     0.161313    0.1474636 -60.84 0.0003063784    1.284    0.221
       145 -11.4398    249.4464     53.2095   5.6007311431e+01   1.6847900992e+01    0.2279478    0.1948124 -54.52 0.0003552892    1.080    0.074
       146 -10.7859     97.9790    166.4582   1.1311641707e+02   2.8163139223e+01    0.1973634    0.1258009  42.79 0.0003385796    1.514    0.340
       147 -11.7919     56.8858     52.9374   9.9128386507e+01   5.9590116664e+01    0.2161937     0.191812   1.12  0.001355842    1.154    0.133
       148 -12.1809    130.8137     44.6690   7.2876726350e+01   4.6863362318e+01     0.385858    0.2309539  64.77  0.001500365    1.955    0.489
       149 -13.5336    140.6845     47.0094   7.1401699894e+01   4.4140156766e+01    0.7575756    0.3812919 -23.31  0.002080319    2.271    0.560
       150 -12.6690    136.4978     45.1646   7.1715558982e+01   4.5429166254e+01    0.4453476    0.3728238  45.42  0.001083818    1.158    0.137
       151 -11.6262    243.2502     47.9968   5.5427692129e+01   1.8888190269e+01    0.3895633    0.2179704  46.54  0.001850504    2.146    0.534
       152 -12.1083    195.1801     43.8837   6.0433323748e+01   3.0867506538e+01    0.3419543     0.261088  17.25 0.0004400991    1.644    0.392
       153 -11.6262    161.4757     48.3774   6.7511905285e+01   3.8772178756e+01    0.2627552    0.2375616  71.14 0.0007105135    1.134    0.118
       154 -10.5911     37.8801    165.8258   1.2696344856e+02   3.6218770266e+01    0.1705571    0.1183121  73.42 0.0003413249    1.301    0.232
       155 -10.7162    230.6481     46.9575   5.6596230778e+01   2.1875620057e+01     0.213864    0.1917141  82.90  0.000427224    1.150    0.130
       156 -12.0709    213.8711     44.5877   5.8047891635e+01   2.6161040364e+01    0.5594721    0.3308229  -7.60  0.002345974    2.478    0.596
       157  -9.7490     76.0265     46.9603   8.9902988910e+01   5.7811130439e+01    0.1624317      0.14157 -19.27  0.000953411    1.023    0.023
       158 -10.2738     63.2431     47.5982   9.4805432569e+01   5.9716756854e+01    0.1821772    0.1227638  19.83 0.0009547237    1.657    0.397
       159 -11.1805    203.0463     45.3473   5.9716300552e+01   2.8710757206e+01    0.2668377    0.1992696 -43.69 0.0006483699    1.294    0.227
       160 -12.1836    156.1940     44.1505   6.7171018116e+01   4.0707855746e+01    0.4519366    0.2683674 -29.23   0.00199694    1.717    0.418
       161 -11.7241    150.7983     43.7986   6.8138955139e+01   4.2110489405e+01    0.2906815    0.2239961 -55.70 0.0008545333    1.476    0.322
       162 -11.6418     90.3939     44.6044   8.4155393172e+01   5.5626904200e+01    0.2462261    0.2142175   1.46 0.0004153303    1.085    0.078
       163 -11.4132    146.1214     43.1738   6.8902563609e+01   4.3362607205e+01    0.2230071    0.1952822  23.80 0.0004445239    1.169    0.144
       164 -16.0619    223.1004    175.2177   8.8223084830e+01   3.7079789576e+00     3.189817     2.013774  63.68   0.01408929    2.997    0.666
       165 -11.5839    191.8418     40.1376   5.9842366924e+01   3.2203355605e+01    0.2164495    0.1879888 -57.67 0.0005611516    1.151    0.131
       166 -10.6901     61.9680     40.0418   9.2402277700e+01   6.1273624909e+01    0.1977953     0.171624 -17.15            0    1.029    0.028
       167 -10.2766    208.2768     38.9922   5.7255331763e+01   2.8255183010e+01    0.1927881    0.1742734 -34.84 0.0002977236    1.111    0.100
       168 -12.0508    182.8903     37.7815   6.0493562866e+01   3.4778519969e+01    0.4312259    0.2702751 -63.82 0.0009170102    1.976    0.494
       169 -12.7617    117.4636     41.4483   7.5053813154e+01   5.0440790429e+01    0.5166821    0.3261573 -34.74  0.001502945    1.587    0.370
       170 -11.5629    233.1777     35.6143   5.3462525573e+01   2.2742679814e+01    0.2447454    0.2176215 -44.82 0.0004441303    1.066    0.062
       171 -10.6141     82.6457    165.2725   1.1653868410e+02   3.0750487996e+01    0.1385934   0.09123738  67.09 0.0004161157    1.640    0.390
       172 -11.5484    133.1607     34.4979   6.8680513573e+01   4.7733138888e+01    0.3616164    0.2593208  19.48  0.001503431    1.595    0.373
       173 -11.6890     85.0403     35.1976   8.2167005343e+01   5.8153859893e+01    0.2517048    0.1935271 -25.49 0.0003307966    1.225    0.184
       174 -12.8881    199.4287     32.9102   5.6718437469e+01   3.1213306093e+01    0.3558355    0.2916412 -53.78  0.001166501    1.199    0.166
       175 -10.3162     48.6718    165.3018   1.2445702690e+02   3.5152996917e+01    0.1307867   0.07992332  68.77 0.0003496917    1.644    0.392
       176 -11.9136    166.9044     32.0007   6.1271057636e+01   3.9592760327e+01     0.284624    0.2691365 -49.33 0.0003456062    1.088    0.081
       177 -10.6066     99.7856     32.8586   7.6623337639e+01   5.5553514813e+01    0.2179175    0.1771034   2.61 0.0009900301    1.213    0.176
       178 -10.5352     55.4851     33.4743   9.2297563510e+01   6.3355059700e+01    0.1318639    0.1085136 -15.20 0.0008096686    1.037    0.035
       179 -12.0614    215.0037     32.0421   5.4556547881e+01   2.7481010698e+01    0.3696978    0.2038462  76.32  0.001044842    1.944    0.485
       180 -10.3390     60.4242     30.7484   8.9180835646e+01   6.3075242303e+01    0.2412527    0.1142501 -41.49  0.001117683    2.034    0.508
       181 -11.1044    119.6164     29.8856   7.0133460980e+01   5.1555138039e+01    0.2976415    0.1652954  34.48  0.001283119    1.963    0.491
       182 -10.7334    187.0419     32.5236   5.8307550646e+01   3.4385146880e+01    0.2192739     0.138229  70.62   0.00102339    1.593    0.372
       183 -12.0228    203.6312     28.3411   5.4909479051e+01   3.0717098570e+01    0.2603447    0.2485957  23.42  0.001567926    1.175    0.149
       184 -11.7397    188.5083     27.4280   5.6601077496e+01   3.4625022998e+01    0.2632069    0.2462125  51.68 0.0005389783    1.104    0.094
       185 -10.7352    141.3001     27.9487   6.4602585620e+01   4.6565308227e+01    0.1949203    0.1810737  -6.20 0.0003762424    1.105    0.095
       186 -10.9833    161.8350     27.3505   6.0618841550e+01   4.1450038452e+01    0.2226596    0.1773216 -87.39  0.001153447    1.392    0.282
       187 -11.9367    212.4573    196.5054   9.4240127940e+01   2.4361466716e+00    0.4434728    0.2818743 -52.16  0.002253602    2.380    0.580
       188  -9.9059     52.2800    162.3027   1.2328028225e+02   3.5401433995e+01    0.1162471   0.09106942 -46.62 0.0003370753    1.549    0.354
       189 -12.1269    226.7286     23.8062   5.1164032800e+01   2.5653764180e+01    0.4011775    0.1277464  58.76  0.001537557    2.980    0.664
       190 -11.8526    201.2823     22.6773   5.3621810198e+01   3.1956081857e+01    0.3624903    0.1637076 -34.58  0.001273906    2.084    0.520
       191 -12.0846    106.8192     22.7742   7.0565699406e+01   5.5360130378e+01    0.2575959    0.2151095  -4.13 0.0003366073    1.172    0.147
       192 -11.8022    235.0872     21.9733   4.9911931777e+01   2.3922884221e+01    0.1951264    0.1752613 -66.53 0.0003945667    1.026    0.025
       193 -10.5357    175.0354     22.5395   5.7022085026e+01   3.8622044571e+01    0.2137078    0.1332429  67.72 0.0004763574    1.535    0.349
       194 -11.1403    158.3651     21.2235   5.9179390602e+01   4.3033635119e+01    0.3371335     0.227289  -2.20  0.001164561    1.814    0.449
       195 -12.0343     15.9381     20.1870   1.0482131952e+02   7.0090147309e+01    0.2139397    0.1650813 -36.49  0.000349392    1.109    0.098
       196 -12.0165    157.4910    243.6922   1.1170586941e+02   4.6726579060e+00    0.2190371    0.2094249  17.54  0.001688533    1.229    0.186
       197 -10.8993     42.2961    158.7180   1.2520541280e+02   3.7326349828e+01    0.2951837    0.1307051 -70.57  0.001437395    1.986    0.497
       198 -11.1790     50.7484     18.1765   8.7454241657e+01   6.6454937121e+01    0.2420691    0.1485646 -40.58 0.0007857983    1.700    0.412
       199  -9.8244     51.5137    245.4825   1.3062594632e+02   1.9173944586e+01    0.1066472   0.07800981  63.32 2.388491e-05    1.009    0.009
       200 -12.2721    215.4866    194.4852   9.3314934345e+01   2.2112768630e+00    0.5682971    0.3273207 -42.12  0.002939893    2.028    0.507
       201  -9.6256    127.3539     16.2988   6.3177750066e+01   5.1306060272e+01    0.1522588   0.09389439  32.93 0.0007036267    1.697    0.411
       202 -10.5125    222.3072     13.3195   4.8942382912e+01   2.7856029150e+01    0.1280676   0.09766389  36.16 0.0003291569    1.637    0.389
       203 -11.7324     85.9386    159.0165   1.1481831629e+02   3.1653687689e+01    0.3016663     0.198324  27.86 0.0009423188    1.831    0.454
       204 -10.0366      2.0655    159.2757   1.3431392144e+02   4.0829943467e+01    0.1482853    0.1165818  78.68  0.000367364    1.089    0.082
       205 -10.8549    121.7871    243.4018   1.1813464508e+02   1.0116212238e+01     0.223695    0.1618574  53.68  0.000946508    1.166    0.142
       206 -11.7433    126.6504    238.6366   1.1672792004e+02   1.0128702102e+01    0.3424199    0.2287499  29.17  0.001912142    1.589    0.371
       207 -11.4641    201.7170    242.9382   1.0373031828e+02  -1.9895657478e+00      0.15694    0.1295201  17.79 0.0005542662    1.102    0.092
       208 -12.0776    103.0207    155.7758   1.1014871649e+02   2.9687203884e+01    0.3860726    0.2067991 -60.88  0.001424872    1.926    0.481
       209 -13.0325    190.7125    241.7545   1.0549657556e+02  -1.7778126727e-01    0.5569627    0.1878729  37.55  0.002549615    2.406    0.584
       210 -12.9752     96.9458    149.2911   1.1050228658e+02   3.2126401696e+01    0.6634962    0.2848706 -64.55   0.00251681    2.733    0.634
       211 -10.2939     21.8031    243.1664   1.3535816702e+02   2.2819891599e+01    0.1527607   0.09441874  65.50 0.0003453779    1.161    0.139
       212 -11.9283    208.2706    241.3563   1.0235971405e+02  -2.7806336332e+00     0.243077    0.1516507  15.02  0.000794765    1.631    0.387
       213 -10.7395     32.7513    242.2561   1.3354280597e+02   2.1827035094e+01    0.1230942    0.1072678  73.11 0.0007673834    1.339    0.253
       214 -10.5326     13.6065    242.2100   1.3661473601e+02   2.3798441032e+01     0.127834   0.07582217 -75.10 0.0008371114    1.723    0.420
       215 -11.3090     91.5211    241.0808   1.2335462811e+02   1.4806857770e+01    0.2131386    0.1326933  44.49 0.0005711989    1.312    0.238
