#   1 NUMBER                 Running object number                                     
#   2 MAG_AUTO               Kron-like elliptical aperture magnitude                    [mag]
#   3 X_IMAGE                Object position along x                                    [pixel]
#   4 Y_IMAGE                Object position along y                                    [pixel]
#   5 X_WORLD                Barycenter position along world x axis                     [deg]
#   6 Y_WORLD                Barycenter position along world y axis                     [deg]
#   7 A_WORLD                Profile RMS along major axis (world units)                 [deg]
#   8 B_WORLD                Profile RMS along minor axis (world units)                 [deg]
#   9 THETA_WORLD            Position angle (CCW/world-x)                               [deg]
#  10 FWHM_WORLD             FWHM assuming a gaussian core                              [deg]
#  11 ELONGATION             A_IMAGE/B_IMAGE                                           
#  12 ELLIPTICITY            1 - B_IMAGE/A_IMAGE                                       
         1  -8.2393     97.2747     14.8587   4.6717940776e+01   5.7772531213e+01    0.2274774   0.09984185 -33.04 0.0008960068    2.507    0.601
         2  -8.3908     55.7696     10.0223   5.7892533549e+01   6.6166142666e+01    0.1648138    0.1512216   3.54 0.0005777917    1.300    0.231
         3  -7.9501     47.5146     10.0003   6.1206265186e+01   6.7484173385e+01    0.1640022    0.1058504 -24.97  0.001009418    1.541    0.351
         4  -8.4352     90.8383      8.5132   4.5954557819e+01   5.9718948323e+01    0.2286869    0.1519485 -41.95 0.0006980177    1.916    0.478
         5  -8.5020     33.6645      5.6320   6.5284104954e+01   6.9970145364e+01    0.1968075     0.127332 -45.21  0.001151865    2.444    0.591
         6  -8.3788     79.0162      3.6144   4.7238679197e+01   6.2538872550e+01    0.2112233    0.1564536 -37.43 0.0009732314    1.700    0.412
         7  -7.8270     44.6850      3.3417   5.9211842931e+01   6.8634390497e+01   0.09756543   0.09466036 -47.08 0.0004244641    1.707    0.414
         8  -7.9761     15.7435      3.0199   7.3191170816e+01   7.2417085576e+01    0.1325071   0.07947658 -29.43   0.00038665    1.484    0.326
         9  -8.1009     62.2508      1.3814   5.1560058001e+01   6.5890648410e+01    0.1552673    0.1032792  54.33 0.0005396731    1.632    0.387
        10  -9.2393    232.8478    246.4463   7.4050171646e+01  -9.7634385205e+00     0.298221    0.1397284 -28.94  0.001025753    2.106    0.525
        11 -10.0241    248.7479    243.7395   7.0773662579e+01  -1.1364398103e+01    0.7376678    0.1856225 -38.61  0.002615747    3.909    0.744
        12  -8.4190     93.8297    248.9922   1.0220617773e+02   9.9585163441e+00    0.2704959    0.1466808  82.44  0.001215982    2.995    0.666
        13  -7.1616     86.3281    250.6503   1.0388621934e+02   1.0693406793e+01    0.1326122   0.07802226  62.90 0.0007048721    1.762    0.432
        14  -9.9870    223.8777    244.0087   7.5299664441e+01  -8.2673847893e+00    0.4475706    0.2250494 -46.19  0.002276242    2.637    0.621
        15  -9.3544    210.9095    246.4674   7.8137726282e+01  -6.8699476403e+00    0.2002778    0.1661709 -44.69 0.0008013043    1.638    0.389
        16  -8.8959    147.0759    245.9716   9.0849963879e+01   2.5964524216e+00    0.2784612    0.2069243  71.73  0.001324593    1.917    0.478
        17  -9.2761    120.1128    245.3544   9.6379848700e+01   6.7996184469e+00    0.4035568    0.2502512  76.57   0.00193674    2.581    0.612
        18  -7.9527     20.9997    248.0000   1.1618019116e+02   1.9178247773e+01    0.1684555   0.05506736  33.69  0.000797421    2.908    0.656
        19  -8.4160     67.4219    245.2107   1.0716263340e+02   1.4275394013e+01     0.162905    0.1042687  87.35 0.0009437686    1.652    0.395
        20  -8.8337    201.9342    243.2650   7.9355595286e+01  -5.1469788833e+00    0.2281665    0.1748329 -53.88 0.0009219863    1.902    0.474
        21  -8.6937    139.3918    244.1836   9.2205462056e+01   4.0839748374e+00    0.2286984     0.125155 -63.90 0.0009693737    2.580    0.612
        22  -9.4234    136.5317    239.2239   9.2136235760e+01   5.4168236899e+00    0.4522574    0.1608641  48.92  0.001630772    3.403    0.706
        23  -7.8307     58.3381    244.6513   1.0891337707e+02   1.5544929225e+01    0.1332629   0.07176847  63.32 0.0007046485    1.787    0.440
        24  -8.1300     49.9904    243.7656   1.1047549243e+02   1.6746632169e+01    0.2683666     0.109434  84.36  0.001058864    3.851    0.740
        25  -7.7867     34.6470    244.2924   1.1344668910e+02   1.8427126793e+01    0.1261518    0.0648335  61.13 0.0007029795    1.680    0.405
        26  -8.5823      9.4920    243.4918   1.1799804342e+02   2.1216009803e+01     0.244741   0.06974471  82.97 0.0008105803    5.799    0.828
        27  -8.4709    168.9171    243.1500   8.5943486382e+01  -2.5750520469e-01    0.1849669    0.1602696  45.88 0.0005306066    1.289    0.224
        28  -9.0296    194.4567    240.3249   8.0355077275e+01  -3.6198247932e+00    0.3213646    0.2093934 -59.14  0.001422118    2.567    0.610
        29  -9.7030    183.1182    240.5540   8.2659294107e+01  -1.9773414381e+00    0.3944569    0.3124573  70.15  0.002017281    2.093    0.522
        30  -9.4067    159.9306    240.0060   8.7332256325e+01   1.6488784495e+00    0.3420277    0.2466567 -79.16  0.001481445    2.366    0.577
        31  -8.1545     88.1865    242.1750   1.0265630098e+02   1.2059839813e+01    0.1719965    0.1278112  72.24 0.0006363885    1.354    0.261
        32  -8.0238    214.3678    240.7853   7.6560538064e+01  -6.5218643938e+00    0.1678892     0.101358 -24.44 0.0009094067    1.665    0.400
        33  -8.5501    146.9555    240.0541   9.0052741179e+01   3.6506186715e+00    0.3514478    0.2155472  67.83  0.001148286    2.995    0.666
        34  -8.1069    240.5674    240.2624   7.1638966944e+01  -9.9007127664e+00    0.1744432    0.1029158 -30.74 0.0008332764    1.589    0.371
        35  -9.0392    242.9920    235.7703   7.0451357071e+01  -9.5919748342e+00    0.3002004    0.1491673  -9.01  0.001368276    2.851    0.649
        36  -8.8460    171.0594    237.1322   8.4591393461e+01   4.1992002592e-01    0.3181384    0.2150831 -62.27  0.001675455    2.189    0.543
        37  -9.3517    230.9097    236.2581   7.2714783937e+01  -8.1032252536e+00    0.3879977    0.2172181 -36.27  0.001306853    1.786    0.440
        38 -10.0123    203.8654    236.4486   7.7874674850e+01  -4.3880362300e+00    0.3959428    0.2637103 -56.14  0.001914438    2.369    0.578
        39  -9.1484     78.0148    243.2505   1.0484946644e+02   1.3253045291e+01    0.3281627    0.1679102  66.41  0.001561971    2.361    0.576
        40  -8.2309     13.9396    238.2135   1.1692302425e+02   2.1821773050e+01    0.1434897   0.07765961  39.29 0.0008757182    1.729    0.422
        41  -8.4676     26.0056    237.2563   1.1462342602e+02   2.0775647630e+01    0.2256986   0.07810847  67.21 0.0009021366    3.587    0.721
        42  -9.0708    216.7043    235.3707   7.5219486029e+01  -6.0472110985e+00    0.2273379    0.2089468  88.05  0.001477468    1.907    0.476
        43  -9.3485    213.6475    231.6704   7.5180853054e+01  -5.0588739939e+00    0.2598422    0.2420565 -82.71  0.001005697    1.773    0.436
        44 -10.0478    175.4629    233.1053   8.3051528853e+01   4.2094206578e-01    0.5074679     0.285205 -57.64  0.002340063    2.627    0.619
        45  -8.9141    247.8132    234.3951   6.9367554497e+01  -1.0005141860e+01    0.2098698    0.1429399 -21.95 0.0008526536    1.266    0.210
        46  -9.2345    246.6584    229.4554   6.8722987785e+01  -9.1791997957e+00    0.2775735    0.1883347 -37.56 0.0007384026    1.604    0.376
        47  -8.0459    247.4972    224.9991   6.7801227253e+01  -8.6581515700e+00    0.1788679    0.1008657 -29.72  0.001019218    1.573    0.364
        48  -9.2215    109.0448    234.5349   9.7393132224e+01   1.0521461718e+01    0.4840113    0.2182639  49.73  0.001325785    2.195    0.544
        49  -8.4094     99.8018    234.5930   9.9379528919e+01   1.1885875335e+01    0.2462903     0.152357  75.52  0.001212668    2.137    0.532
        50  -9.0901     78.6488    234.3205   1.0383393942e+02   1.4952020217e+01    0.2732704    0.1674674  80.97  0.001251763    1.915    0.478
        51  -8.2543    122.8295    234.0994   9.4373720383e+01   8.5009824153e+00    0.2035197     0.162022  63.56   0.00065288    1.341    0.254
        52  -9.3968     68.2819    231.7262   1.0574900210e+02   1.6879940335e+01    0.5598492    0.2773744  82.20  0.002435088    2.899    0.655
        53  -8.5232      7.4984    234.5191   1.1790354945e+02   2.3186395903e+01    0.1130453   0.08431223  73.05 7.996392e-05    1.006    0.006
        54  -8.4976    194.1946    232.6294   7.9159733200e+01  -2.3623710960e+00    0.1969647    0.1713493 -42.02 0.0006673773    1.404    0.288
        55  -7.9694    144.9743    233.0342   8.9467411442e+01   5.2307138622e+00    0.2632676    0.1531314  55.58 0.0009525062    2.162    0.538
        56  -8.4565    140.1099    230.2057   9.0102920232e+01   6.5297290526e+00    0.2555603    0.1621385  49.97  0.001272892    1.612    0.380
        57  -8.1981    132.5796    232.7319   9.2087546947e+01   7.2420695401e+00    0.1627568    0.1292189 -75.53  0.000932826    1.559    0.359
        58  -9.4590    186.3672    230.4734   8.0387001946e+01  -8.2062876985e-01    0.3217277     0.239176 -67.13  0.001300498    2.208    0.547
        59  -8.3689    157.9844    231.9937   8.6540177437e+01   3.3593296513e+00    0.1976719    0.1554723  64.15 0.0006856342    1.653    0.395
        60  -8.5331     92.6017    231.6443   1.0058145088e+02   1.3529999615e+01    0.2708284    0.1548584  64.89 0.0007450318    2.071    0.517
        61  -9.0586    235.9047    230.5545   7.0832390944e+01  -7.9473158572e+00    0.2396697    0.1516753 -33.97  0.000477324    1.542    0.352
        62  -8.6418      1.4812    230.4498   1.1879543145e+02   2.4564301886e+01    0.1974218    0.0806521  84.52  0.001021339    2.246    0.555
        63  -9.1505    151.4866    228.9995   8.7471418808e+01   4.9387859270e+00    0.3073124    0.2225647  74.74   0.00129888    2.151    0.535
        64  -9.5941    148.4490    224.3130   8.7411950634e+01   6.3057140249e+00    0.3989673    0.3037195  86.90  0.001566696    1.959    0.489
        65  -8.2246    229.9525    228.8189   7.1621825900e+01  -6.8994259834e+00    0.2009849    0.1494799 -41.74 0.0009074832    1.630    0.387
        66  -9.2140      8.4895    228.5206   1.1740499760e+02   2.4312732326e+01    0.2074497   0.08445937  85.81 0.0009820422    2.366    0.577
        67  -8.8761    162.0953    227.6250   8.4989583457e+01   3.4909073978e+00     0.250513    0.2060076  77.81 0.0009644023    1.732    0.423
        68  -9.0315    127.8580    226.9853   9.2311098850e+01   9.0968810490e+00     0.327897     0.249292  81.45  0.001180227    1.701    0.412
        69  -8.1094    120.1549    227.7385   9.4104353379e+01   1.0160596499e+01    0.2247594    0.1284494  66.94 0.0009421298    2.740    0.635
        70  -8.1042    223.4500    226.5723   7.2443668785e+01  -5.6677629760e+00    0.2219568    0.1023545 -28.30 0.0008150077    2.295    0.564
        71  -8.9985    205.9710    226.1005   7.5723361527e+01  -3.0712234131e+00     0.263608     0.177731 -50.26 0.0008387319    1.932    0.482
        72  -7.7639    177.3235    227.2714   8.1725549283e+01   1.1317651281e+00    0.1332699   0.09439202   4.42 0.0004183004    1.573    0.364
        73  -7.8305     49.4632    226.9332   1.0922598486e+02   2.0258973989e+01    0.1774341   0.08634102  76.90 0.0008078101    2.466    0.595
        74  -7.9535    200.1614    226.2177   7.6893081970e+01  -2.2206068106e+00    0.1566711    0.1535841  -2.01 0.0005372554    1.339    0.253
        75  -8.8730    104.9198    223.8619   9.6951732278e+01   1.3299641898e+01    0.3478411    0.2209165  86.96  0.001663653    2.201    0.546
        76  -8.9093     94.3220    224.1759   9.9332316928e+01   1.4820752964e+01    0.4441734    0.2171431  59.45  0.001873721    2.553    0.608
        77  -9.0566    216.4854    223.0043   7.3144365284e+01  -4.1242059974e+00    0.2990125    0.2014723 -40.76  0.001101299    1.609    0.378
        78  -8.7571    180.4230    223.9543   8.0532084004e+01   1.2187981842e+00    0.2253187    0.1968604  54.78 0.0005859085    1.430    0.301
        79  -8.9196    172.9897    222.8114   8.1900553713e+01   2.6080504080e+00    0.3082707    0.1921415 -55.49 0.0008011777    2.055    0.513
        80  -8.1857    113.8002    223.9614   9.4996396249e+01   1.1912540459e+01    0.2112521     0.145668  78.44 0.0007903675    1.901    0.474
        81  -7.6676     38.2871    224.6210   1.1132938007e+02   2.2052523944e+01    0.1326095   0.07282045  67.92 0.0007015922    1.731    0.422
        82  -9.2274    160.5431    221.4435   8.4335307787e+01   4.8762714654e+00    0.5860107    0.2806377  55.81  0.002051803    3.857    0.741
        83  -8.5221    140.2118    221.9763   8.8860109031e+01   8.0942750498e+00    0.2628375    0.1893891 -71.05 0.0009758748    1.814    0.449
        84  -8.1128     59.6453    223.3775   1.0677314303e+02   1.9758167448e+01    0.2034722    0.1215376  65.32 0.0007685672    1.646    0.392
        85  -9.0066    238.8640    221.4392   6.8707653697e+01  -7.0128586769e+00    0.2087723    0.1595385 -40.39 0.0007194107    1.561    0.359
        86  -9.2863    225.3595    221.4841   7.1194922734e+01  -5.1593218697e+00    0.2252486     0.200525 -38.94 0.0005485618    1.462    0.316
        87  -9.4018    192.3219    221.2605   7.7623577788e+01  -1.9083145208e-01    0.2809658    0.2483473 -80.06 0.0009969495    1.719    0.418
        88  -9.5162      7.1034    221.7809   1.1729745870e+02   2.5840686396e+01    0.2533557    0.1182961  59.38  0.001420966    1.828    0.453
        89  -9.2664    120.4991    219.2179   9.2845073634e+01   1.1829533895e+01    0.4708894    0.2577396  62.47  0.001934522    2.696    0.629
        90  -8.9191     82.5105    220.1694   1.0146923875e+02   1.7377206027e+01    0.2977939     0.184648  78.95 0.0009617403    1.945    0.486
        91  -7.9955     27.5825    221.2179   1.1324454801e+02   2.3945669807e+01    0.1600383   0.09627176 -67.47 0.0006229068    1.634    0.388
        92  -8.5792    202.5263    220.0529   7.5357148541e+01  -1.5660360558e+00    0.1847978    0.1229439 -37.30 0.0004857296    1.530    0.346
        93  -7.9226     73.2875    220.6456   1.0355229680e+02   1.8553711805e+01    0.1377131   0.08641404  68.33 0.0004383047    1.672    0.402
        94  -9.4316    248.4650    216.0889   6.6054861017e+01  -7.4974540640e+00    0.6520133    0.2948488 -42.79  0.003189365    2.375    0.579
        95  -8.3194    209.9402    219.1166   7.3728699851e+01  -2.5358390388e+00    0.1789974    0.1705093  -0.82 0.0004676032    1.284    0.221
        96  -9.4657    133.0685    216.1352   8.9562889469e+01   1.0425921178e+01    0.5523762    0.3381738  77.02  0.002169212    3.259    0.693
        97  -8.5168     61.9260    217.3764   1.0569598276e+02   2.0767664988e+01       0.2533    0.1565988  81.85  0.001330575    1.726    0.421
        98  -9.1759     51.9224    217.4029   1.0786444144e+02   2.2013756113e+01    0.3852442    0.2201372  45.63  0.002100735    1.567    0.362
        99  -8.7147    142.8589    216.5753   8.7438173114e+01   8.7242771761e+00     0.248494    0.2032536 -71.50 0.0008242877    1.489    0.328
       100  -8.1477    111.7218    216.7957   9.4484645947e+01   1.3723975407e+01    0.2596794    0.1629624  88.54  0.001156551    2.421    0.587
       101  -7.4942     18.3343    216.6839   1.1479179504e+02   2.5859454223e+01    0.1290295    0.0680586  64.36 0.0003571706    1.691    0.409
       102  -8.7968    232.3536    214.5458   6.8658596826e+01  -5.0753252404e+00    0.2311239    0.2089629 -42.67 0.0008456279    1.505    0.335
       103  -8.1959    154.7292    215.1635   8.4579201228e+01   7.0296324710e+00    0.2209321     0.146282  71.58 0.0009423048    2.711    0.631
       104  -9.3484     93.0807    214.0203   9.8350923484e+01   1.7175095854e+01    0.3219725    0.2171453  66.55  0.001405233    1.616    0.381
       105  -8.7312    169.2626    215.9463   8.1545131694e+01   4.4684828994e+00    0.2786632    0.2178029 -78.94 0.0008659655    1.967    0.492
       106  -8.0899    185.2400    214.1805   7.7853160200e+01   2.1735238409e+00     0.172576     0.161946  59.81 0.0006403686    1.362    0.266
       107  -9.4174     73.5429    212.0771   1.0254916320e+02   2.0396922738e+01    0.7282614    0.2679548  58.43  0.002330235    4.418    0.774
       108  -9.6092    213.7890    211.6894   7.1647162063e+01  -1.8972217765e+00    0.3942457    0.3025801 -42.52  0.001553736    1.466    0.318
       109  -8.7096    161.8474    212.4272   8.2557851270e+01   6.3683111411e+00    0.2374524    0.1994544 -79.19  0.001032318    1.605    0.377
       110  -7.9955    106.5687    212.8222   9.5108478428e+01   1.5378004911e+01    0.1827108    0.1294805 -81.69 0.0009313934    1.675    0.403
       111  -7.9066    224.8462    212.3686   6.9658070891e+01  -3.6561021263e+00    0.1688731    0.1477002 -18.28 0.0006354642    1.180    0.153
       112  -9.0077    204.2846    210.9830   7.3390584728e+01  -3.0988070396e-01    0.2691172    0.2222102 -61.70 0.0007332874    1.745    0.427
       113  -9.4173    175.4896    209.9529   7.9171745347e+01   4.5530174577e+00    0.4130411    0.3080031  76.12  0.001723346    2.324    0.570
       114  -8.8338    148.0519    210.5271   8.5300164729e+01   9.0645988931e+00    0.2786635    0.2162618  84.08  0.001122886    1.831    0.454
       115  -8.9239    116.2679    210.5112   9.2547761962e+01   1.4336214784e+01    0.3016331    0.2043732  66.34 0.0008349612    1.799    0.444
       116  -9.7974      6.5207    208.6638   1.1665227114e+02   2.8697414812e+01    0.5561625      0.18205  81.37  0.002081219    4.026    0.752
       117  -8.2432    192.2128    210.1900   7.5696659933e+01   1.7546436307e+00    0.1723337    0.1618501 -62.98 0.0006385635    1.396    0.284
       118  -8.7071     85.6158    209.2691   9.9458704978e+01   1.9320673777e+01    0.3807546    0.2145866  73.37  0.001637445    2.465    0.594
       119  -8.3108     46.8921    209.6741   1.0823861000e+02   2.4330032466e+01    0.3173266    0.1379917  62.78  0.001339401    2.702    0.630
       120  -8.6070     32.0437    210.0452   1.1147665580e+02   2.5911625928e+01    0.2083814    0.1171407  69.97 0.0007024301    1.705    0.413
       121  -9.1118    236.4168    208.3342   6.6786669925e+01  -4.6821815062e+00    0.2591974    0.2259766 -51.89   0.00114372    1.638    0.390
       122  -9.8514    246.0353    194.0880   6.2422476497e+01  -3.7993633755e+00     0.449072    0.3123733 -67.05  0.002089484    3.325    0.699
       123  -9.4027    246.4089    207.1948   6.4801182220e+01  -5.8932769366e+00    0.2714542     0.191165 -37.96 0.0007333834    1.451    0.311
       124  -9.5109    250.0940    202.0241   6.3209448743e+01  -5.6046642382e+00    0.3712879    0.1796733 -31.39  0.001157602    1.830    0.454
       125  -7.9841    156.4606    207.9649   8.2987798510e+01   8.1507356967e+00    0.1786083     0.127133 -82.48 0.0007224039    2.341    0.573
       126  -8.6880    139.0078    207.8245   8.6904375140e+01   1.1142746793e+01    0.2340933    0.1861514 -82.13 0.0006884715    1.608    0.378
       127 -10.0604    124.2290    206.1990   9.0050851576e+01   1.3960144329e+01    0.2991209    0.2150759  67.45 -0.000430966    1.697    0.411
       128  -9.7227    163.7288    202.6932   8.0449371868e+01   7.9505190370e+00    0.4016934    0.3393077  78.01  0.001203147    1.588    0.370
       129  -9.2543     99.3552    206.2253   9.5864327557e+01   1.7942764896e+01    0.3692535    0.2394219  76.64  0.001333734    2.006    0.502
       130  -9.0724    183.8607    203.6093   7.6246717017e+01   4.3348913855e+00    0.3442196    0.3022321 -34.51  0.001308664    1.190    0.159
       131  -8.7023    131.4143    204.3267   8.8084012394e+01   1.3159135419e+01    0.3203158    0.2036272  69.10  0.001190963    2.406    0.584
       132  -8.2563    109.0581    205.0904   9.3427714668e+01   1.6671783569e+01    0.2222671    0.1601427  74.15  0.000867924    1.665    0.400
       133  -8.6769     56.2120    204.9781   1.0569675578e+02   2.4265609783e+01    0.2616667      0.15962  72.53 0.0007910717    1.721    0.419
       134  -8.2915    227.4446    202.8608   6.7418353539e+01  -2.5012237668e+00    0.3091313    0.1056937 -32.49  0.001139043    3.215    0.689
       135  -9.2175    194.8023    203.5252   7.3945920006e+01   2.5270294130e+00    0.3107397    0.2675335 -51.64  0.001209924    1.408    0.290
       136  -9.4495    192.7589    197.7669   7.3290997816e+01   3.9220035046e+00    0.4105965    0.3158745 -88.33  0.001353762    2.409    0.585
       137  -8.0716     41.4506    202.9412   1.0881470649e+02   2.6482303645e+01    0.2813831    0.1023962  59.15  0.001038804    3.482    0.713
       138  -9.2767    243.0463    200.6054   6.4170670802e+01  -4.4065942137e+00    0.3305939    0.1650841 -38.21 0.0009945896    1.827    0.453
       139  -8.9886    140.2925    200.8708   8.5450964227e+01   1.2378574557e+01    0.3489463    0.2431437  89.24  0.001161519    2.313    0.568
       140  -8.4098     79.7723    200.9043   9.9761281472e+01   2.2057308645e+01    0.3180218    0.1673611  87.05  0.001227594    3.005    0.667
       141  -8.0341     73.3099    202.6273   1.0149409246e+02   2.2565246513e+01    0.1470138     0.091953  69.42 0.0007032893    1.774    0.436
       142  -8.2228     48.6045    202.2878   1.0714539813e+02   2.5805337747e+01    0.2162928     0.126268  68.81  0.001093563    1.769    0.435
       143  -8.2070     10.0563    202.4772   1.1554113982e+02   2.9746610259e+01    0.1595945    0.1102489  37.26 0.0008789639    1.560    0.359
       144  -7.9778    221.8512    201.1043   6.8139643074e+01  -1.3635949800e+00    0.1920418    0.1491065 -61.61 0.0008145861    1.992    0.498
       145  -9.3806     25.2036    200.0882   1.1214705000e+02   2.8858559319e+01    0.2081145    0.1738136  64.11 0.0002495713    1.129    0.115
       146  -9.3932    237.0645    198.3751   6.4815580539e+01  -3.1922805544e+00    0.3450872    0.1615146 -44.35  0.001297376    2.247    0.555
       147  -9.4582    149.4538    198.4783   8.2923498856e+01   1.1290613649e+01    0.4838353    0.3308263  89.64  0.001497748    2.657    0.624
       148  -8.6950    124.0156    199.3079   8.9004267967e+01   1.5491632319e+01    0.3236276    0.2227568  89.88  0.001291114    2.111    0.526
       149  -9.1247    112.6665    198.3647   9.1554903724e+01   1.7585671788e+01    0.4497956    0.2741907  65.50  0.001915018    2.218    0.549
       150  -9.2834     88.7622    198.5477   9.7310014999e+01   2.1290058774e+01    0.4320862    0.2555805  84.88  0.001501185    2.407    0.585
       151  -8.3884    176.9159    199.0832   7.6900176839e+01   6.3795208812e+00    0.2021342    0.1919437  67.21 0.0005130041    1.284    0.221
       152  -9.2051     61.5180    196.8744   1.0358049115e+02   2.5467746752e+01    0.5527093    0.2870095  76.05  0.002199259    2.621    0.618
       153  -8.3054    202.4498    197.7795   7.1308212100e+01   2.3032283533e+00    0.2426782    0.1930154 -64.44  0.001294997    1.818    0.450
       154  -8.6269     12.3148    196.7753   1.1467626549e+02   3.0825235343e+01    0.2527972   0.09252766 -86.59  0.001077696    2.731    0.634
       155  -8.5397    215.8522    195.5384   6.8231199052e+01   5.2524899679e-01    0.2481275    0.1691144 -53.81   0.00083205    1.928    0.481
       156  -7.8767    133.1281    196.1030   8.6314885500e+01   1.4638482199e+01    0.1942613    0.1682833  81.50 0.0004951337    1.329    0.247
       157  -8.1884     53.4873    196.4893   1.0542051779e+02   2.6562965779e+01    0.1347484    0.1120938  75.72 4.476705e-05    1.066    0.062
       158  -7.6643     36.3076    196.6559   1.0938664383e+02   2.8496336583e+01    0.1376665   0.08051557  68.19 0.0007043433    1.694    0.410
       159  -8.7399    224.6567    194.0097   6.6261430500e+01  -5.9893034052e-01    0.3295922    0.1593825 -48.94  0.001287845    2.531    0.605
       160  -8.8929    185.1904    194.7292   7.4306118194e+01   5.7873524983e+00    0.2552018    0.2165354 -74.88 0.0007755244    1.643    0.391
       161  -8.8338    160.7693    194.2408   7.9578404070e+01   1.0174354128e+01    0.3120299    0.2490674  78.02  0.000931339    1.760    0.432
       162  -8.3763    231.0319    194.2659   6.5129175037e+01  -1.6210581821e+00     0.181871    0.1553521  -6.28 0.0004562133    1.040    0.038
       163  -8.8690     77.0533    193.9278   9.9505384615e+01   2.4065734144e+01    0.2508081    0.1993627  75.42 0.0007020145    1.242    0.195
       164  -9.0218     43.7126    193.0812   1.0734036457e+02   2.8512119254e+01    0.4376203    0.2158942  69.44  0.001920977    2.441    0.590
       165  -7.8476    103.6284    193.7276   9.3017340074e+01   2.0103081706e+01    0.1405447    0.1122723  -8.04 0.0004818668    1.678    0.404
       166  -8.5824    210.9400    201.7039   7.0358790494e+01   2.3706745767e-01    0.2427139    0.1768441 -56.41 0.0009129226    1.894    0.472
       167  -8.2020    198.9552    191.8847   7.0887298165e+01   3.9636610914e+00    0.1962466    0.1743844 -87.15 0.0004590002    1.624    0.384
       168  -8.3207    172.5046    191.9915   7.6534356538e+01   8.5472944319e+00    0.2419173    0.1990319  82.38  0.001232219    1.749    0.428
       169  -9.0555    139.4637    190.4374   8.3823165005e+01   1.4766717835e+01    0.3847903    0.2777644  85.55  0.001225762    2.086    0.521
       170  -7.7843    205.2858    191.6431   6.9559275205e+01   2.9427035307e+00    0.1284958     0.112229 -76.95 0.0004037851    1.674    0.403
       171 -10.5220     92.4109    188.8239   9.5026165528e+01   2.3006608141e+01     1.033832    0.3141395  47.18  0.003269701    3.664    0.727
       172  -8.0708     22.3162    191.6894   1.1209990245e+02   3.1069257845e+01    0.1319859   0.07684435  66.78 0.0007032456    1.637    0.389
       173  -8.3959    148.7199    189.4371   8.1461901173e+01   1.3333311854e+01    0.2597686    0.1887984  83.53 0.0009621585    2.156    0.536
       174  -9.1547      6.3919    190.1776   1.1548740058e+02   3.2831670939e+01      0.18135   0.09110805  87.51 0.0009517203    1.771    0.435
       175  -8.2655    237.1102    188.4791   6.2917017285e+01  -1.5782724801e+00     0.203981    0.1484078 -30.47 0.0005936131    1.210    0.173
       176  -9.2806    156.0295    187.5552   7.9412524955e+01   1.2417525008e+01    0.3749907    0.2340628 -58.07 0.0009194948    1.886    0.470
       177  -8.9673    129.2548    188.6218   8.5944875062e+01   1.6965488934e+01    0.2982031    0.2275797  75.68 0.0007863918    1.666    0.400
       178  -9.7133    120.6834    186.4270   8.7650291093e+01   1.8949121456e+01    0.5396075    0.3129016 -75.06  0.002110897    2.607    0.616
       179  -8.9282     34.1748    187.9001   1.0904954987e+02   3.0772654671e+01    0.3217941    0.1640757  77.66  0.001261309    2.228    0.551
       180  -8.7673    216.5408    187.8577   6.6609114049e+01   1.7629535932e+00    0.2292974    0.2142324 -82.63 0.0008674614    1.508    0.337
       181  -8.9003    191.3423    187.0423   7.1518498591e+01   6.1898223077e+00    0.3346893    0.2405464 -70.27  0.001076607    2.268    0.559
       182  -9.1261     54.6816    186.8723   1.0405172115e+02   2.8694475864e+01    0.4241753    0.2265386  74.96  0.001416679    2.389    0.581
       183  -9.7841    248.2132    185.4532   6.0399401353e+01  -2.7271790405e+00    0.4488915    0.3077868  40.56   0.00260365    1.724    0.420
       184  -8.1971    230.6289    187.3510   6.3867446993e+01  -3.9582728503e-01    0.1822813    0.1592971 -64.91  0.001079696    1.649    0.394
       185  -8.6005    164.8383    186.8860   7.7271467303e+01   1.0962236362e+01    0.2589035    0.2052421 -73.77 0.0008075687    1.690    0.408
       186  -9.1795    109.5581    186.1494   9.0350153027e+01   2.0893348424e+01    0.3882993    0.2704075  72.25  0.001226957    1.821    0.451
       187  -8.8009    210.1255    184.1721   6.7130218778e+01   3.4914072406e+00    0.2280116    0.1932641 -39.80 0.0004801297    1.231    0.188
       188  -8.5714    202.7081    184.6315   6.8700819896e+01   4.6709047960e+00    0.2613922    0.1805042 -49.25 0.0006764455    1.601    0.375
       189  -8.8226    182.8468    184.7722   7.2877718594e+01   8.1392940378e+00    0.2705457    0.1993023 -55.26 0.0007931188    1.586    0.369
       190  -9.1351     66.5393    184.4511   1.0083749620e+02   2.7765299355e+01    0.3784969    0.2228694  67.63  0.000949944    2.009    0.502
       191  -8.5626    223.9363    183.3577   6.4319443614e+01   1.3545021800e+00    0.2190689    0.1721406 -40.42 0.0005122729    1.292    0.226
       192  -8.7649    174.4690    183.7034   7.4496334154e+01   9.8669385587e+00    0.3106362    0.2426945  72.87  0.001093739    1.857    0.462
       193  -7.9699    197.2562    183.6245   6.9612388262e+01   5.8068638520e+00    0.1342337    0.1128106 -71.39  0.000696877    1.653    0.395
       194  -8.8988     44.3703    182.3780   1.0604590656e+02   3.0985771193e+01    0.3509675    0.2110408  72.04  0.001129166    1.785    0.440
       195  -7.9874      1.7481    183.5773   1.1604558188e+02   3.4711451842e+01    0.1570113   0.09392927  48.58 0.0009372779    1.628    0.386
       196  -9.1894    147.5656    180.5926   8.0067472796e+01   1.5463409486e+01    0.3571535    0.2767947  88.58  0.001060415    1.802    0.445
       197  -9.5889     25.7623    179.1548   1.1019640077e+02   3.3691397678e+01    0.6500449    0.2523648  78.33  0.002163977    4.427    0.774
       198  -8.6478    137.5531    179.2989   8.2228766698e+01   1.7582462557e+01    0.3101555    0.2292574  81.27  0.001069451    1.924    0.480
       199  -8.5890    250.5190    172.8347   5.7556085023e+01  -1.0032155182e+00     0.245681    0.1329736 -39.28 0.0006287602    1.609    0.378
       200  -9.4677    249.0267    177.4890   5.8716864921e+01  -1.5474884563e+00    0.3986572    0.2588516 -46.78  0.001224578    1.658    0.397
       201  -8.5789    247.3090    173.6994   5.8260719164e+01  -6.6218013624e-01    0.1738375    0.1500395 -34.74 0.0002384402    1.196    0.164
       202  -9.3568    191.4384    178.3369   6.9758821125e+01   7.8613879920e+00     0.289017    0.2671162  87.88 0.0006341717    1.396    0.284
       203  -8.1598    169.7087    178.7625   7.4576429854e+01   1.1758105937e+01    0.1962669    0.1760197  84.65  0.001041801    1.394    0.283
       204  -8.3946     37.0312    178.5241   1.0741607634e+02   3.2714768003e+01    0.2714298    0.1471275  76.25  0.001260321    2.102    0.524
       205  -8.2074     35.0000    174.9826   1.0753587261e+02   3.3783464393e+01    0.2188379    0.1340611  71.60  0.001120807    1.702    0.412
       206  -8.7499    231.1784    176.7531   6.1675394351e+01   1.3402714876e+00    0.3231871    0.1589282 -45.17  0.001105937    2.040    0.510
       207  -8.8015    204.9649    177.4794   6.6809578163e+01   5.6201022827e+00    0.2622824    0.1927368 -54.24 0.0007643382    1.619    0.382
       208  -8.5896    129.1347    177.2147   8.3904048380e+01   1.9579498014e+01    0.2821443    0.1973297 -87.76 0.0009006661    2.113    0.527
       209  -9.0786     88.9049    176.7368   9.4045153629e+01   2.6441243693e+01    0.3388063    0.2029448 -74.17 0.0009075109    1.898    0.473
       210  -8.7309    217.4534    176.9854   6.4268767810e+01   3.5622531708e+00     0.238745    0.1838785 -47.89 0.0007810463    1.418    0.295
       211  -9.3611    183.1750    175.8407   7.1011590111e+01   9.8651892510e+00    0.4009514    0.2344222 -47.65 0.0007789696    1.759    0.431
       212  -8.0455     97.7573    177.3968   9.1875889160e+01   2.4894896472e+01    0.1996295    0.1412086  22.07 0.0007821717    1.665    0.399
       213 -10.0433     57.4268    173.3386   1.0167653978e+02   3.1647767440e+01    0.8681725    0.4042821  79.61  0.002744359    4.427    0.774
       214  -9.0313     13.0426    176.6677   1.1297147161e+02   3.5417762901e+01    0.2857796    0.1443393  71.67  0.001290721    2.057    0.514
       215  -9.2658    158.7291    174.9940   7.6334695925e+01   1.4608530787e+01    0.3721621    0.2837907  86.74 0.0009336827    1.967    0.492
       216  -9.3868    104.3202    174.5939   8.9711813307e+01   2.4499768461e+01    0.5796198     0.331014  67.34  0.001759615    2.796    0.642
       217 -10.7508     75.8933    170.1837   9.6408400061e+01   2.9971427562e+01      1.30835    0.5094123 -74.83  0.003873067    4.368    0.771
       218  -9.7546     81.3018    155.3219   9.2479093825e+01   3.2889885136e+01    0.5443479    0.4203306 -58.73  0.001515849    1.227    0.185
       219  -8.6088    224.4588    173.6908   6.2286059898e+01   2.9801524886e+00    0.2802015    0.1226976 -39.95 0.0008327342    2.082    0.520
       220  -9.5520    175.6802    172.0706   7.1878007559e+01   1.2033914222e+01    0.3860273    0.2521324 -48.24 0.0008327345    1.570    0.363
       221  -8.7435    143.0351    172.6402   7.9602806736e+01   1.8072879170e+01    0.2501089    0.2123012 -66.84 0.0006764743    1.305    0.234
       222  -8.5013    193.8327    172.3982   6.8040082318e+01   8.5922622445e+00    0.2033421    0.1327533  26.08 0.0007414286    1.690    0.408
       223  -8.8909    134.7743    171.7386   8.1454971815e+01   1.9812055214e+01    0.2912936    0.2095416 -64.08 0.0008270243    1.569    0.363
       224  -9.0704     44.9055    170.8185   1.0456861452e+02   3.3742412232e+01    0.3860487    0.2080441  87.66  0.001709871    2.189    0.543
       225  -8.3914    205.8175    170.3072   6.5166532203e+01   6.8274739030e+00    0.2368422    0.1838029 -48.39 0.0005808123    1.369    0.270
       226  -9.3402    121.2910    170.2731   8.4566172106e+01   2.2604141161e+01    0.3730093    0.2727249 -88.95  0.001045907    1.837    0.456
       227  -8.4111    237.2404    169.4794   5.9139823820e+01   1.6279963374e+00    0.2463487    0.1621217 -36.41 0.0006747837    1.336    0.251
       228  -9.0742    230.2491    169.3295   6.0345345560e+01   2.7943241704e+00    0.3936314     0.222579 -45.36  0.001892159    1.750    0.429
       229  -8.3941    198.4987    170.1744   6.6614869668e+01   8.1751511224e+00    0.2176924    0.2015096  81.68 0.0007801302    1.381    0.276
       230  -8.2460    149.9319    169.6014   7.7323434585e+01   1.7454860639e+01    0.2655637    0.2130648 -89.10 0.0008532543    1.659    0.397
       231  -8.3754    244.4194    169.2516   5.7863887805e+01   5.2985724277e-01    0.1903575    0.1695473 -89.27 0.0005998352    1.689    0.408
       232  -8.5614    218.8509    168.3604   6.2241474757e+01   4.8974874615e+00    0.2337426    0.1756513 -44.09 0.0005790693    1.328    0.247
       233  -9.2802    167.0610    168.5011   7.3077948532e+01   1.4423141163e+01    0.3663108    0.2570297  66.81  0.001077552    2.070    0.517
       234  -8.1789     88.5051    168.5614   9.2811803096e+01   2.8503780362e+01    0.2472869    0.1401105 -74.40 0.0007508338    2.128    0.530
       235  -8.5987    111.8358    167.4877   8.6478104853e+01   2.4934049957e+01    0.3559465    0.2264349  66.78  0.001453517    2.195    0.544
       236  -8.8715    191.9226    166.6387   6.7234551778e+01   1.0086944300e+01    0.2753985    0.2039026 -48.62 0.0006418476    1.401    0.286
       237  -8.8665    184.9923    166.4535   6.8666585419e+01   1.1429219686e+01     0.271619    0.2026178 -58.50 0.0006579214    1.586    0.369
       238  -9.2447     20.3953    166.0094   1.1023271433e+02   3.7344816129e+01    0.3844843     0.186859  71.98  0.001415969    2.437    0.590
       239  -8.8501     13.1833    167.2069   1.1212047065e+02   3.7658878662e+01    0.1827474    0.1239894  73.56  0.001072509    1.387    0.279
       240  -9.6747    137.0408    164.4734   7.9435148862e+01   2.1062554816e+01    0.7104889    0.3315219  56.18  0.002151696    3.405    0.706
       241  -9.8617     94.9780    162.3142   8.9991675788e+01   2.9023934469e+01      0.93713    0.5842522  87.92  0.003380633    2.480    0.597
       242  -8.2041    233.8559    165.0704   5.8836570184e+01   2.9497164661e+00    0.2006017    0.1682811 -44.49 0.0005263587    1.254    0.203
       243  -8.7717    159.5932    164.2045   7.3905646679e+01   1.6792413261e+01    0.2751713    0.2346419  76.19  0.000806072    1.451    0.311
       244  -9.7563     33.6575    163.3174   1.0657209838e+02   3.6774254189e+01    0.5722662    0.2314727  54.51  0.002250672    3.031    0.670
       245  -8.9712    246.0587    163.2767   5.6391968276e+01   1.2871211495e+00    0.2514146    0.1672069 -42.76 0.0005203356    1.401    0.286
       246  -8.2046    240.0194    164.0391   5.7560495405e+01   2.1217487630e+00    0.1939708    0.1578124 -62.28 0.0004852055    1.633    0.388
       247  -8.6345    213.0161    163.7595   6.2392070337e+01   6.7785633159e+00    0.2555614    0.1846202 -40.59 0.0006315711    1.301    0.232
       248  -8.6066     56.7589    163.9023   1.0055767542e+02   3.4071467002e+01    0.3308281    0.1951844   1.33  0.001335781    3.116    0.679
       249  -8.6696    205.0269    162.6792   6.3722749705e+01   8.4328765829e+00    0.2395291    0.1868863 -47.79 0.0004987822    1.323    0.244
       250  -9.3870      3.4347    162.3753   1.1406962141e+02   3.9548444128e+01    0.3799495    0.1732813  58.03  0.001643361    2.351    0.575
       251  -9.0359    177.3483    160.5311   6.9067140360e+01   1.4122355887e+01    0.2961649    0.2483587 -71.50 0.0007109657    1.479    0.324
       252  -8.8001    151.6257    160.8608   7.5093130357e+01   1.9083046528e+01     0.284589      0.22842 -81.26  0.001088666    1.612    0.380
       253  -8.9077     60.6609    160.2543   9.8973607952e+01   3.4497745424e+01    0.3676771    0.2196948  74.73  0.001274248    2.199    0.545
       254  -8.0757    242.2373    160.0073   5.6366259813e+01   2.4599010796e+00     0.206154    0.1242323 -37.09 0.0004787051    1.432    0.302
       255  -8.3719    245.2981    158.6642   5.5585134088e+01   2.1965700244e+00    0.1895487    0.1297705  52.73 0.0003302433    1.914    0.478
       256  -8.6524    227.3498    158.9560   5.8726892853e+01   5.1421023238e+00    0.2874106    0.1847462 -52.35  0.001038927    1.769    0.435
       257  -9.9252    250.1930    157.6648   5.4587554187e+01   1.5866510654e+00     0.349146    0.1755997 -39.70 0.0007884101    1.695    0.410
       258  -8.7399    246.5826    155.5096   5.4733916268e+01   2.5306167294e+00    0.1982358    0.1437729 -14.36 0.0005677435    1.456    0.313
       259  -8.5777    237.1056    158.7412   5.6975376668e+01   3.5244212384e+00    0.2378162    0.1660277 -44.70 0.0007644895    1.380    0.276
       260  -8.3662    128.1651    158.8803   8.0537623848e+01   2.4038968491e+01    0.2963511    0.2264233  86.22 0.0009034054    1.745    0.427
       261  -9.6322    105.8041    157.6570   8.6195911440e+01   2.8363975325e+01    0.5155473    0.3589841 -85.23  0.001212887    1.913    0.477
       262  -8.5442    196.4469    157.8072   6.4407501994e+01   1.0992750389e+01     0.262026    0.2292136 -81.52 0.0008286894    1.477    0.323
       263  -8.2514    188.0642    157.7962   6.6151992595e+01   1.2605271622e+01    0.2628851    0.1819469 -55.13 0.0006558928    1.632    0.387
       264  -9.1043    167.4971    157.0880   7.0537945819e+01   1.6790718386e+01    0.3131302    0.2478104 -78.42 0.0006931904    1.701    0.412
       265  -8.5163    217.9951    156.5372   5.9924405690e+01   7.2381240031e+00    0.2690551    0.1810926 -51.48 0.0007171128    1.616    0.381
       266  -9.0526    157.5592    155.7522   7.2567224337e+01   1.9054385982e+01    0.2980362    0.2530011 -72.54 0.0009647862    1.386    0.278
       267  -8.5377    145.0642    155.0444   7.5446451829e+01   2.1683192261e+01    0.3405345    0.2408535 -88.73  0.001249294    2.280    0.561
       268  -9.4623    119.3646    154.9800   8.2030090114e+01   2.6600523365e+01    0.4482945    0.2946598 -76.82    0.0013796    2.136    0.532
       269  -9.4399    241.9026    154.2829   5.5250699191e+01   3.5080056767e+00    0.3801178    0.2714769  78.38  0.001825964    2.683    0.627
       270  -7.8164    204.7032    155.3381   6.2213412476e+01   9.9149248846e+00    0.1416293    0.1151692 -73.02 0.0005262934    1.656    0.396
       271  -9.4980     68.1454    153.8122   9.5890021501e+01   3.5138848211e+01    0.4241631    0.2660129  70.20   0.00133289    2.080    0.519
       272  -7.9029    233.0251    154.0013   5.6694107346e+01   5.0552694016e+00    0.2033841    0.1647644 -69.63 0.0005191145    1.685    0.407
       273  -9.7082    132.7282    152.7861   7.8073493688e+01   2.4606974516e+01    0.4413661    0.3611019 -84.50   0.00108336    1.492    0.330
       274  -9.1157    133.5886    148.2078   7.6851114103e+01   2.5513372227e+01    0.3094518    0.2550526 -15.45 0.0009445455    1.416    0.294
       275  -8.0449    151.8075    152.7883   7.3297442862e+01   2.0860342206e+01    0.2117622    0.1852286 -85.23 0.0005904514    1.356    0.262
       276  -9.2974     20.2846    152.6672   1.0886941113e+02   4.0612114513e+01    0.2379824    0.1353803 -85.30  0.001211211    1.647    0.393
       277  -8.8388     98.2473    150.7958   8.6913834218e+01   3.1336377850e+01    0.3410026    0.2353691 -85.39  0.001155425    1.922    0.480
       278  -9.8527     29.2957    150.4571   1.0618961824e+02   4.0374011319e+01    0.5340245    0.2520753  72.28  0.002075876    3.176    0.685
       279  -9.7072    248.8351    149.3193   5.3110298787e+01   3.2258653802e+00    0.3625575    0.1859483 -40.31 0.0008940485    1.661    0.398
       280  -9.4598    247.0625    143.7180   5.2239696848e+01   4.4816227139e+00    0.2625244    0.1702036 -38.30 0.0004914469    1.310    0.236
       281  -9.8741    242.6390    149.9154   5.4229293890e+01   4.1463307418e+00    0.2949688    0.2610195  71.93  0.001799083    1.510    0.338
       282  -8.9082    189.4380    150.1862   6.4186748730e+01   1.3887326777e+01    0.2986585     0.247058 -67.40 0.0007804195    1.464    0.317
       283  -8.2194    182.2165    151.2017   6.5951968763e+01   1.5111281359e+01    0.2026208    0.1773659 -70.63 0.0005249327    1.347    0.257
       284  -8.0939    162.7416    150.7767   7.0242370773e+01   1.9113588582e+01    0.2113071    0.1846138 -88.33  0.001052565    1.390    0.281
       285  -9.5946    233.3839    147.5741   5.5283401880e+01   6.1441764740e+00    0.3168342     0.194552 -39.57  0.001264032    1.431    0.301
       286  -9.3985     49.7119    154.8869   1.0118149991e+02   3.7166031291e+01    0.4544089    0.2491371  68.76  0.001715227    2.476    0.596
       287 -10.2924    106.7361    144.1673   8.3188306586e+01   3.1506349971e+01    0.8101779    0.5344902  87.30  0.002768398    2.488    0.598
       288  -9.9623     39.9242    147.8825   1.0290867756e+02   3.9986547567e+01    0.5427356    0.2734593  64.56  0.001825016    2.799    0.643
       289  -9.2572      3.0213    150.0425   1.1310544118e+02   4.2526588164e+01    0.2028868    0.1219015  69.43 0.0008067781    1.705    0.413
       290  -8.3360    198.7549    148.9734   6.2004005767e+01   1.2303484019e+01    0.2218716    0.1892273 -60.01 0.0005954638    1.320    0.242
       291 -10.2354    148.9784    144.7874   7.2191727965e+01   2.3234729571e+01      0.66206    0.4502842 -89.38  0.001700116    2.669    0.625
       292  -9.0000    150.7769    136.2211   6.9754152569e+01   2.4793664706e+01    0.5062296    0.3371501   0.49  0.001890257    2.623    0.619
       293 -10.2310     89.3955    146.4040   8.8533539790e+01   3.3874290383e+01    0.7051165    0.4084907 -88.65  0.002436131    3.257    0.693
       294 -10.1544    139.0318    144.6507   7.4655870178e+01   2.5267598878e+01    0.6531876    0.3819573 -66.13  0.001868603    2.444    0.591
       295 -10.5654     55.1804    145.0598   9.8135584961e+01   3.9001431425e+01    0.8467226    0.5029807  78.64  0.003016483    2.358    0.576
       296  -8.1174    223.3278    146.9466   5.6901656351e+01   8.0540027873e+00    0.2006884    0.1607828 -37.30 0.0003732057    1.121    0.108
       297  -8.9353     78.0218    146.8230   9.1862388413e+01   3.5509502983e+01    0.2665104    0.1853337 -81.02 0.0006807172    1.651    0.394
       298 -11.1334     69.5584    141.0289   9.3245529890e+01   3.8170667857e+01    0.7209635    0.4387537 -57.99  0.002625317    1.502    0.334
       299 -10.0536     69.6934    134.2823   9.1926172323e+01   3.9849151610e+01     0.467981    0.2814983   2.59  0.001850749    2.797    0.642
       300  -9.6593     13.4667    146.2510   1.0998896296e+02   4.2718854676e+01    0.3146026    0.2044664  71.17  0.001115915    1.608    0.378
       301  -7.8417    206.7842    146.5316   5.9882388405e+01   1.1229744119e+01     0.185687    0.1426749  59.72  0.000786434    1.599    0.374
       302  -8.2739    175.3276    146.0173   6.6294959289e+01   1.7586763274e+01    0.2172366    0.1870371 -44.79 0.0004215686    1.140    0.123
       303  -9.7529    240.0988    145.0672   5.3636955173e+01   5.4259519713e+00    0.2105269    0.1670792 -50.17 0.0006869101    1.293    0.227
       304 -10.0647    242.6194    139.2114   5.2005201078e+01   6.0197715858e+00    0.5288594    0.2430897 -54.21  0.002033507    3.018    0.669
       305  -7.8938    194.2433    143.9058   6.1784854000e+01   1.4204292278e+01    0.1910897    0.1199789 -43.74 0.0004634173    1.514    0.340
       306  -8.6796    165.5119    143.8342   6.8021112525e+01   2.0064027537e+01    0.2820235    0.2387608  86.94 0.0007990503    1.483    0.326
       307  -9.4016      2.7282    141.8182   1.1240863054e+02   4.4525592214e+01    0.3537052      0.17943  77.28  0.001354109    2.186    0.543
       308  -8.2431    212.8601    149.8261   5.9444488318e+01   9.4455700473e+00    0.1857358    0.1672866 -63.58  0.000338593    1.286    0.223
       309  -8.4363    182.0296    141.5563   6.3808424001e+01   1.7154126443e+01     0.283162    0.2046672 -59.00 0.0006238157    1.588    0.370
       310  -8.3583    250.5561    140.7344   5.1082654575e+01   4.4121109361e+00    0.1853155     0.108785 -46.07 0.0005304941    1.561    0.360
       311  -9.8188    124.9424    142.2864   7.7802017463e+01   2.8587100224e+01    0.6442847    0.3835962 -69.14   0.00206482    2.410    0.585
       312 -10.0279     23.5242    138.2316   1.0625370651e+02   4.3909093364e+01    0.5133289    0.2565501  63.88  0.002225597    2.699    0.629
       313  -7.7906    218.8498    138.8102   5.5934184259e+01   1.0399080272e+01    0.1906447    0.1602697 -59.95 0.0004689502    1.322    0.243
       314  -8.5800    172.3073    138.3419   6.5198239860e+01   1.9838349403e+01    0.3116434     0.213884 -74.24 0.0007313765    2.271    0.560
       315  -9.5224     79.4887    138.7786   8.9893119181e+01   3.7312764498e+01    0.3422545    0.2140144 -31.69  0.001279353    2.032    0.508
       316  -8.1814    207.7157    137.9580   5.7796184170e+01   1.2708443474e+01    0.2302449    0.1606352 -65.84  0.001002795    1.939    0.484
       317  -8.4774    197.5177    137.2955   5.9624887019e+01   1.4868370600e+01    0.2579314    0.1973694 -56.06 0.0006432317    1.409    0.290
       318  -9.3314     39.2449    136.2186   1.0139343991e+02   4.2980740918e+01    0.3118154    0.2034922  67.40  0.001056294    1.846    0.458
       319  -9.2536    248.2847    135.0768   5.0260933850e+01   5.7651006133e+00    0.2911974    0.1864269 -41.75 0.0007640378    1.335    0.251
       320  -9.0696    250.7848    129.8823   4.8807690713e+01   6.2285498712e+00    0.4308791    0.1149472 -39.81  0.001503016    3.138    0.681
       321  -8.3423    246.8441    130.1450   4.9451518853e+01   6.8631694898e+00    0.2684539    0.1576351 -49.34 0.0006435484    1.638    0.390
       322  -7.7144    187.8977    135.8156   6.1240403569e+01   1.7128946054e+01     0.201388    0.1779825 -75.52 0.0004824168    1.313    0.238
       323  -8.3225    162.8254    136.1918   6.6861483384e+01   2.2283060047e+01    0.2373651    0.2103295 -85.74 0.0007460348    1.319    0.242
       324 -10.4984     83.5978    133.0314   8.7499671026e+01   3.8121309821e+01    0.5601599    0.3947739 -81.27  0.001427354    1.765    0.433
       325  -7.7124    231.4188    134.2091   5.2761335669e+01   8.9021721243e+00    0.1909507    0.1174201 -47.97 0.0003340259    1.553    0.356
       326  -8.6852    179.3873    133.8172   6.2576762536e+01   1.9310245865e+01    0.2828524    0.2382101 -79.82 0.0007788452    1.456    0.313
       327  -9.2587    112.7378    133.1974   7.9071286395e+01   3.3076216018e+01    0.3417885    0.2643846  78.38 0.0008795963    1.688    0.407
       328  -7.9366    237.4036    133.2643   5.1581414421e+01   7.9857223888e+00    0.1947702    0.1133557 -47.39 0.0006127914    1.614    0.380
       329 -10.2398    132.1076    130.7751   7.3210858889e+01   2.9871423538e+01    0.6588516    0.4136074 -63.84  0.001840715    2.004    0.501
       330 -10.3772     98.0763    130.1405   8.2578659738e+01   3.6455581068e+01    0.7711926    0.3410132 -55.13  0.001768462    2.235    0.553
       331  -9.3383    143.0831    131.4878   7.0540351267e+01   2.7457104429e+01    0.3652095    0.2670768 -66.24 0.0009437381    1.648    0.393
       332 -10.2757     12.9842    128.6636   1.0808465503e+02   4.7056029776e+01    0.6199191    0.3073745  81.57  0.002325942    2.624    0.619
       333  -7.9313    204.4592    130.2133   5.6656375290e+01   1.4855555566e+01    0.2089885    0.1303915 -51.39 0.0008122391    1.653    0.395
       334  -8.0944    192.9619    130.0387   5.8858945581e+01   1.7246248653e+01    0.2306613    0.1794375 -73.77 0.0005157356    1.655    0.396
       335  -9.3868    152.9712    128.8330   6.7439368515e+01   2.5973572518e+01    0.4669535     0.268903 -57.45  0.001016168    2.064    0.515
       336 -10.1651     73.1533    128.9223   8.9799880184e+01   4.0703279753e+01    0.4617324    0.3202383 -83.64  0.001567017    1.812    0.448
       337  -7.8340      1.6475    130.2935   1.1153185464e+02   4.7368473153e+01    0.1249173   0.08119788  66.86 0.0006842981    1.681    0.405
       338  -7.7575    220.5284    129.5496   5.3590633616e+01   1.1803590868e+01    0.1422304    0.1280174 -39.11 7.121902e-05    1.018    0.018
       339  -8.1742    211.5106    129.0054   5.5071928963e+01   1.3673002565e+01    0.2083585    0.1160626 -59.16 0.0008097035    2.474    0.596
       340 -10.7697     44.8508    123.4865   9.7561617910e+01   4.5585517397e+01     1.108352    0.5832348  76.94  0.003862045    3.914    0.744
       341 -10.4349     59.9822    124.9540   9.3079300296e+01   4.3465132843e+01    0.7299604    0.4374646  81.98  0.002540873    2.827    0.646
       342  -9.9076    117.9140    125.1735   7.5712383405e+01   3.3996036526e+01    0.5454243    0.3776451  78.73  0.001409358    2.320    0.569
       343  -8.0992    228.4933    125.5309   5.1356246360e+01   1.1014945391e+01    0.1403678    0.1241213 -40.61 0.0001641866    1.016    0.016
       344  -8.8819    179.1360    124.6509   6.0441964133e+01   2.1257635876e+01    0.3111498    0.2455329  84.22 0.0008149811    1.670    0.401
       345 -10.3310     28.4656    122.4278   1.0252273832e+02   4.7408440400e+01    0.7297084    0.3716029  77.18  0.002708933    3.367    0.703
       346  -9.0299     26.9960    113.7821   1.0158650102e+02   4.9650927237e+01    0.2544891    0.1591802 -23.27   0.00129735    1.956    0.489
       347  -9.2113    168.3408    129.3577   6.3957070136e+01   2.2585573125e+01    0.3112348    0.2485925 -83.62 0.0007758935    1.638    0.390
       348  -8.9728     85.0518    122.7550   8.4805734087e+01   4.0426080771e+01    0.4663098    0.2835757   5.30  0.001679749    2.822    0.646
       349  -7.4687    186.2997    129.6166   6.0120413453e+01   1.8722541112e+01    0.1573778    0.1183072 -73.64 0.0007020126    1.776    0.437
       350  -9.1747    158.8316    121.6055   6.4250243639e+01   2.6286269128e+01    0.4081966    0.2814825 -70.80  0.001141282    2.041    0.510
       351  -8.7757    171.9058    121.3964   6.1217001661e+01   2.3490241127e+01    0.2593465    0.2050061 -53.26 0.0004831949    1.288    0.224
       352  -9.6303    130.8783    118.4624   7.0483696783e+01   3.2935844719e+01    0.5587829    0.3787308 -87.19  0.001603902    2.653    0.623
       353  -9.8541    133.3921    109.2395   6.7412251082e+01   3.4451629193e+01    0.6633149    0.3021367 -45.85  0.002052098    2.172    0.540
       354  -9.6074     71.1460    120.0262   8.8532134799e+01   4.3190171063e+01    0.3658752    0.2629522 -88.98  0.001234184    1.847    0.459
       355 -10.0404    141.6359    118.6420   6.7718815309e+01   3.0634119703e+01    0.4782046      0.32123 -66.67  0.001218498    1.975    0.494
       356  -8.9953    101.4282    119.2871   7.9027297663e+01   3.8478913959e+01     0.520582    0.2492471  21.09  0.001559611    3.992    0.749
       357  -9.7337      2.7064    117.0872   1.0971337574e+02   5.0483465351e+01    0.4505599    0.2206779  80.33  0.002042879    2.652    0.623
       358  -7.6563    231.5050    117.4864   4.9105421660e+01   1.1882507428e+01     0.139539    0.1222063 -44.47 0.0008104256    1.021    0.021
       359  -8.1263    185.8024    115.9936   5.6949242552e+01   2.1564877197e+01    0.2463403    0.1634692 -63.20 0.0008461355    1.897    0.473
       360  -9.9993    109.3418    114.0620   7.5382079025e+01   3.8236820384e+01    0.5429216    0.3655715 -76.24  0.001347819    2.265    0.558
       361  -8.5233     58.7174    115.4292   9.1531886529e+01   4.5976762171e+01     0.259555    0.1520519 -40.11 0.0008761322    1.731    0.422
       362  -7.8548    193.1267    115.1741   5.5296911079e+01   2.0143437836e+01    0.2047876    0.1681215 -62.86 0.0004177658    1.306    0.234
       363 -10.1487     92.7493    112.5122   7.9979429705e+01   4.1611146913e+01    0.6138697    0.3515936 -66.20  0.001298625    2.319    0.569
       364  -8.9096     93.2890    104.6908   7.7800078805e+01   4.3336520126e+01    0.4909773    0.3018253   8.61  0.001861359    2.698    0.629
       365  -9.9975     78.8357    112.2777   8.4303054732e+01   4.3935037371e+01    0.5386249    0.3747035 -87.93  0.001522049    2.173    0.540
       366  -8.6241     78.4454    104.8480   8.2597869045e+01   4.5754435091e+01    0.3738238    0.2407679  -4.12  0.001543061    2.382    0.580
       367  -7.8247    167.3857    114.2148   6.0427845210e+01   2.5965147654e+01    0.2123613    0.1415033 -51.53 0.0004114515    1.545    0.353
       368  -9.8030    121.9513    112.3820   7.1347807042e+01   3.6136526378e+01    0.3621204    0.2895311 -78.43 0.0006446616    1.584    0.369
       369 -10.7213    248.5303    108.2946   4.4616425584e+01   1.0288664918e+01    0.5366325    0.2464767 -37.13   0.00243291    1.925    0.480
       370  -8.7746    159.1848    111.7206   6.1659581881e+01   2.8296078329e+01     0.268236    0.2023912 -53.39 0.0005805334    1.369    0.269
       371 -10.2025     66.2632    109.6056   8.7762004677e+01   4.6402929965e+01    0.6220721    0.3198833 -59.97  0.002542027    1.923    0.480
       372 -10.1395     13.8579    110.8195   1.0537022794e+02   5.1329715297e+01    0.4264362    0.2585585  76.77  0.001849653    2.110    0.526
       373  -9.2205     43.3457    109.3547   9.5359739612e+01   4.9216704882e+01     0.307261    0.1765846  13.14  0.001437112    2.185    0.542
       374  -7.8462    189.4915    108.0462   5.4269213682e+01   2.2310987171e+01    0.2273577    0.1402747 -43.66 0.0006351072    1.538    0.350
       375  -9.7682    118.8663    106.0589   7.0533702609e+01   3.8172303702e+01    0.2903508    0.2125971 -38.72  0.001115936    1.362    0.266
       376  -9.0320    110.8811    106.8517   7.3043831423e+01   3.9584286645e+01    0.4738974    0.1994032  29.80  0.001452924    3.517    0.716
       377 -10.4904     45.5154    102.1273   9.3101755455e+01   5.0725069638e+01     0.772389    0.4584417  76.86  0.003019144    3.361    0.702
       378  -8.9882     45.8372     92.6868   9.0830931730e+01   5.2904390440e+01    0.4344371    0.2280736  -2.81  0.001699629    3.208    0.688
       379 -10.6620     22.7817    102.4908   1.0103188700e+02   5.2703339220e+01    0.6837739    0.3928807  76.79  0.002435096    2.766    0.638
       380  -9.7718    139.9521    104.1254   6.4338232942e+01   3.4131035386e+01    0.5020285    0.2994376 -47.87  0.001686407    1.695    0.410
       381  -8.3665    166.7566    104.0758   5.7968101284e+01   2.8160188127e+01    0.2374772    0.1973471 -62.11 0.0005777328    1.285    0.222
       382  -9.6034    150.4625    102.8670   6.1396492092e+01   3.2067549456e+01    0.4379126    0.2784337 -59.37   0.00107789    1.919    0.479
       383  -8.4642    232.3263    103.3106   4.5857798927e+01   1.4205502991e+01    0.1320063    0.1067898   0.17 0.0004574598    1.660    0.397
       384 -10.0992    128.5458    102.1210   6.6785749707e+01   3.7016363999e+01    0.3803709    0.2950797  87.90 0.0009497516    1.795    0.443
       385  -9.3961      6.5011    102.5275   1.0653784325e+02   5.3743983636e+01    0.2957388    0.1774824  86.59  0.001384518    1.954    0.488
       386  -7.9928    175.5011    102.0082   5.5565733231e+01   2.6594237142e+01    0.2299321    0.1444404 -43.96 0.0005047947    1.542    0.352
       387 -10.5508    109.4566     99.1354   7.1359159038e+01   4.1571848246e+01     0.807754    0.4724936  66.23  0.002143399    3.237    0.691
       388  -8.7677    107.6357     92.6298   7.0061930900e+01   4.3328223447e+01    0.2693731     0.253067 -13.26 0.0007779259    1.041    0.039
       389  -8.3861    159.8946    101.0756   5.8713988940e+01   3.0308309955e+01    0.2350967    0.2036455 -73.52 0.0004892173    1.282    0.220
       390  -9.2767     82.1451     99.9745   8.0123849916e+01   4.6295382473e+01    0.3790016    0.2548628 -70.91  0.001007322    2.010    0.502
       391 -10.1462     63.8759     95.7657   8.5196267038e+01   4.9984717503e+01    0.6101566    0.4026918 -81.21   0.00155845    2.415    0.586
       392  -8.7775     65.0955     87.6767   8.2621610861e+01   5.1642024688e+01    0.4442655    0.2493757   0.21  0.001656495    3.213    0.689
       393  -9.4260     95.0464     97.0409   7.5177426034e+01   4.4748150535e+01    0.3279141    0.2336155 -59.47 0.0006511487    1.575    0.365
       394  -8.5957    174.8140    111.7283   5.8178554443e+01   2.4827241101e+01    0.2885886    0.1885277 -64.27 0.0007645817    2.002    0.500
       395  -7.9791    151.3576     95.2959   5.9134992272e+01   3.3391288967e+01    0.1577936    0.1214915  12.69 0.0005030688    1.699    0.412
       396  -8.1855    164.9921     94.3472   5.5793682407e+01   3.0464481528e+01    0.2082134    0.1934534  64.59 0.0003967573    1.094    0.086
       397  -7.5932    188.6602     93.3341   5.0767893281e+01   2.5256490638e+01    0.1561635    0.1123258 -74.19 0.0007051433    1.751    0.429
       398  -8.1748    176.4064     93.1984   5.3106652533e+01   2.8066607703e+01    0.2177463    0.1327921 -51.47 0.0005926654    1.710    0.415
       399  -9.4082    139.0515     92.0764   6.1244031210e+01   3.6799902334e+01    0.4367271    0.3133799 -65.30  0.001311802    1.767    0.434
       400  -8.9389    120.3528     93.3081   6.6572865305e+01   4.0600751664e+01    0.2694156    0.2184183  27.53  0.001009327    1.301    0.232
       401  -9.8533    124.5785     90.7924   6.4681004009e+01   4.0223465693e+01     0.388786    0.3446532 -82.73 0.0008626132    1.332    0.249
       402  -9.4966      5.4142     91.8976   1.0524449040e+02   5.6284168827e+01    0.3645913    0.2141556  63.13  0.001324485    2.462    0.594
       403  -8.0319    157.8686     91.7935   5.6679149911e+01   3.2588396606e+01    0.2057257    0.1781932 -76.86 0.0005074039    1.287    0.223
       404  -9.5800     34.9824     89.8999   9.4139228302e+01   5.4640158024e+01    0.4449351    0.2668612 -84.89  0.001612316    2.619    0.618
       405  -9.0936     22.9109     90.1224   9.8619821928e+01   5.5597756261e+01    0.3522421    0.2323345 -25.20  0.001493033    1.597    0.374
       406  -8.4327    249.2822     91.6511   4.1016703202e+01   1.2893355632e+01    0.1363012   0.08683513 -61.23 0.0002930186    1.648    0.393
       407  -7.9420    151.2049     89.0059   5.7437638858e+01   3.4650546886e+01    0.2003597    0.1204007 -40.10 0.0008462366    1.664    0.399
       408 -10.3106     86.7478     85.5257   7.4564505865e+01   4.8708080932e+01    0.7770635    0.4700348 -41.70  0.001938758    1.589    0.371
       409  -7.9346    164.1500     87.1567   5.4043790248e+01   3.2014651931e+01    0.2058373    0.1742057 -72.77 0.0004518692    1.302    0.232
       410  -9.8944     48.6442     83.8090   8.7574469378e+01   5.4601700850e+01    0.6524069    0.4465912 -79.34  0.002109879    2.152    0.535
       411  -9.8906    104.9765     82.2865   6.7813389176e+01   4.5985578699e+01    0.7323257    0.3966629 -43.53  0.001802236    1.838    0.456
       412  -8.2508    157.9964     83.9534   5.4499816608e+01   3.4032928088e+01    0.2302921    0.1784942 -73.57 0.0004076284    1.569    0.363
       413  -9.1461    140.9651     82.3214   5.7986463032e+01   3.8255478824e+01    0.4198501    0.2318683 -47.37  0.001321719    1.907    0.476
       414  -8.7708     36.1028     82.2830   9.1918477157e+01   5.6262234034e+01    0.2994923    0.1724462 -17.61  0.001420859    2.153    0.536
       415  -9.6291     24.6505     80.5194   9.5892228968e+01   5.7648752034e+01    0.4007895    0.2552917 -87.28  0.001493051    2.350    0.574
       416  -9.5684      9.9414     80.9168   1.0161262866e+02   5.8545034623e+01    0.3281571    0.1864993  62.99  0.001300932    3.011    0.668
       417  -8.3979    150.0792     80.5075   5.5310419411e+01   3.6499553766e+01    0.2311178     0.201407 -41.61 0.0008711838    1.157    0.136
       418  -8.7241    119.4907     80.2414   6.2976384284e+01   4.3398002110e+01    0.3338236    0.2338946 -64.29  0.001105764    1.928    0.481
       419  -8.7055     74.6912     80.4003   7.7147377401e+01   5.1783197603e+01    0.3275883      0.18954 -57.52  0.001248463    2.047    0.512
       420  -8.2479    166.8154     79.5523   5.1423516212e+01   3.2770932888e+01    0.2321965    0.1705366 -46.06 0.0005329895    1.357    0.263
       421  -8.0175    184.0000     78.0858   4.7733487617e+01   2.9021050266e+01    0.2361002   0.08062714 -37.56 0.0007937917    2.883    0.653
       422  -9.4816    128.3000     74.6916   5.8925116183e+01   4.2516091137e+01    0.6040068    0.2862138 -36.41  0.001189761    2.204    0.546
       423  -7.6868    157.4196     76.4559   5.2536513366e+01   3.5516352640e+01    0.1481545    0.1395584 -78.83 0.0001629675    1.081    0.075
       424  -8.2895    140.4893     75.0872   5.5993264756e+01   3.9689385863e+01    0.2216476    0.1458156 -41.34 0.0007820737    1.546    0.353
       425  -9.9850     63.1746     73.4450   7.9199963644e+01   5.4953638048e+01    0.4442702    0.2850254 -59.17   0.00114582    1.871    0.465
       426  -8.4679    163.4736     73.0754   5.0327052335e+01   3.4680021835e+01    0.3117913    0.1323465 -43.33  0.001044869    2.365    0.577
       427  -8.7548    115.6839     72.5032   6.1668821832e+01   4.5662424652e+01    0.3986004      0.19672 -44.50  0.001602992    2.118    0.528
       428  -8.1148     42.5294     72.5483   8.6854037328e+01   5.7728670295e+01      0.22176    0.1248954 -64.64  0.000642884    2.216    0.549
       429  -7.5968    175.5046     72.5142   4.7829297010e+01   3.1944411030e+01    0.1448317    0.1372627 -81.17 0.0001750363    1.014    0.014
       430  -9.0368    105.9015     71.6164   6.4228434023e+01   4.7860067454e+01    0.2704641    0.2086582 -48.88 0.0006003808    1.408    0.290
       431  -9.3875     95.0875     70.8006   6.7308616432e+01   5.0140750429e+01    0.4270753    0.2391144 -53.31  0.001238476    2.227    0.551
       432  -9.5062     51.5105     69.7412   8.2511221652e+01   5.7269296195e+01    0.4385068    0.2678694 -68.95  0.001671851    2.623    0.619
       433  -8.9892     16.6868     70.1368   9.6626510396e+01   6.0506592638e+01    0.2469455    0.1928653  89.19 0.0009606075    1.726    0.421
       434  -8.8561    147.0282     68.0379   5.2403441705e+01   3.9397748800e+01    0.3234426     0.204014 -47.19 0.0005384227    1.678    0.404
       435  -8.7281    138.6083     65.8864   5.3700604849e+01   4.1715544574e+01     0.272473    0.2103333 -66.45 0.0006925127    1.584    0.369
       436  -8.8274    121.5517     65.8686   5.7978592942e+01   4.5571189130e+01    0.2664705    0.2262609 -83.56 0.0006677079    1.490    0.329
       437  -8.6830     37.4166     64.1165   8.6476715995e+01   6.0020508460e+01    0.2709287     0.208969 -81.32  0.001226171    1.979    0.495
       438  -8.8817    110.1265     63.5896   6.0410157796e+01   4.8423548800e+01    0.2682886    0.2177128 -66.81 0.0005586132    1.602    0.376
       439  -8.6173     65.0953     62.7062   7.5064493047e+01   5.6797631334e+01    0.4067927    0.2243043  -3.63  0.001482242    3.541    0.718
       440  -8.4896     17.3146     63.3307   9.4681134632e+01   6.1910034619e+01    0.1353614   0.07227848 -33.73 0.0002984675    1.679    0.404
       441  -9.0852     28.5106     70.7294   9.1968325792e+01   5.9476358440e+01    0.3690416    0.1304301 -35.90  0.001411124    3.100    0.677
       442  -9.6419     82.5217     72.6501   7.2050077931e+01   5.2065757731e+01    0.3849877    0.2829486 -71.75 0.0009514114    2.122    0.529
       443  -9.2083     97.4595     60.5142   6.3179616928e+01   5.1538238395e+01      0.27011    0.2479474  71.47 0.0008379032    1.339    0.253
       444  -9.6061     73.3057     59.5152   7.0961251789e+01   5.6099479116e+01    0.3745065    0.2331909 -51.91  0.001055835    1.926    0.481
       445  -7.6697    147.2084     59.0428   4.9710548718e+01   4.0816184533e+01    0.1829285    0.1167372 -34.19 0.0003632715    1.649    0.393
       446  -8.3269     88.8169     59.3648   6.5555558343e+01   5.3398378127e+01    0.1855347    0.1724935 -30.93 0.0005798754    1.160    0.138
       447  -8.1832    130.6753     57.6221   5.3058660252e+01   4.4882713124e+01    0.2334993    0.1656182 -55.33 0.0005985956    1.680    0.405
       448  -9.7677     23.3773     56.2327   9.0113003268e+01   6.2905260136e+01    0.3819241    0.2732668  88.24  0.002020592    2.601    0.616
       449  -9.3122      7.4560     57.1290   9.7344883816e+01   6.3809710319e+01    0.2690933    0.1951929 -85.10   0.00102884    1.916    0.478
       450  -9.3730    119.0595     55.4141   5.5286775315e+01   4.7843300747e+01    0.4162198    0.2313251 -40.30   0.00126741    1.894    0.472
       451  -8.8171    139.9075     55.9124   5.0373916389e+01   4.3014543451e+01    0.2491359    0.1897107 -45.83 0.0004603283    1.396    0.284
       452  -8.8002     44.0029     55.2820   8.0958427286e+01   6.1033938150e+01    0.2617255    0.1707986 -52.65 0.0009503468    1.658    0.397
       453  -9.1384     62.8542     54.5133   7.3122541193e+01   5.8645000330e+01    0.3195577    0.1866182 -49.81 0.0006501852    1.950    0.487
       454  -8.9579     53.9875     53.8283   7.6368875921e+01   6.0037412271e+01    0.3347438    0.1858393 -52.46  0.001529249    2.118    0.528
       455  -8.4878    105.8024     53.0781   5.8160516804e+01   5.1067225590e+01    0.2039063    0.1893653 -67.38 0.0005098542    1.302    0.232
       456  -9.5171     92.4904     50.5266   6.1299763741e+01   5.4167155860e+01    0.3695749    0.2349644 -46.52  0.001078857    1.834    0.455
       457  -8.5946     75.4892     50.9936   6.7186644240e+01   5.7217095006e+01    0.3135543    0.1581536  24.38  0.001288217    2.536    0.606
       458  -8.6267    129.7621     49.1864   5.0608670507e+01   4.6372695899e+01    0.2409006    0.1731787 -36.63 0.0006565471    1.472    0.321
       459  -7.8297    144.6475     48.8444   4.7199148688e+01   4.2949348851e+01    0.1936644    0.1248458 -45.42 0.0004651701    1.668    0.401
       460  -8.7823    120.8401     47.3281   5.2176133229e+01   4.8668691850e+01    0.2233063    0.1876386 -44.65 0.0004683422    1.311    0.237
       461  -7.9685    163.6585     47.3124   4.3086144593e+01   3.8639580619e+01    0.1462485    0.1033171 -74.81 0.0007046408    1.700    0.412
       462  -8.3745    112.3431     47.0326   5.4284081276e+01   5.0589429179e+01    0.2311782    0.1935477  89.08 0.0006071795    1.563    0.360
       463  -8.9002     82.2810     46.3368   6.3135350491e+01   5.6761670324e+01    0.2687776    0.2214613 -49.84 0.0006381101    1.507    0.337
       464  -8.3880     45.1226     44.6900   7.6784988058e+01   6.2821602049e+01     0.203064    0.1606267 -42.76 0.0005670129    1.371    0.271
       465  -8.8351     16.5773     44.6882   8.9670445082e+01   6.5679919669e+01    0.2097711    0.1792621 -52.48 0.0006966777    1.353    0.261
       466  -8.6216     92.6163     42.9576   5.8550328091e+01   5.5296089422e+01    0.2762294    0.1726187  -7.39  0.001275615    2.124    0.529
       467  -7.8901    222.6674     43.7309   3.3840279050e+01   2.5530884397e+01     0.117131   0.09758318  40.92 0.0002969687    1.587    0.370
       468  -8.1510    133.0897     43.1470   4.7924655853e+01   4.6456278833e+01    0.1886336     0.163696 -81.66  0.000482969    1.321    0.243
       469  -9.2731     69.3926     41.1003   6.5733619896e+01   5.9838613477e+01    0.3654558    0.2342503 -50.81  0.001400554    2.129    0.530
       470  -8.9146     58.2377     42.3865   7.0504064748e+01   6.1404614693e+01    0.2977953    0.2179033 -56.45  0.001488108    2.000    0.500
       471  -9.4975      5.1582     41.8770   9.4238175772e+01   6.6959368318e+01    0.2849821    0.1777445 -72.68  0.001495588    2.243    0.554
       472  -8.7634    105.8985     41.3149   5.4068097146e+01   5.2793613115e+01    0.2185414    0.1850326 -40.64 0.0005392048    1.324    0.245
       473  -8.4591     36.7749     40.8341   7.9020310119e+01   6.4484588476e+01     0.205672    0.1659376 -52.94 0.0009220621    1.590    0.371
       474  -7.0797    160.6691     39.3486   4.1360652730e+01   4.0429280527e+01    0.1460127   0.09983359 -71.17 0.0007048806    1.766    0.434
       475  -8.5560     95.4943     38.0314   5.5879521303e+01   5.5415329115e+01    0.2302817    0.1877121  66.48 0.0006807967    1.516    0.340
       476  -8.2474     80.6902     36.5890   6.0024310567e+01   5.8502064867e+01    0.2065642    0.1570762 -49.86 0.0006070641    1.730    0.422
       477  -8.1667    125.9633     35.4665   4.7043217870e+01   4.9111503298e+01    0.1940828     0.180118 -17.85 0.0005041602    1.168    0.144
       478  -9.3557     26.1572     35.3509   8.1893525012e+01   6.6542435141e+01    0.2523877    0.1937004 -50.21 0.0008407732    1.549    0.354
       479  -7.6766    133.3296     35.7036   4.5505364804e+01   4.7376925229e+01    0.1361975    0.1045323 -78.80  0.000504098    1.636    0.389
       480  -8.7023    111.9816     34.4905   5.0066977825e+01   5.2381971822e+01    0.2483613    0.1816895 -47.26 0.0007155576    1.625    0.385
       481  -8.7879    119.4422     33.4312   4.7873423939e+01   5.0850726428e+01    0.2274262     0.116999 -42.14 0.0007054415    2.223    0.550
       482  -8.9527     48.6329     33.5382   7.0997564060e+01   6.4182576975e+01    0.2158222    0.1938566 -14.17 0.0006696709    1.238    0.192
       483  -8.9709     60.7444     32.5723   6.5667694930e+01   6.2521866110e+01    0.2188915    0.1950595 -29.11 0.0006698542    1.325    0.245
       484  -9.0020     72.0863     31.0505   6.0829308660e+01   6.0826957330e+01    0.2357393     0.169173 -29.15 0.0007163524    1.429    0.300
       485  -7.7774    139.4706     31.5140   4.2934086440e+01   4.6451117212e+01    0.1350112    0.1231675  71.69 8.628416e-05    1.066    0.062
       486  -8.9949     12.9113     30.0080   8.6450254794e+01   6.8605692754e+01    0.2782793    0.1590688 -58.96  0.001280847    2.257    0.557
       487  -8.6270    101.6322     29.1552   5.0883301871e+01   5.5281082807e+01    0.1918665    0.1624401 -47.45 0.0005622915    1.431    0.301
       488  -9.0185     81.6157     27.2971   5.6106985081e+01   5.9557660436e+01     0.259387    0.2057344 -55.01 0.0008839123    1.804    0.446
       489  -9.0014      3.7462     27.6578   9.0358141385e+01   6.9638483602e+01    0.2056797    0.1405791 -56.92 0.0008297786    1.650    0.394
       490  -8.8997     91.8701     26.2975   5.2566230541e+01   5.7653574927e+01    0.2556684    0.1724612 -43.30 0.0007362131    1.821    0.451
       491  -9.0434     63.5723     20.8866   5.9730690937e+01   6.3611617110e+01     0.282635    0.2001831 -47.04 0.0009070336    2.015    0.504
       492  -8.6624     48.2597     21.5446   6.6121181012e+01   6.5954088705e+01    0.1993466    0.1801715 -33.55 0.0007529796    1.498    0.332
       493  -8.0477     19.4392     21.2439   7.9631081959e+01   6.9481792381e+01     0.145551    0.1014609 -44.84 0.0009339848    1.613    0.380
       494  -8.9349     74.2052     19.4185   5.5356859838e+01   6.1891640627e+01    0.2162781    0.1931587 -26.22 0.0006848678    1.329    0.247
       495  -7.9942     11.7063     20.3506   8.3333541157e+01   7.0298547408e+01   0.09291454   0.09156987 -48.40 0.0007031162    1.677    0.404
       496  -8.2255     87.7199     17.5584   5.0385181731e+01   5.9474392158e+01     0.188091    0.1475257 -46.62 0.0005432654    1.660    0.398
       497  -8.2685     38.8365     18.1535   6.8778435303e+01   6.7719781281e+01    0.1691029    0.1461207  -2.32 0.0007334061    1.225    0.183
       498  -8.2587    112.6943     16.9744   4.3759963808e+01   5.4206719555e+01    0.1693046    0.1583064  15.67 0.0003658262    1.133    0.117
       499  -8.2033     30.6111     16.2969   7.1828012604e+01   6.9008011755e+01    0.1472404    0.1455349 -33.95  0.001087736    1.738    0.425
       500  -7.8098    191.3451    249.6520   8.2423996494e+01  -4.5943236950e+00    0.1165597   0.09475581  57.57  0.000704305    1.805    0.446
       501  -8.1909     17.1657     14.1496   7.7733236063e+01   7.0760133173e+01     0.139542    0.1197685  -5.41 0.0004119311    1.304    0.233
       502  -9.1612    175.5561    247.5499   8.5249378561e+01  -1.9665436562e+00     0.284575    0.2318684  71.73  0.001112396    1.917    0.478
       503  -9.0404    156.4119    248.0209   8.9209987323e+01   8.2991285358e-01    0.2476019     0.194572  72.43  0.000824467    1.829    0.453
       504  -8.8590    132.2838    247.9481   9.4175760328e+01   4.4986564234e+00    0.2830827    0.1970057  77.59 0.0007392479    2.127    0.530
       505  -8.3697    113.1663    248.6608   9.8212529009e+01   7.2267097026e+00    0.2225654    0.1427964 -82.42  0.001135807    2.169    0.539
       506  -9.3235    103.8834    247.0177   9.9938050412e+01   8.8891106595e+00    0.4300793    0.2334164 -83.61  0.001687885    2.988    0.665
       507  -9.0903    243.0874    246.1949   7.2173311398e+01  -1.1002187102e+01    0.3978327    0.1491377 -29.67   0.00189284    2.687    0.628
       508  -8.5843    218.6391    247.5456   7.6849567950e+01  -8.0669723972e+00    0.2635604    0.1346731 -38.57  0.001432349    2.078    0.519
