#   1 NUMBER                 Running object number                                     
#   2 MAG_AUTO               Kron-like elliptical aperture magnitude                    [mag]
#   3 X_IMAGE                Object position along x                                    [pixel]
#   4 Y_IMAGE                Object position along y                                    [pixel]
#   5 X_WORLD                Barycenter position along world x axis                     [deg]
#   6 Y_WORLD                Barycenter position along world y axis                     [deg]
#   7 A_WORLD                Profile RMS along major axis (world units)                 [deg]
#   8 B_WORLD                Profile RMS along minor axis (world units)                 [deg]
#   9 THETA_WORLD            Position angle (CCW/world-x)                               [deg]
#  10 FWHM_WORLD             FWHM assuming a gaussian core                              [deg]
#  11 ELONGATION             A_IMAGE/B_IMAGE                                           
#  12 ELLIPTICITY            1 - B_IMAGE/A_IMAGE                                       
         1 -15.1098    246.4426    152.4386   2.8991938744e+02   4.5419974323e+00     0.207109   0.06479187 -62.67   0.01465448    3.281    0.695
         2  -9.9759    100.5704     54.2821   2.9099723383e+02   6.5480451765e+00  0.008791305  0.006027657 -49.35  0.000242705    1.439    0.305
         3 -11.7740    160.0519    238.6819   2.9144784486e+02   4.0687871860e+00   0.02102562   0.01111174 -65.51  0.001454123    1.978    0.494
         4 -10.7794    154.5255    240.4657   2.9152257290e+02   4.0813954760e+00   0.01379311  0.006475092 -61.73  0.001143483    2.117    0.528
         5  -9.5386    147.2978    238.3552   2.9159296527e+02   4.1490279734e+00  0.007125477  0.004856708 -30.46 0.0007035222    1.698    0.411
         6 -10.4826    144.9099    231.1013   2.9157587486e+02   4.2468604965e+00   0.01723723  0.008629463 -53.69  0.001568312    1.911    0.477
         7  -9.6140     92.2921    229.3609   2.9217249562e+02   4.5821018917e+00  0.007128301  0.004836962 -31.16 0.0005964946    1.698    0.411
         8 -11.2885    164.5502    226.1272   2.9131865180e+02   4.1863280433e+00   0.02624872   0.01765241  25.55  0.002747201    1.508    0.337
         9  -9.5854    190.5018    226.5039   2.9102165025e+02   4.0262359804e+00  0.006531137  0.006479289  70.45 -0.0001152797    1.027    0.026
        10 -10.8143    182.6912    222.1489   2.9108488797e+02   4.1232496531e+00   0.01309235   0.01061737 -71.32  0.001203525    1.284    0.221
        11  -9.9019    174.1526    222.1656   2.9118347876e+02   4.1743091344e+00   0.00930252  0.007882922  75.94 0.0008549929    1.321    0.243
        12 -10.4965    193.2571    220.6996   2.9095410121e+02   4.0764914763e+00   0.01177391  0.009722675 -59.96  0.001288969    1.202    0.168
        13 -11.7349    203.9592    217.8568   2.9081316964e+02   4.0449304288e+00   0.01754102   0.01100083 -31.32  0.001684575    1.920    0.479
        14 -10.7399    211.0888    217.5021   2.9072878400e+02   4.0061812175e+00    0.0103783  0.006503266  27.88  0.001035628    1.598    0.374
        15 -10.3982    148.8919    221.6790   2.9147192325e+02   4.3314630685e+00   0.01661375  0.007554225 -53.07  0.001442821    2.091    0.522
        16 -12.5463    192.8750    209.6720   2.9089051731e+02   4.2056972283e+00    0.0246193   0.01712089  89.92  0.002486776    1.828    0.453
        17 -11.8211    185.8932    213.9441   2.9099738485e+02   4.1984580871e+00   0.02391591   0.01228782 -64.13  0.001552903    1.998    0.500
        18 -10.9198    188.0000    208.9972   2.9094258432e+02   4.2427413039e+00   0.01437534  0.008691766 -57.32  0.001303473    1.607    0.378
        19 -11.6648    186.0660    203.5603   2.9093136632e+02   4.3169290483e+00   0.02543821   0.01313596 -60.57  0.001836064    1.904    0.475
        20  -9.9630    143.5240    216.0295   2.9149908290e+02   4.4286995803e+00   0.01028403   0.00642258 -59.93 0.0009832197    1.576    0.365
        21 -10.6302    111.9311    214.8929   2.9185678437e+02   4.6311428621e+00   0.01687099  0.008051595 -49.58   0.00148716    2.053    0.513
        22 -12.8984    218.1889    210.3881   2.9060304947e+02   4.0453714654e+00   0.02383477     0.013325 -68.71  0.002217745    1.954    0.488
        23 -13.1340    226.1190    206.9812   2.9049061573e+02   4.0369037893e+00   0.02805205   0.01326488 -70.82  0.002300732    2.571    0.611
        24 -10.6883    177.1328    208.9692   2.9106777033e+02   4.3083151444e+00    0.0190996  0.009148647 -55.22  0.001705403    1.986    0.496
        25 -10.8073    199.1803    214.5258   2.9084773370e+02   4.1119673566e+00    0.0125705   0.00930668 -61.20 0.0008655859    1.343    0.255
        26 -12.1652    205.9394    206.9691   2.9072318594e+02   4.1583199043e+00   0.02332317   0.01105043 -64.83  0.001918727    2.209    0.547
        27 -12.2673    198.6480    203.6079   2.9078653519e+02   4.2408053216e+00   0.02207934   0.01287851 -66.80    0.0015918    1.806    0.446
        28 -12.1851    211.1024    181.6783   2.9050755559e+02   4.4182947061e+00   0.02870597  0.008896208 -59.15  0.002094394    3.003    0.667
        29 -12.7320    211.8061    201.3818   2.9062106593e+02   4.1873556220e+00   0.03112972    0.0136442 -68.62  0.002482532    2.678    0.627
        30 -11.8860    209.3060    195.0531   2.9061083768e+02   4.2752010175e+00   0.02033568   0.01268189 -83.09  0.001743388    2.098    0.523
        31 -11.7679    206.0276    168.9060   2.9048721396e+02   4.5957619345e+00   0.03132201   0.01389292 -66.35  0.002579012    2.468    0.595
        32 -11.6739    205.8303    160.8270   2.9043958232e+02   4.6899020041e+00   0.03033718   0.01325896 -43.15  0.002458128    2.554    0.608
        33 -10.5442    205.6281    190.7107   2.9062645231e+02   4.3472724827e+00   0.02108052   0.00923417 -56.56  0.001509735    2.158    0.537
        34 -11.7500    204.0964    183.5065   2.9059964793e+02   4.4393765921e+00   0.02431272   0.01224929 -64.27  0.001742795    2.046    0.511
        35 -11.3224    205.5599    177.7269   2.9054708302e+02   4.4970802744e+00   0.01900471   0.01127697 -52.65  0.001236846    1.635    0.388
        36 -11.9522    165.1808    200.1434   2.9115126979e+02   4.4816574161e+00   0.04160625   0.01546925 -46.59  0.003183039    2.808    0.644
        37 -11.6155    183.1738    174.4807   2.9078532206e+02   4.6689822296e+00   0.02393875   0.01301899 -48.79  0.001660543    1.818    0.450
        38 -10.5364    176.8944    169.1625   2.9082496727e+02   4.7679164006e+00   0.01886998   0.00801238 -53.49  0.001591715    2.221    0.550
        39 -11.0382    185.1573    166.3572   2.9071228076e+02   4.7505509212e+00   0.02064411  0.009288786 -60.93  0.001656485    2.185    0.542
        40 -10.9026    172.5319    189.9974   2.9100387402e+02   4.5543138927e+00   0.01754936   0.01589219 -59.94  0.001843374    1.099    0.090
        41 -12.0842    174.7704    180.9590   2.9092228286e+02   4.6449042388e+00   0.04378758   0.02396005 -42.37  0.003840226    1.961    0.490
        42 -14.6009    226.8867    189.2531   2.9037232478e+02   4.2362365984e+00   0.05327351   0.03741631 -60.81  0.005721273    1.412    0.292
        43 -12.4028    224.9521    182.2429   2.9035133624e+02   4.3285160344e+00   0.02820083   0.01124932 -53.41  0.002322141    2.349    0.574
        44  -9.3543    148.0000    207.9846   2.9139787479e+02   4.4944784890e+00   0.01111107  0.003745661 -61.85 0.0008034821    2.950    0.661
        45 -11.2906    203.0262    197.0286   2.9069544996e+02   4.2902096304e+00   0.01680444   0.01024667 -62.76  0.001081732    1.647    0.393
        46 -13.3022    229.8840    142.9808   2.9005181636e+02   4.7504572077e+00    0.1251382   0.01173585 -61.25  0.005311588    9.023    0.889
        47 -13.1656    246.7850    192.2109   2.9016125232e+02   4.0825309146e+00   0.03936094   0.02675624  71.25  0.003890326    1.944    0.485
        48 -14.2009    243.8167    181.2007   2.9012744059e+02   4.2270228021e+00    0.1052987   0.06046465  67.16  0.008833577    2.749    0.636
        49 -10.7055    199.9164    190.1541   2.9068889442e+02   4.3880041551e+00   0.01628829  0.008262868 -48.32  0.001473248    1.959    0.490
        50 -10.6359    210.3266    188.6789   2.9055972363e+02   4.3424101615e+00   0.01450228  0.009238691 -67.73  0.001025632    1.652    0.395
        51 -10.0028    179.4790    190.0155   2.9092381966e+02   4.5123846697e+00   0.01028131  0.006437738 -60.22  0.001025983    1.575    0.365
        52 -10.8713    217.5918    187.0328   2.9046578150e+02   4.3176704991e+00   0.01544702   0.01099599 -56.61   0.00112041    1.375    0.273
        53 -10.4137    192.5867    186.9677   2.9075378126e+02   4.4687182221e+00   0.01470192   0.00632961 -61.08  0.001225099    2.286    0.562
        54 -10.2394    138.6906    186.9420   2.9137568528e+02   4.7925941030e+00   0.01837798   0.00665137 -53.43  0.001441744    2.557    0.609
        55 -10.9748    165.2767    185.1507   2.9105771477e+02   4.6536658482e+00   0.01939975   0.01060031 -55.90  0.001696064    1.761    0.432
        56 -10.4828    193.4949    195.5037   2.9079597563e+02   4.3650270302e+00    0.0137073  0.006427543 -60.91  0.001073965    2.099    0.523
        57  -9.8458    129.0052    185.0087   2.9147561480e+02   4.8729422730e+00    0.0128172  0.005748678 -41.19  0.001019143    2.612    0.617
        58 -10.6485    183.1639    182.9005   2.9083740079e+02   4.5721395710e+00    0.0162982  0.009264666 -60.34  0.001566601    1.731    0.422
        59 -10.1051    197.2243    182.4293   2.9067226949e+02   4.4930755069e+00   0.01297443  0.008899819 -59.11  0.001167136    1.434    0.303
        60 -10.9085    147.6841    177.4590   2.9121337483e+02   4.8478131219e+00   0.02355979  0.009775669 -48.25  0.001931458    2.405    0.584
        61 -10.4961    138.0104    177.8987   2.9132779406e+02   4.9007945687e+00   0.01555414  0.008946154 -54.58  0.001489724    1.678    0.404
        62 -11.2992    192.5098    175.9987   2.9068696455e+02   4.5954108106e+00   0.02422082   0.01102528 -51.33  0.002106971    2.112    0.527
        63 -11.6112    218.3806    175.4512   2.9038516302e+02   4.4461721728e+00    0.0167961  0.008924193 -61.36  0.001558005    1.866    0.464
        64 -10.4258    224.0000    174.9149   2.9031705077e+02   4.4185431202e+00   0.01092695   0.00374532 -61.76 0.0007964023    2.901    0.655
        65 -10.2210     76.3229    175.6458   2.9202659942e+02   5.2963644516e+00   0.00711758  0.004987603  65.00 0.0007046803    1.760    0.432
        66 -10.8742    156.6062    248.2068   2.9154620771e+02   3.9798034233e+00  0.009840335  0.005800235 -50.74 0.0009460999    1.658    0.397
        67 -10.8145    198.5700    169.0914   2.9057439382e+02   4.6384665355e+00   0.01636687   0.01020221 -45.80  0.001365196    1.623    0.384
        68 -10.2364    167.7967    166.9240   2.9091616808e+02   4.8483311769e+00   0.01784923  0.007268214 -52.39   0.00147228    2.320    0.569
        69  -9.9892    149.4051    167.3721   2.9113128597e+02   4.9536052039e+00   0.01366199  0.004229288 -48.42 0.0009519645    3.225    0.690
        70 -10.3828    186.4799    192.0446   2.9085556000e+02   4.4469796210e+00   0.01748182  0.006265084 -60.25  0.001343687    2.686    0.628
        71 -10.4363    217.6022    167.1869   2.9034308612e+02   4.5459299870e+00   0.01034044  0.006560472 -61.59 0.0007233472    1.568    0.362
        72 -11.4153    200.3076    147.4835   2.9042085299e+02   4.8766344581e+00   0.03231983   0.01693979 -58.11  0.003015578    1.844    0.458
        73  -9.9174    203.3941    140.7635   2.9034370007e+02   4.9353784009e+00   0.01024138  0.006526467 -61.30 0.0006635229    1.559    0.358
        74 -11.5134    192.4621    163.9654   2.9061321337e+02   4.7341694787e+00   0.02448029   0.01082298 -52.82  0.001930482    2.148    0.534
        75 -11.5260    196.4013    156.2750   2.9052025323e+02   4.7989758461e+00   0.02337874    0.0130876 -56.43  0.001376921    1.724    0.420
        76 -10.2619     99.0021    166.4884   2.9170810656e+02   5.2660381225e+00  0.009993508  0.004767168  49.08 0.0008100173    2.519    0.603
        77 -10.2392    138.3087    163.5219   2.9123568915e+02   5.0645233277e+00   0.01767975  0.006620698 -69.29  0.001224636    3.509    0.715
        78 -10.6824     79.1818    163.3569   2.9191789573e+02   5.4207899197e+00   0.01457731  0.007947528  88.08  0.001087674    3.420    0.708
        79 -12.9631    212.3103    162.1153   2.9037278858e+02   4.6361065647e+00   0.07779403   0.01476958 -57.04  0.004799689    4.198    0.762
        80 -11.7350    217.8611    156.8488   2.9027621856e+02   4.6633016772e+00   0.02475608   0.01133637 -61.56   0.00213942    2.167    0.539
        81 -10.7059    177.5604    158.0797   2.9074885505e+02   4.8914625392e+00   0.02229181  0.009424993 -53.31   0.00188021    2.231    0.552
        82 -10.1613     92.6603    160.3233   2.9174341402e+02   5.3750217931e+00   0.00708344  0.004964096  62.24 0.0007050907    1.723    0.419
        83 -10.0179    151.2196    158.7737   2.9105727715e+02   5.0416903544e+00   0.01115558   0.00430343 -51.28 0.0008809015    2.463    0.594
        84 -10.8538    105.6926    158.1247   2.9157924382e+02   5.3222577380e+00   0.01092673   0.00857533  82.91  0.001193546    1.503    0.335
        85 -10.4413    188.3508    156.5298   2.9061473369e+02   4.8444447157e+00   0.01351658  0.007626168 -57.42  0.001257534    1.716    0.417
        86 -10.4155    167.7053    153.9967   2.9083741886e+02   4.9976658496e+00   0.02002818  0.006785482 -49.50  0.001494535    2.865    0.651
        87 -11.1501    205.5533    153.1028   2.9039505160e+02   4.7804347935e+00   0.02683494   0.01375236 -35.18  0.002250803    2.515    0.602
        88  -9.3482    157.0000    154.9401   2.9096686022e+02   5.0511087103e+00   0.01107878  0.003745827 -61.82 0.0008022167    2.941    0.660
        89 -10.1644    159.3951    161.8730   2.9098199496e+02   4.9569270005e+00   0.01625198   0.00452851 -52.72  0.001132707    3.205    0.688
        90 -10.7188    133.4822    153.1934   2.9122772650e+02   5.2123887176e+00   0.01336609  0.007793654  58.52  0.001191877    2.263    0.558
        91 -10.0246    223.4926    152.1085   2.9018196512e+02   4.6839433306e+00     0.010324  0.006441361 -60.17  0.001028629    1.580    0.367
        92 -10.7202    189.3741    148.6213   2.9055406761e+02   4.9292931246e+00   0.01825516   0.00835609 -60.58  0.001561419    2.140    0.533
        93 -10.0109    182.2317    149.3770   2.9064117977e+02   4.9635358977e+00   0.01320125  0.006968969 -51.72  0.001222495    1.833    0.454
        94 -10.4051    215.4780    147.5576   2.9024627715e+02   4.7845193478e+00   0.01382047  0.006589956 -63.34  0.001197853    2.137    0.532
        95  -9.6448    142.0000    147.9885   2.9109720402e+02   5.2211861144e+00   0.01105999  0.003745683 -61.83  0.000801509    2.936    0.659
        96 -11.3778    223.9283    145.6886   2.9013724902e+02   4.7551635154e+00   0.02100876    0.0121579 -47.75  0.001334676    1.724    0.420
        97  -9.7727    206.0000    147.0290   2.9035235977e+02   4.8476229863e+00    0.0109125  0.003745574 -61.77 0.0007958392    2.897    0.655
        98 -10.5388    208.6308    143.5784   2.9030067597e+02   4.8714916080e+00   0.01266069   0.01231475 -35.21 0.0008606518    1.021    0.020
        99 -10.5563    148.9433    145.1225   2.9099930574e+02   5.2124900641e+00   0.01784028  0.009655868  70.42  0.001319893    3.524    0.716
       100 -11.6099    107.0838    145.0350   2.9148245615e+02   5.4646368400e+00   0.02130326   0.01222231  63.01  0.001828837    2.547    0.607
       101  -9.9637    218.3216    143.8965   2.9019084050e+02   4.8095199674e+00  0.009447826  0.008450183 -55.84 0.0006358133    1.106    0.096
       102 -10.1729    194.4089    143.2760   2.9046292508e+02   4.9605188194e+00   0.01135626  0.008403037 -71.03 0.0008887482    1.429    0.300
       103 -11.3650    125.3259    143.2661   2.9126071427e+02   5.3756067909e+00   0.01750129   0.01025177  70.33  0.001468319    2.721    0.632
       104 -10.0993    181.8497    140.2674   2.9058930680e+02   5.0706531734e+00    0.0134482  0.006924854 -51.98  0.001231446    1.874    0.466
       105 -10.1951    224.9015    139.0490   2.9008496700e+02   4.8256714239e+00   0.01389777  0.008555278 -65.86  0.001070559    1.682    0.405
       106 -10.5881    219.6333    137.0757   2.9013353254e+02   4.8800792201e+00   0.02022394  0.005966891 -60.37  0.001420235    3.226    0.690
       107 -10.3343    207.1684    136.5022   2.9027380188e+02   4.9616906002e+00   0.01273569   0.00952482 -63.70  0.001395606    1.346    0.257
       108 -10.8804    197.8507    134.8467   2.9037109723e+02   5.0367935363e+00   0.02344989  0.008252529 -56.35  0.001825612    2.613    0.617
       109  -9.3656    192.6559    135.6662   2.9043612331e+02   5.0586115395e+00  0.007205062  0.004912548 -26.46 0.0007050192    1.762    0.432
       110 -10.2590    172.2656    195.7591   2.9104248046e+02   4.4895927709e+00  0.009309924  0.007575491 -28.08   0.00100547    1.322    0.244
       111 -10.6986    226.0048    132.7817   2.9003347676e+02   4.8911081333e+00   0.01971493  0.008487429 -40.26  0.001517243    2.869    0.651
       112  -9.9452    187.6610    134.1767   2.9048457612e+02   5.1057885417e+00  0.009943744  0.005638074 -51.91 0.0009452018    1.711    0.416
       113 -10.1690    179.3175    132.3859   2.9056983639e+02   5.1765612390e+00   0.01347267  0.008140194 -64.70    0.0011063    1.694    0.410
       114 -11.6719    132.1302    131.5945   2.9111003959e+02   5.4691305315e+00   0.01779865   0.01110311  88.42  0.001610696    2.316    0.568
       115 -10.8470    142.8013    131.4694   2.9098595727e+02   5.4065116719e+00   0.01610432  0.009543512 -89.00  0.001386029    2.546    0.607
       116 -10.8757     82.8928    131.5711   2.9167911247e+02   5.7645972781e+00   0.01332394  0.008987324 -87.76 0.0009225005    1.901    0.474
       117 -10.0511    204.6543    129.5230   2.9025965778e+02   5.0570989127e+00   0.01158217  0.006197122 -62.17  0.001066325    1.869    0.465
       118 -10.4557    152.6732    128.3002   2.9085232475e+02   5.3836979222e+00   0.02252183   0.01013163 -78.74  0.001508932    4.077    0.755
       119 -13.6319    234.6627    146.9126   2.9002102444e+02   4.6764697440e+00   0.06176794   0.01764326 -59.10  0.004365767    3.221    0.690
       120 -10.2819    221.0248    128.6826   2.9006556707e+02   4.9682315063e+00   0.01494102  0.006695692 -39.83  0.001172777    2.734    0.634
       121 -10.1862    192.8716    128.5182   2.9038944223e+02   5.1395473514e+00   0.01417132  0.007573335 -45.64  0.001300892    1.919    0.479
       122  -9.3836    186.4631    128.5078   2.9046336192e+02   5.1782127876e+00  0.006645539   0.00634637 -29.69 0.0001086717    1.050    0.048
       123  -9.5549    168.0000    128.0082   2.9067347591e+02   5.2949653412e+00   0.01126044  0.003745702 -61.80   0.00080918    2.989    0.665
       124 -11.2672     98.3066    126.8583   2.9147180101e+02   5.7265110303e+00   0.02075784   0.01204498 -83.71  0.001809917    2.446    0.591
       125 -12.1735    215.2049    193.7929   2.9053503810e+02   4.2542430129e+00   0.01665052   0.01270625 -85.92  0.001578704    1.519    0.342
       126 -10.3639    179.7665    122.6646   2.9050455896e+02   5.2857081221e+00   0.02046695  0.006684974 -51.19  0.001521968    2.867    0.651
       127 -11.4512    117.1849    124.6843   2.9124011938e+02   5.6383432579e+00   0.01456864   0.01031314  74.67  0.001475645    1.815    0.449
       128 -10.1355    158.3232    120.8779   2.9074118789e+02   5.4351636223e+00   0.01346563   0.00642482 -71.65   0.00108831    2.599    0.615
       129 -11.5786    141.6605    119.0475   2.9092240852e+02   5.5563194059e+00   0.02289508   0.01353376 -88.47  0.001980013    2.543    0.607
       130 -11.4369    130.4992    118.2010   2.9104617730e+02   5.6330714151e+00   0.01608525   0.01082718  81.40  0.001555266    2.022    0.506
       131  -9.9349    185.6734    114.4814   2.9038574664e+02   5.3443187363e+00   0.01204599  0.006055715 -61.16  0.001078918    1.967    0.492
       132 -11.7173    108.6738    112.2705   2.9126187989e+02   5.8322761204e+00   0.03259215   0.01243128 -64.17  0.002515685    2.767    0.639
       133 -10.8018     91.9595    111.6592   2.9145140817e+02   5.9395126109e+00   0.01846557  0.009973405 -83.94  0.001476493    2.920    0.658
       134 -10.5635     78.9968    112.5104   2.9160660692e+02   6.0073681416e+00   0.01398291  0.007609406  71.14  0.001033097    3.494    0.714
       135 -10.8033    162.3685    192.3261   2.9113553014e+02   4.5885271960e+00   0.01957988   0.01093821 -54.10  0.001591264    1.725    0.420
       136  -9.9020    174.3233    110.8591   2.9049442431e+02   5.4542528497e+00   0.01343219  0.006422488 -71.87  0.001084249    2.611    0.617
       137 -11.1527    133.2006    108.9575   2.9095784464e+02   5.7232288509e+00   0.01422406  0.009532761 -80.30  0.001418667    1.788    0.441
       138 -10.3374     14.0207    110.0168   2.9234318657e+02   6.4245297670e+00   0.01130581  0.007892667  64.80  0.001142441    1.770    0.435
       139  -9.1732    182.6446    108.3378   2.9038272338e+02   5.4332069023e+00  0.007222082  0.004929265  62.44 0.0007041758    1.805    0.446
       140 -11.2366    121.8690    111.9422   2.9110728244e+02   5.7568967479e+00   0.01247829  0.009380264 -70.39  0.001103451    1.396    0.284
       141 -11.2534    139.4946    104.0087   2.9085450574e+02   5.7423774277e+00   0.01895978   0.01127806 -75.27  0.001773994    2.009    0.502
       142 -11.4366    149.9580    102.3590   2.9072337188e+02   5.6985011336e+00   0.02214918   0.01025969 -73.69  0.001715118    2.939    0.660
       143 -10.4996     22.5824    102.7680   2.9219941663e+02   6.4568825701e+00  0.009460476  0.006465524 -78.43 0.0009518826    1.697    0.411
       144 -11.7238    128.3161    100.6999   2.9096328308e+02   5.8475718541e+00   0.02068442  0.009665658 -53.98  0.001827238    2.033    0.508
       145 -12.3701    107.9898     96.6990   2.9117361315e+02   6.0155828458e+00    0.0348078    0.0135311 -68.47  0.002553176    3.169    0.684
       146 -11.6397    124.1628     88.9322   2.9093856942e+02   6.0079006982e+00   0.02588237   0.01027007 -58.46  0.002116948    2.388    0.581
       147 -11.2524    140.6214     82.0667   2.9070580330e+02   5.9880351756e+00   0.01557359  0.006336359 -62.20   0.00125443    2.465    0.594
       148 -11.0503    138.4963     91.2192   2.9078697687e+02   5.8955177633e+00   0.01751637  0.009769748 -69.14  0.001618866    1.974    0.493
       149 -10.3124    150.0167     79.7833   2.9058305996e+02   5.9578377841e+00   0.01244343  0.008750579 -81.76  0.001277476    1.682    0.405
       150 -10.1363    151.0000     89.0017   2.9062872415e+02   5.8458987348e+00   0.01105795  0.003745159 -61.78 0.0008015615    2.936    0.659
       151  -9.9149    157.3923     76.2049   2.9047566037e+02   5.9546515538e+00  0.009463822  0.006425473 -77.11 0.0009499929    1.694    0.410
       152 -11.2965    127.8448     73.3169   2.9079942281e+02   6.1654208379e+00   0.02844553  0.009511035 -61.26  0.002111676    2.932    0.659
       153 -10.3974    146.6467     67.0269   2.9054307773e+02   6.1247949658e+00   0.01592695  0.006171629 -61.49  0.001258419    2.553    0.608
       154 -10.6647    138.4999     65.5311   2.9062802320e+02   6.1909570533e+00   0.01428138  0.006587859 -63.12  0.001219145    2.205    0.546
       155 -10.8442    140.4134     74.7697   2.9066306550e+02   6.0732132481e+00   0.01292004  0.006649106 -68.02  0.001135985    2.138    0.532
