#   1 NUMBER                 Running object number                                     
#   2 MAG_AUTO               Kron-like elliptical aperture magnitude                    [mag]
#   3 X_IMAGE                Object position along x                                    [pixel]
#   4 Y_IMAGE                Object position along y                                    [pixel]
#   5 X_WORLD                Barycenter position along world x axis                     [deg]
#   6 Y_WORLD                Barycenter position along world y axis                     [deg]
#   7 A_WORLD                Profile RMS along major axis (world units)                 [deg]
#   8 B_WORLD                Profile RMS along minor axis (world units)                 [deg]
#   9 THETA_WORLD            Position angle (CCW/world-x)                               [deg]
#  10 FWHM_WORLD             FWHM assuming a gaussian core                              [deg]
#  11 ELONGATION             A_IMAGE/B_IMAGE                                           
#  12 ELLIPTICITY            1 - B_IMAGE/A_IMAGE                                       
         1 -18.9072    190.4379    123.4077   8.1549204651e+01   1.8749513113e+01     7.431519     5.841007  52.70   0.02769379    1.275    0.216
         2 -13.4072     11.4950     97.9748   1.2042950916e+02   5.3052461162e+01     2.287534     1.142775 -68.38   0.01376724    1.472    0.321
         3 -11.5946     67.1630    145.8526   1.1352450483e+02   3.7163898800e+01    0.6846542    0.5302848 -81.94  0.004292212    1.102    0.092
         4 -11.7231    245.5218    247.4637   9.5122142290e+01  -8.7774012939e+00    0.6876578    0.3648157  41.29  0.002059722    1.497    0.332
         5  -8.4383    212.9947    234.0000   9.8350052773e+01  -2.3030592415e+00    0.2409636    0.1025086  36.93 0.0008927628    1.958    0.489
         6 -10.0639    136.7029    232.2644   1.1089431922e+02   1.0559592999e+01    0.2003056    0.1543893  55.85 0.0002718728    1.006    0.006
         7 -10.1426    207.8213    243.0289   1.0046658972e+02  -2.4621947080e+00    0.2465236    0.1287089  44.22 0.0004703137    1.481    0.325
         8  -8.7941     53.1701    150.2233   1.1714195398e+02   3.7945372581e+01    0.2132674    0.1727548 -85.36  0.001465566    1.047    0.045
         9  -8.8279     61.0000    152.0074   1.1568160302e+02   3.6627232832e+01    0.2334204    0.1447521 -72.17 0.0009293787    1.404    0.288
        10 -10.6188    250.5548    138.8511   7.4223165318e+01   3.1949494031e+00    0.2843493    0.1448437 -27.20  0.000623983    1.929    0.482
        11  -9.7793     94.0979    127.1823   1.0420775924e+02   3.7382439163e+01    0.2639279     0.184239 -60.22 0.0006212329    1.327    0.247
        12 -10.3777     93.4702    123.4748   1.0364909188e+02   3.8296248770e+01    0.2744918     0.206211 -79.74 0.0009448297    1.365    0.267
        13  -9.6408     80.8622    120.5556   1.0621173413e+02   4.0842916019e+01    0.2138613    0.1654273 -83.55 0.0006629217    1.275    0.216
        14  -9.5914    216.5168    236.4640   9.8131278657e+01  -3.1515435890e+00    0.2320624    0.1615013  47.62 0.0005350439    1.347    0.258
        15  -8.8172    232.5893    180.5113   8.5991156157e+01   8.6730233588e-01    0.3273755    0.1455565  34.78 -0.0002095931    2.236    0.553
        16 -10.1151    236.2605     83.4933   6.3113368074e+01   1.4661792623e+01    0.4425131     0.281312 -18.67  0.001347558    1.721    0.419
        17  -8.7428    232.9680    176.0186   8.5052144221e+01   1.4028289166e+00    0.1937756    0.1646698  21.49            0    1.012    0.012
        18  -8.1478     96.0560    174.4993   1.1130632356e+02   2.7097479883e+01    0.1762723    0.1106685  49.82 0.0003472457    1.470    0.320
        19  -9.1812     87.3942    171.2680   1.1263286191e+02   2.9045412544e+01    0.1942665    0.1663315  63.09 0.0004014052    1.150    0.130
        20 -10.0402    107.9888     82.0437   9.0022500668e+01   4.4771224803e+01    0.2157742    0.1996423 -47.94  0.000330734    1.023    0.022
        21 -10.5510    109.1561     64.2607   8.4338402427e+01   4.8085208690e+01    0.5102877    0.3158171 -14.84  0.002093682    2.456    0.593
        22  -9.3330    241.7003     66.9571   5.8014849947e+01   1.5838878895e+01    0.2254131    0.2038318 -88.50 0.0003608574    1.196    0.164
        23  -9.4196    220.8750     59.8449   5.9142356009e+01   2.1996396595e+01    0.3594438    0.2157561  77.56  0.001237304    2.110    0.526
        24 -10.2853    111.4503    168.6792   1.0733618624e+02   2.5794537498e+01    0.3466861    0.2290426 -78.15  0.001102131    1.670    0.401
        25  -9.6410     70.8382    161.5202   1.1479434044e+02   3.3363979903e+01    0.2936506    0.1982756  71.70 0.0008741505    1.400    0.286
        26 -11.3715    192.0085     38.9144   5.7600105418e+01   3.2454864005e+01    0.5868883    0.4848717  57.32  0.003021814    1.184    0.155
        27  -8.4430    250.5139     39.4791   4.9817457989e+01   1.7512133583e+01    0.1417072    0.1254097 -55.26 0.0008095774    1.054    0.051
        28  -9.7695     68.9988    155.2693   1.1438597479e+02   3.4917232292e+01    0.3548042    0.1633718 -69.68  0.001739595    2.037    0.509
        29  -8.1418     47.7811    159.2034   1.1928396870e+02   3.6676354110e+01    0.1468018    0.1178385 -68.91 0.0003541427    1.293    0.226
        30  -8.9582    163.4903     29.6758   5.9611218584e+01   4.1125087493e+01    0.3126958    0.1719041  58.29   0.00132986    1.732    0.423
        31  -9.3082    104.0265     29.9515   7.3562517421e+01   5.4920432422e+01    0.2173419    0.1908054   3.43 0.0006686625    1.048    0.046
        32  -8.3236     40.9094    159.5164   1.2071025781e+02   3.7365642390e+01    0.1452668    0.1054117  47.87  0.000453409    1.474    0.321
        33  -9.3221    153.7991     25.1187   5.9900174625e+01   4.4169288344e+01    0.2228612    0.2037849 -64.74  0.001226711    1.221    0.181
        34  -8.2308    133.8658     25.1272   6.4103386111e+01   4.9045655110e+01    0.1937527    0.1558299  22.28 0.0002573116    1.248    0.199
        35  -8.3519      5.8243    158.7973   1.2749170803e+02   4.0773619808e+01    0.1504907   0.08885989  81.47 0.0006593061    1.317    0.241
        36  -9.0124     82.6676    156.9634   1.1169093489e+02   3.2680891104e+01    0.1809082    0.1413444 -80.82 0.0003998424    1.142    0.124
        37 -10.6075     77.6399    154.8564   1.1247773841e+02   3.3836245100e+01    0.4136739    0.2409573 -69.70  0.001569883    1.593    0.372
        38  -8.9733     86.9341    155.9762   1.1063311107e+02   3.2266541226e+01    0.1860217    0.1595012  87.59            0    1.016    0.016
        39 -14.4254    137.1252    125.6035   9.3646913298e+01   2.9950587767e+01      1.39775    0.9991258  85.31  0.003938565    1.907    0.476
