#   1 NUMBER                 Running object number                                     
#   2 MAG_AUTO               Kron-like elliptical aperture magnitude                    [mag]
#   3 X_IMAGE                Object position along x                                    [pixel]
#   4 Y_IMAGE                Object position along y                                    [pixel]
#   5 X_WORLD                Barycenter position along world x axis                     [deg]
#   6 Y_WORLD                Barycenter position along world y axis                     [deg]
#   7 A_WORLD                Profile RMS along major axis (world units)                 [deg]
#   8 B_WORLD                Profile RMS along minor axis (world units)                 [deg]
#   9 THETA_WORLD            Position angle (CCW/world-x)                               [deg]
#  10 FWHM_WORLD             FWHM assuming a gaussian core                              [deg]
#  11 ELONGATION             A_IMAGE/B_IMAGE                                           
#  12 ELLIPTICITY            1 - B_IMAGE/A_IMAGE                                       
         1 -12.1385    185.0254     38.9149   5.8353673698e+01   3.3643794728e+01     1.342662     1.066392  35.41  0.005721051    1.364    0.267
         2 -11.5268    206.6700      9.6181   4.6744997498e+01   3.1353351533e+01    0.9313475    0.4680459  65.80  0.004144636    1.878    0.467
         3 -11.0710    206.0491      3.4859   4.5046793056e+01   3.2113140276e+01    0.9563521     0.452411  72.14  0.004156591    2.005    0.501
         4  -8.7059    120.1896      9.0722   5.9500078748e+01   5.4076149242e+01    0.3148483    0.2507299  69.54 0.0009975426    1.326    0.246
         5  -8.8269      5.3656      2.1994   1.0174978188e+02   7.4414280897e+01    0.1595379    0.1141654 -29.45  0.001141384    1.125    0.111
         6  -7.9560    172.8128      1.3563   4.7965018259e+01   4.1082255116e+01    0.2007748    0.1143416  58.96   0.00091321    1.607    0.378
         7  -8.2946    168.0093    233.8922   1.0481311001e+02   6.1635514607e+00    0.2184424    0.1291985  53.58  0.001318722    1.683    0.406
         8 -13.8240     13.5321    208.4676   1.3003477815e+02   3.1018614825e+01     3.151765     2.867399   5.47  0.009655194    1.942    0.485
         9  -7.0982    107.6675    204.2854   1.1227862601e+02   2.0074464911e+01    0.1246197   0.07660614  63.76 0.0007012082    1.619    0.382
        10  -8.8376     86.9942    201.6723   1.1599569316e+02   2.3578074955e+01    0.2687564    0.1645331  45.00  0.001024548    1.395    0.283
        11  -8.6824     55.5588    199.1467   1.2182000658e+02   2.8180080445e+01    0.2548306    0.1472422  63.62 0.0007754989    1.457    0.314
        12  -9.7126    117.3810    197.6508   1.0959235308e+02   1.9701534625e+01    0.2451251    0.1863039  73.78  0.001548595    1.353    0.261
        13  -8.2723     81.3301    197.7097   1.1670084398e+02   2.5089354150e+01    0.2238275    0.1452311 -89.84 0.0009709687    1.607    0.378
        14  -8.4698     80.9171    194.1501   1.1642243095e+02   2.5802422300e+01    0.2178007    0.1411777  80.88 0.0005388363    1.573    0.364
        15 -17.6174     25.3813    245.6658   1.2970577157e+02   2.3689524252e+01     3.760606     2.928787  56.62   0.01571469    1.316    0.240
        16  -9.2795    245.1454    205.2322   8.7587635235e+01  -2.6974091943e+00    0.1865764    0.1616682  -1.61  0.001382665    1.281    0.219
        17  -8.9545    117.4995    215.0581   1.1163055649e+02   1.6780975031e+01    0.2205694    0.1153674 -68.39  0.001183426    2.543    0.607
        18  -8.4116    192.0059    193.4895   9.4676861904e+01   7.5417843716e+00    0.2396766    0.1604491 -60.59  0.001253817    2.486    0.598
        19  -7.3800    157.3363    194.3019   1.0131680951e+02   1.3534958233e+01    0.1257735   0.09268456  17.44 0.0003835055    1.663    0.399
        20  -9.0291    132.2906    190.7290   1.0571009204e+02   1.8444490280e+01    0.2569564    0.1979259  82.06   0.00154768    1.519    0.342
        21 -11.0779     74.7122    185.0758   1.1673710278e+02   2.8374496217e+01    0.7138535    0.5739197 -62.39  0.004215744    1.448    0.310
        22  -8.2565    108.1624    190.7270   1.1056340340e+02   2.2389834470e+01    0.2176645    0.1526918  74.71 0.0009753359    1.516    0.340
        23  -8.9518    109.9182    213.9913   1.1292538477e+02   1.8106548141e+01     0.373919     0.186635  72.76  0.001615289    3.599    0.722
        24  -9.9316    243.1304    187.0007   8.4722293715e+01  -3.7907393772e-01    0.2917078    0.2608885  88.79  0.001450198    2.020    0.505
        25  -9.1702     16.5816    184.1246   1.2825406431e+02   3.5217123203e+01    0.2046615    0.1321868  35.94 0.0006890935    1.726    0.421
        26  -9.2197    231.4354    182.0492   8.5740755112e+01   2.1601081791e+00    0.2624691    0.1601453  43.12            0    1.549    0.355
        27 -13.7341     37.7302    242.5524   1.2764248629e+02   2.2858177491e+01    0.3692248     0.146825  42.14   0.00200345    1.960    0.490
        28  -8.7040    232.0802    177.2944   8.4747383744e+01   2.6383598950e+00    0.2015935    0.1707717 -23.10 0.0002271416    1.305    0.234
        29 -10.3362     85.4425    172.4037   1.1302465866e+02   2.9349925829e+01     0.332295    0.2893563  10.12  0.001780353    1.656    0.396
        30  -9.1397     81.4850    169.9826   1.1358501921e+02   3.0410430722e+01    0.2846791    0.1864773  84.95  0.001199954    1.621    0.383
        31  -9.9673     87.9470    168.0600   1.1192188667e+02   2.9853292247e+01    0.2890798     0.265103 -60.57 0.0009845637    1.302    0.232
        32  -8.7779     67.7533    173.6432   1.1698071396e+02   3.1562935582e+01    0.3925244    0.1767461  41.17  0.001996671    2.026    0.506
        33  -8.7414    232.2273    172.4528   8.3802715145e+01   3.2225002717e+00    0.2050692    0.1616783 -17.49 0.0003193389    1.259    0.206
        34  -8.4893    104.5867    172.6152   1.0891078878e+02   2.6367318476e+01    0.2833607    0.1927089  70.64  0.001560953    1.565    0.361
        35  -7.8468    241.8334    172.3808   8.2201782404e+01   1.5659865632e+00    0.1721073   0.09889053  31.65 0.0004192691    1.590    0.371
        36  -8.4352    153.0465    172.0845   9.8581225339e+01   1.7991328100e+01    0.1933602    0.1695397  43.09            0    1.022    0.022
        37 -10.0974    200.3233    169.5406   8.8869536421e+01   9.4541066526e+00    0.2310436    0.2088554  26.06 0.0002789366    1.068    0.064
        38  -7.7223    111.0785    169.1808   1.0700788501e+02   2.5976350701e+01    0.1865268    0.1362117  64.07 0.0007306552    1.329    0.248
        39  -9.4999     69.2507    166.7006   1.1587886983e+02   3.2777408160e+01     0.494992    0.1654497  48.14  0.002117657    2.700    0.630
        40  -7.6134     31.4421    166.5274   1.2406992980e+02   3.7260108367e+01    0.1677441    0.1128459  18.95  0.001028849    2.247    0.555
        41 -10.8191     72.6743    161.6852   1.1451438792e+02   3.3352558223e+01    0.8548332    0.2206322  48.55  0.003069214    3.749    0.733
        42 -11.1489     83.6390    154.7548   1.1108150827e+02   3.3244382187e+01    0.3868497    0.3316029  76.12  0.001567115    1.021    0.021
        43  -7.7619      6.3356    161.9829   1.2902219233e+02   4.0480090076e+01    0.1484201    0.1072822  85.37 0.0005416538    1.066    0.062
        44 -10.5987     78.8196    159.6089   1.1285521144e+02   3.2925583512e+01    0.7116821    0.3990824  79.13  0.003373713    2.304    0.566
        45  -8.7639     94.0736    159.8081   1.0940968792e+02   3.0603113675e+01    0.2012775    0.1715723 -81.06 0.0003732581    1.148    0.129
        46  -9.0474    183.7620    214.6391   9.9459135877e+01   6.0996252603e+00    0.2082706    0.1690469 -52.83  0.001409464    1.670    0.401
        47  -9.7221     61.6753    156.1836   1.1635232703e+02   3.5967482292e+01    0.3366736    0.1918957  48.71  0.001447904    1.621    0.383
        48  -9.7746     99.4751    153.1157   1.0715230628e+02   3.1129596326e+01    0.5399361    0.4253269 -17.27  0.002914529    1.999    0.500
        49  -8.5854    116.6844    154.3676   1.0339878319e+02   2.7959618705e+01    0.2795658    0.2004182  65.17 0.0008650159    1.456    0.313
        50  -8.7242    220.0754    152.7271   8.1944510104e+01   8.1190368937e+00    0.2040467    0.1763781 -12.30 0.0004073512    1.132    0.117
        51  -7.9245    130.1330    152.8991   1.0010162467e+02   2.5821659570e+01    0.2089611     0.173796  82.16 0.0004597818    1.307    0.235
        52  -7.1286    186.3420    233.3020   1.0160518824e+02   3.3686306475e+00    0.1160719   0.07364112  21.41 0.0007038488    1.676    0.403
        53  -9.2422    133.8231    147.3523   9.8237631950e+01   2.6220959622e+01    0.5389356    0.1777592 -56.39  0.001681068    4.268    0.766
        54  -8.3416    148.1696    149.1276   9.5393594590e+01   2.3096025198e+01    0.2098517    0.1849674  18.52 0.0003529506    1.257    0.204
        55  -9.3187    103.3912    145.6200   1.0499673174e+02   3.2053866853e+01     0.386415    0.2078116  58.51  0.001222683    2.105    0.525
        56  -7.7364    152.9783    144.7123   9.3460292006e+01   2.2970315385e+01    0.2001942    0.1682045  46.50 0.0003727766    1.112    0.100
        57  -8.5856    124.2424    142.2033   9.9452483263e+01   2.9062155363e+01     0.305309    0.2374434  -1.14  0.001520808    1.946    0.486
        58  -9.6813    109.8367    138.7884   1.0222937502e+02   3.2387779706e+01    0.4222311    0.3338976 -20.44  0.001651963    1.803    0.445
        59 -10.0757     98.2338    138.8615   1.0506820832e+02   3.4354604419e+01    0.2617095    0.2571103 -62.31 0.0004935383    1.179    0.152
        60  -8.0694    249.8406    221.6128   8.9522096399e+01  -5.0314517786e+00    0.1439921   0.08823383  42.06 0.0004911954    1.618    0.382
        61  -8.4440    105.8149    132.9942   1.0211951773e+02   3.4329049674e+01    0.2859575    0.1958208  80.30  0.001127234    1.871    0.466
        62  -8.4997    116.0188    129.8725   9.8980711771e+01   3.3159520017e+01    0.2791993    0.2167595  43.78  0.001240653    1.276    0.216
        63  -9.1462    103.5581    126.3405   1.0138394543e+02   3.6162354821e+01     0.431819    0.2930547  15.37   0.00101364    2.407    0.585
        64  -7.2321    237.7164    127.3249   7.3449150584e+01   8.2556850830e+00    0.1283468     0.105067 -56.06 0.0003779015    1.599    0.375
        65 -11.1033     33.9192    119.8254   1.1877607092e+02   4.7116443966e+01    0.5472469    0.2484419 -57.25  0.002765577    2.013    0.503
        66  -9.7012     96.1648    189.3263   1.1282559167e+02   2.4491976001e+01    0.7201193    0.3270692 -84.23  0.002538769    5.063    0.802
        67  -7.2688    110.9721    119.4863   9.8058100843e+01   3.6316350193e+01    0.1979384    0.1384404  44.56 0.0003531509    1.427    0.299
        68 -11.1161     45.6035    115.9407   1.1505489882e+02   4.6793329784e+01    0.5394946    0.2721217  52.12    0.0026795    2.145    0.534
        69 -10.1804     64.5311    114.9363   1.0963382318e+02   4.4736457602e+01    0.3488025    0.1957902  50.39  0.001358698    1.887    0.470
        70  -8.6687     69.5289    116.9113   1.0860447554e+02   4.3611544427e+01    0.2029867    0.1202071 -62.78 0.0005214022    1.552    0.356
        71 -10.5291     31.0276    108.9204   1.1813480364e+02   4.9860156532e+01    0.4561913    0.2245436  60.97  0.002075934    2.445    0.591
        72  -9.1021     94.9274    200.8758   1.1437133459e+02   2.2576827087e+01    0.2777025    0.2061972  85.63  0.001036273    1.365    0.267
        73 -10.3743     65.7085    105.7816   1.0759697961e+02   4.6668763381e+01     0.336158    0.3234125 -19.05  0.002160477    1.243    0.196
        74  -8.9052     38.8240    104.5095   1.1523473563e+02   5.0116743974e+01    0.2481956    0.1366314  74.44 0.0009555246    2.354    0.575
        75  -8.6342    163.3832    103.8359   8.1641744820e+01   2.8460453008e+01    0.2462254    0.2031416  49.08 0.0001416956    1.195    0.163
        76  -7.7241    126.0088    101.5484   8.9919500667e+01   3.7175530147e+01    0.2137964    0.1451579  47.94 0.0003197872    1.477    0.323
        77  -8.4088     54.4532     99.9805   1.0980214209e+02   4.9431446832e+01    0.2020577    0.1146396 -64.39 0.0003541446    1.562    0.360
        78  -9.5031    219.6046     97.9299   6.9365215126e+01   1.6400933432e+01    0.2464623    0.2124965  41.71 0.0003679693    1.180    0.152
        79  -7.5735    223.5765     94.4379   6.7841254171e+01   1.6029331541e+01    0.1436475    0.1319542  -2.44   0.00014197    1.051    0.049
        80 -10.1199    100.3730    201.4768   1.1337654826e+02   2.1664349266e+01    0.5018883    0.2882799  80.53  0.002613697    2.346    0.574
        81  -8.8843    106.8205     82.8142   8.9994912596e+01   4.4975338400e+01     0.273315    0.2257005 -87.72  0.001395725    1.465    0.317
        82  -7.8445    164.1012     77.2873   7.4072050261e+01   3.3109811194e+01    0.2042591    0.1974677  60.84 0.0003822899    1.048    0.046
        83  -7.6122    138.2842     66.3209   7.6551443952e+01   4.1329342589e+01    0.1540166    0.1199302  10.14 0.0003094186    1.592    0.372
        84 -10.3049    121.1733     61.6422   7.9383710874e+01   4.6133715958e+01    0.2596166    0.2390265 -23.94 0.0002253796    1.075    0.070
        85  -7.5205    132.7043     59.3263   7.5622893070e+01   4.3892035815e+01    0.2094703    0.1346124  44.40 0.0007581585    1.573    0.364
        86 -11.0212    170.2754     53.1424   6.5389784458e+01   3.5494529508e+01     0.644433    0.4728152  45.22  0.001561187    1.378    0.274
        87  -8.9593    217.1814     49.3900   5.6783364416e+01   2.3987002442e+01     0.379027    0.2370876 -25.49 0.0008429101    1.588    0.370
        88  -7.5607    237.6612    249.6963   9.5547078389e+01  -5.8736138149e+00    0.1105991   0.05997826  19.71  0.000703931    1.673    0.402
        89 -10.7991    189.4269     32.5339   5.5711734798e+01   3.3301080450e+01    0.5388024    0.5131272  80.89  0.001333498    1.031    0.030
        90  -7.2128    164.3330     31.2546   5.9281197776e+01   4.0118973786e+01    0.1543678    0.1073781  36.26 0.0001966314    1.563    0.360
        91  -9.4771    242.2225    247.4780   9.4542798528e+01  -6.3063206208e+00     0.187703    0.1442281  26.05 0.0002181106    1.203    0.169
        92  -9.6456    124.6105    243.3454   1.1330934053e+02   1.1503594641e+01    0.2737601    0.1716218  72.86  0.001744767    2.006    0.501
        93  -7.1987    142.7547     11.6715   5.6087732926e+01   4.8080144129e+01    0.1457617    0.1033192  26.68 0.0001292413    1.540    0.351
        94  -8.2150    248.2854    243.6593   9.3080093017e+01  -6.8044384447e+00   0.08748762    0.0770506  35.61 0.0003950976    1.637    0.389
        95  -9.2925     96.4776    196.9906   1.1364158419e+02   2.3043127362e+01    0.3181243    0.1894137  67.01  0.001237312    1.745    0.427
