#   1 NUMBER                 Running object number                                     
#   2 MAG_AUTO               Kron-like elliptical aperture magnitude                    [mag]
#   3 X_IMAGE                Object position along x                                    [pixel]
#   4 Y_IMAGE                Object position along y                                    [pixel]
#   5 X_WORLD                Barycenter position along world x axis                     [deg]
#   6 Y_WORLD                Barycenter position along world y axis                     [deg]
#   7 A_WORLD                Profile RMS along major axis (world units)                 [deg]
#   8 B_WORLD                Profile RMS along minor axis (world units)                 [deg]
#   9 THETA_WORLD            Position angle (CCW/world-x)                               [deg]
#  10 FWHM_WORLD             FWHM assuming a gaussian core                              [deg]
#  11 ELONGATION             A_IMAGE/B_IMAGE                                           
#  12 ELLIPTICITY            1 - B_IMAGE/A_IMAGE                                       
         1 -13.1270    200.4004     33.6515   6.2129674943e+01   3.1713376760e+01    0.8261213    0.6624882  56.80  0.005097863    1.377    0.274
         2 -13.8012    217.3826     15.4273   5.6403247923e+01   3.0111354083e+01    0.9684649    0.8325365  42.32  0.006587589    1.679    0.404
         3 -11.9156      2.1375     19.3899   1.1238601837e+02   7.0247861604e+01    0.5915194    0.1247842 -49.00  0.002334625    4.815    0.792
         4 -12.4751      2.1942      4.9750   1.0643155333e+02   7.2182842595e+01    0.7151253    0.3712085   5.12  0.004698479    1.812    0.448
         5 -10.3568     20.0733     27.0620   1.0682707174e+02   6.7660698292e+01    0.1470984    0.1377826  31.71 0.0008919506    1.703    0.413
         6 -11.6131    184.8161    249.1110   1.1131408093e+02  -5.1692891391e+00    0.4327043    0.2954071  28.62  0.002460264    1.311    0.237
         7 -10.8255    176.2388    249.6370   1.1313182202e+02  -3.8867453586e+00     0.415314    0.2220161  15.44  0.001679448    3.080    0.675
         8 -10.8701    168.9649    249.2763   1.1455993587e+02  -2.6476869172e+00    0.3183324    0.2490577   5.17 0.0002905543    1.430    0.301
         9 -12.1067    168.8895    243.5145   1.1368572065e+02  -1.6301140856e+00    0.7266424    0.2824398  49.82  0.002386539    3.277    0.695
        10 -10.8734    162.7470    250.2257   1.1597787282e+02  -1.7970187126e+00    0.3376189    0.1839501  42.31 0.0004044241    1.630    0.387
        11 -11.9058    150.5750    246.8084   1.1798975691e+02   8.2158017669e-01    0.5837984    0.4040345 -38.01  0.003200237    1.714    0.417
        12 -11.2427    122.4754    233.8382   1.2209124723e+02   8.0635243571e+00    0.6320493    0.2666183 -50.69  0.002634487    2.621    0.618
        13  -9.8954    132.1623    224.1644   1.1854664350e+02   8.4067105763e+00     0.243703    0.2262205  47.84 0.0007766788    1.035    0.034
        14 -12.8138    143.3810    248.9763   1.1979686140e+02   1.6189374520e+00     1.270651    0.4916519  41.55  0.005349653    2.218    0.549
        15 -11.9079    116.7304    238.4494   1.2395698854e+02   8.0822022907e+00     0.700335    0.4000169 -48.24  0.003421556    2.048    0.512
        16 -11.5173    136.1350    224.7867   1.1776492827e+02   7.5831389421e+00     1.119147    0.2776745 -45.59   0.00320486    5.167    0.806
        17 -11.2820    109.5868    247.3768   1.2660331930e+02   7.4593071572e+00    0.5464565     0.347471 -82.62  0.002807576    1.993    0.498
        18 -11.5969    115.3973    250.2343   1.2575858435e+02   5.9680656351e+00    0.9123657     0.307682  37.45  0.003563728    2.708    0.631
        19 -11.9506    135.5312    241.0703   1.2032178153e+02   4.4212150626e+00    0.5787773    0.2974268 -50.41  0.001809713    2.180    0.541
        20 -12.2394    135.2701    236.6584   1.1974106850e+02   5.3286282723e+00    0.4886191    0.4523424 -47.87  0.002000742    1.220    0.180
        21 -12.4264    122.4783    245.7713   1.2371684334e+02   5.6802317450e+00     1.346353    0.4659065  51.08   0.00451079    3.274    0.695
        22 -12.0053    125.9340    242.2516   1.2251815299e+02   5.7967594752e+00    0.5655577    0.4265602 -76.82  0.001050383    1.554    0.356
        23 -10.2001    100.1340    234.8715   1.2703235931e+02   1.1524572091e+01    0.2630332    0.1832684  57.11  0.001432909    1.311    0.237
        24 -10.9695     98.4707    230.7855   1.2687117935e+02   1.2658688530e+01    0.3288476    0.2827102 -20.47   0.00163494    1.640    0.390
        25 -10.5460     84.1846    240.5911   1.3105837027e+02   1.2804693892e+01    0.4155759    0.2874404  62.50  0.001647377    1.304    0.233
        26 -12.0099    102.7036    239.8057   1.2710417571e+02   1.0086844364e+01    0.6082755     0.464865 -20.08 0.0006020551    2.125    0.530
        27 -10.6640     97.0520    238.9446   1.2818761087e+02   1.1161977903e+01    0.2815052     0.236554  63.78 0.0006555851    1.028    0.027
        28 -11.2878     91.8777    241.4928   1.2956953415e+02   1.1441728376e+01    0.3763534    0.3077271  66.58  0.001768698    1.065    0.061
        29 -11.4835     87.7291    236.8369   1.2989482514e+02   1.3054046075e+01    0.6670572    0.3320032  58.81  0.003023596    2.117    0.528
        30 -10.4689     84.5548    229.6953   1.2972773974e+02   1.5072357959e+01    0.2960412    0.2216271 -52.81  0.000781695    1.558    0.358
        31 -11.0811     99.2497    248.3721   1.2884841012e+02   8.8991279021e+00    0.4526076    0.3009938 -89.27  0.002455287    1.751    0.429
        32 -10.3231    102.5422    247.4773   1.2806833781e+02   8.5600637872e+00    0.2250259     0.209892 -58.77  0.001200817    1.296    0.229
        33  -9.7436     81.6121    247.7434   1.3235425585e+02   1.1716819187e+01    0.3193918    0.1715373 -81.46  0.001557822    2.215    0.549
        34 -10.0425     90.8351    250.2340   1.3076622069e+02   9.8273787560e+00    0.2414712    0.2091838  48.25  0.001117546    1.175    0.149
        35 -11.5051     86.6290    248.2014   1.3139337413e+02   1.0873032575e+01    0.4109294    0.3193734  23.27 0.0007775786    1.683    0.406
        36 -11.5607     59.9686    245.7523   1.3644608978e+02   1.5215717544e+01    0.4685856    0.2954897  58.30  0.001982395    1.339    0.253
        37  -9.8452     50.0251    250.0547   1.3872885108e+02   1.5662323406e+01    0.2883957    0.1375517  48.40  0.001217675    1.745    0.427
        38 -12.6352      4.6427    226.2688   1.4545609810e+02   2.5869566753e+01     1.158662    0.5995133 -88.97  0.006803258    1.582    0.368
        39 -12.5287     14.0741    215.2348   1.4290466983e+02   2.7336244831e+01     1.327022    0.5401173  49.18  0.006769299    2.205    0.547
        40 -12.2481      9.9683    206.6490   1.4307359996e+02   2.9663085631e+01     1.267854    0.6894364   7.44  0.005655132    4.382    0.772
        41 -12.5257     41.9623    206.7368   1.3638067804e+02   2.6177572808e+01     1.762546    0.7343888  72.09  0.006263488    3.846    0.740
        42 -13.3138     40.7554    242.5255   1.3986894184e+02   1.8399128143e+01     1.106371    0.7495371  87.10  0.002341383    1.270    0.213
        43 -12.7566     13.5284    239.3769   1.4467365279e+02   2.2201999406e+01     0.719425    0.5781927  65.43  0.002981835    1.200    0.167
        44 -12.7150     27.2507    226.0905   1.4115843085e+02   2.3526505763e+01    0.3775809    0.3239072  87.11 0.0007488626    1.192    0.161
        45 -14.0672     33.7858    218.5591   1.3922499915e+02   2.4444325420e+01     1.187826     1.012525 -63.03  0.007952945    1.401    0.286
        46 -11.2971    159.4516    244.2964   1.1576634403e+02  -2.0130788191e-01    0.3122222    0.2044587  57.44  0.001004144    1.817    0.450
        47 -11.5541    143.4231    241.4613   1.1870763564e+02   3.0161420217e+00     0.358771    0.2468056 -53.41  0.001941749    1.640    0.390
        48 -10.4315    244.5258    241.4971   9.8571724338e+01  -1.2746826200e+01    0.1213582   0.09738519  -3.05 0.0002355446    1.004    0.004
        49 -13.0476     27.5345    247.2420   1.4267279084e+02   1.9018997605e+01     1.146882    0.7009838  49.09  0.006925165    1.443    0.307
        50  -9.2512     66.8090    239.7722   1.3451712480e+02   1.5515828072e+01     0.185629    0.1218022  67.46 0.0005731696    1.383    0.277
        51  -9.7116     66.7276    243.8515   1.3493514925e+02   1.4672156370e+01    0.2560541    0.1739018  31.08 0.0009421801    1.756    0.430
        52  -9.6163     48.2596    237.2192   1.3797234460e+02   1.8567164106e+01    0.2561412    0.1339096  50.15  0.001374117    1.651    0.394
        53 -10.0533    173.0368    236.0552   1.1163127522e+02  -9.8688151056e-01    0.1970247    0.1611637  72.27 0.0004432733    1.629    0.386
        54 -11.1408    128.9467    235.0007   1.2086013956e+02   6.7333325852e+00    0.3592576    0.2584837  68.72  0.001885214    1.593    0.372
        55  -8.6292     70.6892    235.2939   1.3326729211e+02   1.5917002597e+01    0.1362534   0.08325111  66.99 0.0005855319    1.591    0.371
        56 -13.4259      5.4831    245.2757   1.4644082625e+02   2.1835026370e+01     1.158838    0.5664563  70.36  0.006858394    1.697    0.411
        57 -10.5684    168.7244    233.5699   1.1213003244e+02   1.9811876516e-01    0.3159374    0.2174727  17.06 0.0008440519    1.673    0.402
        58 -11.0973    113.4829    230.8002   1.2361833108e+02   1.0201448913e+01    0.3105287    0.2991994 -52.44  0.001107591    1.214    0.176
        59 -11.1574    109.3205    232.0489   1.2469102789e+02   1.0627927112e+01    0.3815607    0.2569459  82.43  0.001849223    1.824    0.452
        60 -11.4947    105.6938    228.4193   1.2499249279e+02   1.1995401606e+01    0.3902332    0.3622056  14.84  0.001706483    1.324    0.245
        61 -10.2896    156.6303    232.3501   1.1450200534e+02   2.5028628984e+00     0.223349    0.2089209 -51.77 0.0005738711    1.186    0.157
        62  -9.2265     45.6286    231.1588   1.3795453961e+02   2.0210280760e+01    0.1975207    0.1256992  79.30 0.0008997219    1.424    0.298
        63 -10.2807     79.3123    225.9803   1.3041275223e+02   1.6681398990e+01    0.4134571    0.2713701 -75.64  0.001626054    1.528    0.346
        64  -9.4135     77.0480    220.6745   1.3027296885e+02   1.8205108921e+01    0.2095407    0.1577087  70.85 0.0003890429    1.225    0.183
        65  -9.7980     92.3335    226.0406   1.2759804783e+02   1.4663508251e+01    0.2531367    0.1629307  62.10 0.0007244161    1.544    0.352
        66 -10.0095     51.6600    225.2822   1.3617850495e+02   2.0725149204e+01    0.2055014    0.1820166 -89.44 0.0003290957    1.181    0.153
        67 -10.5259    116.8540    224.5508   1.2199667457e+02   1.0962109085e+01    0.3388167    0.2568639  22.64 0.0005774281    1.579    0.367
        68  -9.2079     64.8621    224.7153   1.3335697485e+02   1.9060897054e+01    0.2740803    0.1793958 -43.94   0.00140848    2.141    0.533
        69  -9.1997    164.3315    224.0238   1.1148044430e+02   2.7729355509e+00    0.1842294    0.1756696 -41.08 0.0003728096    1.135    0.119
        70 -11.3684     97.9703    222.3761   1.2588082562e+02   1.4570669973e+01    0.6755739    0.3506306  61.75   0.00284014    2.328    0.571
        71 -10.0887     87.4884    223.3166   1.2831270516e+02   1.6023994073e+01    0.2806857    0.1955152 -74.26  0.001458162    1.450    0.311
        72 -10.8589    142.1201    219.8679   1.1565680524e+02   7.5500646025e+00    0.4026719    0.3118689 -65.49  0.001615098    1.452    0.311
        73 -10.4871     70.7431    219.3084   1.3148734388e+02   1.9439530663e+01    0.5436781    0.3135827  85.29  0.002561427    2.020    0.505
        74  -9.8562    245.5043    221.4917   9.4852284644e+01  -9.8708348394e+00    0.1252165    0.1046917 -10.13 9.651024e-05    1.027    0.026
        75  -8.9583     89.4863    218.9801   1.2731600766e+02   1.6682382538e+01    0.1930353    0.1104536  85.11 0.0008085356    2.405    0.584
        76  -9.0556    118.4881    216.4377   1.2042668197e+02   1.2446000428e+01    0.3075312     0.133383 -73.90  0.000809097    5.970    0.832
        77  -9.6924    109.9907    216.5636   1.2237102597e+02   1.3872550807e+01    0.3056274    0.2204883 -22.51  0.001434461    2.201    0.546
        78  -8.4884     80.7189    216.7381   1.2897978224e+02   1.8545952101e+01    0.1185348    0.1080346 -26.58            0    1.480    0.324
        79  -9.4814     88.1256    212.7695   1.2679892354e+02   1.8310628722e+01    0.2694693    0.1779668 -82.23 0.0008727707    1.628    0.386
        80 -10.9604     55.3174    208.1705   1.3360355949e+02   2.4148356081e+01    0.6741734    0.3667552 -87.78  0.002653179    1.989    0.497
        81  -8.7574    130.9708    211.4396   1.1679449440e+02   1.1347071852e+01    0.2063471    0.1342805  40.99 2.257067e-05    1.447    0.309
        82 -10.4602     63.1300    209.1501   1.3197786368e+02   2.2859537166e+01    0.3930735    0.3410075 -52.60  0.001980947    1.382    0.277
        83 -10.6191    111.4420    206.4869   1.2051087585e+02   1.5904042202e+01    0.4405345    0.2753211 -80.27  0.001103145    2.057    0.514
        84  -9.3554    106.5579    209.4899   1.2210544255e+02   1.6051088054e+01    0.1435286    0.1300499  71.31 7.897003e-05    1.011    0.011
        85  -9.0207     90.5341    208.9253   1.2572175187e+02   1.8818046624e+01    0.2003734    0.1331315 -65.72 0.0003501789    1.497    0.332
        86  -9.4586    156.1641    208.1472   1.1052040071e+02   7.4658813778e+00    0.2022516    0.1886631   7.09 0.0002781494    1.121    0.108
        87  -8.9249     74.4379    208.4737   1.2934554649e+02   2.1397418370e+01    0.1403896    0.1181465  77.57 0.0001649519    1.050    0.048
        88  -8.8189     69.9752    208.0438   1.3030395067e+02   2.2149691576e+01    0.1631182    0.1396506  82.52  0.000357331    1.017    0.017
        89  -8.9866    134.4338    207.5047   1.1534588000e+02   1.1589262495e+01     0.143152    0.1379346  48.03 8.569375e-05    1.046    0.044
        90  -9.9051     32.8134    206.9409   1.3836825645e+02   2.7205362918e+01    0.1860021    0.1445747 -66.79  0.000561546    1.313    0.238
        91  -9.8866     91.2835    205.1120   1.2500875469e+02   1.9588737260e+01    0.3915527    0.1993408  31.73  0.001498277    2.236    0.553
        92 -10.2659    250.1977    200.8761   9.0198733504e+01  -7.2114060112e+00    0.3238338    0.1453258 -24.01  0.001257345    3.170    0.685
        93 -10.8994     83.8476    201.5530   1.2624271765e+02   2.1604886924e+01     0.261198    0.2274728 -82.81 0.0002491004    1.081    0.075
        94  -9.4468      2.3233    201.9489   1.4425926670e+02   3.1426691183e+01    0.2191187    0.1324022 -77.85 0.0009908073    1.325    0.245
        95  -9.5204      2.8852    197.7694   1.4383813483e+02   3.2322402850e+01     0.292166    0.1715833  70.14 0.0008461105    1.526    0.345
        96 -10.4948      2.8673    193.6238   1.4352684025e+02   3.3268865920e+01    0.4178234    0.2107891  64.56  0.002257064    1.922    0.480
        97  -9.8556     43.4551    200.2399   1.3536938791e+02   2.7522693615e+01    0.3731034    0.2853606 -20.48  0.001646715    2.137    0.532
        98 -11.9582     55.9225    194.0967   1.3180685065e+02   2.7415592142e+01    0.5337126    0.2926783 -51.18  0.001038949    1.993    0.498
        99 -10.6324     21.1501    194.3004   1.3969626346e+02   3.1404528035e+01     0.367193    0.2460538 -54.41  0.001046966    1.641    0.391
       100  -9.0046     29.9411    189.7641   1.3729989094e+02   3.1562205313e+01    0.4101317    0.1295515  43.32  0.001660127    2.974    0.664
       101 -10.7735     27.8415    195.1425   1.3831084846e+02   3.0511108985e+01     0.376481    0.2337611  87.12  0.001174183    1.457    0.314
       102  -9.5813     30.6861    193.2825   1.3749365824e+02   3.0644296835e+01    0.2173502    0.1703576 -84.62 0.0001891913    1.058    0.055
       103  -9.9076    103.0177    196.0351   1.2085067727e+02   1.9795191553e+01    0.2172765    0.2008694  77.18 0.0003720643    1.008    0.008
       104 -10.3178    249.9199    194.2817   8.8992015660e+01  -6.0636080699e+00    0.2894632    0.2174446 -20.43  0.001725111    1.215    0.177
       105  -9.2083    113.2676    191.4057   1.1760507092e+02   1.9112192998e+01    0.2472117    0.1058581 -47.46 0.0008956221    2.526    0.604
       106  -9.3624     78.1034    193.9250   1.2652340291e+02   2.4317971879e+01     0.209434    0.1710296  74.01  0.001151516    1.158    0.137
       107  -9.5060    191.5069    191.4619   9.9636405921e+01   4.3412200985e+00    0.2451269    0.2302812 -21.85 0.0006204102    1.033    0.032
       108  -9.0056     38.5808    192.2126   1.3559647744e+02   3.0013350239e+01    0.1736026    0.1071773 -64.48 0.0003476333    1.468    0.319
       109 -10.4277    250.3250    187.8525   8.7685180390e+01  -5.0262711422e+00    0.3303014    0.1363971 -35.79   0.00142146    2.219    0.549
       110  -8.8702     41.0497    188.9950   1.3466698081e+02   3.0499820360e+01    0.2093844    0.1275815  67.87  0.001063556    1.691    0.408
       111  -9.7128     10.8413    188.4816   1.4141320390e+02   3.3753260381e+01    0.2775527    0.1562758  82.63 0.0009637399    1.635    0.388
       112 -11.4099      4.7388    186.0610   1.4252595972e+02   3.4851556559e+01    0.3320749    0.2870337  53.45  0.001397768    1.327    0.247
       113 -10.6889     71.5164    186.9313   1.2711515737e+02   2.7002643627e+01    0.3130781    0.2767927   8.17  0.001339223    1.481    0.325
       114 -11.6932     62.6328    186.0884   1.2916332154e+02   2.8465165734e+01    0.3490283    0.2610171 -41.70 0.0005130618    1.635    0.388
       115  -8.4102    145.5460    187.4530   1.0913386557e+02   1.4016300619e+01     0.150102    0.1450156  66.58  0.000115124    1.021    0.021
       116 -10.3132     83.6217    186.7365   1.2411156536e+02   2.5222447998e+01     0.247508    0.2141268  81.35 0.0003048382    1.083    0.077
       117  -9.2578     29.6154    183.9373   1.3675869864e+02   3.2993161583e+01    0.2755293    0.1855621 -34.30  0.001459147    2.171    0.539
       118  -9.2185     24.2683    183.9765   1.3799395642e+02   3.3535055370e+01    0.1837765    0.1413361 -79.56 0.0007539314    1.079    0.073
       119  -8.8539     36.3586    182.8385   1.3505906698e+02   3.2526978291e+01    0.1990276   0.09833235 -60.77 0.0009474042    1.795    0.443
       120  -9.0318     77.0124    188.5062   1.2600111033e+02   2.5802898061e+01    0.1953505    0.1367293  41.51 -4.270961e-05    1.452    0.311
       121 -10.3971      4.5572    178.9945   1.4196381267e+02   3.6513513977e+01    0.1916484    0.1478626 -66.54 0.0008323625    1.247    0.198
       122  -8.8921     47.0971    180.0000   1.3213831668e+02   3.1970685579e+01    0.2002174    0.0768344  31.67 0.0006127935    2.887    0.654
       123  -8.4099     12.3310    178.3191   1.4015683955e+02   3.6010508576e+01    0.1235668   0.08196592 -49.83  0.000704814    1.690    0.408
       124 -10.7543     65.3254    175.4958   1.2697754782e+02   3.0714882667e+01    0.3329975    0.2604204  44.46 -0.000364766    1.334    0.250
       125 -11.8609    248.3046    172.5439   8.5027958410e+01  -2.0206868124e+00     0.555623    0.3983489 -26.42  0.003111595    1.326    0.246
       126 -12.9448    245.3488    158.4342   8.2690361651e+01   1.0283954531e+00       1.7869    0.7829602 -52.75  0.007026639    2.704    0.630
       127 -13.2109    247.2119    101.0132   7.0609719556e+01   1.1120544937e+01     1.652793     0.666924 -36.39  0.006602472    2.625    0.619
       128 -11.8593    248.2581    112.9221   7.2911155764e+01   8.8186736454e+00    0.5647793    0.4877478  -9.41  0.003357835    1.536    0.349
       129 -11.9829    247.9509    142.1413   7.8953304811e+01   3.5680963546e+00    0.5846582    0.4572156 -32.20  0.003364053    1.224    0.183
       130 -13.1364    248.1985    134.1125   7.7271775030e+01   4.9944606809e+00     1.555293    0.5736531 -40.62  0.006155022    2.379    0.580
       131 -10.9241     19.3463    174.5276   1.3815496098e+02   3.6278061594e+01    0.3340806      0.19894  85.85  0.001789021    1.609    0.379
       132 -11.7576     59.5638    172.6767   1.2802360559e+02   3.2201119123e+01    0.3808843    0.2752759 -38.52 0.0007524191    1.698    0.411
       133  -9.8410     12.3780    172.8852   1.3961776842e+02   3.7297510518e+01    0.3060112    0.1481406 -63.42  0.001579616    1.709    0.415
       134 -11.0782     14.2085    166.8399   1.3856549461e+02   3.8584862324e+01    0.3039706    0.2979431  31.86   0.00204404    1.326    0.246
       135 -11.6246     10.2307    157.2709   1.3850592951e+02   4.1206986740e+01    0.3720364    0.2148772  72.98  0.001441476    1.895    0.472
       136 -10.4609     12.1878    154.1974   1.3767182686e+02   4.1788277767e+01    0.2036938    0.1591534 -81.06 0.0005958623    1.058    0.055
       137 -11.2750      2.5229    171.8712   1.4178877279e+02   3.8345890162e+01    0.4759742    0.2086503  88.88   0.00220906    2.315    0.568
       138 -11.6603      7.5602    166.4117   1.4010513249e+02   3.9238790595e+01    0.4764209    0.3342336  -7.08  0.002809553    2.213    0.548
       139  -8.7289     46.2682    172.6492   1.3138050413e+02   3.3883381508e+01    0.1413833   0.09309119  78.36 0.0006990575    1.624    0.384
       140  -9.8509     27.7112    171.4095   1.3580927976e+02   3.6222516626e+01    0.3590551    0.1740656 -50.83  0.001141357    2.132    0.531
       141  -8.8146    124.6124    171.4762   1.1111358156e+02   2.1808593742e+01    0.1527614    0.1454749 -77.75 -1.467622e-05    1.025    0.025
       142  -9.1852     51.8394    171.1415   1.2976774436e+02   3.3578297929e+01    0.2035648    0.1662361  77.69 0.0005527216    1.181    0.153
       143  -9.7402    166.9151    170.1321   1.0065354529e+02   1.3689955768e+01    0.2190681    0.2156757 -42.61 0.0003989107    1.007    0.007
       144  -8.5392     95.7086    169.2399   1.1809781108e+02   2.7588811623e+01    0.1456917    0.1100596  70.47            0    1.466    0.318
       145 -11.9336     81.6467    165.9916   1.2120583494e+02   3.0689213508e+01    0.6789217     0.557146  25.02  0.003570909    1.426    0.299
       146 -10.5981     81.9764    158.4356   1.1976274904e+02   3.2534808740e+01    0.4504963    0.2832884 -54.14  0.001239125    1.498    0.332
       147 -11.0143     67.8779    166.4747   1.2491442753e+02   3.2613613246e+01      0.39268     0.268839  25.11  0.001496864    1.775    0.437
       148 -10.2414     45.4503    164.3803   1.3045013231e+02   3.6031133328e+01    0.3464084    0.1772473 -43.63  0.001508731    2.336    0.572
       149  -9.0774    103.0968    175.9014   1.1740470746e+02   2.4667372013e+01    0.1954246    0.1750564 -36.77 0.0002754091    1.261    0.207
       150 -10.1267     31.1874    163.1838   1.3394514265e+02   3.7882873151e+01    0.2233109    0.1830106  74.63 0.0002647871    1.200    0.166
       151  -9.4145     38.4113    163.2551   1.3210970786e+02   3.7104861793e+01    0.2753544    0.1358972  46.87  0.001270204    2.178    0.541
       152  -9.5457     24.2457    161.9807   1.3554868023e+02   3.8856161809e+01    0.1831781    0.1427157 -73.81 0.0004080721    1.062    0.058
       153  -9.5595     43.1007    161.0465   1.3058774606e+02   3.7130093304e+01     0.202105    0.1732247 -81.93 0.0003210623    1.030    0.029
       154  -8.7205    228.4322    155.5058   8.4983877410e+01   4.5890734723e+00    0.1420637     0.126344 -43.91 0.0001893063    1.046    0.044
       155 -10.3467     32.4361    154.1907   1.3242983974e+02   3.9967571695e+01    0.3614051    0.2137891 -27.57  0.001480561    2.595    0.615
       156 -10.7842     25.3392    154.9683   1.3439372626e+02   4.0464409881e+01    0.3589338    0.1902694  26.13  0.001458808    2.276    0.561
       157 -10.0570      1.5786    152.7634   1.4016758604e+02   4.2921554002e+01     0.179532   0.09636751 -84.70 0.0009320588    1.645    0.392
       158 -10.3466     95.3263    150.4218   1.1456506515e+02   3.2347775096e+01    0.3287416    0.2664124  64.68 0.0009050591    1.336    0.251
       159 -10.3339     83.1854    149.5285   1.1773990953e+02   3.4577049127e+01    0.2634203    0.2323175 -56.77 0.0003228221    1.081    0.075
       160 -12.2620      2.7740    143.9128   1.3890939253e+02   4.4931444328e+01    0.5351156    0.2825951 -75.57  0.002905537    1.534    0.348
       161 -12.6375      5.4316    141.1677   1.3789779176e+02   4.5399906870e+01     0.569856    0.3184821 -55.19  0.003203382    1.532    0.347
       162 -11.4669      9.0634    144.4926   1.3733916821e+02   4.4350968029e+01    0.2883403    0.2639315 -42.73  0.000855852    1.279    0.218
       163 -10.3277      9.7025    141.2964   1.3678044964e+02   4.5066159552e+01    0.2069314    0.1546832 -63.09  0.000389122    1.120    0.107
       164 -10.6467     54.1491    146.6945   1.2534616975e+02   3.9394096107e+01    0.4321747    0.2708759  64.74  0.002009656    2.014    0.504
       165 -10.9756     21.3142    148.9393   1.3466745542e+02   4.2295942931e+01    0.4462118    0.1368448  36.09  0.001825701    3.333    0.700
       166 -12.2773     68.3811    144.1418   1.2086397594e+02   3.8143356413e+01    0.7267692    0.5265198 -89.74  0.002396534    1.613    0.380
       167  -9.6699     41.0262    147.6400   1.2915068113e+02   4.0686112706e+01    0.1766571    0.1692328  79.86 0.0004419335    1.145    0.127
       168  -9.8403    235.8872    145.9135   8.1687300423e+01   5.0441975599e+00    0.2111953    0.1781725 -18.55 0.0004996564    1.292    0.226
       169  -8.8195     98.4882    146.4611   1.1287206406e+02   3.2780697025e+01    0.1521866    0.1449216 -52.96 0.0001321271    1.057    0.054
       170  -9.9040    133.3302    141.0447   1.0233046904e+02   2.7383568244e+01    0.5000017    0.2437525 -56.35  0.001795462    2.253    0.556
       171 -10.7782     38.5155    141.5208   1.2888688619e+02   4.2462897209e+01    0.3217261    0.2108995  71.62 0.0007214753    1.874    0.466
       172  -9.9130    108.1345    136.1271   1.0792250967e+02   3.3553717498e+01    0.4490653    0.2986288 -19.32  0.001649157    2.362    0.577
       173 -10.8211     73.6006    174.1333   1.2465742222e+02   2.9869594770e+01    0.2668955     0.230884 -55.74 0.0004201068    1.188    0.158
       174 -10.4161     59.7940    136.4292   1.2187124272e+02   4.1222415990e+01    0.3262814    0.2194862 -67.99 0.0002525336    1.427    0.299
       175  -9.7009     55.9349    135.7297   1.2286729696e+02   4.1888126596e+01    0.2065165    0.1776755 -41.48 0.0004681414    1.180    0.152
       176 -10.3852     47.9085    135.3517   1.2514514555e+02   4.2946543654e+01     0.269677    0.1837875 -31.38  0.001362767    1.742    0.426
       177 -13.0428     13.9387    126.9090   1.3366732890e+02   4.8173377408e+01    0.5582023    0.4993584 -44.32  0.003830647    1.193    0.162
       178 -13.0786      2.6336    122.9349   1.3636156509e+02   4.9857993768e+01    0.7538342    0.5161835 -62.17  0.004754873    1.141    0.124
       179 -10.2050     44.7623    130.3783   1.2517355889e+02   4.4516646916e+01    0.2764558    0.1694831 -81.15  0.001089982    1.910    0.476
       180 -11.5894     17.0520    140.1048   1.3464286142e+02   4.4787954810e+01    0.3575489    0.2268513  54.57  0.001984712    1.828    0.453
       181  -9.6889     33.3372    127.9957   1.2814963330e+02   4.6274399709e+01    0.2223437     0.102769 -87.18 0.0007050258    4.467    0.776
       182  -9.2819     48.1435    126.1481   1.2336558477e+02   4.5160515394e+01     0.199894    0.1694623 -42.06  0.000431164    1.150    0.130
       183  -8.6723     94.4919    133.4118   1.1114626850e+02   3.6679694991e+01    0.1496321    0.1431993 -41.96 0.0001814867    1.056    0.053
       184 -11.0061    249.5988    150.9297   8.0480746316e+01   1.6737607494e+00    0.4811859    0.2634347 -44.87  0.001986229    1.585    0.369
       185 -10.2845     30.4631    119.5052   1.2753051455e+02   4.8569023509e+01    0.2166787    0.1271929   1.10  0.001041813    2.443    0.591
       186 -11.9879     16.5295    117.1298   1.3139048517e+02   5.0277370778e+01    0.3772528    0.2386755  12.19  0.002140794    1.987    0.497
       187 -12.6376      9.8918    113.7471   1.3287280843e+02   5.1524184511e+01    0.4344057    0.3289153 -89.37   0.00204304    1.412    0.292
       188 -10.3414    231.8677    116.1629   7.6023332654e+01   1.1422710836e+01    0.2211563    0.1754862 -63.34 0.0005464993    1.216    0.177
       189 -10.0401    167.6485    112.8005   8.7182647667e+01   2.6131715415e+01    0.2925507    0.2401534  84.46 0.0008627141    1.373    0.272
       190 -10.2870    236.4833    111.0025   7.4216749346e+01   1.1449474166e+01    0.2234844    0.1230574 -42.43  0.001041601    1.621    0.383
       191  -8.8443    203.4927    111.4978   7.9737134114e+01   1.8293102924e+01    0.1475798    0.1379113 -60.57 -4.81198e-05    1.039    0.037
       192 -11.1733      2.1638    109.3701   1.3456216908e+02   5.2994059742e+01      0.29061    0.1848811 -88.19  0.001677122    1.724    0.420
       193  -9.0109     29.3112    109.3150   1.2599126082e+02   5.1051531442e+01    0.1366206    0.0829161 -37.14 0.0003265829    1.636    0.389
       194  -9.0301     35.1343    107.3735   1.2371725650e+02   5.0958740653e+01    0.1661701    0.1180088  39.38 0.0002684596    1.653    0.395
       195 -12.5858     14.6007    101.3925   1.2927327165e+02   5.4013476185e+01    0.4998359    0.2592166 -51.89  0.001671051    1.513    0.339
       196 -11.2589     21.2418     93.0438   1.2539192549e+02   5.5374576848e+01    0.3602477    0.1215281 -50.83  0.001441886    2.222    0.550
       197  -8.7576     71.7658    100.0341   1.0998643627e+02   4.8126923367e+01    0.1761359    0.1114257 -50.69 0.0002750013    1.489    0.328
       198 -10.1015    249.7951    117.7862   7.3690653507e+01   7.6606968586e+00    0.2516694    0.2388443  18.97 0.0006972495    1.327    0.246
       199 -11.4381      2.6907     76.6052   1.2853543180e+02   6.0066756054e+01    0.3403503     0.112529 -54.86  0.001641815    2.106    0.525
       200  -8.6516    184.5125     77.4917   7.4964389888e+01   2.8896913184e+01    0.1436224    0.1349207  88.66 0.0001218867    1.054    0.051
       201 -12.0611    199.7028    246.0868   1.0785167268e+02  -7.0062819958e+00     0.502373    0.2331204  42.36  0.002351875    2.129    0.530
       202 -10.5331     73.9221    243.7263   1.3348367860e+02   1.3670289370e+01    0.3804021    0.2890814 -66.44  0.002240391    1.420    0.296
       203  -9.1800     68.9670    247.0000   1.3479717562e+02   1.3705231127e+01    0.2099181   0.06349622  37.74 0.0004502955    3.038    0.671
       204 -11.9403    178.7057    244.0069   1.1174316593e+02  -3.3282774423e+00    0.4275537     0.287419  39.98  0.001365893    1.362    0.266
