#   1 NUMBER                 Running object number                                     
#   2 MAG_AUTO               Kron-like elliptical aperture magnitude                    [mag]
#   3 X_IMAGE                Object position along x                                    [pixel]
#   4 Y_IMAGE                Object position along y                                    [pixel]
#   5 X_WORLD                Barycenter position along world x axis                     [deg]
#   6 Y_WORLD                Barycenter position along world y axis                     [deg]
#   7 A_WORLD                Profile RMS along major axis (world units)                 [deg]
#   8 B_WORLD                Profile RMS along minor axis (world units)                 [deg]
#   9 THETA_WORLD            Position angle (CCW/world-x)                               [deg]
#  10 FWHM_WORLD             FWHM assuming a gaussian core                              [deg]
#  11 ELONGATION             A_IMAGE/B_IMAGE                                           
#  12 ELLIPTICITY            1 - B_IMAGE/A_IMAGE                                       
         1 -11.8563    228.5301     27.8049   2.8281548354e+01   2.6074509532e+01    0.6955525    0.5459628 -52.02  0.002870766    1.081    0.075
         2 -12.4266    212.5871     41.3861   3.2818436687e+01   2.7780058754e+01     1.025717    0.8114402 -24.65  0.005673139    1.400    0.286
         3 -10.1674      1.8916     48.2377   9.9363795716e+01   6.7604960883e+01    0.5091572     0.107947 -65.90  0.001703116    4.189    0.761
         4 -10.6119      2.0000     17.9820   8.9023662263e+01   7.3785499774e+01    0.6516435   0.05013429 -55.04  0.001795475    7.170    0.861
         5  -9.7791    249.6718      8.5451   2.2907949828e+01   2.4035009510e+01    0.3377175    0.1920885 -42.72   0.00168561    1.415    0.293
         6  -9.9030    249.4971      4.0069   2.2034885363e+01   2.4518124369e+01    0.2972463    0.2396083 -33.53  0.002251938    1.377    0.274
         7 -10.6203     46.4905    218.2067   1.0731818097e+02   2.2964334852e+01    0.5125424    0.2828227  27.39  0.002743211    1.777    0.437
         8  -9.4222     60.2010    247.8752   1.0661519202e+02   1.5595137821e+01    0.3068099    0.1801648  80.48  0.001517452    2.051    0.512
         9 -11.5655     28.9028    198.0448   1.0988078429e+02   2.9170244509e+01    0.5172487       0.3646 -33.61   0.00108215    1.950    0.487
        10 -14.2494     38.0893    188.6342   1.0684249846e+02   3.0407356013e+01       9.0978     3.631828  75.38   0.03042282    4.399    0.773
        11  -7.7760     99.5030    180.9803   8.9825648198e+01   2.4278689163e+01     0.199789    0.1420851 -59.03 0.0004631646    1.492    0.330
        12  -9.8470     76.8393    213.8237   9.9846326247e+01   2.0260899240e+01      0.51918    0.2547367 -87.66  0.002050149    3.524    0.716
        13 -10.4994     58.1834    172.8231   9.9813958136e+01   3.1921463194e+01    0.5085584    0.3231153 -23.12  0.002297412    2.354    0.575
        14 -10.2712     63.4994    168.0027   9.7695415617e+01   3.2435276611e+01    0.3222249    0.2723475 -25.46 0.0008205026    1.382    0.277
        15 -13.4803      8.5307    208.0358   1.1519463269e+02   2.8797816930e+01     1.688608    0.9601871 -81.08  0.005260548    1.641    0.391
        16 -11.7873     60.7043    154.7620   9.6598789761e+01   3.6071826124e+01    0.5131215    0.3303944 -37.29  0.001249454    1.829    0.453
        17 -11.1743     81.5943    152.6631   9.0054138043e+01   3.3720169846e+01     1.071946    0.5465988 -47.05  0.002542103    2.022    0.505
        18 -10.5122     73.8475    159.0416   9.3398539066e+01   3.3261409781e+01    0.4373429    0.3780859 -38.10 0.0004356267    1.236    0.191
        19 -12.3339     68.4950    144.8535   9.2632170619e+01   3.7542697669e+01     1.417226    0.8204609  79.51  0.003515669    2.899    0.655
        20  -9.5639     32.8441    157.0791   1.0512205916e+02   3.8568745835e+01    0.2883763    0.2128321  66.67 0.0006025464    1.359    0.264
        21  -9.7557     29.1301    219.4772   1.1129677722e+02   2.4504896152e+01    0.3038188    0.2091527  64.78  0.001043868    1.278    0.218
        22  -9.2028     23.5463    147.2147   1.0679748482e+02   4.1880377786e+01    0.2266095    0.1731234 -89.20 0.0006109561    1.219    0.180
        23  -9.4723     96.4969    140.1808   8.3217411338e+01   3.4414843232e+01    0.3222517    0.2793411  -2.40  0.001655142    1.267    0.211
        24  -8.3658     99.3050    137.3432   8.1779329503e+01   3.4622042030e+01    0.2438027    0.1787648 -16.85 0.0009692215    1.727    0.421
        25 -10.8307     84.2636    138.2057   8.6513083314e+01   3.6890884724e+01    0.3363741    0.2840454 -45.25 0.0005775845    1.177    0.151
        26  -9.1932     36.5037    160.4881   1.0444480634e+02   3.7361513887e+01    0.2983772     0.198203  61.66 0.0008875986    1.555    0.357
        27  -9.2933    107.1357    130.2137   7.7865587128e+01   3.4930268625e+01    0.4699307    0.3432475   7.60  0.001895814    1.735    0.424
        28 -10.6648     20.6744    195.0409   1.1164154032e+02   3.0612603431e+01    0.3419442    0.2416284  53.78  0.001324948    1.253    0.202
        29  -8.1028    105.7896    118.7824   7.5508103294e+01   3.7861736856e+01    0.2245454     0.202341 -16.04 0.0006726056    1.143    0.125
        30  -8.7659    231.4363    113.9923   4.7084921179e+01   1.3599747868e+01    0.2316896    0.1790853  22.30  0.001356295    1.560    0.359
        31  -7.6917    205.6669    110.2825   5.0227843908e+01   1.8999059989e+01    0.1350461    0.1059474 -69.23 0.0006821051    1.614    0.381
        32  -8.2173     73.0504    109.2141   8.3771801455e+01   4.5818529669e+01    0.2543804    0.1695923  60.46  0.001087539    2.027    0.507
        33  -7.7522     46.4840     91.5198   8.9380535948e+01   5.3795775755e+01    0.1401979    0.1335891 -54.06 0.0008085716    1.090    0.082
        34  -9.9819      2.6997     68.6978   1.0349018324e+02   6.2875496587e+01    0.3033677    0.2372476  54.53   0.00155253    1.603    0.376
        35  -8.1298     23.1710     67.3873   9.3430370566e+01   6.1892586361e+01    0.1850952    0.1158968  32.06 0.0006236724    1.790    0.441
        36  -9.9073      1.8407     61.1539   1.0239726297e+02   6.4680514957e+01    0.4248926    0.1296114 -71.17  0.001597532    3.222    0.690
        37  -8.5885     30.7931     60.7649   8.7851118894e+01   6.2689755662e+01    0.4195458    0.1546962  41.65  0.001506164    3.793    0.736
        38  -9.7412     13.3207     60.1691   9.6389075785e+01   6.4284188990e+01    0.2488484    0.2006344 -59.22 0.0005999755    1.192    0.161
        39  -8.6277     33.1496     54.9926   8.4816830985e+01   6.3692009232e+01    0.2020287    0.1735226 -26.55  0.000446699    1.019    0.018
        40 -10.9812    220.8796     34.6284   3.0450971692e+01   2.6852234037e+01    0.4975481    0.3972573  19.02  0.001291542    1.832    0.454
        41 -14.7760     15.4349    242.6682   1.1537657523e+02   2.1204428801e+01     6.060109      2.10046  18.67   0.02391207    4.799    0.792
        42 -12.0489    202.9071     47.8888   3.5456617318e+01   2.9050562059e+01    0.7342661    0.4990135  46.72  0.003307275    1.735    0.424
        43  -8.7211     70.3176    248.1075   1.0452622740e+02   1.4373773354e+01    0.1520028    0.1352178  64.82 0.0006304284    1.156    0.135
        44  -9.6027     10.4910     52.1615   9.5722587606e+01   6.6266913583e+01    0.4187657     0.106088  37.88  0.001267089    6.235    0.840
        45 -10.1829     80.5852    243.6735   1.0197179199e+02   1.3936280822e+01    0.4129787    0.2187979 -80.17   0.00171776    2.643    0.622
        46 -11.0415    126.9715    228.7013   9.0135849249e+01   1.0478353314e+01    0.4183096    0.3145987  21.43  0.002506055    1.195    0.163
        47 -10.4466     49.4140    222.1703   1.0697101706e+02   2.1817752743e+01    0.2989644     0.208452 -89.09  0.001180881    1.493    0.330
