#   1 NUMBER                 Running object number                                     
#   2 MAG_AUTO               Kron-like elliptical aperture magnitude                    [mag]
#   3 X_IMAGE                Object position along x                                    [pixel]
#   4 Y_IMAGE                Object position along y                                    [pixel]
#   5 X_WORLD                Barycenter position along world x axis                     [deg]
#   6 Y_WORLD                Barycenter position along world y axis                     [deg]
#   7 A_WORLD                Profile RMS along major axis (world units)                 [deg]
#   8 B_WORLD                Profile RMS along minor axis (world units)                 [deg]
#   9 THETA_WORLD            Position angle (CCW/world-x)                               [deg]
#  10 FWHM_WORLD             FWHM assuming a gaussian core                              [deg]
#  11 ELONGATION             A_IMAGE/B_IMAGE                                           
#  12 ELLIPTICITY            1 - B_IMAGE/A_IMAGE                                       
         1 -14.6410      2.9280     87.8132   1.3481136606e+02   5.6108768791e+01      3.27116    0.3617569 -75.46    0.0088803    6.707    0.851
         2 -14.9772      4.7720    141.6095   1.3856318561e+02   4.3960097489e+01     3.097432    0.7228258 -82.90   0.01183678    3.991    0.749
         3 -13.5637    203.4666     28.5461   5.9810537507e+01   3.0505340417e+01     1.387423     1.230634  27.81   0.00603927    1.196    0.164
         4 -13.5628    219.9824     11.4240   5.3167741919e+01   2.8185205664e+01    0.9224533    0.8376403  32.63  0.002294775    1.218    0.179
         5 -13.1679      4.2760      7.8253   1.1747695151e+02   7.3682838071e+01     1.081925    0.3373764 -55.75  0.005123831    2.338    0.572
         6 -14.4163      9.4613    239.9865   1.4183588534e+02   2.5251388989e+01     1.814678    0.9553221  82.63   0.01395489    1.652    0.395
         7 -13.0630    246.8800    247.7839   1.0145984525e+02  -5.9585456024e+00    0.7245855    0.4616801  19.39  0.005387311    1.059    0.055
         8 -13.3511    235.2588    247.1485   1.0324711481e+02  -4.3940570934e+00     1.103743    0.3340504  29.97  0.005168254    2.827    0.646
         9 -14.8089     28.2217    225.2311   1.3816588915e+02   2.5916994600e+01     0.822534    0.8080947  65.03  0.007559308    1.512    0.339
        10 -11.8541     63.2399    246.7768   1.3326609072e+02   1.8810681886e+01    0.3815499    0.1822257  65.14  0.002076144    2.077    0.519
        11 -12.8098     40.5156    211.8608   1.3525304870e+02   2.6991549093e+01    0.5365315    0.3813831  61.40   0.00249919    1.086    0.079
        12 -10.9742    163.8292    248.1677   1.1563145051e+02   5.4310488259e+00    0.2152015    0.1294208 -26.95  0.001352627    2.393    0.582
        13 -12.2694    139.9866    249.3888   1.2000145034e+02   8.6326893618e+00    0.3488345     0.234373  40.94  0.002483856    1.106    0.096
        14 -13.0882      9.4399    207.1811   1.4072838853e+02   3.0712233639e+01    0.6514186    0.4269947  35.25  0.002859339    1.573    0.364
        15 -11.5711    198.1044    247.7842   1.0958245341e+02   6.1730216364e-01    0.2533184    0.1743447 -16.98  0.001810454    1.711    0.415
        16 -10.7615    125.1940    232.3912   1.2093285810e+02   1.3044576802e+01    0.1745494   0.08056935  44.83 0.0009551299    1.712    0.416
        17 -11.1692     99.8154    229.5596   1.2541824066e+02   1.6962050254e+01    0.2871171   0.06151229  43.22  0.001156024    3.294    0.696
        18 -11.0067     57.8192    213.2662   1.3206643367e+02   2.4876200325e+01    0.3334625     0.148602  61.73  0.001809273    2.239    0.553
        19  -8.8166    152.4979    212.6364   1.1329104535e+02   1.1891769747e+01    0.1242924    0.0955562  35.05 -5.099391e-05    1.039    0.038
        20 -11.9937     53.4302    196.9659   1.3173040798e+02   2.8323714326e+01    0.2624348    0.2281077 -46.28 0.0006979328    1.567    0.362
        21 -11.4621      2.6496    189.5265   1.4130771709e+02   3.4468200762e+01    0.2364883    0.1678056  70.68  0.000577882    1.048    0.046
        22 -12.1099     60.6869    188.3987   1.2951886458e+02   2.9130557848e+01    0.2233221    0.2017339  69.52 0.0003740023    1.132    0.117
        23 -11.8381      6.3782    185.6158   1.4043580884e+02   3.4918637945e+01    0.3491349     0.145828  69.83  0.001395726    2.089    0.521
        24 -11.8933     23.7173    181.0332   1.3673166083e+02   3.4364762182e+01    0.4274667    0.1559555  80.59  0.001932104    3.262    0.693
        25 -12.7642     57.4936    174.9251   1.2898072444e+02   3.2172648800e+01    0.2374571    0.2294963 -82.53 0.0006341487    1.242    0.195
        26 -12.1548     59.3195    171.3654   1.2822075195e+02   3.2690469609e+01    0.2331602    0.2159759  83.11 0.0006458288    1.138    0.121
        27 -10.8494     72.2870    175.6188   1.2571616700e+02   3.0252039606e+01    0.2160998    0.1847875  66.26 0.0003503121    1.021    0.020
        28 -13.3998     32.9089    246.7947   1.3831689078e+02   2.2020246215e+01    0.8429036    0.7154735  30.02  0.007509198    1.593    0.372
        29 -10.3545     89.8096    167.4754   1.2067210212e+02   2.9560812374e+01    0.3780165    0.2028906  60.87  0.001276961    2.255    0.557
        30 -13.6671      5.4356    116.4065   1.3665844513e+02   4.9465085912e+01     1.127038    0.5608638  85.48   0.00545013    1.843    0.457
        31 -10.4822     94.0222    151.6369   1.1735338718e+02   3.2262430525e+01    0.2721448    0.2513219  59.93 0.0007346481    1.011    0.011
        32 -12.1386     82.3320    150.2411   1.2009279767e+02   3.4249164721e+01    0.2751268    0.2296073 -52.19  0.001153517    1.287    0.223
        33  -9.4160     97.1989    147.4728   1.1588015840e+02   3.2672965090e+01    0.1937115    0.1273485  37.69 0.0009897887    1.468    0.319
        34 -11.9357     67.8337    142.8237   1.2276751508e+02   3.7796794682e+01    0.5273399    0.3619939  74.34  0.001825503    1.596    0.373
        35 -10.8389     64.6860    141.6698   1.2343298658e+02   3.8443049879e+01    0.2762081    0.1959868 -48.44 0.0008759278    1.540    0.351
        36  -9.8128    107.2362    136.6034   1.1135017938e+02   3.3410015239e+01    0.4062295    0.2589118 -17.34  0.001385457    2.816    0.645
        37 -10.5552     93.9695    133.8951   1.1437625346e+02   3.6138685189e+01    0.2110081    0.1913861 -59.15 0.0003386983    1.111    0.100
        38  -9.8154     70.4873    125.0304   1.1933004895e+02   4.1493881923e+01    0.2578322    0.1670119  54.15 0.0009352732    1.659    0.397
        39  -9.1546    105.0720    123.4619   1.0930486043e+02   3.6649682752e+01    0.1948402    0.1381759  38.25 0.0002769626    1.399    0.285
        40  -8.5687     71.2479    116.6787   1.1765003686e+02   4.3324609729e+01    0.1328626    0.0997715  80.88 0.0001983047    1.530    0.347
        41  -9.3401     61.9231    110.0416   1.1924809748e+02   4.6051575612e+01    0.3032248    0.1452064  55.61  0.001213626    2.886    0.654
        42  -9.8147     51.7839    102.8768   1.2112667519e+02   4.8894653203e+01    0.2177837     0.180651  62.92 0.0005676507    1.298    0.230
        43  -9.8514    160.0250     77.9874   8.2803361049e+01   3.4420850146e+01     0.192993    0.1817705  19.96 0.0005470513    1.020    0.019
        44 -11.9227    186.8199    248.0390   1.1157150825e+02   2.1807220832e+00    0.2970898    0.2357418  62.98  0.002090996    2.046    0.511
        45 -11.9240     79.8729    167.3059   1.2299419707e+02   3.0965485757e+01    0.4577019    0.4191958 -21.06  0.003023698    1.385    0.278
        46 -12.7623     99.2556    248.9707   1.2717862615e+02   1.4143007066e+01    0.7510083     0.138206  36.01  0.002730884    4.674    0.786
        47 -10.0126    156.6643    249.6873   1.1707299500e+02   6.2603277516e+00    0.1103943   0.07198659  17.61 0.0005215977    1.687    0.407
