#   1 NUMBER                 Running object number                                     
#   2 MAG_AUTO               Kron-like elliptical aperture magnitude                    [mag]
#   3 X_IMAGE                Object position along x                                    [pixel]
#   4 Y_IMAGE                Object position along y                                    [pixel]
#   5 X_WORLD                Barycenter position along world x axis                     [deg]
#   6 Y_WORLD                Barycenter position along world y axis                     [deg]
#   7 A_WORLD                Profile RMS along major axis (world units)                 [deg]
#   8 B_WORLD                Profile RMS along minor axis (world units)                 [deg]
#   9 THETA_WORLD            Position angle (CCW/world-x)                               [deg]
#  10 FWHM_WORLD             FWHM assuming a gaussian core                              [deg]
#  11 ELONGATION             A_IMAGE/B_IMAGE                                           
#  12 ELLIPTICITY            1 - B_IMAGE/A_IMAGE                                       
         1 -14.0762    217.2024     26.7453   3.5064086039e+02   2.9814349802e+01    0.9439824    0.7449257 -35.62  0.004209637    1.306    0.234
         2  -8.9563    112.9705     26.0087   2.3075440810e+00   5.3412161362e+01    0.1660199    0.1478936  82.98 0.0003135418    1.028    0.027
         3 -12.7140    247.6776    249.0147   2.8448476628e+01  -4.9738972948e+00    0.5496988    0.4684399 -34.39  0.004703072    2.052    0.513
         4 -12.3614    248.2475    244.8718   2.7794531047e+01  -4.5558767684e+00    0.4320785    0.2184683 -27.57  0.003108615    1.523    0.344
         5 -19.5998     19.4053    148.6125   6.7715985224e+01   4.1491359338e+01     19.95556     6.354846 -81.73   0.06595886    3.280    0.695
         6 -12.2368     88.6132    219.1159   5.5263526742e+01   1.6625025413e+01    0.4404131    0.4230519 -36.21  0.001870814    1.168    0.144
         7  -8.4520     71.2000    222.1508   5.9800881025e+01   1.8048414832e+01    0.1017998   0.08177629  11.97            0    1.273    0.215
         8  -9.2602     71.6206    217.8710   5.9289936290e+01   1.8894821281e+01    0.1516651    0.1166944  75.24 0.0003863625    1.475    0.322
         9  -9.9568     67.9283    215.0578   5.9937352161e+01   1.9919748887e+01    0.1771838    0.1562277  42.75  0.001108919    1.033    0.032
        10 -11.0510    250.5397    206.8640   2.1874366771e+01  -1.9900871690e-01     0.367632   0.07979546 -38.44  0.001503817    3.679    0.728
        11 -10.0748    164.7271    206.4527   3.6396809158e+01   9.3527539355e+00    0.4324219     0.183755 -54.97  0.001778019    3.437    0.709
        12 -10.3248    193.2224    195.0869   2.9092000409e+01   7.6668375426e+00    0.4175391    0.2525931 -59.24  0.002026452    2.999    0.667
        13  -9.2999     70.4358    197.9251   5.7522707137e+01   2.3431415275e+01     0.169371    0.1348466 -75.52 0.0001034032    1.366    0.268
        14 -10.7691    155.0947    195.0986   3.6573083520e+01   1.2632644769e+01    0.2858604    0.1762398 -49.70  0.001171698    1.741    0.425
        15 -10.4760     50.2324    195.9830   6.2753737093e+01   2.6238230339e+01    0.1923103    0.1652343  62.51 0.0005379078    1.102    0.093
        16  -9.6320     55.0357    191.5030   6.1007513908e+01   2.6766890888e+01    0.2030766    0.1650778  69.37  0.001141087    1.229    0.187
        17  -9.6360     69.7725    186.6638   5.6397811908e+01   2.6154804649e+01    0.2729826    0.1657596  42.40  0.001303435    1.531    0.347
        18 -10.3137     91.1942    185.1274   5.0364061984e+01   2.3683912095e+01    0.1881891    0.1814127 -63.78 0.0002714065    1.102    0.092
        19  -9.6162     89.0497    181.9851   5.0492983211e+01   2.4710670680e+01    0.2531028    0.1978003  80.89 0.0005816045    1.530    0.347
        20 -11.1002     55.1669    235.8505   6.4763826009e+01   1.7015660041e+01     0.165811    0.1505754 -69.91 0.0005039311    1.297    0.229
        21 -11.8807    173.7487    177.1871   2.9652074446e+01   1.3300969222e+01    0.6964094    0.3940438 -48.56  0.003504745    1.834    0.455
        22 -11.7743    179.5950    169.4253   2.7089198197e+01   1.3855552283e+01    0.6005464    0.4619977 -33.75   0.00268724    1.164    0.141
        23 -10.2598     74.0234    182.0146   5.4634398109e+01   2.6727590151e+01    0.2140607    0.1923733  58.51 0.0005085768    1.095    0.087
        24 -10.4248    154.3877    179.1906   3.4011654058e+01   1.5732446404e+01    0.1848574    0.1254016 -55.18 0.0006508796    1.695    0.410
        25 -10.3039    160.8885    178.1611   3.2444785871e+01   1.4976771482e+01    0.1873244     0.184488 -26.85 0.0006343389    1.227    0.185
        26 -12.3378    133.8931    172.0328   3.7376522313e+01   2.0277483784e+01    0.5893851    0.3864909 -77.77  0.002518236    2.656    0.624
        27 -10.5099     60.2670    165.5709   5.6489681220e+01   3.2608588690e+01     0.499927    0.2482955 -61.65  0.002093516    1.978    0.494
        28 -12.2613     53.1195    231.3682   6.4920548137e+01   1.8129697320e+01    0.3712672    0.1770305 -70.62   0.00167586    2.375    0.579
        29 -10.2495     99.9452    161.1596   4.4176481850e+01   2.8057062942e+01    0.2307489    0.2083548 -65.21 0.0002955548    1.149    0.130
        30 -10.3194    125.6874    159.0416   3.6969017921e+01   2.4404797150e+01    0.2534521    0.2262773  85.97 0.0007325024    1.339    0.253
        31 -10.1686    123.3851    154.9186   3.6752463466e+01   2.5709768753e+01     0.222465    0.1800639 -69.99 0.0006599145    1.429    0.300
        32 -12.0634    133.7334    145.2724   3.2209400518e+01   2.6083810552e+01      1.23368    0.3161152 -54.43  0.003063459    5.608    0.822
        33  -9.7584    129.7630    153.4263   3.4854711162e+01   2.4970964809e+01    0.1988966    0.1394175  22.24 0.0007322723    1.585    0.369
        34 -10.9554    111.5371    150.1629   3.8933780780e+01   2.8795235021e+01    0.3405216    0.2075557  55.93  0.001418278    2.073    0.518
        35 -13.0817     98.3571    150.9298   4.2760423184e+01   3.0790272128e+01     1.987317    0.4270428 -57.21  0.005126637    4.874    0.795
        36 -11.4853     94.4169    145.2556   4.2821438340e+01   3.2832881105e+01    0.4840317    0.2869257 -50.69  0.001254137    1.671    0.402
        37 -11.5598     91.5313    142.5356   4.3151358925e+01   3.3985335530e+01    0.4258816    0.3767975  66.65  0.001286863    1.196    0.164
        38 -11.8134     90.2189    149.4917   4.4867027374e+01   3.2450538653e+01    0.5580233    0.4599994  69.12  0.001608839    1.351    0.260
        39 -10.4003    143.6021    145.8621   2.9989130318e+01   2.4232518348e+01    0.2931815    0.1826309 -60.66  0.001297056    1.946    0.486
        40 -10.9982    104.5195    137.4409   3.8290891234e+01   3.3043624470e+01    0.2733826    0.2231555 -62.55 9.591183e-05    1.256    0.204
        41 -12.0884    107.3246    133.9828   3.6746218487e+01   3.3382818449e+01    0.5998555    0.4010069 -46.28  0.002725468    1.483    0.326
        42 -11.6386    135.4587    130.7412   2.8612465109e+01   2.8953327789e+01    0.5785297    0.2973666 -53.12  0.002340788    2.007    0.502
        43  -9.8618    160.4919    128.0073   2.2388096020e+01   2.4871674669e+01    0.2316628    0.1305647 -43.66   0.00104555    1.628    0.386
        44 -11.6266    114.4936    126.2557   3.2997572018e+01   3.3902990816e+01    0.4318429    0.3396879  -2.96  0.001858286    1.650    0.394
        45 -10.3564    131.3019    126.0879   2.8559320941e+01   3.0757624482e+01    0.2484052    0.2126068  20.37 0.0008100765    1.298    0.230
        46 -10.6788    102.3798    120.7962   3.5180861883e+01   3.7468768710e+01    0.2975907     0.250113 -23.07 0.0004789208    1.358    0.264
        47 -10.9738    161.0614    118.3108   2.0040489324e+01   2.6674971057e+01    0.5744669    0.3142918 -63.75  0.002135624    2.971    0.663
        48 -11.3938     61.5286    242.1264   6.3753855207e+01   1.5127623361e+01    0.2015113    0.1356813 -48.62  0.001206802    1.815    0.449
        49  -9.9428    110.0321    116.0048   3.1790065419e+01   3.7154229960e+01    0.2262885    0.2207855 -56.76 0.0003305339    1.010    0.010
        50 -12.0128     95.6120    131.5098   3.9646480224e+01   3.6056643304e+01      0.39372     0.301532 -46.81  0.000104652    1.306    0.234
        51 -12.3104    119.2907    104.4303   2.6260431535e+01   3.7936170325e+01    0.4900451     0.340277 -39.95   0.00225431    1.459    0.315
        52 -10.7729    134.3787    106.0786   2.2882179270e+01   3.4467839068e+01    0.3884284    0.1741139 -45.42  0.001473792    2.120    0.528
        53 -12.7880     48.0355    230.8155   6.6088797147e+01   1.8767830031e+01    0.3813815    0.1912361 -61.97  0.001970659    2.237    0.553
        54 -10.6099     75.0958    101.5615   3.9334859527e+01   4.7212878715e+01    0.3120769    0.2611144  48.71  0.001548923    1.221    0.181
        55  -9.0662    106.6660     93.3015   2.6708844948e+01   4.3027263789e+01    0.1578014    0.1212821  87.39 0.0005068521    1.657    0.396
        56 -15.6288     68.5052    143.8267   5.0611156096e+01   3.7196911910e+01     3.042264     1.970677  72.73   0.01286383    1.985    0.496
        57  -9.5770    155.3267     87.9307   1.3584876452e+01   3.3629858681e+01     0.211991    0.1756758 -42.75  0.001110245    1.133    0.117
        58 -10.3721     70.2526    235.7906   6.1239286215e+01   1.5414807199e+01    0.1695203   0.09562761 -54.35 0.0005048856    2.051    0.512
        59  -9.8718    111.9770     86.0089   2.3069652756e+01   4.3467667770e+01    0.2297348    0.2136184 -82.41    0.0012217    1.079    0.074
        60  -9.5366     95.0425     85.9772   2.8089728216e+01   4.7085133113e+01    0.2260439    0.2152101 -87.10  0.001202401    1.053    0.050
        61 -13.0386    174.4115     67.3453   4.9302933714e+00   3.3046816952e+01    0.7622051    0.5586205 -41.85  0.001286672    1.231    0.188
        62  -9.7561     64.5204     73.8879   3.5338079175e+01   5.5823646994e+01    0.3155364    0.1845595  53.43 0.0009208489    2.013    0.503
        63 -13.8831    191.0330     53.7460   3.5932511012e+02   3.1576519733e+01     1.054135    0.9179456  31.62  0.003843927    1.572    0.364
        64 -12.3886    197.3936     47.9548   3.5722484186e+02   3.1071397065e+01    0.4070334     0.397015   2.95  0.001474699    1.357    0.263
        65 -10.4165    126.9845     60.5512   1.1421797591e+01   4.4909212585e+01     0.589561    0.3084188 -77.67  0.001623949    5.413    0.815
        66  -9.9700     68.7481     57.6485   2.7825049600e+01   5.8555321427e+01    0.2345533    0.2086944 -53.23 0.0003703081    1.158    0.136
        67 -12.4871     59.6484    229.0987   6.3192094706e+01   1.7899935076e+01    0.2452699    0.2077754 -30.78 0.0008574142    1.429    0.300
        68  -9.1432    179.3151    248.9460   3.9667942898e+01   1.1604173658e+00    0.1562839   0.08082324 -29.78 0.0009275163    1.886    0.470
        69 -10.3355     60.9418     21.5590   1.4652664663e+01   6.6381194052e+01     0.293292    0.2117756  57.03 0.0007917336    1.331    0.248
