#   1 NUMBER                 Running object number                                     
#   2 MAG_AUTO               Kron-like elliptical aperture magnitude                    [mag]
#   3 X_IMAGE                Object position along x                                    [pixel]
#   4 Y_IMAGE                Object position along y                                    [pixel]
#   5 X_WORLD                Barycenter position along world x axis                     [deg]
#   6 Y_WORLD                Barycenter position along world y axis                     [deg]
#   7 A_WORLD                Profile RMS along major axis (world units)                 [deg]
#   8 B_WORLD                Profile RMS along minor axis (world units)                 [deg]
#   9 THETA_WORLD            Position angle (CCW/world-x)                               [deg]
#  10 FWHM_WORLD             FWHM assuming a gaussian core                              [deg]
#  11 ELONGATION             A_IMAGE/B_IMAGE                                           
#  12 ELLIPTICITY            1 - B_IMAGE/A_IMAGE                                       
         1  -9.8509    119.1676     19.4868   4.5410256531e+01   5.2259748942e+01    0.4518359    0.2827548 -10.09   0.00232554    2.040    0.510
         2  -9.6871    203.2936     18.4001   3.3284950572e+01   3.2711840294e+01    0.2879408     0.246797  63.95  0.001356339    1.315    0.240
         3 -10.1210    142.9043     17.9551   4.0630378410e+01   4.6811527505e+01    0.4436457    0.3149299  43.46  0.002384058    1.458    0.314
         4 -10.0691    171.7337     13.1137   3.5336686764e+01   4.0466910629e+01    0.3301861    0.2578801  71.77  0.001522816    1.138    0.122
         5  -9.1890      6.3048     10.1809   8.4310356067e+01   7.3106877623e+01    0.2384895    0.1319564 -19.56  0.001460262    1.571    0.363
         6 -10.8631    164.8274      6.2590   3.4352437581e+01   4.2734631130e+01    0.5457098    0.3792885 -75.57  0.003242093    1.416    0.294
         7  -9.0361     79.3022      5.0771   4.9473964808e+01   6.2366888446e+01    0.2517257    0.1704113  37.27   0.00126241    1.248    0.199
         8  -9.4991    236.1525      2.1858   2.7372540807e+01   2.7555549298e+01    0.3182117    0.1717241 -81.10  0.001928624    1.640    0.390
         9 -10.1010    167.9927      2.9994   3.3151038047e+01   4.2288773367e+01    0.3294975    0.2328323 -85.14  0.001394664    1.290    0.225
        10 -10.3577    200.2795    193.9762   7.3701613229e+01   3.2886813411e+00    0.4778109    0.2755398 -47.79  0.002251832    1.886    0.470
        11  -8.9016    229.5082    189.9870   6.7327664758e+01  -5.4444204153e-01    0.1959404   0.09766535 -21.17 0.0008104581    2.554    0.608
        12  -9.5012    124.5846    167.1433   8.5856916567e+01   2.2519043792e+01    0.3608535     0.300199 -62.06  0.001797133    1.263    0.208
        13  -9.1895    198.4489    160.5964   6.7258758930e+01   9.9916025034e+00    0.3728223    0.1320212 -40.11  0.001306755    2.656    0.623
        14  -9.4198    220.8330    154.1555   6.1642421751e+01   7.2265115028e+00    0.2029812    0.1545637 -15.93  0.001088153    1.364    0.267
        15  -9.5757     81.1071    144.7885   9.3547188047e+01   3.5557390261e+01    0.3819461    0.2903116 -88.95  0.001803814    1.565    0.361
        16  -9.4873    239.8599    130.1629   5.3435109621e+01   8.2426899216e+00    0.5364176    0.1898135 -43.85   0.00212406    2.426    0.588
        17 -10.4160     56.4750    129.0278   9.8112508983e+01   4.3077952353e+01    0.6724889    0.3783015 -47.76  0.002992274    1.667    0.400
        18 -10.2626    119.5052    119.9985   7.6490992930e+01   3.4786830766e+01    0.7903159    0.3207948 -45.21   0.00269339    2.416    0.586
        19 -11.0746    114.6666    119.5682   7.7761532229e+01   3.5857560114e+01     1.117384    0.4984388 -48.00  0.004012952    2.190    0.543
        20  -8.1326    187.3212    118.6673   5.9923153436e+01   2.0555176023e+01    0.1537556     0.116253 -74.50 0.0004736483    1.700    0.412
        21 -12.4154    243.8640    105.3663   4.7658270949e+01   1.1772362878e+01     1.200824    0.6669338 -36.10  0.006068395    1.611    0.379
        22 -11.1802    241.2157     89.5397   4.4670447767e+01   1.4856196370e+01    0.6802389    0.2511061 -40.07  0.002877932    2.271    0.560
        23 -10.2717    228.5379    111.2995   5.1099365148e+01   1.3596312340e+01    0.4538466    0.3000262 -42.30  0.002392875    1.304    0.233
        24  -9.2215      1.9300    110.1462   1.1312603271e+02   5.2635632874e+01    0.3098213    0.1433632 -65.86  0.001521694    1.668    0.400
        25  -7.8404     86.5024    108.4993   8.3534250664e+01   4.3725604962e+01    0.1531494    0.1444592 -29.27 0.0008106754    1.009    0.009
        26  -9.6351    181.0717    101.0378   5.6799196406e+01   2.5333101679e+01    0.5037255    0.2766752 -31.64  0.002053705    2.026    0.506
        27 -10.0107    161.1632    101.8350   6.1135313339e+01   2.9656263546e+01    0.4740139    0.3550678  39.98  0.002258311    1.422    0.297
        28  -9.7279    160.4944     98.4821   6.0392905383e+01   3.0469540630e+01    0.3993876    0.2876279  32.77  0.001831961    1.620    0.383
        29  -9.0070     48.0952     99.8407   9.4724763250e+01   5.1385933467e+01    0.3357196    0.1813869 -51.32  0.001527078    1.616    0.381
        30  -9.7527     13.0556     96.6135   1.0709183072e+02   5.5301806846e+01    0.5808176    0.2106677 -54.09  0.002541655    2.056    0.514
        31  -8.3339    107.6089     95.2012   7.3189630900e+01   4.2773179665e+01    0.2216618     0.141916 -34.61 0.0009476534    1.641    0.391
        32 -10.8907    210.9462     87.1385   4.8286015081e+01   2.1309620675e+01    0.8738561    0.3687216 -42.04  0.003613376    2.109    0.526
        33  -9.4540     37.1504     98.7478   9.8524936976e+01   5.2833764924e+01    0.3558301    0.1863959  21.17  0.001632401    2.145    0.534
        34  -9.9691    128.9580     83.8299   6.3823324939e+01   4.0506939718e+01    0.3619426    0.3244186 -39.78  0.001398247    1.127    0.112
        35 -10.4687     84.2298     82.7475   7.6961680010e+01   4.9901371035e+01    0.6077139    0.3889934  17.63  0.002656172    1.949    0.487
        36 -10.2210    213.9258     70.3167   4.3963315162e+01   2.3411080836e+01    0.5799775    0.3330153 -48.31  0.002889069    1.572    0.364
        37 -10.0862      5.2861     70.9897   1.0513904014e+02   6.1695127389e+01     0.297083    0.2007426 -12.65  0.001789719    1.544    0.352
        38 -10.4303      5.2303     65.7811   1.0399120941e+02   6.2845887459e+01    0.4746452    0.3354305 -45.37  0.002983799    1.107    0.097
        39 -10.5882    184.2815     63.7526   4.6697649159e+01   3.1054713246e+01    0.7405002    0.4882123 -24.78  0.003580233    1.844    0.458
        40 -10.9690    139.5367     64.4701   5.5427430816e+01   4.1511135254e+01     0.722361    0.5637983 -63.50    0.0036623    1.476    0.323
        41 -10.3090     86.8670     64.6860   7.0187137697e+01   5.2950962230e+01    0.4780124    0.4061991  25.61  0.002653136    1.124    0.110
        42  -9.7409    250.5111     61.5479   3.7867838657e+01   1.7374713847e+01    0.5136591    0.1020399 -37.48  0.001715412    4.290    0.767
        43  -9.2188    235.7587     61.2926   3.9338376447e+01   2.0262044519e+01    0.2544491    0.1631813 -33.38  0.001407922    1.625    0.385
        44  -8.5316    114.9882     62.0000   6.0743418210e+01   4.7562089964e+01     0.244214   0.07978611  50.42  0.000801434    2.935    0.659
        45  -9.3208     20.6569     56.0581   9.4306445289e+01   6.3866001615e+01    0.4029998    0.1414069 -35.54  0.001618108    2.855    0.650
        46  -9.9914     95.5525     54.1876   6.3724680276e+01   5.3019542271e+01    0.4654719    0.3660976   7.66  0.002082647    1.382    0.277
        47 -10.0261    235.1432     46.5078   3.6303342187e+01   2.2465515353e+01    0.3096144    0.2730879  74.38  0.002126242    1.293    0.227
        48 -11.0849    199.4392     45.1449   3.9933524664e+01   3.0282386355e+01      0.74459    0.4466203 -40.00  0.003900452    1.610    0.379
        49  -8.4875    127.7648     50.4147   5.3755972909e+01   4.6448087023e+01    0.2093219    0.1209535  45.43 0.0009447469    1.663    0.399
        50  -8.7420     14.0646     49.6345   9.5480236142e+01   6.5666811758e+01    0.2064397    0.1544915 -53.85 0.0009331447    1.355    0.262
        51 -10.8360     81.7276     43.7478   6.4368656114e+01   5.7409685881e+01    0.6578649    0.4733479 -11.27  0.003492459    1.510    0.338
        52 -10.0013     49.7217     42.8476   7.6312283338e+01   6.3015891500e+01    0.4511431    0.3081912 -18.25  0.002524275    1.420    0.296
        53 -10.3525    140.6139     38.4432   4.7258966076e+01   4.5036550709e+01    0.4712053    0.3860812  87.88  0.002261128    1.290    0.225
        54 -10.0218     40.6525     34.6664   7.7049196220e+01   6.5606196089e+01    0.6238015    0.2266284 -45.06   0.00260916    3.013    0.668
        55  -9.8169    172.7489     36.3500   4.1293874318e+01   3.7615916642e+01    0.3694817    0.3441757  81.21  0.001823326    1.083    0.077
        56 -10.0172    180.8145     26.5233   3.7670113465e+01   3.6903246532e+01     0.425426      0.34738  13.32  0.002526839    1.737    0.424
        57  -9.6568    108.8226     25.3340   4.9727824182e+01   5.4021627714e+01     0.401912    0.2070612  39.66  0.001861849    1.937    0.484
        58 -10.2058    219.3780    221.1159   7.4981711713e+01  -4.2110482058e+00    0.3804764    0.2030775  25.73  0.001960471    1.837    0.456
        59 -10.3071    214.2707    218.3908   7.5473150680e+01  -3.0612934867e+00    0.2288346    0.1785102  41.97  0.001364873    1.620    0.383
        60  -9.7512    190.6914    217.8070   8.0074188242e+01   5.1472347146e-01    0.4289704     0.320576 -60.37  0.002298972    1.971    0.493
        61  -9.0866     61.9145     18.2898   6.0910666116e+01   6.4463435557e+01    0.2022819    0.1645901 -24.50  0.000858777    1.362    0.266
        62  -8.3385    238.2812     15.7547   2.9841860149e+01   2.5662677644e+01    0.1696773   0.07451796  62.89  0.000891417    2.376    0.579
        63 -10.6440    206.7175    212.8622   7.5951770940e+01  -1.0491503473e+00    0.4340155    0.2383429  44.96  0.002065589    2.263    0.558
        64  -9.9347    199.2971    207.7910   7.6508716322e+01   9.5236565215e-01    0.2386956    0.2176914 -67.16  0.001434979    1.567    0.362
        65  -9.1346    248.4833    197.6613   6.5471317531e+01  -4.4511301452e+00    0.2289331    0.1466019  24.26  0.001337479    1.650    0.394
        66  -9.0166    219.0291    196.5750   7.0531371231e+01  -1.0561048781e-01    0.2469751    0.1575383 -17.09  0.001266941    1.626    0.385
        67  -8.7224     36.3250    197.3374   1.1320223074e+02   2.8076159865e+01    0.1290962   0.09420422 -42.60 0.0007051351    1.721    0.419
