#   1 NUMBER                 Running object number                                     
#   2 MAG_AUTO               Kron-like elliptical aperture magnitude                    [mag]
#   3 X_IMAGE                Object position along x                                    [pixel]
#   4 Y_IMAGE                Object position along y                                    [pixel]
#   5 X_WORLD                Barycenter position along world x axis                     [deg]
#   6 Y_WORLD                Barycenter position along world y axis                     [deg]
#   7 A_WORLD                Profile RMS along major axis (world units)                 [deg]
#   8 B_WORLD                Profile RMS along minor axis (world units)                 [deg]
#   9 THETA_WORLD            Position angle (CCW/world-x)                               [deg]
#  10 FWHM_WORLD             FWHM assuming a gaussian core                              [deg]
#  11 ELONGATION             A_IMAGE/B_IMAGE                                           
#  12 ELLIPTICITY            1 - B_IMAGE/A_IMAGE                                       
         1 -16.6094    173.8664    140.6039   9.2344007365e+01   1.9233750021e+01     8.428552     2.455255  39.83   0.02445164    3.939    0.746
         2 -16.4720    174.4296    152.9368   9.4917673848e+01   1.6811258056e+01     6.371603     3.975012   2.83   0.02402754    3.081    0.675
         3 -15.2609    199.4994     71.6727   6.9489368163e+01   2.5600240870e+01     3.218931     1.849519  56.64   0.01391772    1.764    0.433
         4 -17.4616    194.6986    123.2970   8.3965628461e+01   1.7902809081e+01     5.163119     3.564398  74.12   0.01964109    2.182    0.542
         5 -15.8390    212.8372     97.7314   7.4161225514e+01   1.8203115565e+01     4.198666     2.824957 -60.73   0.01871235    1.953    0.488
         6 -15.4428    154.8409    123.6269   9.2617359672e+01   2.6634351189e+01     3.334091     2.188059 -75.95   0.00803776    2.671    0.626
         7 -10.2384     13.7311     13.8128   1.0568063671e+02   7.1186109847e+01    0.2246362    0.1328384 -31.67 0.0008056227    1.359    0.264
         8  -9.1818     90.2312     12.0326   7.2852065420e+01   6.0280950791e+01    0.1691324    0.1050369 -20.90 0.0003789082    1.592    0.372
         9 -10.8760    237.4124     10.1883   4.8422133612e+01   2.4425350878e+01    0.2489845   0.08865433  69.43  0.001023355    2.672    0.626
        10  -9.2485    100.9987      9.2836   6.8632661709e+01   5.8283891503e+01    0.1823035    0.1568338  32.30 0.0002673378    1.045    0.043
        11  -9.9839    240.3380      2.3338   4.6320342651e+01   2.4559477942e+01    0.1248031   0.09272432  38.78 0.0007051836    1.745    0.427
        12 -15.7853    170.8898     89.8273   8.0106406705e+01   2.9509006848e+01     4.162663      2.35244  30.62  0.001484041    2.423    0.587
        13  -9.2270     69.4343    230.4277   1.2756187621e+02   1.9921133535e+01    0.1115978   0.08396278  62.92  8.51588e-05    1.006    0.006
        14 -10.3709    222.9028    250.2761   1.0272103545e+02  -5.6634068706e+00    0.1625607    0.1208228  33.59 0.0005599771    1.213    0.176
        15 -10.3053    219.1449    226.1133   9.9730703686e+01  -2.4098529171e+00    0.2106858    0.1639466  22.71  0.001094867    1.011    0.010
        16 -12.1436    178.2074    222.0608   1.0644798415e+02   4.7174636381e+00    0.7022904    0.2730361  47.32  0.002719985    2.422    0.587
        17  -9.7678    247.1874    221.4977   9.4241662723e+01  -6.1159810641e+00     0.203262    0.1478961 -12.86   0.00139831    1.323    0.244
        18 -13.7343    234.9215    214.8667   9.5177778615e+01  -3.5185789903e+00    0.3573282    0.2657587   8.70  0.001151767    1.158    0.136
        19  -9.7477    157.0458    216.4747   1.0961727423e+02   9.0737460680e+00      0.16538    0.1645345 -67.48 0.0005389781    1.212    0.175
        20 -11.3964    143.2671    215.7813   1.1216692820e+02   1.1473309707e+01    0.2483412    0.2074391  70.94 0.0005101344    1.311    0.237
        21 -11.1113    123.6000    216.0469   1.1600462039e+02   1.4612387367e+01    0.3994394    0.2383637  24.89  0.002022207    2.301    0.565
        22 -10.2738     91.5066    214.7080   1.2205300229e+02   1.9703661315e+01    0.2184795    0.1358202  45.27 0.0006326779    1.371    0.271
        23 -15.3668    194.7137    203.4619   1.0042992492e+02   4.5969173188e+00       3.5091     2.795753 -65.14   0.01541073    1.915    0.478
        24 -14.8795    183.3123     93.4058   7.8527243981e+01   2.5885879287e+01     1.748183     1.245345  37.92  0.007350015    1.484    0.326
        25 -15.6391    199.2560    160.9832   9.1564908730e+01   1.0410775194e+01     2.346194     2.155849 -68.91   0.01372406    1.389    0.280
        26 -15.1267    238.8318    124.2913   7.6262211933e+01   8.3790117350e+00     2.715377     1.112082  54.07   0.01060161    2.871    0.652
        27 -14.7982    163.1117    113.3270   8.8154835622e+01   2.6859045388e+01     1.653156    0.9244925 -38.67  0.004222064    1.807    0.446
        28 -11.3036    250.0228    244.8580   9.7506286677e+01  -8.9118188461e+00     0.293577    0.1444476 -21.96  0.001441095    2.190    0.543
        29 -10.0857    220.8946    207.5164   9.6353694682e+01  -3.7761269921e-01    0.2194913     0.175699 -21.39 0.0006411962    1.331    0.249
        30 -11.9665    169.8555    203.2137   1.0514402606e+02   8.9714270197e+00    0.3386821    0.2331737 -57.07  0.001275872    1.900    0.474
        31 -10.9168     51.5237    245.4284   1.3166487734e+02   1.9604658487e+01    0.1795081    0.1384241  63.87 0.0001772718    1.117    0.104
        32 -11.4857    161.9733    201.0343   1.0634526565e+02   1.0704777725e+01    0.2048476    0.1735524  37.32 0.0004820187    1.025    0.024
        33  -9.2528    121.6217    243.8148   1.1950143836e+02   1.0465757730e+01     0.136253    0.1020092 -87.84 0.0004684314    1.625    0.385
        34 -10.3864     74.7203    201.1777   1.2395492911e+02   2.4574522939e+01    0.3008298    0.1587157  34.03  0.001071953    2.058    0.514
        35 -14.5834    205.3553    144.3876   8.6803301041e+01   1.1966091133e+01    0.8216947    0.7189134  10.57  0.002244558    1.100    0.091
        36 -12.1724    118.2441    191.1602   1.1379365753e+02   1.9975494135e+01    0.3703409    0.3238567 -44.69  0.001669824    1.367    0.269
        37 -10.0372    226.9941    191.5514   9.2417954330e+01   7.1781766897e-01    0.2367178    0.1785374 -19.13 0.0008028772    1.315    0.239
        38 -13.5611    247.3246    184.8201   8.7651510056e+01  -1.7775454014e+00    0.3522881     0.255913  22.23 0.0007863207    1.209    0.173
        39 -10.7463    111.7552    184.0456   1.1415774488e+02   2.2423487971e+01    0.1805055    0.1635256  88.98 0.0005430958    1.110    0.099
        40 -12.0346    239.0610    181.6689   8.8442309703e+01   5.3015593862e-03    0.2685727    0.2333653  -6.56 0.0006053987    1.143    0.125
        41 -14.3229    175.5143    111.3604   8.4924094983e+01   2.4418220242e+01    0.7757134    0.5241169  45.48  0.001697625    1.474    0.322
        42  -9.7516     32.0437    180.1773   1.3067445639e+02   3.3889153416e+01    0.1586732    0.1341596 -84.45 0.0003863934    1.206    0.171
        43 -11.0564    114.5569    176.5315   1.1242866809e+02   2.3462972937e+01    0.2255721    0.1914653 -89.26 0.0005646487    1.210    0.174
        44 -10.8990    112.7908    173.5883   1.1236508260e+02   2.4356843735e+01    0.2260045    0.1933118 -46.73 0.0008865361    1.335    0.251
        45  -9.7587    237.6475    174.6411   8.7307379936e+01   1.2023380730e+00     0.393743    0.1983839 -12.63  0.001632999    2.883    0.653
        46 -10.9256     87.7084    174.0634   1.1803900513e+02   2.8220889062e+01    0.3307692    0.1846594 -58.34  0.001397154    1.820    0.451
        47  -9.7801     22.0641    176.0097   1.3239209505e+02   3.5729701129e+01    0.1687048    0.1277591  78.01 0.0003508082    1.031    0.030
        48  -9.3695     78.9794    171.9808   1.1971652001e+02   2.9924123496e+01    0.1565651    0.1335169  64.99 0.0006284047    1.065    0.061
        49 -15.2370    174.8218    121.0392   8.7516688612e+01   2.2742090489e+01     1.136889    0.8472377 -26.89  0.003955079    1.428    0.299
        50  -9.8374    248.1055    165.1095   8.3621229463e+01   7.0439677269e-01    0.1832776    0.1420829   5.54            0    1.163    0.140
        51  -9.3705     21.5397    243.0746   1.3634529516e+02   2.3283814703e+01    0.1318732   0.07766704  89.72 0.0002759024    1.479    0.324
        52 -11.6602    237.7141    155.2933   8.3323900710e+01   3.9407467368e+00    0.3684472    0.2590454  14.25 0.0007478363    1.482    0.325
        53  -8.8689     56.2785    157.6611   1.2311819060e+02   3.6018817406e+01    0.1308894   0.08309191  74.78 0.0007004528    1.619    0.382
        54 -10.3384     90.5091    149.9457   1.1377912847e+02   3.3026818460e+01    0.3018251    0.1162599 -53.15    0.0007233    2.540    0.606
        55 -11.4656     80.2814    148.8145   1.1610998883e+02   3.4811909979e+01    0.2789759    0.2153175 -68.61 0.0004974277    1.223    0.182
        56 -10.2003     11.1480    150.1461   1.3275171760e+02   4.2159717839e+01    0.1622107    0.1264432 -75.81 0.0003110447    1.182    0.154
        57 -10.2323     12.2297    142.9935   1.3191358014e+02   4.3634007088e+01    0.2144046    0.1350339 -53.64  0.001134156    1.720    0.419
        58 -12.2280    248.8331    138.3750   7.7825565091e+01   4.3509830705e+00    0.3500072    0.2552916  42.01  0.001322549    1.448    0.310
        59 -11.5012    109.9830    134.3125   1.0601766021e+02   3.3275571637e+01    0.4246534    0.1946663 -49.07  0.001711479    2.172    0.540
        60  -9.5329     18.9739    133.3707   1.2938490555e+02   4.5235139479e+01    0.1516619    0.1296507  85.96 0.0005560059    1.105    0.095
        61  -9.9309     87.0282    129.5637   1.1104515660e+02   3.8175632863e+01    0.2120338    0.1852203 -42.20 0.0003477069    1.247    0.198
        62  -8.8483     54.6735    128.7494   1.1954928386e+02   4.2770943968e+01    0.1198372   0.09580991 -34.78 0.0003155634    1.544    0.352
        63 -10.3896    103.4835    127.4708   1.0627926628e+02   3.5948430446e+01     0.213992     0.131126  50.72  2.30842e-05    1.715    0.417
        64 -11.1311    101.3566    123.4235   1.0598324458e+02   3.7229022957e+01     0.324298    0.2026552 -39.65  0.001094813    1.795    0.443
        65 -11.4081    109.5788    123.4781   1.0381897563e+02   3.5762383008e+01    0.3114956    0.2096839  62.70  0.001429417    1.788    0.441
        66 -11.3147    115.3614    122.8071   1.0215758889e+02   3.4845453761e+01    0.3679195    0.1862441  54.65  0.001420713    2.392    0.582
        67 -12.1980    104.2532    118.3806   1.0409757935e+02   3.7859235347e+01    0.5625452    0.2505544 -56.89  0.002151323    2.353    0.575
        68 -11.9262    114.8898    117.9305   1.0115880321e+02   3.6011947420e+01    0.3512763    0.2458586  45.82  0.001088164    1.453    0.312
        69 -13.5729    248.4518    114.7355   7.2541520814e+01   7.9050437221e+00    0.3699562    0.3055058  -1.52 0.0009916754    1.206    0.171
        70 -10.0362    247.9320    109.3028   7.1354978918e+01   8.8167895642e+00    0.1885408    0.1722232 -38.80 0.0003055179    1.145    0.127
        71  -9.3953     67.9927    116.0276   1.1367540923e+02   4.4052806963e+01    0.1675814    0.1397896 -65.89 0.0004452014    1.078    0.073
        72 -11.3227     99.7009    114.9563   1.0456005100e+02   3.9428351807e+01     0.247441    0.2312217  37.90 0.0003107434    1.137    0.120
        73  -9.3710    240.2930    113.3361   7.3472101162e+01   9.7578556718e+00        0.217    0.1637023  28.85  0.000701216    1.426    0.299
        74  -9.7005    239.9875    109.9857   7.2727165466e+01   1.0332241327e+01    0.2660577    0.1794614 -29.95 0.0007897788    1.359    0.264
        75 -11.0042    107.9949    111.7180   1.0153349864e+02   3.8674447797e+01    0.1999119    0.1940389  60.51 0.0004027789    1.057    0.054
        76 -11.2684    111.7894    110.8498   1.0029398568e+02   3.8160984681e+01     0.274438    0.2294356  -3.91 0.0009608208    1.488    0.328
        77 -11.4082    114.1701    106.6502   9.8605588224e+01   3.8630501592e+01    0.2880608    0.2061614 -48.75  0.001159602    1.360    0.264
        78 -11.2818    100.5237    104.0430   1.0173343688e+02   4.1734624988e+01    0.4337029    0.1834595 -47.92  0.001654634    2.246    0.555
        79  -9.9847     97.4400    107.9858   1.0356493192e+02   4.1391224264e+01    0.2253098    0.1349207 -50.73 0.0009164075    1.583    0.368
        80 -10.0271    241.5614    103.9768   7.1053206076e+01   1.0920401624e+01    0.2730119    0.2016856  -8.22 0.0007162733    1.471    0.320
        81  -9.0180     79.2677    103.3406   1.0773054723e+02   4.5381730986e+01    0.1410486    0.1022503 -31.69 0.0002845613    1.601    0.375
        82 -14.7730    166.8300     81.1921   7.8499302648e+01   3.2048305304e+01     1.709639     1.219574 -40.21  0.005064515    1.395    0.283
        83 -12.4304    240.5261     95.4944   6.9163914066e+01   1.2421733208e+01    0.4307425    0.2887787  49.99 0.0009547435    1.602    0.376
        84  -9.1732    247.5241     96.9990   6.8507617050e+01   1.0728052395e+01    0.2034727    0.1245743 -31.20 0.0004028823    1.470    0.320
        85 -11.4518    112.6359     94.6112   9.5854334987e+01   4.1534059110e+01    0.3051131    0.2356983  62.48  0.001238906    1.511    0.338
        86  -9.9440    242.3125     88.7760   6.7269925953e+01   1.3046511914e+01    0.2707019    0.2288443   2.27  0.001131715    1.281    0.219
        87 -10.3159     88.0949     88.7466   1.0142772579e+02   4.7262349977e+01    0.2516065    0.2331092 -10.82  0.001246265    1.146    0.128
        88 -11.1090    104.6765     87.4711   9.6125293041e+01   4.4588632364e+01    0.2848021    0.2453525  48.28 0.0008837623    1.230    0.187
        89 -11.0214    119.4587     84.4470   9.1063187389e+01   4.2278681564e+01    0.2642265    0.2576611  33.13 0.0007573176    1.053    0.050
        90 -10.6524    116.3075     86.3346   9.2488790275e+01   4.2540648035e+01    0.2567775    0.2385593  41.90 0.0008602978    1.110    0.099
        91 -10.6621    235.2800     75.1569   6.4889157302e+01   1.6606815289e+01     0.746475    0.4672784 -87.67  0.003200227    2.517    0.603
        92  -9.6251    229.2752     77.9331   6.6449951994e+01   1.7554487214e+01    0.2532652    0.1953735 -30.30 0.0005515296    1.220    0.181
        93  -9.1594     52.5713     81.2185   1.1092944072e+02   5.3963568819e+01    0.1867421    0.1051623 -47.85 0.0004699471    1.552    0.356
        94 -11.7189    135.4890     74.5586   8.3807171893e+01   4.0705537632e+01    0.3374372     0.303635   3.34  0.001760819    1.170    0.145
        95 -12.1598    133.1529     70.3659   8.3079286063e+01   4.2017379893e+01    0.6252835     0.393634   4.81  0.002271439    2.897    0.655
        96  -9.2418    241.0063     72.5016   6.3447315496e+01   1.5714880007e+01    0.1927417    0.1193947 -81.77 0.0008105175    2.555    0.609
        97 -10.4879    232.9019     81.3632   6.6789443414e+01   1.6219147911e+01     0.289295    0.2459056  88.90 0.0007898334    1.372    0.271
        98 -10.3513    118.9797     71.0351   8.7063029634e+01   4.5030562683e+01    0.2530057    0.1861126   7.62  0.001147491    1.778    0.437
        99 -11.1622    242.5357     65.5005   6.1515464880e+01   1.6370174289e+01    0.5469857    0.3176937 -86.07  0.002259545    2.814    0.645
       100 -10.3710    249.1574     65.2245   6.0627992194e+01   1.4953407270e+01    0.2036787    0.1943345 -20.12  0.000363138    1.099    0.090
       101 -10.5135    126.5984     66.4205   8.3507817289e+01   4.4223797909e+01    0.3222659    0.2416337 -85.20 0.0008359023    2.011    0.503
       102  -8.9424      2.3129    242.6844   1.3927810437e+02   2.5213751596e+01    0.1040691   0.04507488  63.59 0.0007034205    1.641    0.390
       103 -10.4339    199.0001    238.1476   1.0505045799e+02  -7.3029448009e-01    0.1722865    0.1433349  21.41 0.0002759681    1.103    0.093
       104 -10.5654    147.5746     62.2671   7.6972266116e+01   4.0039334826e+01    0.2131383    0.1481112 -19.69 0.0009458404    1.617    0.381
       105 -10.6243    219.7919     59.4213   6.2991873603e+01   2.2498821290e+01    0.3101832    0.2032074  37.94  0.001442572    1.815    0.449
       106 -11.1927    167.9928     58.8797   7.1528572428e+01   3.5518328869e+01    0.3188868    0.2876118  34.45 0.0003750899    1.129    0.114
       107 -12.1725    202.9324     54.5172   6.4126641307e+01   2.7335800906e+01    0.7534385    0.3934939 -59.76  0.002802252    2.708    0.631
       108 -10.5175    203.5266     49.5071   6.2627886122e+01   2.7895340322e+01    0.2546794      0.23087  28.41 0.0007069608    1.208    0.172
       109 -11.4247    210.6280     53.9932   6.2835143828e+01   2.5500827465e+01    0.3567773    0.2853103  82.23 0.0005230499    1.345    0.257
       110 -10.3507    215.0749     52.9862   6.1928145380e+01   2.4551229064e+01      0.27674    0.2126444  75.04  0.000901753    1.377    0.274
       111  -8.9459     11.4710     58.4217   1.2049720438e+02   6.2566804246e+01    0.1180868   0.09236608 -54.82 0.0001374309    1.011    0.011
       112 -11.0370    159.1317     55.0574   7.2122322453e+01   3.8350314171e+01    0.2867516    0.2349424  53.56 0.0003693223    1.201    0.167
       113 -10.2274    128.0396     55.9809   7.9634899709e+01   4.5731323236e+01    0.2421718    0.1772311  17.38  0.000542534    1.642    0.391
       114 -10.0943    226.7363     54.9902   6.0882248690e+01   2.1467152415e+01    0.2667038    0.1707301 -41.43 0.0008058338    1.455    0.313
       115 -10.1919    226.6467     50.8454   5.9814415292e+01   2.2056874281e+01    0.2028191    0.1947104 -10.90  0.001204583    1.123    0.109
       116 -11.1035    223.1747     47.7780   5.9454196079e+01   2.3300849986e+01    0.4152725    0.2360308  89.91 0.0008969649    2.460    0.593
       117 -10.3713    249.5629     53.1563   5.7657679026e+01   1.6500528496e+01    0.2260069    0.2001891 -70.83 0.0005051731    1.139    0.122
       118  -9.2121    154.2985     53.3320   7.2581427484e+01   3.9830028961e+01    0.1572408    0.1156562  19.40 0.0003555671    1.646    0.392
       119  -9.4302    120.6792     53.2833   8.0633943053e+01   4.7856780996e+01    0.1431433     0.118773 -77.83 0.0003069039    1.590    0.371
       120 -10.8932    173.4824     39.5032   6.4446704665e+01   3.6941191596e+01    0.2577332     0.223841  76.78 0.0008752058    1.170    0.145
       121 -11.2436    166.9754     46.2503   6.7753898195e+01   3.7678191032e+01    0.3718835    0.2945395  66.95  0.001494668    1.284    0.221
       122 -10.8985    170.0403     43.0024   6.6157369605e+01   3.7350329538e+01    0.3343317    0.2848773  28.43 0.0004207407    1.254    0.203
       123 -12.4403    172.4253     48.6853   6.7509200538e+01   3.5931852567e+01    0.6116121    0.4316196 -19.30  0.002619561    1.556    0.357
       124 -11.4318    174.8197     44.3207   6.5719819146e+01   3.5937808356e+01    0.3891428    0.2889983  52.58  0.001071074    1.313    0.238
       125 -10.0633    148.0883     51.2939   7.3257363565e+01   4.1690332767e+01    0.2048553    0.1917796  57.56 0.0003197907    1.080    0.074
       126 -10.8420    140.8589     48.9465   7.4096308476e+01   4.3828012423e+01    0.3837813    0.1782919 -22.51  0.001363398    2.698    0.629
       127 -11.0824    213.7198     45.6622   6.0126547890e+01   2.5886642320e+01    0.4717396    0.3026918  18.25  0.002020975    2.389    0.581
       128 -10.5618    196.5076     48.4461   6.3385510685e+01   2.9812113280e+01     0.270331      0.21501  66.21 0.0006629372    1.261    0.207
       129 -11.6156    195.1869     43.8988   6.2271960247e+01   3.0772785795e+01    0.3385172    0.2825024  49.50 0.0002830834    1.224    0.183
       130 -12.1668    191.8863     39.0220   6.1343857099e+01   3.2265456145e+01    0.3467697    0.2860532  43.79 0.0002980388    1.268    0.211
       131 -10.1754    236.4910     46.5315   5.7511457325e+01   2.0324296334e+01     0.344825    0.1852141 -39.57  0.001610823    1.672    0.402
       132 -10.3900    230.7439     46.9108   5.8288077448e+01   2.1615455287e+01    0.1929384    0.1826724  -6.51 0.0004488025    1.165    0.141
       133  -9.3565    246.4965     46.4203   5.6361200377e+01   1.8063358147e+01    0.1325433    0.1210976 -51.03 7.377019e-05    1.022    0.022
       134 -10.9373    136.8699     45.1758   7.3719278819e+01   4.5371035215e+01    0.3249317    0.2249297 -47.13  0.001004116    1.597    0.374
       135 -10.7854    133.6450     45.7305   7.4677411777e+01   4.6062620734e+01    0.2905316    0.2139024  18.45  0.001167266    1.580    0.367
       136  -9.9675    201.9911     45.2039   6.1637896309e+01   2.8872422777e+01     0.243387    0.1583053 -74.63 0.0006907755    1.963    0.491
       137 -10.2871    181.1632     45.1527   6.4884076444e+01   3.4190883601e+01    0.2191781    0.1977068  36.05 0.0003701033    1.153    0.133
       138 -10.1902    156.3510     44.0458   6.9105497036e+01   4.0701059729e+01    0.2945392    0.1468798 -19.77  0.001096023    2.477    0.596
       139 -10.4415    151.0060     44.3201   7.0294597657e+01   4.2009547962e+01    0.2169944    0.1898745  47.59 0.0009252943    1.107    0.097
       140  -9.7291    183.6241     41.6991   6.3429502352e+01   3.4031359588e+01    0.1585238       0.1073  32.50 0.0007027564    1.759    0.431
       141 -10.3489    212.1540     39.5621   5.8669551225e+01   2.7077410808e+01     0.228804    0.1694021 -23.18 0.0005121566    1.420    0.296
       142 -10.4537    166.1710     39.6634   6.5792929635e+01   3.8803248775e+01    0.2794102    0.1989592  32.89 0.0004245735    1.566    0.361
       143  -9.9884     25.9167     39.0503   1.0926712332e+02   6.5539685746e+01    0.1796173    0.1420642 -38.84 0.0003344351    1.005    0.005
       144 -10.5902    146.2495     37.7564   6.9055626983e+01   4.4128109288e+01    0.2727868    0.2641798  26.48 0.0003393872    1.016    0.016
       145 -11.0500    145.6602     34.3216   6.7986028901e+01   4.4738801789e+01    0.4307759    0.2608426 -53.46   0.00184197    2.079    0.519
       146 -10.1263    131.3627     37.0765   7.2126249795e+01   4.7877390924e+01    0.2304487    0.1877578  37.59 0.0002780739    1.188    0.158
       147  -9.7595    233.2074     35.8431   5.5181801186e+01   2.2457332908e+01    0.2020898    0.1667886 -57.19 0.0004110656    1.132    0.117
       148  -9.7713    218.9972     34.9861   5.6581620988e+01   2.5973179577e+01    0.2411108    0.1524585 -62.96  0.001137294    1.746    0.427
       149 -10.5488    213.9494     34.7965   5.7144148391e+01   2.7238592640e+01    0.2351429    0.1984821 -31.30 0.0004042004    1.194    0.162
       150  -9.8945    123.1323     35.0471   7.3369427402e+01   5.0112104597e+01    0.2126276    0.2033666   7.48 0.0003771618    1.042    0.040
       151 -10.5445    199.0573     32.8147   5.8519541314e+01   3.1225692864e+01    0.2527382    0.2036342 -37.67  0.001028326    1.231    0.187
       152 -10.5758    167.4048     33.1961   6.3488602338e+01   3.9334747597e+01    0.2794449    0.1843133  78.71 0.0008920119    1.719    0.418
       153 -10.5702    147.5338     28.7995   6.5680774412e+01   4.4975363495e+01    0.2549606    0.2365387  55.85  0.000253888    1.046    0.044
       154  -9.9012    203.1740     28.1943   5.6668377690e+01   3.0743684141e+01    0.2068786    0.1562095 -62.13 0.0008195303    1.360    0.264
       155 -11.5706    189.3149     27.3269   5.8259338734e+01   3.4387580305e+01    0.4908048    0.2334956  48.43  0.000989029    2.172    0.540
       156  -9.9629    162.1162     27.0956   6.2411215400e+01   4.1454051875e+01    0.2229777    0.1864706  31.77  0.000416293    1.249    0.199
       157  -9.8835    210.9536     25.4997   5.4976112559e+01   2.9107712394e+01    0.2085353    0.1317456  69.33 0.0004617922    1.548    0.354
       158 -10.5838    226.2509     23.4668   5.2763150507e+01   2.5596448565e+01    0.3961434    0.1209436  67.25  0.001437298    3.122    0.680
       159 -10.1885    201.9696     21.8240   5.5024480184e+01   3.1789454201e+01    0.1948055    0.1535236  10.40 0.0004838482    1.581    0.367
       160  -9.4873    168.5028     21.4740   5.9525096682e+01   4.0453298240e+01    0.1427197    0.1346461  86.25 0.0001668491    1.053    0.051
       161  -9.6393    247.6725     17.3306   4.9270571092e+01   2.1308398767e+01    0.1417876   0.08086634 -59.10 0.0007051284    1.710    0.415
       162  -9.9783     19.0966     16.4474   1.0402310115e+02   7.0293894660e+01    0.1685749    0.1399766 -42.86 0.0003505995    1.290    0.225
       163 -10.2910    192.7663    232.4167   1.0532252188e+02   9.6141224048e-01     0.215385     0.173847  58.70 0.0003430668    1.590    0.371
       164  -9.7150    128.9483     13.0297   6.3663794664e+01   5.1391679290e+01    0.2094506    0.1852555  33.50  0.001212138    1.053    0.050
       165  -9.7666    205.7683     12.5682   5.2019147738e+01   3.1837154416e+01     0.188714    0.1228457 -89.52 0.0005136009    1.587    0.370
       166  -9.5363    249.5066    232.5284   9.5664906840e+01  -7.6164206522e+00    0.1144973   0.08413521  15.88 6.453949e-05    1.002    0.002
       167  -9.9171    178.2350    231.8838   1.0785196254e+02   3.3528400442e+00    0.1719996    0.1382868  46.20 0.0005635626    1.208    0.172
       168  -9.5479    144.3079    230.9711   1.1393833518e+02   8.9215481598e+00    0.1591652    0.1352618  47.07   0.00043103    1.065    0.061
       169  -8.8612     81.6961    230.2754   1.2535641788e+02   1.8332690400e+01    0.1158559   0.06723428  62.94 0.0006956809    1.542    0.352
