#   1 NUMBER                 Running object number                                     
#   2 MAG_AUTO               Kron-like elliptical aperture magnitude                    [mag]
#   3 X_IMAGE                Object position along x                                    [pixel]
#   4 Y_IMAGE                Object position along y                                    [pixel]
#   5 X_WORLD                Barycenter position along world x axis                     [deg]
#   6 Y_WORLD                Barycenter position along world y axis                     [deg]
#   7 A_WORLD                Profile RMS along major axis (world units)                 [deg]
#   8 B_WORLD                Profile RMS along minor axis (world units)                 [deg]
#   9 THETA_WORLD            Position angle (CCW/world-x)                               [deg]
#  10 FWHM_WORLD             FWHM assuming a gaussian core                              [deg]
#  11 ELONGATION             A_IMAGE/B_IMAGE                                           
#  12 ELLIPTICITY            1 - B_IMAGE/A_IMAGE                                       
         1 -13.7850    200.0481     49.5236   2.7928943668e+01   3.0287935379e+01    0.9793392    0.8338464  48.93  0.004404923    1.605    0.377
         2 -12.9416    230.0391     24.8449   2.0814935440e+01   2.7858899979e+01    0.7269828    0.4268244 -86.02    0.0050853    1.542    0.352
         3 -12.5194    230.8033     18.2879   1.9627931926e+01   2.8454554250e+01    0.6046738    0.3068334 -89.04  0.003194005    1.851    0.460
         4 -12.1951     38.7238     16.2644   5.2326240113e+01   6.8527854619e+01    0.6123978    0.2138763  51.07   0.00248054    3.039    0.671
         5 -11.6100    240.7125      7.2556   1.7242469403e+01   2.7962580959e+01    0.4004219    0.1351476 -44.93  0.002426967    2.136    0.532
         6 -10.4358     32.4224      4.2051   4.9250581067e+01   7.0929616150e+01    0.1453968    0.1095711 -36.40 0.0009516103    1.732    0.423
         7 -10.3469     90.2600    226.3326   8.6710762925e+01   1.3887342872e+01    0.2888339     0.214797  41.47 0.0009765881    1.325    0.245
         8  -8.7578    186.8053    250.6802   6.8116943927e+01  -2.4884556668e+00    0.1459509    0.0958286  23.07 0.0002013032    1.471    0.320
         9 -14.7047    121.8393    234.3238   7.9929470557e+01   8.1088401647e+00     5.250347     4.736314 -73.40   0.03185339    1.426    0.299
        10 -10.5414     72.6915    226.2308   9.1252425923e+01   1.6109556541e+01    0.2235849    0.1949488  20.81 0.0002781275    1.074    0.069
        11 -18.5737     12.7017    202.5313   1.0509945410e+02   2.8244603534e+01     13.58722     3.637389 -76.90   0.04515452    3.715    0.731
        12  -9.3183     80.8700    220.3653   8.8396204613e+01   1.6449480546e+01    0.1937081    0.1597567  18.11 0.0003122687    1.149    0.130
        13 -10.5968     62.5591    204.7023   9.1416098475e+01   2.2525463140e+01     0.295579    0.2310181 -86.02  0.001175857    1.427    0.299
        14 -15.1746     67.2510    141.1796   7.9899179976e+01   3.8535956731e+01     4.003944     2.606386  86.16   0.01573333    2.368    0.578
        15 -11.9626     60.4531    228.4761   9.4683077710e+01   1.7046599882e+01    0.7813371    0.2612566 -51.32  0.002705273    3.161    0.684
        16 -10.3649    191.8728    193.0461   5.7728975664e+01   6.9956227881e+00    0.7622625    0.3886593 -65.02  0.001977261    8.677    0.885
        17 -10.4337     55.1847    231.1365   9.6310733586e+01   1.7034704598e+01    0.3057825    0.2224863  52.35  0.001197011    1.357    0.263
        18  -9.2015     68.5380    191.7234   8.7991784130e+01   2.5059318754e+01    0.1908297    0.1445417 -88.04 0.0009136851    1.542    0.351
        19 -10.5281     53.4992    189.1976   9.2072443706e+01   2.7584191581e+01    0.2708585    0.2263008  64.29  0.000388052    1.257    0.205
        20 -10.9474    161.5722    187.0297   6.2862799605e+01   1.2433154850e+01     0.462592    0.2357659 -55.96  0.001601704    2.331    0.571
        21 -10.6040     76.2847    182.4826   8.4340454706e+01   2.6397299661e+01    0.6187453    0.3667158  79.09  0.002252882    2.899    0.655
        22  -9.5161     72.5312    186.5371   8.6069862341e+01   2.5864416415e+01    0.2446549    0.1870108  41.57 0.0001443295    1.303    0.233
        23 -10.2218    176.9613    185.0316   5.9228165168e+01   1.0585927444e+01    0.2177213    0.1862319 -25.42 0.0009119052    1.017    0.017
        24 -10.9219     50.0245    250.6664   9.9345371083e+01   1.3274242894e+01    0.1651679    0.1080825  24.93 0.0002043239    1.378    0.274
        25 -11.8183     98.2475    181.5430   7.7822314951e+01   2.3441311496e+01    0.5319417    0.3818196 -21.52  0.001387181    1.622    0.384
        26 -10.0817     42.3298    232.4555   9.9711817371e+01   1.8135624374e+01    0.2781648    0.1603635 -75.32  0.001006439    1.886    0.470
        27 -11.6042    127.0494    177.8622   6.9370952813e+01   1.9810051268e+01    0.4310593    0.3318824  84.15  0.002002304    1.939    0.484
        28 -10.5086    172.6716    178.0976   5.8820254530e+01   1.2598417864e+01    0.2947861     0.248806 -33.78 0.0006080245    1.068    0.064
        29 -12.6898     60.4951    173.0318   8.7677985336e+01   3.0988898612e+01    0.8968396    0.7877799 -24.31  0.004706889    1.196    0.164
        30 -11.0675    182.4682    173.5066   5.5972424178e+01   1.2046870065e+01    0.3478343    0.2440474 -47.69  0.001126557    1.361    0.265
        31 -11.5851    120.3440    174.1986   7.0425354500e+01   2.1749197790e+01    0.4055785    0.2732997  44.66  0.001854289    1.605    0.377
        32 -10.7807    179.5043    168.1774   5.5540611979e+01   1.3543651951e+01    0.4785569    0.3188268 -66.76  0.002254495    2.216    0.549
        33 -11.8729    103.2120    171.3445   7.4581034449e+01   2.5198970490e+01    0.5650443    0.4108694  63.87  0.002069096    1.810    0.447
        34  -9.8921    198.6017    170.6381   5.2403984619e+01   1.0250415570e+01    0.3908236    0.1781908 -54.71  0.001608824    2.748    0.636
        35 -11.0092    179.3099    174.6706   5.6818927024e+01   1.2288287041e+01    0.3480849    0.2605039 -67.34  0.001508655    1.831    0.454
        36 -11.1368    110.5460    167.4027   7.1775116379e+01   2.4981166629e+01    0.4064322    0.2837447 -61.24 0.0009857707    1.563    0.360
        37 -11.8631    247.1445    165.7867   4.3956476346e+01   4.8228579371e+00     0.499391    0.2290997 -47.90  0.002700593    1.892    0.471
        38 -10.4029     92.4115    155.9163   7.4771757926e+01   3.0810550320e+01    0.4624198    0.3064198  83.78  0.001289316    2.523    0.604
        39 -11.1097    133.7408    145.6408   6.1126925017e+01   2.6078110021e+01     1.192114    0.3035702 -54.46  0.002821677    5.802    0.828
        40 -12.1350     90.7413    145.7043   7.3198406027e+01   3.3671949094e+01    0.7967727    0.6019569 -38.59  0.003384931    1.351    0.260
        41 -11.2015     82.8022    140.7405   7.4657993313e+01   3.6239974205e+01    0.5015511    0.3545071  80.55  0.001358651    2.094    0.522
        42 -11.3503    105.2908    131.9854   6.5771290151e+01   3.4484656089e+01    0.6771181    0.3890166 -36.16  0.001596971    1.983    0.496
        43 -11.6314     91.7970    132.9959   7.0095072153e+01   3.6663138027e+01    0.3224506    0.2946171  17.57 0.0003818058    1.100    0.091
        44 -10.0218    140.0717    131.3755   5.6410640503e+01   2.8048186581e+01    0.2531534    0.2037171 -54.93 0.0003214789    1.247    0.198
        45 -10.3987    135.4972    125.0117   5.6046053425e+01   3.0297962162e+01    0.3631143    0.1392064 -54.54  0.001166738    3.187    0.686
        46 -10.4688     99.9044    122.1476   6.5046441299e+01   3.7803400652e+01      0.37387    0.2863767 -34.66   0.00120119    1.374    0.272
        47 -10.5596    107.6227    124.6106   6.3356517834e+01   3.5777879040e+01    0.2812715    0.2513222  81.17 0.0002137544    1.284    0.221
        48  -9.5848    162.1459    119.6691   4.8929319937e+01   2.6228377875e+01    0.2245353    0.1783865 -57.02 0.0003407934    1.236    0.191
        49 -10.9817    112.6702    126.6085   6.2394587868e+01   3.4358600973e+01    0.3644537    0.2667687   9.19 0.0009820622    1.792    0.442
        50  -9.3840    108.5734    116.4048   6.1078980224e+01   3.7463476785e+01    0.2620572    0.1799823  37.46 0.0005466547    1.467    0.318
        51  -9.7329     84.4227    115.6611   6.8359355670e+01   4.2162404627e+01    0.3065006      0.23827  71.38 0.0007719672    1.680    0.405
        52  -9.8553    158.2834    114.1219   4.8452326079e+01   2.8057679194e+01    0.3220443    0.2114839 -73.37 0.0009848162    2.183    0.542
        53  -9.9032    205.3815    110.1475   3.9555510208e+01   2.0102828804e+01    0.2337907    0.1904088  50.85 0.0007886707    1.451    0.311
        54 -11.4027    116.3070    109.1371   5.7095250205e+01   3.7516542680e+01    0.4368176    0.3835447  78.08  0.002291073    1.278    0.218
        55 -11.6744    118.6400    102.7505   5.4834265952e+01   3.8376738848e+01    0.4033774     0.291094 -62.75  0.001910446    1.592    0.372
        56 -11.1979     26.7975    250.3227   1.0482521084e+02   1.5724624238e+01    0.1848166    0.1492592   0.07 0.0005221886    1.463    0.316
        57 -10.7403    110.5476    105.6576   5.7785908106e+01   3.9420093325e+01    0.5430744    0.3569295  30.16  0.002414636    1.728    0.421
        58 -11.0616     58.0882     99.6445   7.3744427186e+01   5.0348602447e+01    0.3601087    0.2411328  45.34  0.001655826    1.631    0.387
        59 -11.5877     49.6849     92.5111   7.5227180287e+01   5.3260751414e+01    0.6910787    0.2801643  44.76  0.002364154    3.058    0.673
        60 -11.8145     41.2275     88.6093   7.7766289347e+01   5.5322784931e+01    0.6763285    0.2724328  37.05  0.002574075    2.501    0.600
        61 -10.8068    133.3095    105.8850   5.1963931203e+01   3.4716059581e+01    0.3830065    0.3315352  31.58   0.00128704    1.257    0.204
        62 -10.9105     41.0263     71.7020   7.2974196532e+01   5.9071038649e+01    0.2987472    0.2214824  29.37 0.0007370659    1.299    0.230
        63  -9.5401    142.0770     66.6953   4.0046695799e+01   3.9853385505e+01    0.1938528    0.1638689  68.87 0.0004738384    1.119    0.106
        64 -12.4846    183.5134     61.8499   3.2424038281e+01   3.1831191383e+01    0.4306088    0.3703116 -40.18 0.0007961046    1.310    0.236
        65 -10.4324    241.8519    248.6952   5.7997180595e+01  -7.2839917193e+00    0.2019089    0.1088391 -27.58  0.001327865    1.386    0.278
        66 -12.5805    205.6684     44.4465   2.6363449897e+01   2.9881626332e+01    0.4365701    0.3491471 -71.88  0.001232211    1.028    0.027
        67  -9.2441     93.3735    236.9181   8.7253697555e+01   1.1173143671e+01     0.178765    0.1683251 -25.40 0.0004569972    1.135    0.119
        68 -11.9906     53.9376    235.5946   9.7055626019e+01   1.6157171557e+01    0.2803736    0.2755899   1.21 0.0009127602    1.112    0.101
        69 -11.9453     33.6775    247.5244   1.0301428240e+02   1.5651138691e+01    0.2954254    0.2490677  87.65  0.001891365    1.247    0.198
        70 -10.0889     73.2089    232.4850   9.1829342193e+01   1.4623404345e+01    0.1745832    0.1598193  36.23  0.000335248    1.047    0.045
        71 -10.4981     59.4995     21.4027   4.6275050233e+01   6.3995218086e+01    0.4092565    0.1434993  43.25  0.001329286    2.472    0.595
        72  -9.2135     94.4498    247.1720   8.8217198869e+01   8.8933863252e+00    0.2799526    0.1972938 -79.87  0.001248938    1.945    0.486
        73  -8.9958    189.5826     15.1856   2.1868781384e+01   3.6376467990e+01    0.1307697    0.1048332 -31.45 0.0005574785    1.611    0.379
        74  -9.3185     76.0000    245.1268   9.2499819087e+01   1.1525794936e+01    0.1835469   0.07746383 -64.16 0.0006621113    2.697    0.629
