#   1 NUMBER                 Running object number                                     
#   2 MAG_AUTO               Kron-like elliptical aperture magnitude                    [mag]
#   3 X_IMAGE                Object position along x                                    [pixel]
#   4 Y_IMAGE                Object position along y                                    [pixel]
#   5 X_WORLD                Barycenter position along world x axis                     [deg]
#   6 Y_WORLD                Barycenter position along world y axis                     [deg]
#   7 A_WORLD                Profile RMS along major axis (world units)                 [deg]
#   8 B_WORLD                Profile RMS along minor axis (world units)                 [deg]
#   9 THETA_WORLD            Position angle (CCW/world-x)                               [deg]
#  10 FWHM_WORLD             FWHM assuming a gaussian core                              [deg]
#  11 ELONGATION             A_IMAGE/B_IMAGE                                           
#  12 ELLIPTICITY            1 - B_IMAGE/A_IMAGE                                       
         1 -13.7571    199.3089     47.6071   3.1310558535e+01   3.0793144244e+01     1.184095    0.8969588  39.02  0.004709268    1.771    0.435
         2 -13.5439    228.5719     19.0040   2.2342421878e+01   2.8459046458e+01    0.8012641    0.6762763 -74.29   0.00387451    1.121    0.108
         3 -10.9516     32.7109      5.0106   5.2170190622e+01   6.6126928650e+01    0.1481069    0.1082752   0.18  0.001163455    1.101    0.092
         4 -10.7180     60.0064      2.7107   4.3461392548e+01   6.2394912486e+01    0.1546073    0.1174542  29.78  0.001183232    1.081    0.075
         5  -9.4988     56.7632    246.3822   1.0098344680e+02   1.4731667945e+01    0.2034964    0.1125363 -64.39  0.000594333    1.653    0.395
         6 -10.4025    241.9050    249.6380   6.6969456843e+01  -1.3507143498e+01    0.2237075    0.1576052 -37.30 0.0006857928    1.362    0.266
         7 -16.4687     68.7824    145.7327   8.3356705033e+01   3.7037291163e+01     18.97359     9.485535 -80.07   0.05399967    5.285    0.811
         8  -9.7072    167.2452    223.3327   7.6142848717e+01   2.4227820910e+00    0.2887802    0.1844585 -59.43  0.001394463    1.746    0.427
         9 -10.9519     94.8152    220.8518   9.0471522153e+01   1.4922997417e+01    0.3598989    0.1925437  39.58  0.001282773    2.004    0.501
        10  -9.8864     56.4720    210.9702   9.6914915971e+01   2.2728521261e+01    0.2677543    0.1521179 -74.38 0.0008130905    1.584    0.369
        11  -9.1030    168.1511    206.8892   7.2922281312e+01   5.6949007853e+00    0.2109133    0.1824936 -65.64 0.0005972462    1.216    0.177
        12  -9.2796     53.5444    204.9369   9.6725063157e+01   2.4541420873e+01     0.310024    0.1641113  70.77  0.001346711    2.509    0.601
        13  -9.6046     34.2650    199.8174   1.0002651092e+02   2.8105002524e+01    0.1897538    0.1311696 -86.46  0.000746506    1.253    0.202
        14  -9.4184     40.5791    198.4529   9.8560857850e+01   2.7698039050e+01    0.2451348    0.1055432 -65.66 5.406837e-06    1.874    0.466
        15 -10.5251    191.9276    192.8910   6.5409215024e+01   4.4646300324e+00    0.8593147    0.3918509 -63.40  0.002231713    6.014    0.834
        16 -11.5474    162.7988    192.1038   7.1128907991e+01   9.8848113229e+00    0.7669961    0.3346858 -53.18  0.002877163    2.276    0.561
        17 -16.7024      1.5146     93.3934   9.0941812178e+01   5.5751946830e+01     12.49762          nan -59.24   0.01826407   22.868    0.956
        18  -8.9549     54.9960    190.7732   9.4454765532e+01   2.7777525047e+01    0.2447426    0.1392255 -73.73  0.000874345    1.610    0.379
        19 -11.8826     49.1267    186.7879   9.5156377663e+01   2.9492741096e+01     0.447385    0.3232243 -31.00  0.001301332    1.976    0.494
        20  -8.6645    202.3214    187.6994   6.2345090130e+01   3.7129364721e+00    0.1397303    0.1123266 -78.09 0.0002924319    1.627    0.385
        21  -8.6219     48.0489    235.9959   1.0146797517e+02   1.8106731747e+01    0.1678203    0.1200836  83.38  0.001024756    1.207    0.172
        22 -11.9478    121.0024    181.4549   7.8064522917e+01   1.9919622146e+01    0.3966336     0.259974 -68.70  0.001777521    1.650    0.394
        23 -10.9985     67.4700    240.9688   9.8435620736e+01   1.4444615174e+01    0.2576243    0.1455578 -68.25  0.001360546    1.605    0.377
        24  -8.5287     64.6467    186.2457   9.1645885365e+01   2.7609477023e+01    0.1380202   0.09724221  74.91 0.0006504192    1.589    0.370
        25 -10.0944     46.0000    241.8792   1.0244572436e+02   1.7085873570e+01    0.1884067   0.05974234 -67.35 0.0007760341    2.762    0.638
        26 -10.6527     80.6664    183.1441   8.7528752647e+01   2.6089624597e+01    0.3683657    0.2609079  15.14 0.0001404432    2.159    0.537
        27 -10.1177     75.3307    181.6840   8.8492964005e+01   2.7234093406e+01    0.3018567    0.2303879 -86.33  0.001033823    1.325    0.245
        28 -11.7523     73.9428    176.8630   8.7984556311e+01   2.8627967922e+01    0.5798825     0.335907 -43.60  0.001598966    1.861    0.463
        29 -11.8457     99.0881    180.5173   8.2856308696e+01   2.3863347411e+01    0.5545113    0.3409475 -67.80  0.001626499    1.640    0.390
        30 -11.1629     35.3373    241.2118   1.0426623816e+02   1.8542863379e+01    0.2674832    0.1477469  61.49            0    1.728    0.421
        31 -12.4779     61.6701    175.1325   9.0526131020e+01   3.0756234727e+01    0.8660375     0.637782 -41.89  0.003544038    1.505    0.336
        32 -11.5335    180.8042    177.0117   6.4310627660e+01   9.9090489767e+00    0.5249365     0.328357 -43.98  0.001427316    1.440    0.305
        33  -9.2583    154.3195    178.6611   7.0165165381e+01   1.4506469621e+01    0.1558593    0.1177344 -84.77 0.0004967249    1.711    0.416
        34 -11.7587    112.1116    170.6150   7.7927955512e+01   2.4103336986e+01     1.015329    0.4765283 -67.56  0.003356695    3.101    0.678
        35 -10.5589     62.5484    237.1096   9.8910003500e+01   1.5957122383e+01    0.1846191    0.1359032 -87.35 0.0007159334    1.179    0.152
        36  -9.7586    199.7404    173.5163   5.9860660624e+01   7.1526228386e+00    0.2819006    0.1822099 -47.54 0.0009602083    1.375    0.273
        37 -10.4122    135.8316    174.2726   7.3287961761e+01   1.8972351497e+01     0.241985    0.1956455  74.42  0.001194703    1.451    0.311
        38 -11.2704    230.2682    166.9561   5.2982315611e+01   3.0608610730e+00    0.4583801    0.1671241 -48.65  0.001685318    2.523    0.604
        39 -10.1949     61.5608    232.2147   9.8529874744e+01   1.7171820951e+01    0.3426602    0.1426908 -62.18  0.001571118    2.115    0.527
        40 -11.0551    245.8022    159.7359   4.8947724562e+01   1.8513631167e+00    0.4251751    0.1705211 -48.57  0.001718802    2.193    0.544
        41  -8.3509     27.6697    245.0577   1.0594004246e+02   1.8626071117e+01    0.1921533    0.1589123  47.58  0.001357266    1.495    0.331
        42  -9.5305    100.6226    161.7365   7.8811582143e+01   2.8231337350e+01    0.2384496    0.2056482 -62.34  0.000460569    1.032    0.031
        43  -9.9724     94.6460    158.7206   7.9624064783e+01   2.9954183806e+01    0.3757636    0.2481541 -84.64 0.0009918229    2.086    0.521
        44 -10.9927     84.8733    153.0232   8.0831846348e+01   3.2898146709e+01    0.2885183     0.241313 -59.12  0.000347562    1.031    0.030
        45 -11.0202    133.9190    145.9979   6.7483957418e+01   2.6031631214e+01     1.308911     0.287727 -52.82  0.002931058    5.770    0.827
        46 -11.8323     91.5513    147.3158   7.7963543683e+01   3.3236924244e+01    0.6395917     0.500253 -23.24  0.003231281    1.566    0.361
        47 -10.2752    142.6303    134.9420   6.2879339747e+01   2.6872315875e+01    0.4041874     0.270285 -72.54  0.001516654    2.016    0.504
        48 -11.4461    105.3299    132.6762   7.1173172966e+01   3.4398789913e+01     0.718191    0.3687704 -43.62  0.001957371    1.795    0.443
        49 -11.4816     57.8690    231.0231   9.9090736264e+01   1.7932230909e+01    0.4719267    0.1752185 -57.41   0.00205426    2.465    0.594
        50 -11.6048     92.1822    133.7897   7.4751376776e+01   3.6360561655e+01    0.2887743    0.2641403 -40.48 0.0003728075    1.087    0.080
        51  -9.0881    151.2636    133.0489   6.0513940090e+01   2.5569310344e+01    0.2526787    0.1669241 -69.07   0.00105659    1.938    0.484
        52 -10.4285    135.5212    129.6966   6.3211620698e+01   2.9451342850e+01     0.440484    0.2252783 -39.42  0.001732911    1.939    0.484
        53 -10.1858    112.9459    126.9324   6.7889701027e+01   3.4353897000e+01    0.3119521    0.2454383  17.21 0.0009921816    1.610    0.379
        54 -10.3622    100.1149    122.4641   6.9988729532e+01   3.7632078715e+01    0.2968936    0.2268259  -9.20 0.0007635024    1.716    0.417
        55 -10.1814    119.1668    121.8421   6.5101019899e+01   3.4339655038e+01    0.3228867    0.2159707 -10.61  0.001297155    2.524    0.604
        56  -9.4468     92.6601    122.0144   7.1793351656e+01   3.8988299652e+01    0.2184634    0.1988127  89.34 0.0006128146    1.270    0.213
        57 -10.8804    161.1070    118.0101   5.4736334615e+01   2.6790183449e+01     0.518795     0.307639 -66.56  0.002029353    2.373    0.579
        58  -9.8370    135.0000    120.4747   6.1029769331e+01   3.1581171850e+01    0.3355581   0.08016682 -45.21 0.0009189521    3.808    0.737
        59  -9.3335    108.8962    116.9517   6.6377077420e+01   3.7302768856e+01    0.2169534    0.1988871 -47.56 0.0004824113    1.032    0.031
        60  -8.8717    183.5025    116.4880   4.9985847797e+01   2.2432320463e+01    0.1494792    0.1348059 -47.01 0.0008097296    1.065    0.061
        61  -9.3780     76.0000    243.9809   9.7200585791e+01   1.2604265255e+01    0.1950564   0.06555264 -62.84  0.000604453    2.793    0.642
        62  -9.9524    205.4144    110.3035   4.4708521574e+01   1.9119979189e+01    0.2651389    0.2508329  76.35 0.0008994567    1.182    0.154
        63  -9.1497    155.8712    111.1093   5.4091299797e+01   2.9298417020e+01    0.2282354    0.1877642 -68.94 0.0005010253    1.292    0.226
        64 -10.6144    115.0214    108.2337   6.2587717886e+01   3.8031086333e+01    0.2753826    0.2025147 -42.59 0.0008069433    1.241    0.194
        65  -9.6075     72.1027    107.8809   7.3731246279e+01   4.5280866225e+01    0.2121375    0.1821477 -40.62 0.0007404897    1.003    0.003
        66 -10.0596    134.4925    105.0806   5.7169442749e+01   3.4894722047e+01    0.4131248    0.1362597 -43.33  0.001381061    2.801    0.643
        67  -9.1520    108.2745    106.6604   6.3839717242e+01   3.9601045807e+01    0.1431859    0.1114093 -72.60 0.0003007282    1.612    0.380
        68  -8.6288    131.2814    104.6885   5.7796174980e+01   3.5614575668e+01    0.1446199    0.1126165 -73.25 0.0002556619    1.568    0.362
        69 -11.3487    119.4363    103.4470   6.0242033305e+01   3.8175190084e+01    0.3571258    0.2730952 -26.96  0.001131151    1.378    0.274
        70 -10.2971    121.0284     99.0278   5.8670618664e+01   3.8747697332e+01    0.2240465    0.2092686 -32.20 0.0005981044    1.029    0.028
        71 -11.0860     64.8141    103.5221   7.4643520792e+01   4.7233376209e+01     0.384134     0.245713  46.00  0.001966107    1.951    0.488
        72  -9.3377     59.8629    100.6873   7.5316278716e+01   4.8491855793e+01    0.1731482    0.1628153 -32.64 0.0005310714    1.135    0.119
        73 -10.4001     54.4897    230.4673   9.9665563544e+01   1.8502172823e+01    0.3746442    0.2055291  76.87  0.001812968    2.126    0.530
        74 -11.9344     52.4247     94.0246   7.5722421820e+01   5.0806017704e+01    0.5335093    0.3755194  72.21  0.002586357    2.758    0.637
        75  99.0000     52.9060    240.6515   1.0107555298e+02   1.6466057720e+01    0.5314247    0.2553676 -71.20  0.002096455    1.866    0.464
        76 -10.6067     26.8561    250.2671   1.0652604561e+02   1.7625822601e+01    0.1530509    0.1331821 -69.44 0.0005534388    1.445    0.308
        77 -10.6508     32.8517    248.1858   1.0533602878e+02   1.7356177573e+01    0.2649239    0.1856433  84.16  0.001597534    1.140    0.123
        78  -8.4871    184.3670     77.3006   4.0372135320e+01   2.9487772712e+01    0.1334982    0.1083102  20.22 0.0007033392    1.734    0.423
        79  -8.9501     91.7687     76.8065   5.9685775187e+01   4.8186006071e+01    0.1675693    0.1527638 -64.75  0.000390838    1.331    0.248
        80 -11.9894     41.5970     72.2231   7.2891474421e+01   5.6222573419e+01    0.4826986    0.3081962  43.82   0.00275536    2.116    0.527
        81  -9.1389    100.0956     72.0648   5.6132643036e+01   4.7518754321e+01    0.1895223    0.1613661 -79.29 0.0005892862    1.593    0.372
        82  -9.4433     73.0729    229.9780   9.6049076624e+01   1.6078157936e+01    0.2411277    0.1421409 -67.59   0.00125546    1.531    0.347
        83 -12.0166    183.0776     59.9593   3.6398932155e+01   3.2474382854e+01    0.3912361    0.3823902  71.70 0.0007674096    1.162    0.139
        84  -8.8175     83.4485     61.5125   5.7241489205e+01   5.2059802687e+01    0.1259577    0.1124893 -10.26 4.517142e-05    1.021    0.021
        85 -11.0555    248.0191    247.9818   6.5632229682e+01  -1.4039819026e+01    0.2936555    0.2557988 -49.31  0.002036284    1.562    0.360
        86 -12.7940    204.8796     42.4123   2.9490362085e+01   3.0331091626e+01    0.5739365    0.4956664 -68.95  0.001305359    1.053    0.051
        87 -10.0635     58.6699     50.3767   6.0677977500e+01   5.7504021653e+01    0.2092287    0.1953408 -76.83 0.0008808582    1.655    0.396
        88 -18.3951     11.1499    227.8123   1.0727793542e+02   2.4176569221e+01     7.198574     1.932379 -69.52   0.03059104    2.821    0.645
        89 -11.6593     47.3811    229.1440   1.0085344893e+02   1.9713349937e+01    0.2242279    0.1632372 -84.51 0.0005179516    1.128    0.114
        90 -11.2302     24.1516     41.5654   6.8850703490e+01   6.2998095031e+01    0.3228437     0.179136  31.36  0.002024102    1.974    0.493
        91 -11.7933    149.3295    245.7322   8.3411774931e+01   9.3457590331e-01    0.4445358    0.4005306  74.37  0.001744852    1.181    0.153
        92 -11.0476     43.5461     17.8444   5.3746549685e+01   6.3507473494e+01    0.1855627    0.1308865  28.56 0.0003995651    1.284    0.221
        93  -9.4462     90.1203    228.2352   9.2468442780e+01   1.3973463408e+01    0.2658718    0.1783209  36.50  0.001411111    1.697    0.411
        94  -9.2019    189.5124     14.9713   2.5275900266e+01   3.6708588052e+01    0.1577128    0.1080293 -38.65  0.000556806    1.546    0.353
        95 -10.8256     59.6602     21.4346   5.0334721529e+01   6.0835523136e+01    0.3277617    0.1987438  15.58  0.001224839    1.691    0.409
        96  -9.4430     93.6121    246.9825   9.4270386242e+01   9.4060829405e+00    0.1774786    0.1419117 -73.28  0.000503507    1.179    0.152
