#   1 NUMBER                 Running object number                                     
#   2 MAG_AUTO               Kron-like elliptical aperture magnitude                    [mag]
#   3 X_IMAGE                Object position along x                                    [pixel]
#   4 Y_IMAGE                Object position along y                                    [pixel]
#   5 X_WORLD                Barycenter position along world x axis                     [deg]
#   6 Y_WORLD                Barycenter position along world y axis                     [deg]
#   7 A_WORLD                Profile RMS along major axis (world units)                 [deg]
#   8 B_WORLD                Profile RMS along minor axis (world units)                 [deg]
#   9 THETA_WORLD            Position angle (CCW/world-x)                               [deg]
#  10 FWHM_WORLD             FWHM assuming a gaussian core                              [deg]
#  11 ELONGATION             A_IMAGE/B_IMAGE                                           
#  12 ELLIPTICITY            1 - B_IMAGE/A_IMAGE                                       
         1 -12.3573     74.6539     51.0114   9.3253110854e+01   5.7041392145e+01     1.358357     0.852136 -56.23  0.006697108    1.681    0.405
         2 -12.3149     60.4794     45.2733   9.6233562913e+01   6.0309103219e+01     1.005701    0.4605545 -47.13  0.004594028    1.864    0.464
         3 -12.3489    131.5615     14.2722   6.2458871395e+01   5.0924138220e+01     1.657599    0.7233171  66.19  0.006283972    2.519    0.603
         4 -11.9809    124.9532     27.6253   6.9358442792e+01   5.0858944278e+01    0.6691152    0.5948331  31.98  0.002012172    1.110    0.099
         5 -13.4805    118.4476     40.5728   7.6084131236e+01   5.0424422138e+01     1.169257    0.9797209  42.68  0.002864484    1.225    0.184
         6 -10.9608    138.4034     32.4657   6.8196356262e+01   4.6899067316e+01    0.6768492    0.5739162 -40.55  0.002708944    1.205    0.170
         7 -11.5670    178.8085     21.1283   5.6842052157e+01   3.7797194004e+01    0.7537166    0.3717695  39.65  0.002883426    2.369    0.578
         8 -12.2862    104.9615     12.8691   6.8005078190e+01   5.7417201236e+01     0.615545    0.4575956 -37.02  0.002243052    1.400    0.286
         9 -12.6046    114.1294     24.6355   7.0790555246e+01   5.3808705656e+01    0.8727989    0.3777916  57.34  0.001585914    2.452    0.592
        10 -12.4239    106.0897     20.1483   7.0965032339e+01   5.6235187375e+01    0.3495442    0.2834835 -23.58 0.0003893597    1.171    0.146
        11 -11.0548    138.3030     21.6437   6.4035012354e+01   4.8355889487e+01     1.121365    0.3171345  47.03  0.003442974    3.513    0.715
        12  -9.8821    147.4849     16.6206   6.0315245474e+01   4.6597412127e+01    0.5818301    0.5464724 -22.00  0.003267841    1.074    0.069
        13 -11.5342    198.9617     28.2808   5.6359688496e+01   3.1614108230e+01    0.6079404    0.4169865  -4.18  0.001473611    1.697    0.411
        14 -10.6812      5.1465      9.0062   1.0707495331e+02   7.2986684069e+01    0.7474727    0.2744379 -58.07  0.003730183    2.284    0.562
        15 -11.2114      3.3808      1.7130   1.0484815542e+02   7.4442115350e+01    0.3954867    0.1874901  10.21  0.002248685    2.766    0.638
        16 -12.1363     18.9333     22.6564   1.0536692514e+02   6.9372612977e+01    0.6486487    0.5601014  12.66  0.004786604    1.410    0.291
        17 -10.6304      9.5079     21.9264   1.0969495747e+02   7.0204077044e+01    0.4671045    0.1488434 -46.56  0.002247332    2.268    0.559
        18 -11.4076     26.1856     27.5113   1.0378943065e+02   6.7796672798e+01    0.5018027    0.2837525 -48.61  0.001896958    1.371    0.271
        19 -12.4643     16.2523     12.9521   1.0278038939e+02   7.1440378605e+01    0.6422151    0.4136847 -45.10  0.004189733    1.182    0.154
        20  -9.5424     87.2175      7.3412   7.0321202048e+01   6.1895784274e+01     0.596151    0.3494932  50.14  0.002988761    1.739    0.425
        21 -11.2456     90.9534     20.4910   7.5457460555e+01   5.9401945461e+01      0.62953    0.5445347 -18.90  0.003703129    1.064    0.060
        22 -11.0868     85.9541     13.5744   7.3761007396e+01   6.1363391062e+01    0.4271014    0.3045846  -6.13   0.00150145    1.410    0.291
        23 -12.7415    237.4198     15.5375   4.8433618787e+01   2.3270610325e+01    0.8614601    0.5918115 -22.64  0.004117206    1.414    0.293
        24 -11.7548    246.2696      7.1282   4.5473410599e+01   2.2015250736e+01    0.5580404    0.3505588 -11.37  0.001948549    1.777    0.437
        25 -11.5414    242.7804      3.7421   4.4853558072e+01   2.3174031746e+01     0.537717    0.2598223  74.47  0.002465348    2.139    0.532
        26  -9.9266     31.9416     12.0973   9.4477921423e+01   7.0080242918e+01    0.2038615    0.1781815  78.82 0.0004976807    1.895    0.472
        27 -10.6932     47.1226     18.7955   9.0747876932e+01   6.7073015613e+01    0.3900003    0.2633228 -26.92  0.001350094    1.320    0.243
        28 -11.9151     35.9704     17.8683   9.5292945565e+01   6.8613972356e+01    0.6680297    0.2873015 -34.25  0.002322908    2.247    0.555
        29 -11.9103     48.8360     12.8459   8.7118142446e+01   6.7824751048e+01    0.7068762    0.3654163  36.19  0.003269827    2.177    0.541
        30 -11.9031     68.4417     17.9140   8.1813196677e+01   6.3980823476e+01    0.5696391    0.5377491  19.45  0.003727937    1.220    0.180
        31 -11.1121    165.1578     17.4468   5.7631617797e+01   4.1852937582e+01    0.4805083    0.2869696  33.55  0.001341705    1.923    0.480
        32 -10.0764    191.6421     16.8223   5.3680546093e+01   3.4854039257e+01    0.3767225     0.256015   0.66  0.001740927    1.747    0.428
        33 -11.6145    192.5732      7.3216   5.0523218866e+01   3.5581520169e+01    0.7704152     0.410878   7.41  0.002976322    2.732    0.634
        34 -11.8322    244.4395     14.5330   4.7557848582e+01   2.1693454278e+01    0.4140306     0.238097 -34.32  0.001996542    1.522    0.343
        35 -11.9143     22.5500     11.4370   9.8842950973e+01   7.1161856149e+01    0.5188307    0.3776529 -16.82  0.002773271    1.350    0.259
        36 -11.5267    211.7820      9.7843   4.9230698869e+01   3.0296701651e+01    0.5449098    0.3510692   8.84  0.001449172    2.009    0.502
        37 -10.1958    168.9175     10.0952   5.4460078876e+01   4.1629431493e+01    0.3562404    0.2314309  36.73  0.001475663    1.656    0.396
        38  -9.9092    163.1175      5.6978   5.3714522051e+01   4.3608022174e+01    0.3422295    0.2295971  10.39  0.001591372    1.740    0.425
        39 -10.2465     66.1412     10.0723   7.8758442127e+01   6.5527896742e+01     0.339904    0.2069453  48.46  0.001801423    1.889    0.471
        40  -9.9357     62.7452      6.4915   7.8152276547e+01   6.6601291264e+01    0.3043674    0.2151034   7.87  0.001613083    1.466    0.318
        41  -9.8257    184.9574      7.2880   5.1402481410e+01   3.7614227932e+01    0.2816373    0.1966471 -36.33 0.0007566367    1.412    0.292
        42  -9.7994    151.7052      7.5858   5.6142574354e+01   4.6449606223e+01     0.436593    0.2050613  52.29  0.001059876    1.969    0.492
        43  -9.9894      1.2867      7.2492   1.0851888256e+02   7.3552609355e+01    0.1804037   0.07357793 -54.79 0.0002602876    1.789    0.441
        44 -10.6864     77.4134      5.1556   7.2272414096e+01   6.4110606799e+01    0.5617799    0.2674124 -26.24  0.002606923    1.927    0.481
        45  -9.2530     81.8787      1.2821   6.8841355269e+01   6.3676887300e+01    0.1830299    0.1036411  43.64 0.0005013132    1.713    0.416
        46 -10.8215     41.6615      4.2769   8.5779884827e+01   7.0141248349e+01    0.5024556    0.2484788 -16.00  0.002187801    2.927    0.658
        47  -9.6343    122.8229      1.3654   5.8767609378e+01   5.4423143853e+01    0.5109125    0.1406322  67.10  0.001552116    4.086    0.755
        48  -9.0212    115.5183      6.0184   6.2360258569e+01   5.5739257063e+01    0.3059385    0.1617515  11.07 0.0008141797    2.580    0.612
        49  -9.9091    117.0092      2.4866   6.0457164882e+01   5.5734150618e+01    0.2970394    0.1910415  54.83  0.001171595    1.483    0.326
        50 -10.9935    107.3782      1.8320   6.2303886705e+01   5.8075564505e+01    0.9118841    0.3109532  62.88  0.003296401    3.108    0.678
        51  -9.0738     50.0549      6.5547   8.3305061782e+01   6.8611769743e+01     0.164675    0.1194151  35.12 0.0005693887    1.528    0.346
        52 -11.1648    218.7376      3.0472   4.6612407526e+01   2.9169634234e+01    0.3921974    0.3411819 -79.82 0.0009944969    1.120    0.107
        53 -11.6943    223.8085      1.6332   4.5777846493e+01   2.8021126952e+01    0.8841524    0.3845937 -80.44  0.003245726    3.157    0.683
        54 -10.7659    173.4879      4.4745   5.1879379377e+01   4.0951034965e+01    0.7594393    0.3291641  85.85  0.002602995    3.164    0.684
        55 -10.0782     71.4532      3.8978   7.3609019662e+01   6.5390758126e+01    0.3668619    0.2143283  10.31   0.00173679    2.152    0.535
        56  -9.4737     21.7082      3.5828   9.5371167247e+01   7.2602040393e+01    0.2993912   0.09190207 -50.47  0.001191278    3.472    0.712
        57 -11.4673    205.3806      2.4534   4.7669193453e+01   3.2668724833e+01    0.4496323     0.282634 -81.00  0.001009471    1.747    0.427
        58 -10.4743    142.2683      3.3294   5.6038141477e+01   4.9320149559e+01    0.3930157    0.2901798  70.31  0.002005401    1.376    0.273
        59 -11.9933    133.6502      2.5816   5.7234627027e+01   5.1600894967e+01    0.4395562    0.2785292  57.12 0.0007036154    1.483    0.326
        60  -9.6984     55.0949      3.9332   7.9765750947e+01   6.8206661841e+01    0.1862597    0.1535468 -12.64 0.0003979413    1.024    0.023
        61  -9.3362    157.4988      2.5182   5.3355757517e+01   4.5396590498e+01    0.2347266    0.1956764   9.89  0.001256779    1.260    0.206
        62  -9.5127    161.9515      1.2643   5.2269842703e+01   4.4324986537e+01    0.4821649    0.1308648  74.55  0.001312985    4.549    0.780
        63 -10.1488     12.8566      1.9569   9.9428374817e+01   7.3689676001e+01    0.2300358    0.1497922   0.40  0.001031421    1.756    0.431
        64  -9.0579     74.4783    145.5210   1.1462811600e+02   3.6372151980e+01    0.1262417    0.1074648  84.60 0.0003002539    1.007    0.007
        65 -10.6324     33.0799    144.2567   1.2388077215e+02   4.1534887902e+01    0.2523736    0.1840301  73.72 0.0008445158    1.159    0.137
        66  -9.3002    104.4842    142.4671   1.0727512383e+02   3.2471516034e+01    0.1324824    0.1198471  80.11 4.944962e-05    1.009    0.009
        67 -10.0396    133.6038    140.1811   1.0029849690e+02   2.7771479936e+01     0.327915    0.2729236   2.66  0.001563172    1.621    0.383
        68 -12.1221     29.7951    133.0859   1.2352796872e+02   4.4249007824e+01    0.6060079    0.3535867 -80.45 0.0004051073    1.409    0.290
        69 -10.8953     20.9893    134.5143   1.2571837369e+02   4.4741401950e+01    0.2365652    0.2333146 -45.29 0.0007654048    1.460    0.315
        70 -10.2228     82.0394    135.1621   1.1131412576e+02   3.7522060097e+01    0.3080217     0.233367  11.98  0.001119817    2.090    0.522
        71 -10.6599     47.2017    135.0951   1.1963348450e+02   4.2018867933e+01    0.3574348    0.1704792 -55.66   0.00144809    2.108    0.526
        72 -11.0001     71.6550    133.9641   1.1362018839e+02   3.9245925235e+01    0.4961909    0.3429002  18.21  0.002641063    2.254    0.556
        73 -11.2599     92.9053    129.5006   1.0773435690e+02   3.7095558813e+01    0.4813403    0.2837505 -61.55  0.002126939    1.632    0.387
        74 -10.0822     14.4848    133.8110   1.2715204896e+02   4.5439809393e+01    0.2639413    0.1382922  75.43  0.001551856    1.740    0.425
        75  -9.9302     62.4164    131.7051   1.1552485760e+02   4.0952495512e+01    0.3451792    0.1536755 -53.66  0.001618708    2.259    0.557
        76  -9.3979    103.8494    131.2228   1.0541596663e+02   3.4939628461e+01     0.173066    0.1620662 -28.00  0.001045824    1.307    0.235
        77 -10.7842     10.9521    126.9713   1.2739910881e+02   4.7184028254e+01    0.4503648    0.1397228 -62.21  0.001610167    2.667    0.625
        78 -11.1706    239.4898    124.4769   7.6446997772e+01   8.6566918233e+00    0.6146145    0.2165161 -29.08  0.002338103    2.725    0.633
        79 -10.4032     18.4325    124.8273   1.2541846313e+02   4.7052370826e+01    0.3062978    0.1436212 -64.03  0.001293176    1.812    0.448
        80 -11.1095     24.0030    137.0069   1.2525321528e+02   4.3940259529e+01    0.3144177    0.2486722 -76.31 0.0006908425    1.199    0.166
        81  -9.6346      2.3217    125.7282   1.2932476535e+02   4.8079013787e+01    0.2387954      0.13154  86.05  0.001511695    1.447    0.309
        82 -10.5545     81.3788    124.6133   1.0970942944e+02   3.9923757783e+01    0.5112105    0.2828287  28.43  0.002356602    2.484    0.597
        83 -11.0097     55.2559    123.2750   1.1607992690e+02   4.3699315596e+01    0.6284351    0.2831105  34.94  0.002120804    2.481    0.597
        84 -10.5373     45.6811    120.4137   1.1810860125e+02   4.5429751538e+01    0.2848539    0.1984127  82.55   0.00127667    1.358    0.264
        85 -11.6514    104.7543    121.7326   1.0334987100e+02   3.6816199624e+01    0.4576229    0.4066686 -80.88  0.001566035    1.065    0.061
        86 -10.8642     33.3242    119.4534   1.2113551857e+02   4.6908560311e+01    0.3502525    0.2743834 -80.06   0.00169115    1.050    0.048
        87  -9.8878      4.6138    120.7791   1.2839553120e+02   4.8980911369e+01    0.2529206    0.1894321 -74.03   0.00163023    1.204    0.170
        88  -9.4770    221.4680    120.5071   7.8464526000e+01   1.2923890314e+01    0.1407987    0.1291345   0.46  0.000129609    1.022    0.022
        89  -9.6481    149.0520    119.3241   9.2381379815e+01   2.8789345029e+01    0.3798552    0.2186307  26.78  0.001462947    2.657    0.624
        90  -9.2934     72.9132    119.8040   1.1101710235e+02   4.2200906519e+01     0.186082     0.169279 -48.16 0.0006633812    1.281    0.219
        91  -8.8292     81.5240    117.4677   1.0837833274e+02   4.1485181567e+01    0.1336626     0.118883 -80.62 0.0001635167    1.011    0.011
        92  -9.8068    113.7922    116.0111   9.9911258913e+01   3.6433808719e+01    0.2267086    0.2019505  50.26 0.0003414443    1.151    0.131
        93 -10.5783     85.7423    104.3624   1.0462057500e+02   4.3765693034e+01    0.3376504    0.2570312 -45.68  0.001053561    1.352    0.260
        94  -9.6379     90.7563    104.4321   1.0328238776e+02   4.2950873257e+01    0.4441975    0.2041345  33.69   0.00178843    2.746    0.636
        95 -11.1866     78.7197    108.4141   1.0736293042e+02   4.3923859924e+01    0.5580331    0.3656255  40.34  0.002530033    1.663    0.399
        96  -9.9459     87.8465    114.4539   1.0615952888e+02   4.1190593733e+01    0.3576019    0.1960737  57.03  0.001285461    2.129    0.530
        97  -9.6533     83.5278    111.4785   1.0669537123e+02   4.2518642198e+01    0.2248025    0.1753621  34.60 0.0008282698    1.484    0.326
        98  -9.9051     36.9790    114.7076   1.1958399285e+02   4.7613072086e+01    0.2258659    0.1427588  84.01  0.001192741    1.542    0.352
        99 -12.1864     35.3029     92.5137   1.1671921888e+02   5.2802980592e+01     1.694382     0.973933  85.77  0.007897596    2.038    0.509
       100 -11.0439     18.7879    106.0645   1.2332523448e+02   5.1167387823e+01    0.2740878    0.2284754  87.56 0.0003184349    1.113    0.101
       101 -11.5960     23.7843     99.8643   1.2116452587e+02   5.2156559306e+01    0.5695771    0.3266284 -64.05  0.002867258    1.416    0.294
       102 -11.4342     43.7453     85.5949   1.1289375976e+02   5.3535416488e+01    0.4212318    0.3122449  25.25  0.001882165    1.705    0.414
       103 -10.8914     37.5481     86.0373   1.1489459689e+02   5.4061919184e+01    0.3254141     0.219945  67.57   0.00150709    1.720    0.419
       104 -11.8830     21.1345     95.3593   1.2130352586e+02   5.3387222503e+01    0.6483026    0.4706117  -3.66  0.003725522    2.104    0.525
       105 -12.4018     18.3208     90.4438   1.2144030773e+02   5.4712801827e+01    0.5457268    0.3497006 -46.22 0.0007531725    1.684    0.406
       106 -11.9545     22.1680    114.2134   1.2337656338e+02   4.9076745469e+01    0.9057561     0.395573  12.26  0.003777743    5.063    0.802
       107 -12.4063     25.1620    107.9739   1.2184373653e+02   5.0216046693e+01    0.9373177      0.56981 -19.79  0.004847575    3.168    0.684
       108 -12.3680      8.6563     95.7138   1.2490839609e+02   5.4211966870e+01      0.81958    0.4037605  80.49  0.001280366    2.139    0.532
       109 -12.2323      7.8411     89.5077   1.2440584708e+02   5.5649292355e+01     0.478447     0.341621 -75.59   0.00138936    1.059    0.056
       110  -9.7434      7.0284    114.7456   1.2728402651e+02   5.0121222740e+01    0.2194733    0.1464522  84.21  0.001245775    1.220    0.180
       111 -11.2918      2.3880    112.1488   1.2822064945e+02   5.0999877976e+01    0.3090094    0.1887728 -79.97 0.0008627471    1.226    0.184
       112 -11.9964      3.8875    105.1864   1.2720281935e+02   5.2425541571e+01    0.3973562    0.2984743 -84.19  0.001090297    1.015    0.015
       113  -9.1139    126.9619    113.9536   9.6238155678e+01   3.4362693366e+01    0.1738344    0.1676673  80.63 0.0009963522    1.020    0.020
       114 -10.4717     67.0708    112.0012   1.1117047892e+02   4.4745420689e+01    0.4647371    0.2546075 -69.52  0.002221421    1.738    0.425
       115 -10.5349    108.0684    112.4312   1.0054810967e+02   3.8238664712e+01    0.6425387    0.3869174 -75.17  0.002709593    2.357    0.576
       116 -10.7328    101.5588    109.4388   1.0154652048e+02   4.0034928891e+01    0.4263373    0.3729657  80.98  0.002452304    1.160    0.138
       117  -9.7498    103.4816    106.4661   1.0037652349e+02   4.0346573254e+01     0.342794     0.242673  56.12 0.0009857364    1.506    0.336
       118 -10.8643    170.3696    110.1477   8.5539083722e+01   2.5890437530e+01    0.4393542    0.4036721  27.41  0.001455706    1.096    0.088
       119 -10.0170    175.3205    107.5137   8.3847707034e+01   2.5249703460e+01     0.346558    0.2044043 -33.71  0.001498238    1.734    0.423
       120  -9.9055     94.0729    111.6258   1.0396152113e+02   4.0818076569e+01    0.3206991    0.2466289  68.92  0.001742181    1.404    0.288
       121  -9.8178     49.1577    112.0761   1.1597768575e+02   4.6921044353e+01    0.2016576    0.1745788  66.45 0.0008932935    1.197    0.164
       122  -9.9182    120.1180    109.3064   9.6816549932e+01   3.6664974179e+01    0.2450082    0.1937423 -39.52 0.0006477193    1.329    0.248
       123  -9.7514    130.4901    108.5535   9.4103577989e+01   3.4773329262e+01     0.313038    0.1413263 -46.43  0.001216796    2.186    0.543
       124  -8.7936     58.6414    109.2988   1.1296421566e+02   4.6435048959e+01    0.1342388   0.08876353  74.24 0.0007035418    1.709    0.415
       125 -10.2725    157.7330    106.1533   8.7224850959e+01   2.9449592555e+01    0.3777792    0.2677052 -12.41  0.001674866    1.925    0.480
       126 -10.3663    143.2945    106.1585   9.0482960215e+01   3.2593771702e+01    0.3334501    0.2880039 -52.02 0.0008859067    1.160    0.138
       127 -11.1352    145.8679    100.2176   8.8350835756e+01   3.3209330990e+01    0.5065556    0.3863991 -28.47  0.001703811    1.426    0.299
       128 -11.5083     47.9914    103.3785   1.1488991464e+02   4.9024443134e+01    0.3848441    0.2581564 -30.39 0.0001783046    2.191    0.544
       129 -10.0978     52.4392     96.2330   1.1234290667e+02   5.0149164336e+01    0.3647344    0.1812825 -55.30  0.001432613    1.740    0.425
       130  -9.2991     82.1995    102.7934   1.0524766458e+02   4.4663679336e+01    0.1806476    0.1527112 -40.99 0.0005500054    1.300    0.231
       131  -9.8760     61.1574    101.1747   1.1078470373e+02   4.7966098373e+01    0.1842584    0.1396822  86.74 0.0006018073    1.361    0.265
       132  -9.9646     57.5140    102.0151   1.1197155606e+02   4.8227808450e+01    0.2607704    0.1893292 -76.92 0.0007336523    1.254    0.203
       133 -10.1048     57.6055     97.7661   1.1114048285e+02   4.9183970862e+01    0.2925245    0.1934359 -77.01 0.0009854166    1.468    0.319
       134  -9.4018    120.5097    101.4749   9.4807387504e+01   3.8236276103e+01    0.1439274     0.139283 -57.06 0.0003000072    1.038    0.036
       135  -9.5385     66.7769     74.6907   1.0310511526e+02   5.3195606115e+01    0.3160829    0.1964644 -88.23   0.00135785    2.717    0.632
       136  -9.4777     67.5044     87.9527   1.0615127238e+02   5.0130403674e+01    0.2657808    0.1542431 -43.85 0.0009195543    1.767    0.434
       137  -9.6832     60.5184     83.1008   1.0715689325e+02   5.2148651276e+01    0.2661129    0.2019837 -70.44  0.001023619    1.223    0.182
       138 -10.6730     59.2590     78.2890   1.0641036231e+02   5.3391558777e+01    0.3257264    0.2454364  30.34  0.001893445    1.591    0.371
       139 -10.7956     77.9282     96.9669   1.0515975699e+02   4.6613969985e+01    0.5001478    0.1917925 -59.89  0.001619583    2.541    0.606
       140 -11.0893     81.1310     92.5274   1.0322630499e+02   4.7125073070e+01    0.6766733    0.4261385  54.38  0.002510116    1.822    0.451
       141 -11.0122     89.4118     90.2117   1.0029633925e+02   4.6319065169e+01    0.4197002    0.2693268 -49.71  0.001061207    1.436    0.304
       142  -9.8341     92.9726     85.6243   9.8095537875e+01   4.6724626158e+01    0.2604747    0.2249816  20.44 0.0003871643    1.383    0.277
       143 -10.8319     66.7616     81.8501   1.0492923516e+02   5.1603738301e+01    0.4111271    0.3252563  30.09  0.002396091    1.506    0.336
       144 -11.0891     79.5628     82.6992   1.0125129442e+02   4.9551282540e+01    0.6581658    0.4999624  86.24  0.002852631    1.637    0.389
       145 -11.3862     73.0870     77.9291   1.0197672207e+02   5.1579996100e+01     0.602184     0.415384 -29.18  0.003060668    1.803    0.445
       146 -11.1807     67.8103     96.7914   1.0800714224e+02   4.8089907597e+01    0.5751603    0.3475981 -50.06  0.002138051    1.560    0.359
       147  -9.5675    210.4781     97.9994   7.4750215810e+01   1.8765101574e+01    0.2335888    0.1397208 -31.16  0.001036829    1.605    0.377
       148  -9.5770    140.8905     96.0991   8.8414630200e+01   3.5106363489e+01    0.2456431    0.1894057   6.33  0.001138446    1.763    0.433
       149  -9.7041    137.7168     93.6269   8.8499030084e+01   3.6285845159e+01    0.3731703    0.2584365  16.33  0.001071831    2.177    0.541
       150 -11.2273    119.6232     85.4457   9.0747638805e+01   4.1751385155e+01    0.6900578    0.4802886 -85.22  0.002957289    2.234    0.552
       151 -10.3442    117.5524     92.9701   9.3358813234e+01   4.0604251584e+01    0.6584587    0.3972737  21.72  0.002517517    2.903    0.656
       152 -10.5462    126.1399     93.1553   9.1215880136e+01   3.8830263494e+01     0.388417    0.3528733 -70.87 0.0009508388    1.132    0.116
       153 -10.4634    122.4711     93.5213   9.2242650796e+01   3.9504905304e+01    0.3266833    0.2281426 -44.66 0.0007953538    1.386    0.278
       154 -11.6552    102.1530     90.2105   9.6736503240e+01   4.4111910766e+01    0.4786649    0.4188202 -28.51 0.0006101146    1.259    0.206
       155  -9.5175    160.4883     93.5016   8.3249844594e+01   3.1201635041e+01    0.2676959    0.1501441  62.99  0.001032927    2.241    0.554
       156 -10.3816    152.6917     91.7608   8.4494474390e+01   3.3317401619e+01    0.4113917    0.3764987  42.69   0.00219404    1.109    0.099
       157 -10.7273     50.0101     89.4100   1.1173661058e+02   5.1982684144e+01     0.789747    0.3027579 -55.47  0.003494149    2.146    0.534
       158 -11.9841     52.8295     74.8446   1.0764670655e+02   5.4953038917e+01    0.6973305    0.2619178 -60.03  0.002320591    2.320    0.569
       159  -9.3430    212.0261     87.9281   7.1823199326e+01   1.9958236230e+01    0.2416006    0.1738923  14.09 0.0008753806    1.669    0.401
       160 -10.2623    183.9061     86.3326   7.6432972781e+01   2.6929174335e+01     0.586931     0.222868 -42.01  0.001993342    2.655    0.623
       161 -10.0519    104.6071     76.8218   9.2314979989e+01   4.6497854233e+01    0.4477215    0.3376052 -30.24  0.002257299    1.428    0.300
       162 -10.8546    113.6225     83.4662   9.1771237310e+01   4.3365597183e+01    0.7018569    0.3459218 -35.50  0.002709446    2.327    0.570
       163 -10.9275    109.3429     80.5525   9.2093079427e+01   4.4810745213e+01    0.3441063    0.3116879 -26.30 0.0006073554    1.156    0.135
       164 -10.4122    165.5704     83.3175   7.9271065746e+01   3.1862083677e+01    0.3931466    0.3139255 -52.55  0.001917891    1.331    0.249
       165 -11.3106    143.1486     84.0482   8.4495377756e+01   3.6958652221e+01    0.3447235    0.3213415 -38.74  0.001003843    1.047    0.045
       166 -10.3959    127.5985     83.1201   8.8027506920e+01   4.0560927804e+01    0.3638382    0.2640658 -43.84  0.001215518    1.327    0.246
       167  -9.3399     24.1869     73.8835   1.1690585555e+02   5.7999100623e+01     0.237734    0.1342058 -65.70  0.000666647    1.382    0.276
       168  -9.8153     20.5213     71.6989   1.1772481842e+02   5.8774378290e+01    0.2387006    0.1851335  -0.10  0.001041531    1.761    0.432
       169 -11.8942     13.7005     74.7434   1.2051064017e+02   5.8575256746e+01     0.454511    0.3628529 -67.95  0.002417606    1.066    0.062
       170 -11.3761     14.4316     66.7106   1.1888924812e+02   6.0323688319e+01    0.3093053     0.205128 -76.00 0.0005461472    1.260    0.206
       171 -10.8391     93.4471     76.4836   9.5423610765e+01   4.8611099754e+01    0.4793872    0.3402009  26.20  0.001613177    1.767    0.434
       172 -11.7057     85.3985     73.6932   9.7020471929e+01   5.0580916353e+01    0.7508937    0.6296531 -72.93  0.004223062    1.280    0.219
       173 -11.0986     78.3892     67.0555   9.7240236172e+01   5.3133369647e+01    0.5314524    0.4391801  86.82  0.002428394    1.498    0.333
       174 -10.3565    143.1918    249.3465   1.1372081779e+02   8.7036228462e+00    0.2076551    0.1046233  34.94  0.001264593    1.901    0.474
       175 -11.0742     91.5434     62.5850   9.1723781732e+01   5.1845695154e+01    0.3807113    0.3608855  79.29  0.001077938    1.188    0.158
       176 -11.5590     89.4946     57.6045   9.0698872369e+01   5.3215084552e+01     0.607614    0.5682584  18.15  0.002579484    1.158    0.137
       177  -9.6775      1.4006     78.0958   1.2492891234e+02   5.8570874383e+01    0.2210772    0.0857593 -76.99 0.0008837608    2.022    0.506
       178 -11.4462      1.9224     71.4444   1.2387112530e+02   6.0019169237e+01     0.439431    0.1559055 -74.28  0.002140372    2.166    0.538
       179  -9.8318      2.4605     66.0405   1.2289807019e+02   6.1188064377e+01    0.2150861   0.07721409 -65.85 0.0007774546    1.930    0.482
       180 -12.0117      6.3009     62.6546   1.2101595098e+02   6.1727584763e+01    0.6535044    0.3128778 -48.54  0.003702758    1.867    0.465
       181 -10.5358     12.1954     62.5243   1.1890295225e+02   6.1401427294e+01    0.2744553    0.1728064 -20.09   0.00141586    2.185    0.542
       182  -9.1190    170.5160     77.5506   7.6549557966e+01   3.1679382305e+01    0.1525218    0.1490863 -13.19 7.604458e-05    1.005    0.005
       183  -9.4894    135.0332     77.6223   8.4536531875e+01   4.0019932308e+01    0.3057866    0.1470214  58.38  0.001106686    2.551    0.608
       184 -10.1521    126.9680     76.9771   8.6359700192e+01   4.1916441701e+01    0.2219273    0.2126401 -46.58            0    1.017    0.016
       185  -9.0102     47.0016     77.2115   1.1009389449e+02   5.5086206085e+01    0.1590872    0.1361769 -64.21  0.001018561    1.030    0.029
       186  -9.8264     46.7422     72.9285   1.0919344782e+02   5.6078524738e+01    0.3409531    0.1437299 -60.39  0.001542091    1.986    0.497
       187  -9.7077     32.9699     77.1155   1.1463842840e+02   5.6518438941e+01    0.1849343    0.1502643 -64.85 0.0003330031    1.032    0.031
       188  -9.9461    242.2029     76.4091   6.4215809227e+01   1.4673111451e+01    0.1866241    0.1412267  78.13 0.0009528512    1.676    0.403
       189 -11.9932    186.5474     70.5250   7.1356530334e+01   2.8880087694e+01    0.8936082    0.6526542 -33.34  0.003188228    1.322    0.244
       190  -9.3900    151.4439     73.5355   7.9420283743e+01   3.6994946872e+01    0.2909811    0.1331688  42.17    0.0010363    2.433    0.589
       191  -9.9229    123.2970     73.0028   8.6082798469e+01   4.3486610540e+01    0.2663522    0.2220696  64.32  0.000342676    1.336    0.252
       192 -11.8099    122.7271     68.4499   8.4789907167e+01   4.4494113544e+01    0.9881685    0.4994321  38.08  0.003659232    2.345    0.574
       193 -11.9633     40.8008     70.1317   1.1053332845e+02   5.7335920070e+01    0.5212009    0.2470758 -60.62  0.001323738    1.719    0.418
       194 -11.3970     33.2332     71.8598   1.1347649991e+02   5.7680351035e+01    0.4923451    0.2632738  33.77  0.002538762    2.218    0.549
       195 -10.1066    161.6995     70.4958   7.6240497091e+01   3.5055101788e+01    0.3531796    0.2732676 -85.55  0.001230047    1.693    0.409
       196 -10.3975    171.9818     67.7222   7.3278067926e+01   3.2978544134e+01    0.4583275    0.3044198 -43.10  0.001801063    1.510    0.338
       197 -11.4407    219.7987     66.4965   6.4717746117e+01   2.1262832435e+01    0.6470102     0.371558  64.67  0.002481911    1.955    0.488
       198  -9.5573    208.5492     68.1556   6.6909141755e+01   2.3770971614e+01    0.2475442    0.2008823  28.50 0.0009826398    1.330    0.248
       199  -9.6009     21.4097     65.4645   1.1621779451e+02   6.0103560945e+01     0.264472    0.1723972  83.47  0.001513516    1.801    0.445
       200  -8.7413     25.5807     65.4571   1.1475170595e+02   5.9777287814e+01    0.2314807    0.1299371 -36.12 0.0008683752    2.077    0.519
       201  -9.7606    192.5654     65.9377   6.8917945617e+01   2.8089034214e+01    0.2797713    0.2201122 -87.08  0.000971013    1.577    0.366
       202  -9.7922     51.9652     47.7782   1.0026281712e+02   6.0923614622e+01    0.2586721    0.2165894 -21.30  0.001041643    1.257    0.205
       203  -9.7511     26.0967     48.0943   1.1038341125e+02   6.3546241170e+01    0.2167213    0.1593182 -27.26 0.0003810404    1.504    0.335
       204 -10.7126     21.1178     46.9048   1.1204812565e+02   6.4201184660e+01    0.5572414    0.2924046 -34.05  0.002973873    2.140    0.533
       205 -10.9683     58.2085     61.4997   1.0228716598e+02   5.7228588916e+01    0.5100317    0.3761333 -62.19  0.002922969    1.282    0.220
       206 -11.5704     25.4358     55.8090   1.1261791349e+02   6.1925089655e+01     0.925465    0.6832441  17.30  0.006023541    1.736    0.424
       207 -11.1795     34.6019     42.4332   1.0530101839e+02   6.3971320080e+01    0.6768064    0.4869632 -22.33  0.003470564    1.564    0.360
       208 -12.5550     49.7989     60.3855   1.0491148256e+02   5.8506636976e+01    0.6744327    0.5159896  78.95  0.001643304    1.720    0.419
       209 -10.4745     33.5835     58.2089   1.1018669304e+02   6.0685944368e+01    0.3416866    0.1729871 -37.17 0.0005853355    2.235    0.553
       210 -11.4037     40.1275     55.6782   1.0709879605e+02   6.0595097453e+01    0.4851784    0.4241429 -68.01   0.00276195    1.148    0.129
       211  -9.5903    175.0387    246.4925   1.0839791989e+02   4.3829895111e+00    0.1708668   0.07890384  42.89 0.0006659497    1.587    0.370
       212 -10.9825     60.6299     36.1528   9.2754513330e+01   6.2064338439e+01    0.3547325    0.1985918 -39.38  0.001007068    1.551    0.355
       213 -11.4502     46.3924     48.8897   1.0272859383e+02   6.1360316911e+01     0.387881    0.3415266 -17.12  0.001439464    1.240    0.194
       214 -11.5223     42.5907     45.1136   1.0298092394e+02   6.2578167448e+01    0.4663822    0.3386114  -5.52 0.0009388856    1.762    0.432
       215 -10.2287    105.9754     63.5401   8.7768113964e+01   4.8927190968e+01    0.2774254    0.2461472 -51.35  0.001525779    1.113    0.102
       216 -10.1384     98.2135     63.1350   8.9894017319e+01   5.0508992258e+01    0.3878547    0.2671935  -2.80  0.001693753    2.301    0.565
       217  -9.3006    198.1758     62.9480   6.7077776392e+01   2.7128526885e+01    0.2649064    0.1520627 -51.19  0.001060458    2.019    0.505
       218 -10.6660    159.3951     61.7965   7.3973352545e+01   3.7102759502e+01    0.5040003     0.286545  39.03  0.002014213    1.992    0.498
       219  -9.3973    156.3477    246.6709   1.1136907068e+02   7.1148698698e+00    0.1070032   0.06781425  61.66 0.0007049468    1.759    0.431
       220 -11.6738    120.2056     57.4332   8.1777028226e+01   4.7114712001e+01    0.9904947     0.667984  76.90  0.004195972    2.282    0.562
       221  -9.8805    199.0805    244.5209   1.0440278028e+02   1.0398986148e+00    0.1707316   0.07926519  42.08   0.00103416    1.600    0.375
       222 -11.0651    113.3326     49.7117   8.0883830070e+01   5.0000060793e+01      0.52482    0.3621543  18.37  0.001441575    1.919    0.479
       223 -10.9420    127.8089    242.5017   1.1550793987e+02   1.1775516142e+01    0.2714715     0.149958 -68.35  0.001739958    2.561    0.609
       224  -9.2622    146.9476     60.5508   7.6280843293e+01   4.0369899132e+01    0.2314312    0.1521545  54.55  0.001019883    1.568    0.362
       225 -10.5847    134.1402     50.4638   7.5806732859e+01   4.5155461341e+01    0.4476424     0.260399 -59.31  0.001695179    2.534    0.605
       226 -11.3577    146.0551     46.3263   7.1606195581e+01   4.2931496529e+01    0.6838302    0.4202794 -13.65  0.002091201    1.996    0.499
       227 -11.1437    157.3670     54.8610   7.2121256970e+01   3.8747462125e+01    0.6797711    0.5092899 -59.89  0.002849625    1.565    0.361
       228 -11.0338    155.1293     49.6817   7.0838308276e+01   4.0133382105e+01    0.4849512    0.3106017  -5.54 0.0003716821    2.090    0.522
       229  -9.6290    101.1747     56.1666   8.6658243225e+01   5.1307935291e+01    0.1937539    0.1683838 -68.98 0.0003975642    1.326    0.246
       230  -9.3429      1.8295     56.1981   1.2151237694e+02   6.3389060579e+01    0.1507653    0.1044415 -49.64 0.0004942032    1.321    0.243
       231  -9.3287    187.7597     55.3907   6.6541249559e+01   3.0903680968e+01    0.2156765    0.1389931  49.32 0.0004801493    1.575    0.365
       232  -9.9384     66.9912     54.7411   9.7148039686e+01   5.7451339936e+01    0.2568466    0.1803067 -55.75 0.0007084842    1.352    0.261
       233 -10.9066    240.3264     50.4076   5.7574293737e+01   1.8512801543e+01    0.3397047    0.3353166  19.46 0.0008449481    1.096    0.088
       234 -10.6121    244.5095     50.5117   5.7112872425e+01   1.7526122580e+01    0.2968757    0.2008045 -37.01  0.001508651    1.331    0.249
       235 -10.8959    174.0256     48.1868   6.6665433628e+01   3.5515382620e+01    0.5102048    0.3944399  85.02   0.00197744    1.531    0.347
       236 -10.7066    201.7654     47.0992   6.1755886648e+01   2.8475482172e+01    0.5118173    0.3476171 -36.06  0.002395782    1.400    0.286
       237 -10.7670    136.6933     56.3023   7.7233387638e+01   4.3556845395e+01    0.6864436    0.4429741  17.78  0.002520969    2.308    0.567
       238  -9.0369     91.1544     48.3544   8.6900827433e+01   5.4705368053e+01    0.2816558    0.1535104 -49.42  0.001229407    1.886    0.470
       239 -10.0666     12.9867     47.2683   1.1539491347e+02   6.4696990916e+01    0.5038846    0.1396376 -41.10   0.00187736    4.259    0.765
       240 -10.1231     18.2355     41.5989   1.1179951223e+02   6.5550613118e+01    0.2953554    0.1809799 -31.51  0.001419993    1.756    0.430
       241  -9.4165     11.1493     33.8320   1.1267112591e+02   6.7670213195e+01    0.2043482    0.1013048 -56.59 0.0003590605    1.475    0.322
       242  -9.8461      2.3874     48.8406   1.1993299273e+02   6.4965781330e+01    0.2189149    0.2001179 -74.79  0.001429315    1.228    0.185
       243  -9.6745      4.5696     43.7907   1.1800241994e+02   6.5943375287e+01    0.4358671    0.2206239 -45.77  0.001464289    1.698    0.411
       244 -11.0249      4.2106     35.8398   1.1627638056e+02   6.7655722873e+01    0.2667599    0.2176204 -56.50 0.0004150838    1.097    0.088
       245  -9.5568      6.6268     30.7907   1.1384417419e+02   6.8577549299e+01    0.3106017    0.1581495  -2.84  0.001695836    2.873    0.652
       246  -9.9973    194.9158     46.6041   6.2647796819e+01   3.0311698737e+01    0.5095077    0.2716278 -88.78  0.001674294    3.489    0.713
       247 -10.3568    233.7826     45.3153   5.6967027344e+01   2.0707987959e+01    0.3621162    0.2440017  71.06  0.001779597    1.647    0.393
       248 -10.6955    139.8895     43.4985   7.1964104416e+01   4.4895064162e+01    0.5828827    0.3817225  14.10  0.001851569    2.126    0.530
       249 -10.7821    149.8738    238.4493   1.1152800595e+02   9.0737516977e+00    0.2287931    0.1561745  44.45  0.001649299    1.102    0.093
       250 -10.3917    145.6731     52.2488   7.3759669069e+01   4.2076498854e+01    0.4040249    0.3429052  38.85  0.001438252    1.207    0.171
       251 -10.1635    101.1668     43.8024   8.2135438941e+01   5.3588199144e+01    0.3698119    0.2503255 -64.41  0.001383707    2.160    0.537
       252 -10.8650     94.0070     41.2977   8.3328112407e+01   5.5450385080e+01    0.5559061    0.3284197  43.03  0.002217647    1.815    0.449
       253  -9.5275     15.1155    234.1165   1.3262622487e+02   2.6762198538e+01    0.1312889    0.1008709  74.46 0.0007495509    1.264    0.209
       254 -11.4540    183.6743     24.7519   5.7345406356e+01   3.6079204039e+01    0.7584109    0.3142858  48.81  0.002778392    2.452    0.592
       255 -11.5013    176.7589     37.3420   6.2605122856e+01   3.6325229614e+01    0.8025853    0.3092183 -29.84  0.002834615    2.436    0.590
       256 -10.4320    173.0128     33.4652   6.1929623814e+01   3.7826491182e+01    0.3443746    0.2703296  72.19  0.001259935    1.343    0.255
       257 -10.8001    176.1928     29.9619   6.0223519137e+01   3.7433655361e+01    0.4347266    0.2529353  47.58  0.001630826    1.743    0.426
       258 -10.0239    162.7646     43.8913   6.7330258705e+01   3.9060994427e+01    0.2880856    0.2297677  62.93  0.001173824    1.298    0.230
       259 -11.4913    156.1509     41.6817   6.7860215292e+01   4.1085805995e+01    0.4248323     0.372414 -24.87 0.0009548531    1.121    0.108
       260 -10.7143    153.2458     36.2130   6.6497521339e+01   4.2615603366e+01     0.313369    0.2910422 -44.85  0.000419945    1.107    0.096
       261 -10.1466    189.0060     41.8847   6.2093832172e+01   3.2495544463e+01    0.2979625     0.205907 -27.22 0.0004756142    1.412    0.292
       262 -10.7204     81.2126     39.6257   8.6788006519e+01   5.8117676118e+01    0.5357738    0.3990387  46.88  0.002900618    1.528    0.346
       263 -10.4877     77.6868     34.4360   8.5886704013e+01   5.9662034365e+01    0.5113764    0.2792283  36.82  0.001064741    2.056    0.514
       264 -10.7082     82.1540     31.5989   8.3183744185e+01   5.9356776824e+01    0.5310202    0.4406508  59.98  0.002219795    1.519    0.342
       265 -10.4100    231.6043     39.2445   5.5544446746e+01   2.1987295737e+01    0.3236125    0.2362453 -35.05 0.0009429968    1.252    0.201
       266 -10.7931     23.2030     37.1154   1.0838078534e+02   6.6107139429e+01    0.3514919    0.2458384  52.77  0.001697903    2.001    0.500
       267  -9.6785    133.5349     37.3690   7.1148296539e+01   4.7383122229e+01    0.3956432    0.2553783 -68.49  0.001589773    2.436    0.590
       268  -9.6723    206.8032     37.0518   5.8001579512e+01   2.8493914538e+01    0.2473315    0.2191172  79.14 0.0007156345    1.181    0.154
       269 -10.4633    242.4475    231.7217   9.6017938646e+01  -4.0765816409e+00    0.2161011      0.15691  66.18  0.001302206    3.118    0.679
       270 -11.9203    105.6894     33.0164   7.6545478200e+01   5.4444127069e+01     0.797609    0.4532033   7.73  0.002785646    3.480    0.713
       271 -10.4459    197.1939    231.8492   1.0307023312e+02   2.6509508010e+00    0.1583474    0.1073051  24.53  0.001085283    1.371    0.271
       272  -9.9299    247.3802    231.2356   9.5208718162e+01  -4.7361441037e+00     0.122723   0.09341017 -22.78 0.0006124587    1.614    0.380
       273 -11.3272    159.9263     30.0355   6.3016930355e+01   4.1716931005e+01    0.6644125    0.3137617 -41.44  0.002023243    2.172    0.540
       274 -11.2903    163.9616     27.6092   6.1441020996e+01   4.0966311186e+01     0.371086    0.3001616 -23.05 0.0004099923    1.233    0.189
       275 -10.9211    144.6540     25.4097   6.4210405705e+01   4.6268318767e+01     1.097011    0.4709715  66.82  0.003929509    2.671    0.626
       276  -9.3482     23.4932    231.5193   1.3126385229e+02   2.6343236077e+01   0.09803807   0.06407354  66.43  0.000810285    1.016    0.016
       277  -9.3842      9.7391    227.4273   1.3318539902e+02   2.8323849356e+01    0.1090018   0.07666195  45.87 0.0005739006    1.514    0.339
       278 -10.6414    147.7045     31.6457   6.5939449648e+01   4.4666434036e+01    0.3018535    0.2809651 -25.61 0.0007270853    1.065    0.061
       279 -10.2692    157.1624     20.4911   6.0051878884e+01   4.3621468889e+01     0.676412    0.2698732  52.73  0.002500108    2.327    0.570
       280 -10.1529    153.0140     26.5062   6.3009484575e+01   4.3973228322e+01    0.3920713    0.2300421  30.95  0.001122932    2.060    0.515
       281 -10.2787    156.8078     25.1196   6.1806461924e+01   4.3157121137e+01    0.3577074    0.2678374  83.91 0.0009283582    1.546    0.353
       282 -10.3566     68.9193     32.6236   8.8236968029e+01   6.1448281896e+01    0.4298819    0.2924243  32.47  0.002333357    1.643    0.391
       283 -10.7348    240.6315     31.5636   5.2459282845e+01   2.0724614202e+01    0.4670247    0.3289129 -14.36  0.002399975    1.472    0.320
       284  -8.7230    216.6858     32.2835   5.5323267796e+01   2.6548297092e+01    0.1507375    0.1036825 -59.15 0.0002958275    1.577    0.366
       285 -10.2492    234.2441    222.7955   9.5943771737e+01  -2.0518743298e+00    0.1577612    0.1009203  21.24  0.000765941    1.329    0.248
       286 -10.6873    189.3018     28.4440   5.7741908235e+01   3.4143086569e+01    0.5729618    0.3312382 -18.98  0.002445197    1.816    0.449
       287  -9.9996    182.3266     32.1529   5.9989521236e+01   3.5531253997e+01    0.2363066    0.1882722   1.54 0.0005943186    1.390    0.281
       288  -9.6098     59.7400     24.3622   8.8125121740e+01   6.4325543146e+01    0.2707991    0.1477103 -43.19 0.0005386545    1.663    0.399
       289  -9.7747     62.0247     21.3000   8.5836491591e+01   6.4489526167e+01    0.2163374    0.1670053 -19.26 0.0003965347    1.171    0.146
       290 -11.8098     55.8529     31.0209   9.2527041006e+01   6.3702556442e+01    0.4624955    0.2863233  31.32 0.0004089559    1.865    0.464
       291 -11.3522     47.0979     30.7108   9.5936104855e+01   6.4919959087e+01    0.5371148    0.3052988  16.35  0.001909791    2.518    0.603
       292  -9.4699      9.6445    217.7749   1.3284067941e+02   2.9895973739e+01    0.1332404   0.06436131  82.48  0.000743575    1.642    0.391
       293  -9.6230    165.0266    212.3233   1.0582012867e+02   1.0134811187e+01    0.1904697   0.07672428  57.28 0.0007022195    4.149    0.759
       294  -9.4298    152.7828    207.8045   1.0736552065e+02   1.2764815255e+01    0.1618846    0.1222732  60.59  0.001062468    1.320    0.242
       295 -10.1383    238.3856    204.5248   9.2418178005e+01  -8.6134012099e-01    0.2090143     0.132579 -18.69  0.001336852    1.664    0.399
       296 -10.1621      4.2895    204.9414   1.3319773948e+02   3.2543893074e+01    0.1682407    0.1042028 -76.06  0.001321799    1.623    0.384
       297 -10.9549    245.4764    200.6880   9.0670648985e+01  -1.5748905021e+00    0.2053006    0.1555735  28.24 0.0006737193    1.127    0.112
       298 -10.1322     98.8600     28.7300   7.6717692397e+01   5.6554398286e+01    0.5018573    0.3125251 -52.07  0.002067669    2.029    0.507
       299  -9.3384    210.8362     29.8430   5.5316353543e+01   2.8337454698e+01    0.2091047    0.1623232 -55.19 0.0005076411    1.313    0.238
       300  -9.4495    221.2749     29.2585   5.3905795787e+01   2.5745080807e+01    0.2008953    0.1543631 -57.91 0.0005447411    1.330    0.248
       301  -9.3860     67.8629     27.8038   8.6565107553e+01   6.2463830600e+01    0.1891888    0.1528467 -17.39 0.0002667141    1.152    0.132
       302 -10.6455    250.5889     25.8541   4.9986804187e+01   1.9032827672e+01    0.3482499    0.1094262 -28.00  0.001291504    2.653    0.623
       303 -10.0685    230.6689     26.9463   5.2223180755e+01   2.3670482362e+01    0.2085304    0.1722977 -35.32 0.0008614222    1.118    0.105
       304 -10.9972     31.1100     30.0243   1.0251316093e+02   6.6835625077e+01    0.3775424    0.3410971 -27.57 0.0009232616    1.165    0.142
       305 -10.7370    214.6976     23.5235   5.2982665069e+01   2.8077773000e+01     0.502085    0.3336584  -5.03  0.002072439    1.762    0.432
       306  -9.8038    233.8752    197.3225   9.1927889120e+01   6.2167452888e-01    0.2165584     0.159178  -8.55  0.001182563    1.359    0.264
       307  -9.8817    169.6284    191.4673   1.0198829471e+02   1.2315122754e+01    0.3303983    0.1501086  34.76  0.001172033    2.300    0.565
       308 -10.7187     82.0189     19.0029   7.7604680987e+01   6.1370977391e+01    0.6316484    0.1840043  46.06  0.002241787    3.505    0.715
       309  -9.7721     16.5528    192.0632   1.3055113939e+02   3.3703870860e+01    0.1482963    0.1278195  65.20 0.0003796852    1.369    0.270
       310 -11.3731    243.9569     21.5270   4.9450934198e+01   2.1061679899e+01    0.5319346    0.2153954  51.08  0.002127589    2.759    0.637
       311 -12.0981      4.6117    184.6011   1.3228836611e+02   3.6140470388e+01    0.5546384    0.3014823  67.44  0.003994668    1.368    0.269
       312  -9.6570    239.7867    184.6400   8.8760432440e+01   1.0584931281e+00    0.1591666    0.1022856  46.03  0.000677276    1.598    0.374
       313 -10.1921    212.8142    182.0326   9.2750060591e+01   5.9978990955e+00    0.2969935    0.2089368  19.46  0.001763056    1.393    0.282
       314  -9.6255    223.1399     22.5294   5.1768638343e+01   2.6043693386e+01    0.2530614    0.2131335  35.45 0.0008120793    1.321    0.243
       315  -9.1966    169.2354     23.5851   5.9149018814e+01   4.0061622772e+01    0.2131604    0.1312111  52.22 0.0006132229    1.585    0.369
       316  -9.6514    249.8469    180.5667   8.6430824457e+01  -1.4780995954e-01    0.1949912    0.1317487 -24.07  0.001216217    1.502    0.334
       317  -8.7441    230.2961    175.3400   8.8587187129e+01   3.7639923354e+00    0.1303548   0.08395039  12.74  0.000286279    1.658    0.397
       318 -10.3178     38.5659     22.0108   9.5959978298e+01   6.7567282865e+01    0.3046251    0.1843143 -37.70  0.001009009    1.361    0.265
       319  -9.0300     57.4708    175.0011   1.2165686318e+02   3.2548356105e+01    0.1591956    0.0985456 -76.59 0.0004982726    1.490    0.329
       320  -9.8417    247.8901    173.8218   8.5472175566e+01   9.2672621149e-01    0.3283466    0.1235687  28.08  0.001214091    3.811    0.738
       321 -10.4455     74.0209     19.5312   8.0575778832e+01   6.2763224166e+01    0.2774551    0.2160828  16.58  0.001313987    1.332    0.249
       322  -9.9228     39.5796    173.6612   1.2508290670e+02   3.4858857511e+01    0.1973093   0.08810589 -70.35 0.0007583522    2.019    0.505
       323  -9.9163    211.1323     18.9546   5.2028030084e+01   2.9503675598e+01    0.2095773    0.2030178 -47.85 0.0003985554    1.022    0.021
       324  -9.8652     51.4427    172.8138   1.2265863530e+02   3.3693705783e+01    0.2087777   0.09743178 -79.03  0.001125535    2.052    0.513
       325 -10.4488     36.0873    170.5668   1.2552770337e+02   3.5837968811e+01    0.2787564    0.1370013 -82.29  0.001633242    1.799    0.444
       326 -11.6455      9.8680    166.0074   1.3036097663e+02   3.9227054953e+01    0.4816225    0.2765982 -74.10  0.002917955    1.541    0.351
       327 -10.8400     14.0002    158.2195   1.2906237819e+02   4.0418316013e+01     0.362206    0.1384187 -80.98  0.001958916    2.158    0.537
       328 -10.1558    113.2006     60.9879   8.4886999101e+01   4.7949808996e+01    0.4225531    0.2388484 -36.31  0.001671426    1.712    0.416
       329  -9.4241    198.0435    167.7444   9.2725869388e+01   1.0638950019e+01    0.1856363     0.154712  29.95 0.0007059348    1.060    0.056
       330 -10.4443    186.5037     15.2068   5.3813497640e+01   3.6395789290e+01    0.2750976    0.2525008  62.12 0.0006099917    1.084    0.077
       331  -9.9925    220.9945     12.4992   4.9113208891e+01   2.7661861674e+01    0.2083202    0.1372345  76.39 0.0008208997    1.562    0.360
       332 -10.0810     18.8921    165.2179   1.2854593760e+02   3.8585315911e+01     0.205858    0.1897047  62.92  0.001310077    1.417    0.294
       333  -9.7626    188.7876    164.1027   9.3732964566e+01   1.2931737460e+01    0.2329464    0.1757091  -3.84 0.0009558945    1.586    0.370
       334 -10.4418    206.4331    162.8312   9.0277804707e+01   9.7622940064e+00    0.4463467    0.2701871  37.04   0.00189359    1.513    0.339
       335 -10.0085     28.2858    162.9116   1.2649951010e+02   3.8154951904e+01    0.2966514     0.129934 -71.12   0.00168707    1.967    0.492
       336  -9.4627    223.9584    156.9843   8.6065288667e+01   7.2631555370e+00    0.1625905     0.140435  12.28 0.0007795058    1.016    0.016
       337 -11.0408    105.2768    153.5761   1.0891541102e+02   3.0071698290e+01    0.5294117    0.4115581 -76.45  0.003157086    1.289    0.224
       338 -10.1747      8.7976    155.9642   1.2997186952e+02   4.1311260409e+01    0.2262037    0.1124963 -69.49  0.001420607    1.779    0.438
       339 -10.6262     31.5411    154.0584   1.2510543360e+02   3.9636932187e+01    0.3286956    0.1942077  63.24   0.00208199    1.492    0.330
       340 -10.5552     30.7409    149.5386   1.2488273292e+02   4.0654656608e+01    0.2842757    0.1552925  64.96 0.0009592847    1.679    0.405
       341 -10.3080     72.4339    152.2323   1.1598642339e+02   3.5237921130e+01    0.4686858    0.2373647  60.95  0.002308805    2.123    0.529
       342 -10.0602     47.5017    151.7397   1.2143732209e+02   3.8426589682e+01    0.3439444     0.200167  49.05  0.001268224    1.618    0.382
       343 -10.9456     47.1368    146.6793   1.2097922270e+02   3.9534215675e+01    0.4393825    0.2569377 -73.46  0.002380776    1.488    0.328
       344  -9.4830     42.1901    148.5876   1.2228234191e+02   3.9674862453e+01    0.2202502    0.1762682  57.72  0.001317791    1.241    0.194
       345 -11.5431     12.8942    139.4003   1.2795771630e+02   4.4385524365e+01    0.5726348    0.2429552  70.81  0.002975327    2.376    0.579
       346 -12.0421     22.7681    149.2405   1.2657895777e+02   4.1473180783e+01    0.4460309    0.3093958 -29.99  0.002741523    2.668    0.625
       347 -10.7957     15.5880    147.9293   1.2801493862e+02   4.2380995684e+01    0.2950219    0.1746764  56.41  0.001048932    1.517    0.341
       348  -9.9576      3.2284    152.5555   1.3089749437e+02   4.2442414241e+01    0.2832831    0.1184476  68.99  0.001598712    2.121    0.528
       349 -11.3515      3.7789    147.4396   1.3047641998e+02   4.3438023458e+01    0.4021063    0.2625994  40.33  0.001992494    1.685    0.406
       350 -11.7684      3.8458    141.8576   1.3010781221e+02   4.4580308639e+01    0.4058311    0.2957832  61.38  0.002357636    1.276    0.216
       351 -11.4324      3.8773    136.6584   1.2975317771e+02   4.5659548385e+01    0.2046936    0.1502427 -89.05 0.0002360034    1.057    0.054
       352 -11.3029     62.4768    149.8538   1.1790740849e+02   3.7035574990e+01    0.4715811    0.3638311  66.58  0.002484055    1.159    0.137
       353  -9.6216    214.5250    151.4872   8.6561882650e+01   9.8242993144e+00    0.1332665    0.1200287  17.17 0.0001759575    1.040    0.038
       354  -9.7383     85.6503    150.1550   1.1275322433e+02   3.3810022739e+01    0.2058655    0.1465346 -89.62   0.00099271    1.409    0.290
       355 -10.2546     56.0430    149.0063   1.1924535887e+02   3.8006647391e+01    0.1883815    0.1523988  85.25 0.0004032403    1.010    0.010
       356  -9.7462    239.8344    146.8055   8.1327034211e+01   5.6284183173e+00    0.2045974    0.1585804  14.23 0.0007532559    1.183    0.155
       357  -9.9621    108.2340    146.2827   1.0707308770e+02   3.1063030373e+01    0.2097073    0.1750834 -55.59 0.0007957012    1.269    0.212
       358 -10.9317    249.6530    142.8045   7.8927613681e+01   4.3188843938e+00    0.5813206    0.2227288 -29.00  0.002484472    2.472    0.595
