#   1 NUMBER                 Running object number                                     
#   2 MAG_AUTO               Kron-like elliptical aperture magnitude                    [mag]
#   3 X_IMAGE                Object position along x                                    [pixel]
#   4 Y_IMAGE                Object position along y                                    [pixel]
#   5 X_WORLD                Barycenter position along world x axis                     [deg]
#   6 Y_WORLD                Barycenter position along world y axis                     [deg]
#   7 A_WORLD                Profile RMS along major axis (world units)                 [deg]
#   8 B_WORLD                Profile RMS along minor axis (world units)                 [deg]
#   9 THETA_WORLD            Position angle (CCW/world-x)                               [deg]
#  10 FWHM_WORLD             FWHM assuming a gaussian core                              [deg]
#  11 ELONGATION             A_IMAGE/B_IMAGE                                           
#  12 ELLIPTICITY            1 - B_IMAGE/A_IMAGE                                       
         1 -13.4559    247.7882    115.6327   7.8663018200e+01   7.4352965172e+00     1.946746      1.00042 -26.65  0.008040645    2.498    0.600
         2 -12.9664    194.6540     31.7352   6.7030956600e+01   3.2370144934e+01    0.9169223     0.793128  25.95  0.005538352    1.486    0.327
         3 -13.8188    208.2631     14.8972   6.1469429438e+01   3.1092184607e+01     1.235326    0.9160796  38.84  0.007288924    1.786    0.440
         4 -12.1619      2.3440      4.6532   1.1107502189e+02   7.1311886024e+01    0.5205752    0.2517478 -34.65  0.003461271    1.663    0.399
         5 -10.2360    189.9572     15.6970   6.3757486960e+01   3.5313462907e+01    0.1883126    0.1477926  76.95 0.0007227174    1.080    0.074
         6 -10.0697    184.2156    250.3510   1.1707421036e+02  -3.9252997764e+00    0.2191828    0.1416051  30.37  0.001233949    1.366    0.268
         7 -11.2950    149.8138    248.0079   1.2345886434e+02   2.2650347632e+00    0.4408799    0.3174754 -64.02    0.0025731    1.766    0.434
         8 -10.2414    143.3728    249.1859   1.2488608961e+02   3.1596682946e+00    0.2346195    0.1724321  70.12 0.0005755594    1.606    0.377
         9 -10.4770    135.7748    248.9872   1.2634863576e+02   4.4741159399e+00    0.2946621    0.2135208 -49.75  0.001551569    1.661    0.398
        10 -10.7689    132.7167    249.3665   1.2699610136e+02   4.9211596370e+00    0.3628081    0.2219033  64.71  0.001783982    1.948    0.487
        11 -10.9162     84.9462    234.3719   1.3456747047e+02   1.5389333195e+01    0.3359459    0.2199503  79.38  0.001041118    1.601    0.375
        12 -10.1255     84.5417    229.7840   1.3413497727e+02   1.6361075241e+01    0.2688129    0.2096325 -36.92   0.00104899    1.912    0.477
        13 -11.5313    121.6548    243.1418   1.2837148224e+02   7.8697561817e+00     0.956704    0.4115877 -66.63  0.003907541    3.513    0.715
        14 -11.9644    126.1463    240.2563   1.2710452710e+02   7.6427821581e+00    0.8956219    0.4119476 -58.77  0.004139911    2.595    0.615
        15 -11.6200     98.6827    232.1525   1.3158522396e+02   1.3696382994e+01    0.4649006    0.2796754 -76.73  0.001160188    1.938    0.484
        16 -10.6961    112.9721    230.2216   1.2844573097e+02   1.1745218660e+01    0.3381938    0.2682724  37.69  0.001591792    1.278    0.217
        17 -11.7076    105.6352    228.9311   1.2977731440e+02   1.3209017932e+01    0.6869132    0.3436842  55.00  0.003214034    1.960    0.490
        18 -11.7912     90.9931    240.2831   1.3404140611e+02   1.3321994508e+01    0.7308025    0.3762172  89.88  0.003113415    3.085    0.676
        19 -10.3439    102.9480    247.3334   1.3252388567e+02   1.0138638761e+01    0.2805132    0.2020212  80.49 0.0008727337    1.463    0.317
        20 -11.1057     98.8745    246.8126   1.3324660362e+02   1.0873967442e+01    0.5311211    0.3048934  76.74  0.002656797    2.265    0.558
        21 -11.0444    115.1733    250.3723   1.3052505698e+02   7.6343096699e+00    0.4871956    0.3037418  36.50 0.0007916464    1.554    0.356
        22 -11.8714    109.6618    247.4123   1.3123926802e+02   9.0549869003e+00    0.5296538    0.4823577  79.53  0.002799016    1.165    0.141
        23 -10.7419     81.6324    246.7725   1.3650705280e+02   1.3499448647e+01     0.448591    0.2559755 -85.37  0.002430147    2.037    0.509
        24 -10.9967     87.7638    247.8954   1.3547157018e+02   1.2376700740e+01     0.463862    0.2732062  44.45  0.001309098    1.470    0.320
        25 -12.8395     62.3071    245.3800   1.3994069647e+02   1.6504786782e+01     1.673119    0.7462406  43.30  0.008053731    1.945    0.486
        26 -12.9377     11.4478    205.8515   1.4607957022e+02   3.0460169039e+01     1.219812      0.69432  10.69  0.006070629    4.048    0.753
        27 -13.5043     15.9784    238.6813   1.4753757074e+02   2.3418178546e+01     1.113806    0.5303311  42.81  0.002734594    1.957    0.489
        28 -13.8629      5.8909    245.3939   1.4958078620e+02   2.3198303611e+01     1.231447    0.7026027  83.43  0.006110133    1.363    0.266
        29 -13.4009     27.7346    247.0317   1.4611280887e+02   2.0531439845e+01     1.157643    0.7298424  61.41  0.008037495    1.244    0.196
        30 -13.4469     39.9742    243.7170   1.4378370706e+02   1.9709614310e+01     1.014616     0.845163  73.09  0.007426539    1.179    0.152
        31 -13.3625     36.9905    228.2818   1.4310475702e+02   2.3098168381e+01    0.8994426    0.4638774  47.23  0.001734684    1.721    0.419
        32 -14.5482     43.5588    218.6499   1.4103938610e+02   2.4275481033e+01     1.536185     1.455885 -12.50   0.01107043    1.624    0.384
        33 -11.3039    134.0860    232.3702   1.2441586184e+02   7.7363325939e+00    0.5162733    0.2867037 -33.93  0.002073111    2.933    0.659
        34 -10.9083    104.3755    237.9158   1.3114526209e+02   1.1671585630e+01     0.253357    0.1938068  48.53 0.0007651208    1.146    0.128
        35 -10.1168     84.0974    242.1017   1.3556248165e+02   1.4018170149e+01    0.2120267    0.1900764  -7.28  0.001024062    1.755    0.430
        36 -10.8428    164.8593    242.1595   1.1963095464e+02   6.5615314733e-01    0.4018167    0.1604337  43.58  0.001401269    2.144    0.534
        37 -10.9054    244.9921    240.7375   1.0408484355e+02  -1.2118496646e+01    0.1744018    0.1346307  13.30  0.001084421    1.055    0.052
        38  -9.7383    172.9972    240.4762   1.1775430072e+02  -4.7402554613e-01    0.2471281    0.1627991  81.42  0.001045913    3.440    0.709
        39 -13.7735      7.7394    148.6168   1.4166337684e+02   4.3258788336e+01     1.492414    0.6758772 -78.75  0.004074919    1.963    0.491
        40  -9.5238     71.8447    236.5000   1.3732527509e+02   1.6893263252e+01    0.2429771    0.1410621  84.02  0.001251007    1.908    0.476
        41 -10.5632    116.5956    238.7117   1.2881242219e+02   9.5254322029e+00    0.3726834    0.2378754 -37.63  0.001699668    2.320    0.569
        42  -9.7964    165.8229    234.7857   1.1830633300e+02   1.7277780209e+00    0.1795879    0.1506699  63.11  0.001069203    1.339    0.253
        43 -10.6370     62.9550    233.0431   1.3867805815e+02   1.8820142863e+01    0.1874667    0.1517876  71.15  0.001264262    1.028    0.027
        44  -9.0242     78.2271    233.1850   1.3575200889e+02   1.6624111084e+01    0.1771208    0.1435814 -56.10 0.0007477528    1.514    0.339
        45 -10.7595    156.7462    231.5754   1.1965315953e+02   3.8921078003e+00    0.2369176    0.2156136  30.05 0.0003052556    1.090    0.082
        46 -11.4028     96.9346    239.7768   1.3282840678e+02   1.2497647276e+01    0.3457011    0.2512423 -73.66 0.0009830521    1.467    0.318
        47 -10.6610    142.0849    229.8642   1.2240654494e+02   6.8001546530e+00    0.3620581    0.2400057 -32.62  0.001674556    2.067    0.516
        48  -8.8520     57.3420    230.8556   1.3953540467e+02   2.0015782888e+01    0.1826846    0.1228189  83.34 0.0009291453    1.352    0.260
        49 -10.2759     77.3057    220.9308   1.3458320125e+02   1.9245639140e+01    0.2946544    0.2022457  69.23 0.0004452805    1.368    0.269
        50 -10.6102     79.8109    227.7919   1.3485291733e+02   1.7470523259e+01    0.3564383    0.2757742 -19.68  0.001601925    2.376    0.579
        51  -9.7119     78.9868    224.5348   1.3465278946e+02   1.8255196392e+01     0.251005    0.2303782 -10.62  0.000949139    1.616    0.381
        52  -9.2498    197.5284    226.5730   1.1058246234e+02  -2.4735456074e+00    0.2465938    0.1877491  78.08  0.001260265    2.284    0.562
        53  -9.7650    132.2076    224.7950   1.2370812039e+02   9.4976163625e+00    0.2299831    0.1867161 -53.12  0.001339428    1.393    0.282
        54  -9.4627    129.4054    221.1841   1.2376310060e+02   1.0692516227e+01     0.229694    0.1748531 -69.16  0.001273082    1.486    0.327
        55 -10.2794     92.4664    225.9245   1.3208789996e+02   1.5917976301e+01    0.2825814    0.1632853  50.67 0.0009209319    1.523    0.343
        56  -8.4889    147.2430    225.3435   1.2065089418e+02   6.7211876983e+00    0.1260353    0.1042331  -5.90 0.0002097158    1.565    0.361
        57 -10.0609    117.2132    224.3103   1.2677181523e+02   1.2189554910e+01    0.2269967    0.1987214  83.45 0.0003079228    1.149    0.130
        58 -11.1585     99.1461    223.4239   1.3040691633e+02   1.5363233880e+01    0.4233992    0.2763531  57.75  0.000976983    1.412    0.292
        59 -10.6731    160.6752    223.5476   1.1756912324e+02   4.6280583404e+00     0.361152    0.2319518  29.42  0.001117852    1.603    0.376
        60 -11.2620    142.4419    221.6457   1.2108314585e+02   8.2805396614e+00    0.4341337    0.2356113  40.62  0.001082585    1.648    0.393
        61  -9.7859    110.7902    220.9225   1.2764905454e+02   1.3953180962e+01    0.3536573    0.1465479 -53.93  0.001502507    2.611    0.617
        62 -11.2160     72.8908    209.9771   1.3421721934e+02   2.2201740185e+01    0.4679965    0.3092942  25.82  0.001754097    2.040    0.510
        63 -10.6417     70.4846    218.4810   1.3569163962e+02   2.0743901242e+01    0.4896211    0.2711131 -74.74  0.002195101    1.836    0.455
        64  -9.6180     67.8388    214.5831   1.3579639343e+02   2.1938975598e+01    0.1895929    0.1311494  56.22 0.0004459594    1.290    0.225
        65  -9.8635    104.9849    218.7009   1.2856794292e+02   1.5373116650e+01    0.2151358     0.187467 -66.87 0.0002514775    1.242    0.195
        66  -9.3482    246.3351    218.3246   9.9840679504e+01  -9.2317151864e+00    0.1330964   0.08543994   2.75 0.0007051149    1.714    0.417
        67  -9.4409     99.8418    217.4173   1.2948010290e+02   1.6480894280e+01    0.2423414    0.1664518 -43.02  0.001014258    1.887    0.470
        68 -10.5769    137.3405    214.4213   1.2103431551e+02   1.0607817271e+01    0.3425014    0.2623352  86.63  0.001351888    1.614    0.381
        69  -9.4440    141.3081    213.1686   1.1998067501e+02   1.0133049096e+01    0.3074155    0.1595834  59.91  0.001208796    2.616    0.618
        70  -8.7743    119.4377    217.4437   1.2532742047e+02   1.3180270624e+01    0.1361729    0.1201356  58.92 6.351983e-05    1.002    0.002
        71  -9.9837     88.1861    212.9592   1.3136106073e+02   1.9269749056e+01     0.268544    0.1901672 -84.51 0.0007093289    1.458    0.314
        72 -10.8404    122.2953    233.4282   1.2697076406e+02   9.5623624016e+00     0.371101     0.330873  77.18  0.001869669    1.130    0.115
        73  -9.6745    102.1384    211.9614   1.2825089737e+02   1.7242852942e+01    0.3584211     0.150173  54.25  0.001401169    2.637    0.621
        74 -10.5823    107.2412    209.3923   1.2678445561e+02   1.6932280336e+01    0.3974537    0.3007139 -18.32  0.001293672    2.156    0.536
        75 -10.7999    112.4827    208.3053   1.2548302729e+02   1.6267844679e+01    0.2569589    0.2270533  63.63 0.0003629958    1.014    0.014
        76 -11.8678    135.6745    241.0581   1.2530642202e+02   5.8802411059e+00    0.4818019    0.3385075  51.17  0.001727566    1.247    0.198
        77  -9.0157    134.5839    208.1856   1.2063081790e+02   1.2362564826e+01    0.1884925    0.1322323 -39.93 0.0005228373    1.693    0.409
        78  -8.5473    119.6527    208.6872   1.2397393301e+02   1.4939696421e+01    0.1347906    0.1111163  -1.01 0.0002519417    1.715    0.417
        79 -11.1292     92.2689    204.6673   1.2938093635e+02   2.0403288934e+01    0.7686391    0.3326147  53.57  0.002222324    2.456    0.593
        80 -10.1613     93.5255    201.4712   1.2865830900e+02   2.0897368405e+01    0.3587247    0.2457864  72.27  0.001459696    1.574    0.365
        81  -9.8859     32.8507    206.9162   1.4205810716e+02   2.8004797796e+01    0.1664438    0.1364082 -74.68 0.0003660972    1.243    0.196
        82 -11.3794    248.5655    203.9317   9.6740481893e+01  -7.4473257024e+00    0.6308273      0.34412  -9.04   0.00273679    2.768    0.639
        83 -11.1757    249.6050    194.4467   9.4725569935e+01  -6.1537908133e+00    0.3769761    0.2891282 -27.59  0.002271022    1.201    0.168
        84  -9.2648    125.7948    205.7794   1.2217177005e+02   1.4452410304e+01    0.1939568    0.1542386  69.65  0.000423674    1.308    0.236
        85 -10.0584    102.8244    203.0074   1.2682308658e+02   1.9037803272e+01    0.3952219    0.2410778  57.84  0.001916194    1.663    0.399
        86  -8.7697     75.1728    203.4128   1.3292786658e+02   2.3292685862e+01    0.3151644     0.215717   3.25 0.0008108559    3.109    0.678
        87  -9.0489    133.0234    202.7002   1.2007260066e+02   1.3777229664e+01    0.1985379    0.1741723  49.97 0.0003394043    1.047    0.045
        88  -9.5940     84.0065    202.0265   1.3082891087e+02   2.2271925069e+01    0.2031813    0.1669352  76.54            0    1.111    0.100
        89  -9.5537     86.1273    196.9664   1.2966751492e+02   2.3059933683e+01    0.4152563    0.1762501 -62.69  0.001424462    2.379    0.580
        90  -9.2846     64.2298    202.0898   1.3511266483e+02   2.5135276608e+01    0.1794829    0.1703806 -86.82  0.000518502    1.230    0.187
        91 -11.1364     32.7318    201.7587   1.4160759216e+02   2.9123084652e+01    0.2049956     0.167752  87.27 0.0002797878    1.056    0.053
        92  -9.8659    115.0726    200.1874   1.2366630533e+02   1.7544430272e+01    0.2137787    0.1925218 -75.22  0.000268314    1.137    0.121
        93  -8.5642    183.1611    200.3918   1.0877627113e+02   4.7080880548e+00    0.1879049    0.1272276  49.51 0.0002775842    1.507    0.336
        94  -9.7695    168.8453    197.2433   1.1123349173e+02   8.0662598162e+00    0.4073411    0.1847733 -44.81  0.001086793    2.362    0.577
        95  -8.8067    127.8167    199.7904   1.2074851485e+02   1.5342639456e+01    0.1884577    0.1546774  70.84 0.0003510402    1.265    0.209
        96  -9.3542     43.3100    199.3447   1.3921090043e+02   2.8425785691e+01    0.2601908     0.120347 -57.01  0.001065461    2.178    0.541
        97  -9.3351    119.9442    199.4597   1.2245830206e+02   1.6836826278e+01     0.211391    0.1296233  44.14 0.0003467455    1.515    0.340
        98 -11.6977     68.7036    187.3538   1.3226791909e+02   2.7804145429e+01    0.2982477    0.2427953 -47.71 0.0006408702    1.437    0.304
        99 -11.6282     63.0617    194.7863   1.3448228123e+02   2.6911117245e+01    0.5343672    0.3491902 -29.74  0.002528278    2.809    0.644
       100 -10.3609     57.6487    193.5737   1.3551662936e+02   2.7904963806e+01    0.8225241    0.4863384 -36.88  0.003800591    2.871    0.652
       101  -8.4342    149.7269    198.7422   1.1568960769e+02   1.1454236642e+01    0.1336566    0.1110876   7.16            0    1.460    0.315
       102  -9.4204    133.8910    197.8264   1.1905652065e+02   1.4635892050e+01    0.1959892    0.1616325  73.53  0.000395603    1.304    0.233
       103  -9.7502     98.3937    196.5932   1.2686194388e+02   2.1174865524e+01     0.469227    0.2459387  55.86  0.001222077    2.037    0.509
       104  -9.9113    102.7357    195.9307   1.2578131729e+02   2.0596493094e+01    0.2119299    0.1895776  74.63 0.0006317206    1.025    0.025
       105 -10.0392     38.5392    193.5911   1.3961007126e+02   3.0248371284e+01    0.4287801    0.1781085 -68.89  0.002056498    2.107    0.525
       106  -9.8177     40.7402    188.3716   1.3858533990e+02   3.1153612185e+01    0.2980833    0.1769089 -65.97  0.001067341    1.506    0.336
       107  -9.7889    112.9583    193.3486   1.2304891385e+02   1.9402302345e+01    0.4786724     0.202085 -55.84  0.001513675    2.453    0.592
       108  -9.2144     32.1077    195.4365   1.4113183158e+02   3.0564077044e+01    0.2712424   0.07387398  43.42  0.001130679    3.236    0.691
       109  -9.6428     20.4491    192.2718   1.4321424593e+02   3.2471105467e+01    0.3813725    0.1724914 -88.67  0.001863334    2.268    0.559
       110  -8.9742    159.5608    194.4581   1.1273841602e+02   1.0424496813e+01    0.1445286    0.1354284  35.20 8.451094e-05    1.024    0.023
       111  -8.6333    133.3789    194.2906   1.1856110707e+02   1.5479754865e+01     0.145037    0.1146313   4.70 0.0007018985    1.739    0.425
       112  -8.6622    120.7054    191.7004   1.2100264745e+02   1.8377430538e+01    0.2334362     0.130703 -44.68   0.00048115    2.029    0.507
       113  -9.3341     72.6356    192.9725   1.3213424815e+02   2.5975473868e+01    0.1919073    0.1764664  46.93 0.0003650626    1.230    0.187
       114  -9.5286     25.6645    192.6365   1.4218627585e+02   3.1862396425e+01    0.2127892    0.1505649  74.84  0.000730738    1.241    0.194
       115  -9.8429    191.4633    191.4812   1.0532102755e+02   4.7770817471e+00    0.2452263    0.2315088  13.00 0.0006573024    1.024    0.023
       116  -8.8464     84.7591    192.3760   1.2932566891e+02   2.4296426681e+01    0.1698539    0.1279614  33.31 0.0002720341    1.489    0.328
       117 -10.1191     32.5823    189.5203   1.4044524448e+02   3.1812642182e+01    0.2956574    0.2758775  70.64  0.002129468    1.253    0.202
       118  -9.1846    135.1750    189.9746   1.1739004700e+02   1.6062964412e+01    0.2115494    0.1841289  76.72 0.0003374937    1.209    0.173
       119  -8.9845    118.0132    190.0058   1.2133448559e+02   1.9235780961e+01    0.1672341    0.1561257 -88.43 0.0003219624    1.064    0.060
       120  -9.6156     15.0598    190.0269   1.4410426865e+02   3.3479870420e+01    0.1763174    0.1393933 -84.94 0.0005897748    1.074    0.069
       121 -10.3014    249.8095    188.0889   9.3441481867e+01  -5.1855173133e+00    0.3231106    0.2110862 -19.69  0.001727699    1.541    0.351
       122  -9.9603     76.8960    188.7431   1.3059704302e+02   2.6306333617e+01     0.226664    0.2203834 -40.05 0.0006142669    1.278    0.217
       123  -9.3033    111.4214    187.6597   1.2246466819e+02   2.0931357793e+01    0.2437167    0.1385731 -61.07 0.0006398127    1.854    0.461
       124  -8.9593    143.2826    184.6875   1.1456356091e+02   1.5635265641e+01    0.2038292    0.1780673   5.80 0.0007229453    1.351    0.260
       125  -9.2985    140.0388    183.2636   1.1504105140e+02   1.6572879421e+01    0.2193897    0.1883959  70.45  0.000242427    1.230    0.187
       126  -9.1450     37.5416    184.0330   1.3880204837e+02   3.2488374790e+01    0.1918943    0.1482614  48.47  0.001223541    1.353    0.261
       127  -9.4440     30.2127    183.6959   1.4035094077e+02   3.3359229825e+01    0.2079401    0.1404762 -88.31 0.0006302454    1.288    0.223
       128  -9.9495     24.3656    184.2066   1.4164759011e+02   3.3847205157e+01     0.192906    0.1592313  54.29 0.0005747456    1.289    0.224
       129 -12.7971    248.1882    101.2368   7.5505677268e+01   9.7896477244e+00    0.8612056    0.5435519 -38.84  0.004418097    1.462    0.316
       130 -10.5037    170.0046    248.2719   1.1952854411e+02  -1.2149869217e+00    0.3501837    0.2250408   7.43  0.001074313    2.449    0.592
       131 -11.9827    248.3407    142.5724   8.4339134108e+01   2.6842254647e+00    0.6973989    0.5735776  -7.85  0.003600855    1.333    0.250
       132 -12.4427    248.2642    134.0287   8.2534907917e+01   4.1746318877e+00    0.9856582    0.6489418 -28.04   0.00500381    1.551    0.355
       133 -12.1020    135.4158    236.3692   1.2470955500e+02   6.7701210505e+00    0.5216663    0.4135613  27.65  0.001665745    1.361    0.265
       134  -9.6076    115.1800    177.4282   1.1980381897e+02   2.2556435731e+01    0.4633885    0.1674168 -54.87  0.001624173    2.842    0.648
       135 -10.9382    249.5494    151.0279   8.5922806580e+01   1.0086597287e+00    0.5131407    0.3148518 -38.87  0.002391066    1.474    0.322
       136  -8.8666     47.9110    179.8073   1.3600756699e+02   3.2240087519e+01    0.1554693   0.09878075  35.14 0.0008460837    1.753    0.429
       137  -9.5291     20.0480    179.1899   1.4207187922e+02   3.5380954490e+01     0.168947    0.1399761 -67.52  0.000302109    1.234    0.190
       138 -10.1688     11.9661    178.7759   1.4374076370e+02   3.6215594323e+01      0.23192    0.1781717 -57.00  0.001278927    1.424    0.298
       139 -10.8402     11.7095    173.7687   1.4333125065e+02   3.7340035064e+01    0.3815971    0.1722627 -54.56  0.001528022    2.198    0.545
       140  -9.2823     92.7039    178.0881   1.2529129420e+02   2.6284330868e+01    0.1871741    0.1665859 -73.44 0.0001864799    1.087    0.080
       141  -8.5787     34.7756    176.9935   1.3862596959e+02   3.4378230062e+01    0.1588887    0.0878026 -71.05 0.0003170618    1.551    0.355
       142  -9.3107    182.1211    176.5091   1.0427340615e+02   9.5247478665e+00    0.2234858    0.1421282  44.29  0.001009457    1.529    0.346
       143 -11.5546     77.9607    175.1380   1.2834881061e+02   2.9268045424e+01    0.2934463    0.2825859 -49.71  0.001247201    1.208    0.172
       144  -9.8261     68.7662    166.9128   1.2930397295e+02   3.2513237285e+01    0.2114939    0.1888825  63.27 0.0005925008    1.125    0.111
       145  -9.0349     68.6123    175.8126   1.3067544902e+02   3.0463680430e+01    0.2506965    0.1292009 -70.84 0.0005891514    1.974    0.493
       146 -11.2341     64.7527    173.5911   1.3126941034e+02   3.1511245417e+01    0.4709903    0.2552128 -47.42  0.001285984    2.067    0.516
       147 -10.6866     18.9800    172.5144   1.4163562292e+02   3.6966760350e+01    0.4311032    0.2396051  69.93    0.0023567    1.919    0.479
       148 -12.5444     15.3699    138.4525   1.3858558678e+02   4.4955136911e+01    0.7732553    0.2394481  40.69  0.003351435    3.531    0.717
       149 -10.9084     12.4870    166.9958   1.4250543314e+02   3.8774620361e+01    0.2470272    0.1549218  82.90  0.001085585    1.497    0.332
       150 -11.4252     15.8005    165.6540   1.4163255021e+02   3.8787618698e+01    0.3284494    0.2350985 -69.61   0.00214976    1.176    0.150
       151 -12.3853    245.2535    163.1652   8.9180024991e+01  -2.8926269406e-01    0.7146792    0.3781834 -46.73  0.002907893    1.973    0.493
       152 -10.1036    107.7317    172.9151   1.2078394404e+02   2.4920289556e+01    0.2489522     0.199735  54.82 0.0004115556    1.222    0.182
       153 -10.4831     28.6247    171.0897   1.3933960479e+02   3.6355622084e+01    0.4149846    0.3016005 -83.93  0.001885609    1.165    0.141
       154  -9.0024     95.4586    172.5202   1.2369638316e+02   2.7116300514e+01    0.1426139    0.1315787  85.69 0.0002040789    1.009    0.009
       155  -9.1733     45.9844    172.4694   1.3552999645e+02   3.4148770325e+01    0.1709554    0.1231086  40.85 0.0004942554    1.499    0.333
       156  -8.8365     52.5990    171.1113   1.3380261985e+02   3.3664557306e+01    0.1702322    0.1071616 -57.29 0.0002968482    1.501    0.334
       157  -8.6005    100.4912    170.4986   1.2211631504e+02   2.6736311890e+01     0.143968    0.1346726  84.76 0.0008106313    1.000    0.000
       158 -11.1918     44.8802    166.5425   1.3501933981e+02   3.5643182854e+01    0.5340047    0.3237405 -63.49 0.0007428777    1.446    0.309
       159  -9.4408    126.7409    167.7759   1.1520141731e+02   2.2576271796e+01    0.2089301    0.1728746  80.68 0.0009237562    1.352    0.260
       160  -8.7528     58.4966    167.4812   1.3188671405e+02   3.3761459099e+01    0.1345548    0.1156178 -89.35 0.0001342052    1.051    0.048
       161  -8.8154     53.6706    164.8210   1.3267284280e+02   3.4991702452e+01    0.1830935    0.1101047 -75.63 0.0003942027    1.607    0.378
       162  -9.3188     32.9740    164.8040   1.3760506465e+02   3.7343172396e+01    0.2202803    0.1478286 -72.84 0.0003837359    1.259    0.206
       163 -12.0314     24.2895    162.2459   1.3932408568e+02   3.8783994480e+01    0.2497367    0.2077947 -58.26 0.0005224432    1.249    0.199
       164 -10.6968     89.5882    159.4645   1.2285415973e+02   3.1124694643e+01    0.4293179    0.2434531 -70.26   0.00109287    2.027    0.507
       165  -8.7814     40.6304    161.7246   1.3539694691e+02   3.7235438088e+01    0.1234378   0.09209962 -36.74 0.0007005673    1.680    0.405
       166  -9.0935     78.9509    158.6991   1.2541788480e+02   3.2964408435e+01    0.1886847    0.1765492  81.20 0.0005747236    1.051    0.049
       167 -10.1123     83.4088    155.7835   1.2376465046e+02   3.2969322770e+01    0.4052286    0.2067962  21.92  0.001506393    3.206    0.688
       168  -8.7598     73.5304    159.5326   1.2693195032e+02   3.3567591748e+01    0.1386156    0.1250745 -83.77 6.990525e-05    1.020    0.019
       169  -8.9159     52.4840    158.4449   1.3203767624e+02   3.6624805391e+01    0.1316147    0.1152437 -78.50  0.000123819    1.009    0.009
       170 -12.0331     86.2399    166.7740   1.2497703895e+02   2.9946468044e+01    0.6162876    0.5029891  43.94  0.003421703    1.259    0.206
       171  -9.2370     31.2037    150.6309   1.3621939913e+02   4.0776228595e+01    0.1743286    0.1259276  32.69  0.001053988    1.620    0.383
       172 -10.7190     23.5291    149.4920   1.3796274031e+02   4.1758757547e+01    0.1961171    0.1803062 -30.02  0.000808707    1.349    0.259
       173 -11.0546     31.8728    155.8990   1.3674877456e+02   3.9498230571e+01    0.4166334     0.208069 -53.52  0.001364262    1.859    0.462
       174 -12.4943     23.5986    154.3657   1.3855164988e+02   4.0641048378e+01    0.5573463    0.4569064  78.05  0.003748661    1.191    0.160
       175  -8.4024    112.2874    157.7016   1.1677139496e+02   2.7607502487e+01    0.1485988    0.1143303  80.19 0.0002523803    1.554    0.357
       176  -9.6677     72.1876    156.5273   1.2676667070e+02   3.4467955477e+01    0.3118601    0.2084876  21.14  0.001528615    1.962    0.490
       177  -9.2980    228.1570    155.3381   9.0552039018e+01   4.2857393242e+00    0.2403204    0.1787808 -30.24 0.0005417676    1.299    0.230
       178 -10.9646     98.6667    151.0962   1.1893655415e+02   3.1572556167e+01    0.4101971    0.3474011  -8.82   0.00214457    1.497    0.332
       179  -9.3618    101.6774    146.3626   1.1719415470e+02   3.2154265607e+01    0.3427784     0.191875 -30.13  0.001256933    2.884    0.653
       180 -10.0563    113.9144    150.6346   1.1491451700e+02   2.8939427721e+01    0.3330375    0.2544782 -60.68 0.0004863849    1.327    0.246
       181  -9.5327     86.6226    150.2912   1.2191558605e+02   3.3756687559e+01    0.2577024     0.163177 -67.53 0.0005995895    1.652    0.395
       182 -10.8507     56.7898    149.3942   1.2953907392e+02   3.8213025019e+01    0.6715919    0.3196635  51.95  0.002893385    2.538    0.606
       183 -12.6545     68.2616    144.4903   1.2568379495e+02   3.7854598428e+01    0.7359131    0.5488901 -74.19  0.002455762    1.332    0.249
       184  -9.5702     76.9799    147.0257   1.2383611978e+02   3.6008477526e+01    0.2030268    0.1871455 -67.94  0.001190386    1.019    0.019
       185  -9.9972     39.8013    146.9070   1.3352958157e+02   4.0759521977e+01    0.2417179    0.1414795  59.19  0.001001172    2.048    0.512
       186 -10.5117    133.3651    141.7035   1.0802345943e+02   2.7149165843e+01    0.6452696    0.2685219 -51.45  0.002248943    2.516    0.603
       187 -11.1455     32.8363    140.7366   1.3441762957e+02   4.2895321157e+01    0.2680836    0.1835531  85.49  0.001176011    1.592    0.372
       188  -8.9126     41.5399    140.4869   1.3210050195e+02   4.2064001468e+01    0.1300133    0.1109702 -67.01 7.738508e-05    1.019    0.018
       189 -10.5892     56.1880    138.9480   1.2793311145e+02   4.0735293096e+01    0.2232838    0.2130785 -57.01 0.0003503025    1.104    0.094
       190 -11.2725     60.8535    137.0221   1.2632246358e+02   4.0596023812e+01    0.3599859    0.2757384  86.05  0.001972581    1.483    0.326
       191 -14.4995      3.6186    180.5453   1.4561434069e+02   3.6544694535e+01     6.959122    0.9948411 -75.59   0.01759026    8.563    0.883
       192  -8.9415     51.0032    138.2272   1.2920653385e+02   4.1528401953e+01    0.1564606    0.1112222  31.93 0.0003967014    1.597    0.374
       193  -9.8691    110.1168    136.3192   1.1280459034e+02   3.2948128058e+01    0.3275251    0.2532713  -2.95 0.0009831074    1.773    0.436
       194 -11.4972     45.1725    131.1974   1.2958744942e+02   4.3821856104e+01     0.389473    0.3191437  76.45  0.002363688    1.350    0.259
       195 -12.2615     63.1976    221.3135   1.3745755879e+02   2.1172294200e+01     1.104564    0.4350975 -73.67  0.003396666    2.825    0.646
       196  -9.1534     80.5716    132.5515   1.2001678341e+02   3.8857400277e+01    0.1408728    0.1310448 -61.94 5.821836e-05    1.010    0.010
       197 -11.1332     33.0608    131.5732   1.3296196087e+02   4.4979218240e+01    0.3629083    0.1607251 -55.95 0.0009352705    1.849    0.459
       198 -11.6208     29.9896    126.7266   1.3302834536e+02   4.6373304388e+01    0.3695805    0.2320733  14.85  0.001875158    2.086    0.521
       199 -11.4163     66.7182    128.3960   1.2304030732e+02   4.1826355225e+01     0.421112    0.2802996 -62.79  0.002152972    1.431    0.301
       200  -8.4452    122.2476    148.3111   1.1229785559e+02   2.7880869839e+01    0.1456683    0.1186317 -19.61 0.0001590473    1.511    0.338
       201  -9.1306    106.2991    129.6531   1.1231185628e+02   3.5179470578e+01    0.1526406    0.1179603  87.06 0.0007036521    1.681    0.405
       202  -8.9381     59.3180    128.6632   1.2517847334e+02   4.2736884797e+01    0.1377242    0.1013942  79.07  0.000704889    1.702    0.412
       203 -10.9799     23.9938    127.3909   1.3477306837e+02   4.6751519596e+01    0.2696602    0.1615079 -51.93 0.0009102079    1.452    0.311
       204 -10.4571    209.9388    125.7547   8.7301516366e+01   1.3565127407e+01    0.2956841    0.2230708 -40.13 0.0005246217    1.283    0.221
       205 -12.7081     19.9954    121.8079   1.3501478726e+02   4.8338361685e+01    0.5893987    0.3074966  11.91  0.003026984    2.711    0.631
       206 -11.8570     30.3533    119.3246   1.3169809223e+02   4.8016570411e+01    0.4093248    0.2874816  52.93  0.002414794    1.719    0.418
       207 -10.0599     54.6557    120.8089   1.2497036489e+02   4.5119173387e+01     0.257804    0.1918014  -0.39  0.001050907    1.739    0.425
       208 -11.9009      9.2022    120.4616   1.3777917587e+02   4.9433743492e+01    0.4336296     0.188713  21.42  0.002234176    2.875    0.652
       209 -12.4857     14.1084    114.9168   1.3559618583e+02   5.0317339154e+01    0.4090487    0.3353186  -0.77  0.002456812    1.515    0.340
       210  -9.6054     68.5332    115.4813   1.1978481342e+02   4.4530437337e+01    0.2842432    0.1323329  13.83 0.0008103421    5.768    0.827
       211 -10.9961    168.1081    113.2217   9.2781923364e+01   2.5554567805e+01    0.3779826    0.3096083  88.36 0.0008416094    1.468    0.319
       212  -9.8102    231.9472    116.5238   8.1340888845e+01   1.0516588239e+01    0.2027032    0.1408979  53.54 0.0006073419    1.538    0.350
       213  -9.3360    203.5816    111.2464   8.5065869327e+01   1.7710191345e+01    0.2092425    0.1429427 -28.56 0.0009461028    1.634    0.388
       214  -9.3865     62.5052    107.4660   1.1977934668e+02   4.7133367776e+01    0.1343336    0.1230532 -50.88 0.0001943681    1.052    0.050
       215  -8.7550     65.9342    182.0069   1.3217529223e+02   2.9409190316e+01    0.1574445    0.1387478  80.81 0.0003985566    1.035    0.034
       216 -11.2928     15.2090    104.0880   1.3350199392e+02   5.2611270519e+01    0.2376045    0.1718167  26.51   0.00154477    1.675    0.403
       217 -10.7552     17.3513     99.2764   1.3199410886e+02   5.3496901607e+01     0.212966    0.1837157 -78.96 0.0002132294    1.246    0.197
       218 -13.0773    245.5376    156.7401   8.7791516443e+01   7.5922978083e-01     1.812988    0.9816801 -57.65  0.007304379    2.918    0.657
       219 -12.9617     12.3062    212.8726   1.4643671482e+02   2.8923530038e+01    0.9820477    0.5407885  52.20  0.004933634    1.642    0.391
       220 -12.7943    248.1849    171.9235   9.0477272086e+01  -2.2803166130e+00     1.174435      0.47294 -39.71  0.004924264    2.296    0.564
       221  -8.7941     77.9937     85.0553   1.0922383662e+02   4.9633546756e+01    0.1621849    0.1454359 -25.80            0    1.027    0.026
       222  -9.1263    157.6682     77.6688   8.5642828364e+01   3.4669171922e+01    0.1553328    0.1160895  19.53 0.0007052069    1.723    0.419
       223  -8.6899     63.6328     76.5103   1.1144329538e+02   5.3420271871e+01     0.132512    0.1125443 -26.46 0.0007949505    1.044    0.043
       224  -8.9432     45.5307     74.5642   1.1705096088e+02   5.6051941651e+01    0.1257601     0.107888 -29.40 3.191617e-05    1.025    0.025
       225 -11.4717    199.8353    246.2926   1.1342535838e+02  -5.9010973849e+00    0.5017886     0.191819  43.82  0.002174052    2.417    0.586
       226 -10.3716    193.9448    245.1762   1.1438228847e+02  -4.7649280470e+00    0.1934854    0.1748463  -9.42 0.0003149328    1.201    0.167
       227 -12.0311    129.0113    234.6629   1.2577273690e+02   8.1857294156e+00     1.306552    0.5711053  63.76  0.003593453    6.531    0.847
