#   1 NUMBER                 Running object number                                     
#   2 MAG_AUTO               Kron-like elliptical aperture magnitude                    [mag]
#   3 X_IMAGE                Object position along x                                    [pixel]
#   4 Y_IMAGE                Object position along y                                    [pixel]
#   5 X_WORLD                Barycenter position along world x axis                     [deg]
#   6 Y_WORLD                Barycenter position along world y axis                     [deg]
#   7 A_WORLD                Profile RMS along major axis (world units)                 [deg]
#   8 B_WORLD                Profile RMS along minor axis (world units)                 [deg]
#   9 THETA_WORLD            Position angle (CCW/world-x)                               [deg]
#  10 FWHM_WORLD             FWHM assuming a gaussian core                              [deg]
#  11 ELONGATION             A_IMAGE/B_IMAGE                                           
#  12 ELLIPTICITY            1 - B_IMAGE/A_IMAGE                                       
         1 -12.3353    202.9492     35.2727   4.0327641891e+01   3.0563809105e+01    0.8079656     0.688411  47.14  0.001124809    1.353    0.261
         2 -12.0684    226.1615      9.3438   3.2152206448e+01   2.8468718246e+01    0.7741541    0.6437992 -68.53  0.004912493    1.041    0.039
         3 -10.0453     59.0102      4.4946   5.9577333956e+01   6.5835837036e+01    0.1896622    0.1040661  44.77  0.001046735    1.631    0.387
         4  -9.4691     41.0000      3.4455   6.6168869929e+01   6.8909165510e+01    0.2434884   0.06050044 -29.36 0.0009397474    3.975    0.748
         5 -10.5678    120.0785    246.4341   1.0294231105e+02   6.9800675910e+00    0.2531255    0.1807837 -51.90  0.001545822    1.631    0.387
         6 -10.0698    141.0070    249.3387   9.9072339572e+01   3.4325459181e+00    0.2614254    0.1317975 -51.27  0.001342208    2.354    0.575
         7 -18.7019      9.5699    166.6537   1.1893918976e+02   3.7626402595e+01     19.24737     3.411281 -76.33   0.05512235    5.671    0.824
         8  -9.6225    192.2938    193.2897   7.9287882269e+01   5.1511119189e+00    0.4305723    0.2354202 -64.77  0.001189993    6.867    0.854
         9 -12.4327     61.2532    183.5339   1.0823568534e+02   2.8361866898e+01    0.7919425     0.704929   5.11  0.004167308    1.397    0.284
        10  -8.9346    146.9634    186.4647   8.7921534958e+01   1.4345367480e+01    0.2083148    0.1183406  57.12 0.0008094436    2.548    0.608
        11 -10.5773    114.8648    244.2483   1.0374247798e+02   8.1209300001e+00    0.2549399    0.1460153 -58.58  0.001382302    2.037    0.509
        12  -9.7911     99.3368    181.0530   9.8463941004e+01   2.3560363070e+01    0.2324934    0.1990823  18.48 0.0005676153    1.292    0.226
        13  -8.7112     83.2302    244.0022   1.1011472057e+02   1.2573173186e+01    0.1502733   0.09805412 -68.44 0.0008914226    1.690    0.408
        14  -9.5431    186.0945    174.2285   7.6775135199e+01   9.8014753014e+00    0.3145201    0.2615582  50.64  0.001425117    1.421    0.296
        15  -8.1403     66.0074    241.5383   1.1330295893e+02   1.5272980126e+01    0.1609461    0.1024034  39.61 -1.435773e-05    1.407    0.289
        16 -10.5692     94.0088    236.6301   1.0715582461e+02   1.2499224677e+01    0.3339514    0.2019697 -79.09  0.001342136    2.086    0.521
        17  -9.7564    143.9989    221.9750   9.4589011848e+01   7.7863138750e+00    0.1615945    0.1504619  18.82  0.001013327    1.049    0.047
        18  -9.8667    114.3445    173.3372   9.3375846585e+01   2.2907905961e+01    0.2357407    0.1782925 -15.28  0.000953462    1.714    0.417
        19 -12.6825     58.8399    131.4273   1.0087315372e+02   4.1474516903e+01     1.154427    0.4329633 -68.98  0.003792669    3.383    0.704
        20 -11.2850     77.7794    166.1815   1.0156772152e+02   3.0329065250e+01     0.556457    0.3112662 -38.77  0.001985057    2.230    0.552
        21 -10.4032     50.6749    164.8244   1.0846456059e+02   3.4141916402e+01    0.2979342    0.1689965 -40.78  0.001370718    2.153    0.536
        22 -10.8520     83.6061    161.3927   9.9227992775e+01   3.0654300487e+01    0.5363979    0.2920214 -70.27  0.002233582    2.097    0.523
        23  -9.7824     85.8411    157.4226   9.7930613080e+01   3.1291787784e+01    0.2742774    0.2434795 -39.47  0.000329561    1.173    0.147
        24 -12.0961     74.3353    152.3699   1.0018471146e+02   3.4209444696e+01    0.5637743    0.4437116 -67.87 0.0008862196    1.216    0.178
        25 -10.4855     92.1068    151.1705   9.5059292064e+01   3.1855038655e+01      0.56915    0.3413698 -29.67  0.001771679    2.317    0.568
        26 -10.0023    134.3233    147.4672   8.3033911885e+01   2.5283112079e+01    0.7332951    0.1496203 -52.04  0.001573989    6.552    0.847
        27 -11.9404     52.1346    148.6721   1.0575008832e+02   3.7967906328e+01    0.5174053    0.3475468 -53.70  0.002551504    1.378    0.274
        28 -10.4334    134.1506    209.8555   9.4870740617e+01   1.1704535783e+01    0.3018133    0.2197238 -52.25  0.001625567    1.491    0.329
        29  -9.3762    105.1711    137.4521   8.8583633569e+01   3.3012104457e+01    0.4341346     0.211753 -29.53  0.001317491    3.782    0.736
        30 -10.5828     92.8037    136.8866   9.1962002646e+01   3.5239244428e+01    0.2985463    0.2512176 -42.24 0.0004446434    1.156    0.135
        31 -10.7661     73.7136    170.8050   1.0334723094e+02   2.9773130489e+01    0.3413802    0.2580781 -53.39 0.0007318655    1.307    0.235
        32  -9.7178    106.0414    130.7938   8.6826733220e+01   3.4452761642e+01    0.3476685    0.3093508 -59.97  0.001686194    1.141    0.123
        33  -9.7603    113.1665    129.0650   8.4418539412e+01   3.3565673571e+01    0.2423583    0.2074192 -18.71 0.0006570437    1.254    0.202
        34  -9.3596    100.4658    124.7068   8.6995947121e+01   3.6889145729e+01    0.2751787    0.2343765   1.14 0.0006085195    1.316    0.240
        35  -9.1368    119.7626    122.9947   8.1109640084e+01   3.3725752240e+01    0.2133395    0.1274003 -46.98 0.0004538279    1.620    0.383
        36  -8.5839    108.8814    118.1146   8.2943359294e+01   3.6920599048e+01    0.2095903    0.1788538 -12.81 0.0004077599    1.270    0.213
        37  -8.7644     88.9663    210.3583   1.0514104840e+02   1.8546885247e+01    0.1821689     0.153734  42.76 0.0003395018    1.126    0.112
        38  -8.4831    231.0062    113.7513   5.4963874213e+01   1.2578239120e+01    0.1828667    0.1749652 -34.43 0.0009190419    1.099    0.090
        39 -10.9733    107.5072    249.5210   1.0583350156e+02   8.2318467849e+00    0.3323386    0.2266062 -55.93  0.002034139    1.706    0.414
        40 -10.2528    115.1395    109.6039   7.8943117993e+01   3.7665004213e+01    0.2794328    0.1783252 -40.72  0.001211923    1.526    0.344
        41 -12.9444     69.3890    144.3162   1.0014693079e+02   3.6891762044e+01     1.115391    0.7026333  78.01    0.0047435    2.335    0.572
        42 -10.7484    111.0074    203.3298   9.9135939297e+01   1.6753048741e+01    0.2539661    0.2216498  69.85 0.0006104424    1.200    0.167
        43  -9.2667     75.4737    248.4015   1.1205989139e+02   1.2772307624e+01    0.2694785    0.1714095 -41.47   0.00153084    2.304    0.566
        44 -10.8368     61.9989    199.4490   1.0996000217e+02   2.4590439949e+01    0.3714736    0.2306279 -58.44 0.0005823763    1.619    0.382
        45 -11.4758    182.1732     53.6237   4.7910946364e+01   3.2896203160e+01    0.4303699    0.3906365 -51.76  0.001025488    1.081    0.075
        46 -12.8658    197.0930     41.3708   4.2567630832e+01   3.1116470265e+01     1.140479    0.8263687  30.06  0.005272108    1.883    0.469
        47  -9.4487     65.9923    194.5020   1.0845738646e+02   2.5206502493e+01     0.281055    0.2260927  41.57 0.0007294516    1.244    0.196
        48 -10.8459    122.2789    198.7151   9.5805055565e+01   1.5938096561e+01    0.3733336    0.2549361 -73.49  0.001236714    1.889    0.471
        49  -9.1064     82.6059    194.2305   1.0450056403e+02   2.3018740090e+01    0.1924762    0.1188643 -52.60 0.0009498678    1.675    0.403
        50 -10.0587     72.0551    245.1849   1.1243826307e+02   1.3812323353e+01    0.3862447    0.1978581 -62.79  0.001733581    2.113    0.527
        51  -9.0617     73.4883    236.9973   1.1139302845e+02   1.5195929805e+01     0.223307    0.1104253 -62.02  0.001164581    2.148    0.534
