#   1 NUMBER                 Running object number                                     
#   2 MAG_AUTO               Kron-like elliptical aperture magnitude                    [mag]
#   3 X_IMAGE                Object position along x                                    [pixel]
#   4 Y_IMAGE                Object position along y                                    [pixel]
#   5 X_WORLD                Barycenter position along world x axis                     [deg]
#   6 Y_WORLD                Barycenter position along world y axis                     [deg]
#   7 A_WORLD                Profile RMS along major axis (world units)                 [deg]
#   8 B_WORLD                Profile RMS along minor axis (world units)                 [deg]
#   9 THETA_WORLD            Position angle (CCW/world-x)                               [deg]
#  10 FWHM_WORLD             FWHM assuming a gaussian core                              [deg]
#  11 ELONGATION             A_IMAGE/B_IMAGE                                           
#  12 ELLIPTICITY            1 - B_IMAGE/A_IMAGE                                       
         1 -13.0093    176.0400     35.9837   2.8992854190e+02   6.3492651484e+00   0.05468694   0.03782077 -30.94  0.003020892    1.642    0.391
         2 -13.6121    185.3800     27.9235   2.8977127791e+02   6.3884269851e+00    0.1045503   0.05534163 -49.82  0.007900005    1.848    0.459
         3 -13.8301    193.7935     15.0501   2.8959584273e+02   6.4887091388e+00   0.09071807    0.0644627 -22.89  0.002651642    1.669    0.401
         4 -10.0890    165.3783     13.0481   2.8991485296e+02   6.6771388824e+00   0.01756478   0.01071317  73.78 0.0008311077    2.465    0.594
         5 -10.7177      9.0917     10.2794   2.9172256987e+02   7.6135971830e+00   0.01678472  0.008254311 -46.93  0.001490213    2.053    0.513
         6 -10.5445     11.5196      5.0014   2.9166255726e+02   7.6608343174e+00   0.01619525  0.007586465   9.74  0.001191163    3.327    0.699
         7  -9.4573    235.4088      2.9950   2.8903886287e+02   6.3860072117e+00   0.01644436    0.0122744 -62.87  0.001180631    1.336    0.251
         8 -10.0090     34.6781      2.6394   2.9137774969e+02   7.5547378552e+00   0.01121101  0.007699855 -27.24  0.001135042    1.707    0.414
         9  -9.2243      2.7843    221.0112   2.9305381727e+02   5.2013009041e+00   0.01044635  0.009286852  28.26 0.0002674664    1.130    0.115
        10 -12.6419    169.4019    243.3804   2.9124841581e+02   3.9794982080e+00   0.06268016   0.02124317  23.99  0.004529138    3.211    0.689
        11 -10.5715    134.3157    249.7285   2.9169419007e+02   4.1087302315e+00   0.02017445   0.01465153  40.22  0.001643236    1.392    0.282
        12 -12.0232    166.9489    249.6432   2.9131431248e+02   3.9209363448e+00   0.05949311   0.01818536  24.26  0.004062223    3.590    0.721
        13 -13.0103    180.7372    246.7145   2.9113658354e+02   3.8751385971e+00     0.103126   0.03318461  18.78   0.00622784    4.783    0.791
        14 -12.2435    148.4751    248.5202   2.9152235581e+02   4.0408801431e+00   0.06800015   0.02878433  15.93  0.005043454    3.220    0.689
        15 -10.6060    121.7477    249.0224   2.9183612653e+02   4.1895920965e+00   0.01874115   0.01438038  53.65  0.001395632    1.415    0.293
        16 -10.5211     94.2081    240.9670   2.9210845239e+02   4.4423289015e+00   0.02917241   0.01539924 -73.59  0.002145038    2.260    0.557
        17  -9.4240     86.8769    250.5000   2.9225051190e+02   4.3738364200e+00   0.01436137    0.0104027  20.45  0.001025407    1.428    0.300
        18 -11.2306     91.1915    246.7759   2.9217814569e+02   4.3922208021e+00   0.03281141   0.01675973  40.55  0.001161069    1.980    0.495
        19 -13.8370     81.9463    165.6959   2.9180223756e+02   5.3881766358e+00      0.44655          nan  36.24  0.004232895    7.951    0.874
        20  -9.9293     14.6022    195.8286   2.9276643018e+02   5.4261599353e+00   0.01342197   0.01065848  23.65 0.0004933162    1.275    0.216
        21  -8.0046     89.3565    193.7303   2.9188328478e+02   5.0194818774e+00  0.006952759   0.00485605  56.33 0.0004112243    1.639    0.390
        22  -8.9309      9.2879    192.9599   2.9281126734e+02   5.4901028275e+00   0.01189742  0.009251964  14.13 0.0002560568    1.360    0.265
        23  -8.6109     88.7554    183.5586   2.9182957862e+02   5.1411992670e+00   0.01904604  0.005701729  30.92  0.001377639    3.051    0.672
        24 -11.2566     80.8647    185.9508   2.9193574793e+02   5.1589675615e+00    0.0215352   0.01437058 -40.04  0.001281325    1.581    0.368
        25 -11.2160     84.4649    180.0098   2.9185836187e+02   5.2072376487e+00   0.02039005   0.01208631 -46.49 0.0007139785    1.698    0.411
        26  -9.5250     13.1882    187.3514   2.9273244770e+02   5.5328758063e+00   0.02577214   0.01088226  48.92  0.001959294    3.012    0.668
        27  -9.2403      7.9033    183.9561   2.9277381313e+02   5.6027713285e+00   0.01977438  0.009684774  23.23  0.001741308    2.145    0.534
        28  -9.5268     53.0428    183.0753   2.9224265557e+02   5.3529696469e+00   0.01349022   0.01066599  51.05  0.001515366    1.343    0.256
        29  -8.7258     96.1124    181.3399   2.9173065906e+02   5.1244793769e+00  0.009559523   0.00816885  33.88  0.001116487    1.174    0.148
        30  -9.0425     53.6016    176.7193   2.9219824333e+02   5.4236447277e+00   0.01164517   0.00738477  47.55 0.0007485007    1.700    0.412
        31  -8.3637     13.9843    176.5353   2.9265876993e+02   5.6540648891e+00  0.009891252  0.006532053  24.92 0.0008281262    1.535    0.349
        32  -9.7403     38.2459    172.0241   2.9234916547e+02   5.5667733781e+00   0.01198493  0.009527532  26.86 0.0007049962    1.263    0.208
        33 -10.2443    230.4846    167.4998   2.9008453144e+02   4.5066643840e+00   0.01428714  0.006558299 -63.72  0.001218496    2.200    0.545
        34 -14.5558     53.2298    235.7069   2.9255396381e+02   4.7399273293e+00    0.1300734    0.1116526 -20.88   0.01275937    1.241    0.194
        35  -8.4740      3.1006    161.8554   2.9269818665e+02   5.8873851111e+00  0.009252928  0.007707826 -23.45  0.000617837    1.290    0.225
        36 -13.8839     68.3723    145.2370   2.9183820612e+02   5.7043771738e+00    0.2653116    0.1162041  44.48  0.006323291    2.498    0.600
        37 -10.4160     21.7086    156.0922   2.9244692194e+02   5.8472832282e+00   0.02026005   0.01106435  43.83  0.001888785    1.925    0.481
        38 -15.1963     62.5555    214.3084   2.9231801367e+02   4.9349537629e+00    0.4783365    0.1595008  41.48  0.009551179    3.117    0.679
        39  -9.4399    134.0063    147.4246   2.9108663867e+02   5.2994042039e+00   0.02319729  0.008591659 -72.73  0.001491733    4.186    0.761
        40 -11.5503     96.3375    145.5041   2.9151391863e+02   5.5396915827e+00   0.01304744   0.01157256 -21.88  0.000503829    1.178    0.151
        41  -8.9810    125.4546    144.2388   2.9116716456e+02   5.3859355723e+00   0.01022887  0.008589934   5.30 0.0003546652    1.269    0.212
        42 -10.0935    107.6957    144.7302   2.9137696364e+02   5.4829974059e+00   0.02715614   0.01290195 -44.19  0.002337105    2.239    0.553
        43 -10.4215     36.6786    129.4894   2.9211364691e+02   6.0702716432e+00   0.02547566   0.00882215  33.37  0.001606766    2.673    0.626
        44 -13.3289     69.5901    203.2163   2.9217001174e+02   5.0233301631e+00   0.06219115   0.04726645 -60.57  0.005056908    1.298    0.230
        45 -11.5326     43.9879    130.2809   2.9203313858e+02   6.0189251724e+00   0.02341452   0.01417927 -62.74  0.002173123    1.640    0.390
        46  -8.3728    190.4782    135.0229   2.9035502788e+02   5.1160347989e+00  0.009539513  0.006450867 -61.41 0.0003113198    1.461    0.315
        47  -8.8187    111.8069    209.8270   2.9171800247e+02   4.7026298202e+00   0.01017491  0.008890557 -28.49 0.0006451894    1.188    0.158
        48  -9.7285    114.9843    133.6407   2.9122570600e+02   5.5696816299e+00   0.01529662    0.0117512  -8.26 0.0008644707    1.503    0.335
        49 -10.0779    102.9713    130.3633   2.9134606284e+02   5.6772697325e+00   0.01381483   0.01069101 -32.09  0.001011653    1.386    0.278
        50  -9.6004    122.9691    129.1084   2.9110555430e+02   5.5761168897e+00  0.009604714  0.009547737 -63.22 0.0003495627    1.016    0.016
        51  -9.3602    119.8456    126.4680   2.9112613679e+02   5.6248756119e+00   0.01351896  0.009289895 -51.36 0.0009377044    1.422    0.297
        52 -10.0118     25.9579    127.2909   2.9222554819e+02   6.1576102489e+00   0.01728374    0.0113219  30.27  0.001076005    1.513    0.339
        53 -10.4946    236.4907    127.2127   2.8977310541e+02   4.9394105086e+00   0.01186498   0.01086834  42.85  0.000253472    1.110    0.099
        54  -8.5154    160.3124    127.6615   2.9066198801e+02   5.3765375969e+00  0.007010152  0.004991991  64.18 0.0007046029    1.692    0.409
        55  -9.2968      1.6799    202.4988   2.9295663508e+02   5.4229406489e+00   0.01047202  0.008668615 -60.21   0.00120722    1.193    0.162
        56 -10.1896    192.4980    194.8250   2.9068970917e+02   4.4097646115e+00   0.04055871   0.01983615  88.85  0.002481591    5.215    0.808
        57  -8.9425    135.0000    122.5224   2.9092596846e+02   5.5829463113e+00   0.01444455  0.003740993 -62.79 0.0009219727    3.832    0.739
        58  -9.1807    110.6410    121.9671   2.9120644070e+02   5.7304444919e+00   0.01081556  0.009262452  24.68 0.0006793473    1.176    0.150
        59  -9.9775    180.0333    198.4367   2.9085624600e+02   4.4400651790e+00   0.01153136   0.00938743 -63.61 0.0001664179    1.227    0.185
        60  -9.4868     67.1237    116.4734   2.9168084239e+02   6.0458638549e+00   0.01040692  0.008295235  -6.48  0.001155821    1.410    0.291
        61  -8.8679     92.9925    198.9912   2.9187234216e+02   4.9373196757e+00  0.009525339  0.009352419  59.43            0    1.041    0.040
        62  -9.3687    168.3998    113.7571   2.9048448258e+02   5.4910986625e+00   0.01429994   0.01003592  61.88 0.0009793799    1.705    0.414
        63  -9.9353     21.7422    112.8918   2.9218874631e+02   6.3492430649e+00   0.02018585    0.0107342  50.26  0.001789555    2.218    0.549
        64 -10.5620      6.4529    108.8723   2.9234313044e+02   6.4839889867e+00   0.02389979   0.01401007   5.47  0.002155483    2.258    0.557
        65 -10.3507     65.4006    105.5622   2.9163567555e+02   6.1825921248e+00   0.02385306   0.01372181 -23.50  0.002062884    2.490    0.598
        66 -10.2776      3.7048    104.2428   2.9234755927e+02   6.5536012466e+00    0.0237425   0.01072228  25.74  0.002033291    2.248    0.555
        67 -12.6387      7.4673    213.3297   2.9295362913e+02   5.2636955962e+00   0.09345952   0.01163731  29.06  0.004926008    5.888    0.830
        68  -8.2378    152.4931     77.5143   2.9045232801e+02   6.0041558491e+00  0.006604988  0.006396094 -30.46 -6.536056e-05    1.028    0.027
        69  -8.3670    191.0823     64.8954   2.8992712035e+02   5.9264976516e+00  0.008619532  0.007326327 -30.35            0    1.228    0.186
        70  -7.9259    131.5455     53.4454   2.9055199768e+02   6.4049945647e+00  0.006548829  0.006386868 -29.37 0.0001259588    1.018    0.018
        71  -9.6100    246.2099     51.8096   2.8920706150e+02   5.7574666744e+00   0.01123936   0.01014976 -21.75 0.0003152522    1.148    0.129
        72 -13.6945     11.1951    207.2125   2.9287384113e+02   5.3133847964e+00    0.1376457   0.07383115 -50.59   0.01299888    1.813    0.448
        73  -9.8521    100.5173    245.9050   2.9206447460e+02   4.3484911996e+00   0.01465685   0.00963963  62.26  0.001432237    1.903    0.475
        74 -10.1209    105.2052    240.8957   2.9198009556e+02   4.3796400194e+00   0.01335999   0.01133499  83.85 0.0005264258    1.308    0.235
        75  -8.7932     77.5613     51.5311   2.9117020868e+02   6.7397950986e+00   0.01225345  0.005296061  38.66 0.0009461167    2.280    0.561
        76  -9.2711    212.1156     38.1701   2.8952162145e+02   6.1141023400e+00  0.009427434  0.007659924  57.28 0.0004770172    1.337    0.252
        77 -10.2641    141.4542     29.8241   2.9029459758e+02   6.6215533933e+00   0.01112572   0.01066132  16.27 0.0002675557    1.050    0.048
        78  -8.3194    139.2663    241.3628   2.9158672934e+02   4.1773203473e+00  0.007049667  0.004763258 -34.29 0.0002768702    1.646    0.392
        79 -10.1793     76.5452    236.2609   2.9228593175e+02   4.5990033045e+00   0.01379335  0.009883726  61.81 0.0006540783    1.646    0.393
        80 -15.7451     25.7345    244.7593   2.9292777466e+02   4.7930713991e+00    0.2548554   0.09933785 -53.81   0.01336821    2.380    0.580
        81 -13.9479     14.3785    250.5262   2.9309417680e+02   4.7913710495e+00   0.09163192   0.02150207  35.37  0.004370752    3.651    0.726
