#   1 NUMBER                 Running object number                                     
#   2 MAG_AUTO               Kron-like elliptical aperture magnitude                    [mag]
#   3 X_IMAGE                Object position along x                                    [pixel]
#   4 Y_IMAGE                Object position along y                                    [pixel]
#   5 X_WORLD                Barycenter position along world x axis                     [deg]
#   6 Y_WORLD                Barycenter position along world y axis                     [deg]
#   7 A_WORLD                Profile RMS along major axis (world units)                 [deg]
#   8 B_WORLD                Profile RMS along minor axis (world units)                 [deg]
#   9 THETA_WORLD            Position angle (CCW/world-x)                               [deg]
#  10 FWHM_WORLD             FWHM assuming a gaussian core                              [deg]
#  11 ELONGATION             A_IMAGE/B_IMAGE                                           
#  12 ELLIPTICITY            1 - B_IMAGE/A_IMAGE                                       
         1 -12.3959     75.0826     51.4545   8.2846883798e+01   5.7322718166e+01      1.31393    0.7536942 -48.57  0.006179524    1.872    0.466
         2 -13.4269     42.4704     45.8916   9.3552385275e+01   6.2908860162e+01    0.7618219    0.5821997  53.33 0.0008370703    1.955    0.488
         3 -12.1146    124.9343     27.9676   5.8985367103e+01   5.0632763425e+01    0.7978393    0.4027693  45.80  0.003107828    1.847    0.459
         4 -12.2244     60.7507     45.9888   8.6178868365e+01   6.0541851746e+01     1.502364     0.508856 -45.61  0.005806132    2.804    0.643
         5 -12.2025    132.2072     14.8462   5.2616451105e+01   5.0354505049e+01     1.547641    0.5865965  57.26  0.006193429    2.232    0.552
         6 -10.9728    154.6398     23.9973   5.1583136348e+01   4.3749539709e+01      1.04862    0.7492823  43.61  0.005378665    1.395    0.283
         7 -11.8112    137.7153     23.3885   5.4559092643e+01   4.8071747976e+01    0.8468819    0.5622397  51.08  0.002155534    1.371    0.271
         8  -9.9506    147.4455     16.9726   5.0514041100e+01   4.6345909101e+01    0.6045839    0.4481927  20.17  0.003169185    1.568    0.362
         9  99.0000      6.3694     34.0661   1.0585647840e+02   6.8216829788e+01     1.708102     0.401489 -55.15  0.007338271    2.857    0.650
        10 -10.8983     22.3652      5.2837   8.5759064698e+01   7.1864895524e+01    0.2788526    0.1642099 -40.33 0.0006208892    1.687    0.407
        11 -10.7858     14.2457     23.3830   9.8227080262e+01   6.9687736675e+01    0.4013552    0.3588696   8.51  0.002018517    1.384    0.277
        12 -11.9426     26.2170     28.0905   9.4171235786e+01   6.7851234032e+01    0.4926421    0.4176615  -1.67   0.00279062    1.217    0.178
        13 -11.5317     20.2439     22.0271   9.4642895676e+01   6.9440336512e+01    0.7085735    0.2280611 -46.48  0.003280578    2.495    0.599
        14 -12.6434     16.8301     13.5137   9.2715649596e+01   7.1147129130e+01    0.7291421    0.4552803 -25.62  0.003209221    1.285    0.222
        15 -12.1598     22.5056     11.7705   8.8908850369e+01   7.0894924859e+01    0.5073844    0.3373004  -6.32  0.002237967    1.368    0.269
        16 -11.2742    105.9617     20.4032   6.0770016315e+01   5.5912398443e+01    0.3572122    0.2574024 -22.71 0.0005782029    1.434    0.303
        17 -12.3826    113.3731     25.0317   6.0683592436e+01   5.3692505743e+01    0.8956321    0.3943194  53.97   0.00337838    2.092    0.522
        18 -10.9695    178.2706     21.6581   4.7139550953e+01   3.7975004005e+01    0.5614722    0.3557432  26.34  0.002017814    2.200    0.546
        19 -11.1385    183.3674     25.0157   4.7406013736e+01   3.6283960623e+01    0.6074716    0.3183796  51.09  0.002696424    1.908    0.476
        20 -10.9227    214.5646     23.1720   4.3074855019e+01   2.8713810284e+01    0.4561065     0.355456   8.09  0.002484676    1.803    0.445
        21 -10.6246     87.1928      7.6224   6.0548455873e+01   6.1299100140e+01     0.574983    0.3180064  55.79  0.002395357    1.805    0.446
        22 -11.1782     90.7912     20.7115   6.5196252109e+01   5.9117203777e+01    0.6060953    0.3750651 -23.71  0.002386851    1.628    0.386
        23 -11.3427     85.9566     14.4359   6.3952864883e+01   6.0831600613e+01    0.7699282    0.4522687   7.81    0.0029009    2.092    0.522
        24 -11.1194     40.8733      5.6322   7.6748879771e+01   6.9571303945e+01    0.4912064     0.235389 -16.15  0.002391421    2.400    0.583
        25 -10.4556     47.2918     18.9477   8.0439218499e+01   6.6881759067e+01      0.32896    0.2749281 -14.10  0.001245579    1.121    0.108
        26 -11.6257     36.2025     18.8870   8.5453079545e+01   6.8315667417e+01    0.6291101    0.3622702 -35.41  0.002907793    1.508    0.337
        27 -10.6360     32.3840     12.5259   8.4277281836e+01   6.9717990765e+01    0.2423506     0.223632  48.79 0.0005662985    1.799    0.444
        28 -12.1894     48.9054     12.7680   7.6782902082e+01   6.7511540584e+01    0.5486247    0.3118801  39.17  0.003079262    1.837    0.456
        29 -10.0442     41.9613     14.4828   8.0700527026e+01   6.8243889400e+01    0.2430513    0.1820053  28.75 0.0007134821    1.414    0.293
        30 -11.9191     68.2023     18.0614   7.1595442842e+01   6.3731023740e+01    0.4946527    0.4251028   7.34   0.00185279    1.059    0.056
        31 -11.9546    237.7028     15.7820   3.9069207664e+01   2.4149124314e+01    0.5865964    0.3830724  69.42  0.002499771    1.522    0.343
        32 -11.3014    165.0944     17.8721   4.7920707025e+01   4.1764805908e+01    0.4701465    0.2778648  38.07  0.001511462    1.950    0.487
        33 -10.3301    226.1939     15.3063   3.9974594941e+01   2.6855859557e+01    0.4096525    0.1933596 -41.22  0.001688903    1.897    0.473
        34 -10.9839    198.5811     28.7646   4.6428453439e+01   3.1979653194e+01    0.5783775    0.4074875 -10.45  0.002518762    1.838    0.456
        35 -12.2142    104.5668     12.7329   5.8010342548e+01   5.7059306777e+01    0.5150614    0.4388752 -31.75   0.00185579    1.318    0.241
        36  -9.2859     94.6907     11.8368   6.0260086846e+01   5.9304130144e+01    0.3545155    0.1809409  41.12  0.001194721    1.769    0.435
        37 -11.4387    211.8490      9.8277   3.9979682012e+01   3.0878406257e+01    0.4607195     0.311972   3.24  0.001018373    2.284    0.562
        38 -11.3169    192.4638      7.6944   4.1411706153e+01   3.5874076313e+01    0.5648436    0.3818488  16.68   0.00209909    2.171    0.539
        39  -7.8904      4.5488     11.5766   9.8589531199e+01   7.2392737300e+01     0.310913    0.1667338 -39.26  0.001984395    1.383    0.277
        40 -11.8764    246.9829      6.7152   3.6316944367e+01   2.3102400548e+01    0.5747298    0.4495943  35.87  0.003414074    1.854    0.460
        41 -10.8998    242.4311      3.7859   3.6006296701e+01   2.4421056929e+01    0.3638976    0.2196814  80.56  0.002073251    1.556    0.357
        42  -9.9746    168.9755      9.6848   4.4847514540e+01   4.1616100461e+01     0.375341    0.1651005  48.63  0.001563373    2.274    0.560
        43  -9.1752    163.2182      9.9597   4.5734379253e+01   4.3054585680e+01    0.2401024    0.1851487  18.36 0.0009603103    1.565    0.361
        44  -9.6322    163.6851      5.3626   4.4244558550e+01   4.3370130057e+01    0.3556176    0.2191465  27.63  0.001615282    2.087    0.521
        45 -10.0932     66.0971     10.1415   6.8644763036e+01   6.5064536935e+01     0.318448    0.2005778  49.99 0.0009061517    1.765    0.433
        46  -9.8243     62.7400      6.7563   6.8234971214e+01   6.6030726163e+01    0.2763713    0.1942629   7.32  0.001299426    1.306    0.234
        47 -10.9675    233.9633      7.0199   3.7371750911e+01   2.5977037916e+01    0.5365375    0.2477468  63.13  0.002284978    2.127    0.530
        48 -10.3008    228.1443      3.4354   3.7009172422e+01   2.7693046711e+01    0.3047262    0.2388659 -42.17  0.001909815    1.271    0.213
        49 -10.9898    218.8125      2.9865   3.7668521776e+01   2.9923086868e+01    0.3444042    0.2841918 -39.77  0.001131655    1.271    0.213
        50 -10.4408    223.7677      2.0102   3.7026757194e+01   2.8857042443e+01    0.3303978    0.2128207  72.40  0.001013355    1.451    0.311
        51  -9.3735      1.1164      7.3628   9.8721214301e+01   7.3306223056e+01     0.186849   0.05001352 -49.34 0.0006447569    2.799    0.643
        52 -10.4870    183.2655      4.7425   4.1623166026e+01   3.8471258654e+01    0.3938041    0.2775684 -36.42    0.0015521    1.487    0.327
        53  -9.7526    153.6235      7.1616   4.6257297821e+01   4.5753449187e+01    0.6134126    0.1890897  68.58  0.002148522    3.020    0.669
        54  -9.3427     78.4880      7.4921   6.3146188134e+01   6.3054726925e+01     0.228725    0.1128663  49.14 0.0006282491    1.872    0.466
        55 -11.1547     75.3054      3.3870   6.2231821367e+01   6.4078700262e+01    0.6446497    0.3248732  45.40  0.003316447    1.744    0.427
        56 -10.0132     50.0150      6.2212   7.3024478138e+01   6.8168047732e+01    0.1875832    0.1445043  -5.20 0.0004417111    1.084    0.078
        57 -10.6613    176.4441      5.5577   4.2661010610e+01   4.0116534352e+01    0.4042992    0.2209501  81.07 0.0009246465    1.813    0.448
        58 -10.7339    114.9322      3.1566   5.1748940023e+01   5.5580616844e+01    0.7340139     0.156333  52.90  0.002535644    3.230    0.690
        59  -9.2957    169.9004      3.3739   4.2828139216e+01   4.1975663007e+01    0.2855918    0.1181989 -57.16  0.001032761    3.393    0.705
        60 -10.6143    142.3184      2.9666   4.6625528693e+01   4.8961876916e+01    0.3956279    0.2703491  51.81  0.001682129    1.303    0.233
        61 -11.6507    133.5823      2.7434   4.8011663067e+01   5.1140342453e+01    0.4329761    0.2620713  56.30  0.001450075    1.415    0.293
        62 -10.3367    206.4008      2.5246   3.8652658329e+01   3.2949090119e+01    0.5036162    0.2210942  88.93   0.00209299    2.556    0.609
        63  -9.7556    158.5123      2.1713   4.3956696287e+01   4.4963803188e+01     0.461952    0.1644389  50.78  0.001815687    2.555    0.609
        64 -10.4301     12.8074      1.9259   8.9297606718e+01   7.3269627714e+01    0.2444953    0.1493371  11.02  0.001092149    1.588    0.370
        65 -11.1409      3.3912      1.7859   9.4760904072e+01   7.4041693082e+01    0.4163273    0.1670086  12.44   0.00220788    2.897    0.655
        66 -10.2625     82.2026      1.3156   5.9134277744e+01   6.2908431664e+01    0.1944545    0.1029175  51.44 0.0003230683    1.706    0.414
        67  -8.7082    152.0075      1.0000   4.4496716766e+01   4.6702709643e+01    0.2209953   0.06870963  68.61 0.0005340803    2.836    0.647
        68 -10.9684    106.0307      1.7920   5.3155755582e+01   5.7744404682e+01    0.6471973    0.2288596  62.92  0.002263661    2.742    0.635
        69 -10.6363     47.9026    147.8292   1.1424982302e+02   3.8981179327e+01    0.4747124    0.3000642 -67.80  0.001937671    1.374    0.272
        70 -10.5289    143.3385    248.4631   1.0628342169e+02   4.3042748208e+00    0.2994094    0.2068514 -29.66  0.001804738    2.118    0.528
        71  -9.9637     46.3227    144.6857   1.1423519047e+02   3.9910277135e+01    0.2439241    0.1988198 -62.39 0.0008123927    1.190    0.160
        72  -9.7289    214.8227    150.9220   7.5047037025e+01   7.9703800850e+00    0.2509297    0.2237015  53.03 0.0009163294    1.288    0.224
        73  -9.8471    234.4133    150.0748   7.1283483120e+01   4.3233680388e+00    0.2947061    0.1720208 -17.64  0.001306615    2.026    0.507
        74  -9.7990    239.8559    146.6903   6.9600145352e+01   3.8612184561e+00     0.234577    0.1753083 -18.35 0.0006804315    1.269    0.212
        75 -10.8690    249.3578    142.7257   6.7151987525e+01   2.7543076263e+00    0.6185926     0.234094 -33.86  0.002463491    2.390    0.582
        76 -10.6384     32.8754    144.3025   1.1763784687e+02   4.1402102664e+01    0.2876122    0.2539061  82.94  0.001146215    1.115    0.103
        77 -11.0300    133.3881    141.4402   9.0864316396e+01   2.6850061828e+01    0.3448455    0.2949727 -64.89  0.001758031    1.215    0.177
        78 -12.0519     29.9788    132.8867   1.1698716916e+02   4.4390585371e+01    0.4962679     0.325375  89.19 0.0003486472    1.448    0.309
        79 -10.3122     26.7988    139.7818   1.1865969030e+02   4.3040010474e+01    0.3561079    0.2220496  49.46  0.001452127    1.687    0.407
        80 -11.4268     23.5952    135.0187   1.1893587493e+02   4.4447171069e+01    0.8840023    0.2758544  39.44  0.003819035    3.190    0.687
        81 -10.1866     39.1933    138.1329   1.1522135834e+02   4.2242719016e+01    0.2762028    0.2595788  -9.87  0.001840489    1.376    0.273
        82 -10.0944     80.3821    136.4257   1.0379817921e+02   3.7464107903e+01     0.445861    0.3267124 -20.11  0.002149362    1.995    0.499
        83 -10.2327     47.3179    135.7378   1.1271004672e+02   4.1951296222e+01    0.4357111    0.1800706 -63.45  0.001267934    2.032    0.508
        84  -9.4677    192.0406    136.4880   7.6245093849e+01   1.5378926839e+01    0.2261753    0.1489952  45.72 0.0006012633    1.540    0.351
        85  -9.2945    216.6307    135.1957   7.1124666548e+01   1.0394223472e+01    0.2061041    0.1313876 -26.18 0.0005433127    1.615    0.381
        86 -10.5792     92.8574    129.4422   9.8975485121e+01   3.7174261469e+01     0.476032     0.291926 -80.78  0.001935932    2.317    0.568
        87 -10.4146     67.6950    135.6544   1.0713548441e+02   3.9462479278e+01    0.3560467    0.2440875 -39.87  0.001125446    1.703    0.413
        88  -9.3545    107.6647    145.9646   9.8371662175e+01   3.0692603666e+01    0.2081284    0.1861705 -71.48 0.0006291403    1.087    0.080
        89 -10.3607     74.0391    132.6807   1.0485156530e+02   3.9301713501e+01    0.2776688    0.2113106 -26.22  0.001419982    1.722    0.419
        90 -10.0506     61.8408    132.0907   1.0814027625e+02   4.1098796123e+01    0.4194758    0.3179152 -36.05  0.002276287    1.568    0.362
        91  -9.2945     38.9934    132.7044   1.1453140673e+02   4.3566612953e+01    0.1774066    0.1558296  84.09 0.0006880058    1.108    0.097
        92  -9.5909    103.6753    130.8371   9.6297454637e+01   3.4977528135e+01    0.2381101    0.2016294  29.22 0.0003905683    1.307    0.235
        93 -10.7605     10.6077    127.0876   1.2146177663e+02   4.7319502802e+01    0.5220892    0.1779036 -57.76  0.002115668    2.371    0.578
        94 -10.1814     82.1609    125.3967   1.0114408794e+02   3.9861491764e+01    0.3713509    0.2506335 -23.26  0.001312291    2.206    0.547
        95 -10.0570    239.0000    124.9963   6.4857053981e+01   7.6103338896e+00    0.2063687    0.1668107 -55.65  0.001115019    1.413    0.292
        96  -9.1689    224.0667    126.8232   6.7817789903e+01   1.0330127568e+01    0.2171535    0.1882855 -56.62 0.0005289716    1.296    0.228
        97 -10.1348     23.0003    126.9655   1.1812157990e+02   4.6406580059e+01    0.1834788    0.1482282 -79.72            0    1.020    0.019
        98  -9.7144     18.4803    124.7613   1.1908184924e+02   4.7289060800e+01    0.3978591   0.07169623 -66.19  0.001392673    3.539    0.717
        99  -9.8160      2.8867    125.9999   1.2337662298e+02   4.8081462011e+01    0.3072861    0.1744718 -85.18  0.001796381    1.452    0.311
       100 -10.0815      4.3671    120.6322   1.2244234629e+02   4.9233549657e+01    0.3696281    0.1501213 -58.13  0.001879484    1.996    0.499
       101 -11.6081      2.4203    112.1514   1.2206240578e+02   5.1315471777e+01     0.473058    0.2903915  60.47  0.002059365    1.820    0.450
       102 -11.6225      3.8758    105.5737   1.2087943982e+02   5.2756761778e+01    0.4364609    0.3400229 -75.29  0.001898052    1.030    0.029
       103 -10.6487     55.8421    123.4029   1.0833049662e+02   4.3955512915e+01     0.505832    0.3783281  -9.17  0.002191352    1.898    0.473
       104 -10.6513     46.4264    120.9424   1.1063536034e+02   4.5629086238e+01      0.64817     0.319876  59.44  0.002700902    2.872    0.652
       105  -9.6569     43.9992    116.1779   1.1054056049e+02   4.7039427611e+01    0.2733934    0.2088556  49.76  0.001419346    1.459    0.314
       106 -11.9184    104.1018    122.2020   9.4245074596e+01   3.6945814621e+01     0.448981    0.4296494   2.25  0.001173403    1.151    0.131
       107  -9.3427     66.7759    124.4195   1.0536147922e+02   4.2315957255e+01    0.2735786    0.1891904   9.04  0.001320699    2.097    0.523
       108 -10.6893     33.2907    119.4498   1.1420313674e+02   4.7305506465e+01     0.318962    0.2718033 -82.50  0.001858798    1.074    0.069
       109  -9.3369    221.1594    120.3816   6.6800070635e+01   1.2071926770e+01     0.193414    0.1429294  63.66 0.0005721773    1.641    0.390
       110  -9.2553    148.2169    119.9752   8.2062624591e+01   2.8485001467e+01    0.2601992    0.1841142 -14.47 0.0007823936    1.987    0.497
       111  -9.2924     71.9469    120.2511   1.0304288632e+02   4.2614709661e+01    0.2202197    0.1600479 -16.85  0.001061252    1.952    0.488
       112  -9.5781    185.3799    118.8120   7.3303601292e+01   2.0305428948e+01    0.2258946    0.1451578 -28.78  0.000950215    1.684    0.406
       113  -9.7652    113.8199    115.8345   9.0013602558e+01   3.6608399994e+01    0.2977054    0.2189289  25.88 0.0008906248    1.599    0.375
       114 -10.7241    107.5718    112.0128   9.0810383129e+01   3.8689339985e+01    0.6357738    0.3798703 -72.48  0.002374593    2.608    0.617
       115 -10.9204    102.3952    109.3202   9.1616860952e+01   4.0276803984e+01    0.6729099    0.4888375 -42.71  0.003234159    1.350    0.259
       116  -9.5607     67.7559    114.1868   1.0304032419e+02   4.4662402914e+01     0.313439     0.221154  80.37  0.001527712    1.814    0.449
       117  -9.8312     67.2636    110.5847   1.0242810463e+02   4.5596630343e+01    0.3211617    0.2213122  30.05  0.001641908    1.651    0.394
       118 -11.0147     42.2004     94.0312   1.0689319935e+02   5.2509895306e+01    0.3999487    0.2974932 -85.51  0.001499911    1.510    0.338
       119 -12.6861      8.1035     91.9744   1.1774109448e+02   5.5660922406e+01     1.575569    0.7465047 -89.56  0.007316614    2.593    0.614
       120 -11.5802     17.0577    100.9518   1.1626422636e+02   5.3010246582e+01     0.398107      0.29546   9.98 0.0003681676    1.742    0.426
       121 -11.4567     35.0274     92.4128   1.0895122341e+02   5.3579031828e+01     1.584109    0.6472985 -70.78  0.006424511    2.648    0.622
       122 -12.2912     42.0835     85.4361   1.0504060263e+02   5.4519974172e+01     1.649305    0.5065579  22.18  0.005709558    4.624    0.784
       123 -11.8029     21.9049     94.8432   1.1373502342e+02   5.4092745663e+01    0.6690026    0.3956226   6.53  0.003628768    2.313    0.568
       124 -12.3025     18.3299     89.7334   1.1402640849e+02   5.5535993053e+01    0.6395507       0.2925 -44.23  0.001163432    2.046    0.511
       125 -12.5635     25.5739    107.5287   1.1466035603e+02   5.0819994255e+01    0.8888268    0.5351273 -41.56  0.003577028    1.752    0.429
       126 -11.9625     18.7557    106.1390   1.1651829958e+02   5.1670744027e+01    0.2462822    0.2092863 -59.90 0.0002499117    1.119    0.107
       127 -11.2800     22.6117    114.0441   1.1651188118e+02   4.9508737705e+01    0.4037642    0.2638972  -6.62   0.00190354    2.255    0.556
       128 -11.3247     28.4533    113.0469   1.1464788939e+02   4.9267549204e+01     0.380978    0.2902898   9.13  0.001316212    1.716    0.417
       129  -9.2651    126.8656    113.8017   8.5949882116e+01   3.4443683196e+01    0.2371823    0.2151672  -2.43 0.0008757942    1.228    0.186
       130  -9.8403     48.7381    112.2374   1.0841350057e+02   4.7479625535e+01    0.2259244    0.2205473  66.21  0.001413326    1.167    0.143
       131 -11.0691    170.3187    110.4845   7.4404910662e+01   2.5441493535e+01    0.4563322    0.3802479 -31.43  0.001395058    1.212    0.175
       132  -9.6340     94.2012    112.0530   9.4679494031e+01   4.1093220579e+01    0.2613387     0.228502  43.41  0.001398353    1.209    0.173
       133 -11.3550     79.5513    108.3249   9.8171054985e+01   4.4361196417e+01    0.7219312     0.409588  36.32   0.00224699    1.910    0.476
       134 -10.3727     90.2486    104.4222   9.3975797035e+01   4.3557976553e+01    0.4598455    0.3382058  12.10  0.001457116    1.786    0.440
       135 -10.3497     85.8949    103.8861   9.5164683401e+01   4.4405861685e+01      0.45063    0.3128776 -10.05  0.001242316    2.179    0.541
       136 -10.0663    130.5139    110.1186   8.4018272791e+01   3.4497073058e+01    0.3332458    0.2112599  28.21  0.001347158    1.980    0.495
       137  -9.9133    120.3737    109.6237   8.6620568083e+01   3.6722461105e+01    0.3133248    0.1864907 -45.05  0.001311451    1.640    0.390
       138 -10.1817    175.8962    109.1080   7.2815734585e+01   2.4413669693e+01    0.2525005     0.194637   6.43 0.0009576341    1.684    0.406
       139 -10.6371    157.3993    106.5276   7.6311855405e+01   2.9255864308e+01    0.4363993    0.3317678  -0.27  0.001444354    1.772    0.436
       140 -10.2212    143.4914    105.9899   7.9557793920e+01   3.2549368797e+01    0.3270557    0.2829373 -74.73  0.001380429    1.314    0.239
       141 -11.9807    145.5886    100.5445   7.7531704286e+01   3.3222846069e+01    0.6626571    0.5509657 -31.63  0.003221247    1.229    0.187
       142 -10.2729     57.7106    102.9914   1.0376774212e+02   4.8650606819e+01    0.4591317    0.1997394 -62.40  0.001887662    2.161    0.537
       143  -9.7246     60.5507     97.5547   1.0163716411e+02   4.9582498841e+01    0.2189643    0.1706433 -67.25 0.0005678339    1.247    0.198
       144  -9.8204     57.2261     97.6092   1.0273068060e+02   4.9985751046e+01    0.2601156     0.175746  33.48  0.001003381    1.666    0.400
       145  -9.8742     82.8173    101.7077   9.5567598233e+01   4.5411382461e+01    0.3994682    0.1564773 -38.59  0.001277878    3.428    0.708
       146  -9.8013     50.5427    101.5188   1.0574112539e+02   4.9846740660e+01    0.3493751    0.2460395 -17.86  0.001822021    1.864    0.464
       147 -10.7183     52.2399     96.3651   1.0408127931e+02   5.0872961537e+01    0.6337727    0.2965795 -70.47  0.002336772    2.597    0.615
       148  -9.5070    120.8293    101.2181   8.4234858407e+01   3.8504849224e+01     0.219665    0.1870253  -1.80   0.00107271    1.374    0.272
       149 -11.2508     67.3250     96.0056   9.9068262225e+01   4.9046875058e+01    0.5453908    0.4598761  -3.03  0.002680609    1.384    0.277
       150 -10.1330     77.3322     96.9435   9.6086496344e+01   4.7375978056e+01    0.5033803    0.2738982  48.41   0.00216584    2.192    0.544
       151 -10.9727     89.7984     89.4427   9.0117234896e+01   4.7057644886e+01    0.7991928    0.4333862 -30.66  0.003114705    2.404    0.584
       152 -10.5688     82.5881     93.4791   9.3510591696e+01   4.7350052471e+01    0.3979639    0.2661532  38.33  0.001128457    1.611    0.379
       153 -10.5099     76.7001     93.0121   9.5273237201e+01   4.8379901092e+01    0.5560263    0.3987879  -3.96   0.00219788    1.917    0.478
       154 -10.1057    210.7656     97.5667   6.2973835705e+01   1.8413725010e+01    0.3788684     0.306386  14.92  0.001885549    1.500    0.333
       155  -8.7068     45.5342    105.5575   1.0813937684e+02   4.9431263256e+01     0.134436    0.1144273 -59.84   0.00011626    1.025    0.024
       156 -10.3059    117.5629     93.0969   8.2857419279e+01   4.0954735066e+01    0.4651382    0.3284343  27.05  0.001345226    1.658    0.397
       157 -10.6245    120.9745     89.2968   8.0788968908e+01   4.1047719060e+01    0.4863366    0.4064093  68.39  0.001923717    1.397    0.284
       158 -10.8299    121.5973     85.2057   7.9392694495e+01   4.1768013924e+01    0.4086779    0.3195218  47.25  0.001379989    1.315    0.239
       159 -10.4048    125.9863     93.5089   8.0638279319e+01   3.9080909814e+01    0.3742579    0.3405276  33.54  0.001114425    1.127    0.113
       160 -10.0804    122.4663     93.5303   8.1611021405e+01   3.9831279309e+01    0.3039575    0.2433869 -33.08 0.0007084503    1.265    0.209
       161  -9.5978    160.3192     93.7643   7.2092868814e+01   3.1147451117e+01    0.3721787    0.2184061  66.34   0.00139239    2.289    0.563
       162 -11.4065    102.4719     89.6792   8.6276207589e+01   4.4702941308e+01    0.8327075    0.6235721 -25.27  0.003997192    1.486    0.327
       163 -10.4683    103.9841     77.7744   8.2227896180e+01   4.6938544723e+01    0.6539978     0.394504 -30.81  0.002801648    1.820    0.451
       164 -11.1706    113.1266     85.2590   8.1816008887e+01   4.3540276125e+01    0.6186405    0.3484604 -35.69  0.001119409    1.851    0.460
       165 -10.4107    109.1238     80.6419   8.1579434155e+01   4.5319914919e+01     0.346813    0.3097612 -29.37 0.0008178305    1.086    0.079
       166 -10.7948    151.9068     91.6018   7.3446998295e+01   3.3577491983e+01    0.5119308    0.3946514 -71.08  0.001891349    1.627    0.386
       167  -9.2993    137.9542     93.0613   7.7336891926e+01   3.6519655728e+01    0.2675023    0.1980749   6.70  0.001139241    1.873    0.466
       168  -9.6316    174.9248    246.8473   1.0019255608e+02  -4.2909728256e-01    0.2369037    0.1387858  40.98  0.001378237    1.385    0.278
       169 -10.8366     91.0575     47.9383   7.6060319453e+01   5.5083914027e+01    0.3645669    0.2358597 -34.29  0.001080834    1.495    0.331
       170 -10.5609     67.1670     81.9516   9.5458657623e+01   5.2282035940e+01    0.8408439    0.5565036  19.79  0.004180542    1.815    0.449
       171 -11.1944     46.9265     74.2768   1.0053772985e+02   5.6528745335e+01    0.3059883    0.1926539 -53.10            0    1.363    0.266
       172  -9.8891     94.3188     76.3780   8.4792942659e+01   4.9070491347e+01    0.5443853    0.3265441  33.88  0.001896433    1.810    0.447
       173 -11.7065     85.5545     73.7598   8.6811750996e+01   5.1177559306e+01    0.6948721    0.5192857  44.50  0.002829751    1.472    0.321
       174 -10.9821     79.1522     82.9278   9.1697220936e+01   5.0269266277e+01    0.6115848    0.5028324 -81.04   0.00260423    1.538    0.350
       175 -11.7185     73.6338     77.7802   9.2051493862e+01   5.2254305489e+01     1.287874    0.6230043 -28.53  0.004543763    3.283    0.695
       176 -10.9532     79.6366     67.7187   8.6870015644e+01   5.3420935691e+01    0.5741854    0.4258721  40.00  0.002642276    1.461    0.315
       177 -10.5420     84.1040     64.1895   8.4179394546e+01   5.3370169491e+01    0.3745738    0.2077546 -38.96  0.001126514    1.704    0.413
       178 -12.0436     90.2276     59.1334   8.0397140368e+01   5.3241469744e+01     0.998955     0.832768  76.16   0.00526014    1.693    0.409
       179 -11.1048     57.9626     77.8220   9.7523710300e+01   5.4433135037e+01     0.431611     0.281722 -66.34 0.0004745262    1.736    0.424
       180  -9.9858    199.8637     87.8555   6.2373193932e+01   2.2687962430e+01    0.2434661    0.2373145 -47.65 0.0004089853    1.016    0.016
       181 -10.3591    183.8499     86.2343   6.4951385284e+01   2.6859372777e+01     0.658347    0.2771721 -44.75   0.00230784    2.410    0.585
       182 -10.4942    165.6083     83.4733   6.7952222490e+01   3.1841006215e+01    0.4418659    0.3643402 -53.77  0.001329993    1.262    0.208
       183 -11.4417    143.0344     84.0262   7.3383124844e+01   3.7167930128e+01    0.3977466    0.3594939  41.57 0.0006440517    1.113    0.102
       184 -10.5325    127.2827     82.5956   7.7037984502e+01   4.1056503214e+01    0.4375785    0.2774904 -45.50  0.001897068    1.580    0.367
       185 -10.1502    127.1829     77.0763   7.5354155270e+01   4.2173779368e+01    0.3398794     0.283377 -65.55 0.0009200858    1.401    0.286
       186  -9.7249    124.2919     73.2321   7.4918915289e+01   4.3564942311e+01    0.3015347    0.2301063  63.33  0.001205167    1.522    0.343
       187 -11.6640    122.4595     68.4814   7.3880071236e+01   4.4872805442e+01    0.6495698    0.3872742  40.48  0.002789562    1.723    0.420
       188 -12.3707      6.3621     62.3873   1.1310694826e+02   6.2387000150e+01    0.6602535    0.3825905 -33.06  0.003246392    1.683    0.406
       189 -10.4391    233.1341     77.3975   5.4375975193e+01   1.6692524005e+01    0.3702152    0.2688285 -32.54  0.001609242    1.308    0.236
       190  -9.4262      8.8656     76.1958   1.1487360267e+02   5.9208055210e+01    0.1697481    0.1056572 -49.33 0.0002981387    1.315    0.240
       191 -11.8523     14.0051     74.6971   1.1273795774e+02   5.9243773188e+01    0.4559703    0.3148471 -59.11  0.001837909    1.129    0.114
       192 -10.2648     14.5172     67.3744   1.1102813018e+02   6.0837041777e+01    0.3176504    0.2652861 -10.99  0.002178278    1.363    0.267
       193  -9.4569    170.6145     78.1632   6.5339250739e+01   3.1578882205e+01    0.2143846    0.1494561 -24.29 0.0005148103    1.599    0.375
       194  -9.7257    139.0566     77.3379   7.2339960943e+01   3.9395960486e+01    0.2218514    0.1944666  48.12 0.0003397282    1.146    0.127
       195 -12.1693    186.5274     70.4633   6.0012832316e+01   2.8948206057e+01     1.004394    0.6391342 -36.42  0.003604541    1.542    0.352
       196  -9.3990     63.6595     76.2488   9.5066372781e+01   5.4028443150e+01    0.2021351    0.1640124 -42.63 0.0001970833    1.089    0.081
       197  -9.9510     66.4070     74.2166   9.3504426100e+01   5.4087771396e+01    0.2862837    0.2339189 -63.54  0.001018111    1.347    0.258
       198  -9.4285    113.8905     74.9356   7.8389376924e+01   4.5490685693e+01    0.4180582    0.1870713  34.85   0.00144182    2.806    0.644
       199 -10.0004    184.4172     61.6876   5.7885563498e+01   3.0910958567e+01    0.3753573     0.213161 -41.96  0.001237665    1.729    0.422
       200 -10.8707     59.4580     62.7292   9.2486326555e+01   5.7468548299e+01      0.89692    0.5644943  51.65   0.00435653    2.254    0.556
       201 -12.0098     21.5883     46.7805   1.0281608247e+02   6.4703738173e+01    0.6547242    0.4521418  -5.27  0.002447407    1.578    0.366
       202 -10.0530     53.1445     49.1733   9.0345374121e+01   6.0989282081e+01    0.4809914     0.380666 -87.31  0.002598915    2.208    0.547
       203 -11.8415     40.7615     70.6271   1.0184796630e+02   5.7984909255e+01    0.7480962    0.2815428 -50.20  0.003193073    2.117    0.528
       204 -11.5057     32.1298     72.0486   1.0544888696e+02   5.8486563616e+01     0.520023    0.2792952  21.87  0.001410248    2.206    0.547
       205 -10.5859     27.1708     59.6285   1.0416649695e+02   6.1603936273e+01    0.4657546    0.2847515  15.05  0.002659184    1.928    0.481
       206 -11.2319     33.6158     58.2895   1.0119245866e+02   6.1323357679e+01    0.3663681    0.2090857 -31.73 0.0006868239    1.728    0.421
       207 -11.5988     28.0782     54.1592   1.0225361598e+02   6.2674679480e+01    0.8282033    0.4332408   3.53  0.004087774    2.600    0.615
       208 -10.9751     20.3549     55.0622   1.0571235798e+02   6.3093001655e+01    0.3229236    0.2660586  -5.17 0.0008170974    1.332    0.249
       209 -11.5664     40.5898     56.6489   9.7888726530e+01   6.0975116053e+01    0.5898405    0.4240307  85.37  0.003000189    2.559    0.609
       210 -11.3706     50.8152     61.1566   9.5268989844e+01   5.8893888386e+01    0.2965715    0.2632164  42.45  0.001057653    1.384    0.278
       211 -11.3364     46.1916     58.5224   9.6243936202e+01   5.9978250378e+01    0.4431987    0.2549101 -48.59  0.001124556    1.496    0.331
       212  -9.5720     24.5789     72.6120   1.0840153201e+02   5.8980631062e+01    0.3049952    0.1135838 -67.67  0.001236461    2.782    0.641
       213  -9.8316    162.3211     70.9559   6.4955295791e+01   3.4918088782e+01    0.2987396     0.260123 -89.91  0.001090176    1.277    0.217
       214  -9.2121    199.2518    244.4464   9.5373784083e+01  -3.8910371122e+00    0.1724223   0.09542558  44.27 0.0009548364    1.702    0.412
       215  -9.8832    172.3039     68.3518   6.2113082723e+01   3.2869350388e+01    0.3450628    0.2605713  21.65    0.0011212    1.668    0.400
       216  -9.7901    172.2487     65.0257   6.1136978690e+01   3.3440380427e+01    0.4948712      0.40167 -77.14  0.002312599    1.412    0.292
       217 -11.8611      1.9930     71.4123   1.1648916730e+02   6.0621717130e+01    0.7169047    0.1438303 -66.71  0.002694897    3.422    0.708
       218 -11.4378    219.9024     66.3438   5.3480815469e+01   2.1466964364e+01    0.6515994    0.3907626  56.62  0.002824132    1.735    0.423
       219  -9.2947    207.7897     68.5613   5.5881703485e+01   2.4016126260e+01     0.278045    0.1362929  54.67  0.001126525    2.069    0.517
       220  -8.8356    111.5869     67.2770   7.6560338202e+01   4.7461796643e+01    0.1507907    0.1200943  87.25 0.0006577348    1.793    0.442
       221 -10.4241     22.3898     36.9823   9.9277889498e+01   6.6558099448e+01    0.6147797    0.3006303  44.61  0.002868537    3.562    0.719
       222 -10.2499     21.2217     65.5549   1.0803196457e+02   6.0785556273e+01    0.2327783    0.1828943 -80.35 0.0002369342    1.451    0.311
       223  -9.1607     25.9105     65.3726   1.0616524016e+02   6.0471061944e+01    0.2266051    0.1528748 -32.02   0.00080416    1.422    0.297
       224  -9.7442    192.4479     65.7574   5.7638222802e+01   2.8243386460e+01    0.2914336    0.2243328 -76.32  0.000884338    1.491    0.329
       225  -9.6361     53.0056     65.9461   9.5908025526e+01   5.7625820916e+01    0.2777089     0.179668  44.82  0.001172925    1.937    0.484
       226 -10.2276    105.7118     64.0259   7.7209758171e+01   4.9297492604e+01    0.3669538    0.2438827 -27.73  0.001696803    1.576    0.366
       227 -11.4176    234.0715     61.2041   5.0278633435e+01   1.8966562076e+01     0.613203     0.431493  71.07  0.002712344    1.524    0.344
       228  -9.8125    197.9813     62.6946   5.5862206683e+01   2.7353989240e+01    0.4162527    0.2700289 -68.62  0.001323501    1.948    0.487
       229 -10.3981    159.1304     62.0968   6.2922841933e+01   3.7226421257e+01    0.5580466    0.2795278  43.42  0.002135653    2.137    0.532
       230 -10.8533    127.5243    242.4164   1.0854385589e+02   7.7271231170e+00    0.3165848    0.1914357 -64.17  0.001831682    2.090    0.522
       231 -12.0992    120.4584     57.7893   7.0833107828e+01   4.7242221252e+01      1.77811     1.240197 -83.93  0.007294119    2.558    0.609
       232 -12.4107    117.7342     43.9336   6.6660034656e+01   5.0108807753e+01    0.7608011    0.5172081  58.06  0.002553797    1.563    0.360
       233  -9.4726    147.6658     60.8852   6.5064284577e+01   4.0276694905e+01    0.4557133    0.1857334  54.58  0.001610963    2.414    0.586
       234 -10.9100    136.1277     55.0749   6.5873511164e+01   4.4045210723e+01    0.8978299    0.4874814 -34.30  0.003752274    1.866    0.464
       235 -11.5561    145.7563     47.2303   6.1028747680e+01   4.2916268011e+01     1.113857    0.4373287 -25.74  0.003738399    3.126    0.680
       236 -12.9980     52.3738     73.5796   9.8356613750e+01   5.6057145901e+01    0.5633719    0.3031657 -58.26 0.0008221059    1.788    0.441
       237 -10.0730    106.0287     57.7054   7.4929477163e+01   5.0387444336e+01    0.4119209    0.1907519 -54.23  0.001344385    3.625    0.724
       238 -10.0693    162.6317     43.8665   5.6508594211e+01   3.9149930589e+01    0.5107704    0.2587559  45.76  0.002061782    2.035    0.509
       239  -9.3328    161.8025     47.8658   5.7926114630e+01   3.8782236707e+01    0.3299429    0.2371277  87.55  0.000982515    1.702    0.412
       240 -11.1813    157.5468     55.5595   6.1209155406e+01   3.8683691769e+01    0.6430007    0.4920582  87.91  0.002245663    1.585    0.369
       241 -10.4839    155.2909     49.9119   5.9879747080e+01   4.0125837424e+01    0.4019848    0.2911248  -5.13 0.0007981446    1.749    0.428
       242  -8.6086    219.6826     57.2934   5.1189610806e+01   2.2893531284e+01    0.1484941    0.1013865 -66.08 0.0004068353    1.603    0.376
       243  -9.8682    187.9553     55.6439   5.5539547317e+01   3.0959013634e+01    0.2544473    0.2448313 -26.61 0.0006145345    1.102    0.093
       244 -10.1596     67.0909     54.6795   8.6926551230e+01   5.7981738250e+01    0.3101842    0.2041375 -47.86 0.0009735296    1.510    0.338
       245  -9.6984     68.0012    240.4853   1.1942144675e+02   1.6706439132e+01    0.1730758   0.09346594  42.87  0.001028055    1.578    0.366
       246 -11.1566     60.6432     36.1848   8.2390149738e+01   6.2269001847e+01    0.3880942    0.2609895 -34.07  0.001014367    1.354    0.262
       247 -11.0850     56.5191     31.0012   8.1894599335e+01   6.3726570324e+01    0.3910126    0.2714892  14.76 0.0006450952    1.462    0.316
       248 -11.4834     48.5643     30.4799   8.4998092602e+01   6.4918610887e+01    0.5776854     0.274434  26.39  0.002666436    2.337    0.572
       249 -10.9407    244.8423     51.0873   4.6577456902e+01   1.8018694612e+01    0.4877242    0.2568861  85.03  0.002127541    2.534    0.605
       250  -9.5835    237.2785     54.0342   4.8143236265e+01   1.9287001762e+01    0.2578375    0.2000957  75.04 0.0006737653    1.348    0.258
       251 -10.6475    240.5572     50.3752   4.6887643609e+01   1.9069375378e+01    0.3761448    0.2687666 -37.71  0.001476829    1.294    0.227
       252 -11.2066    201.7526     49.0750   5.1542005427e+01   2.8467165149e+01    0.7333696    0.4195686 -41.78  0.003323503    1.671    0.401
       253  -9.8148    176.6842     43.6717   5.3937685753e+01   3.5583367663e+01    0.3432057    0.2411357  72.92  0.001513233    1.457    0.314
       254 -10.6016    175.0029     48.7350   5.5746025576e+01   3.5286740308e+01    0.4192089    0.3784429 -77.10  0.001906955    1.127    0.113
       255  -9.8107    171.6480     47.7052   5.6033920450e+01   3.6294503366e+01    0.3890954    0.2514122  -5.97  0.001634527    2.225    0.551
       256 -12.9579    118.6117     38.0430   6.4267991157e+01   5.0774475429e+01     1.327644    0.6688822  49.22  0.003572478    1.860    0.462
       257 -10.1856     13.2629     47.0330   1.0652387888e+02   6.5232471831e+01    0.4240748     0.149057 -36.50  0.001894454    2.722    0.633
       258  -9.8930     17.5356     41.8550   1.0309774143e+02   6.5985354907e+01    0.3266271    0.1885676 -17.68  0.001862889    1.881    0.468
       259  -9.6816      2.5664     48.6256   1.1156586816e+02   6.5489032177e+01    0.2426738    0.1890711  -1.04  0.001741307    1.497    0.332
       260  -9.5985    195.2205     46.8752   5.1903511478e+01   3.0417334707e+01    0.4859107    0.2334619  88.05   0.00149212    4.146    0.759
       261 -10.5471    139.1813     44.3693   6.1529351225e+01   4.4963083404e+01    0.5155203    0.2485569  43.55  0.002029145    2.116    0.527
       262  -9.1614    132.2389     45.5730   6.3565903917e+01   4.6468878469e+01    0.2099337    0.1302581  43.88 0.0005566344    1.572    0.364
       263 -10.9480    138.1898     33.5138   5.8005062866e+01   4.6712008243e+01    0.5643412    0.3703569 -51.53  0.001441826    1.815    0.449
       264 -10.9603    148.5625    237.8871   1.0397297288e+02   5.1124007878e+00    0.4360677    0.2007613  46.82   0.00201861    1.876    0.467
       265 -10.6043    198.1681    232.7297   9.3793965287e+01  -2.1526726738e+00     0.312418    0.2809496 -45.63  0.002157634    1.487    0.328
       266 -10.6660    145.2327     24.6969   5.3536477193e+01   4.6046310983e+01    0.6289536    0.3218298  48.91  0.002746061    1.817    0.450
       267  -9.7117     15.1724    233.6944   1.2818708102e+02   2.4114465194e+01    0.1942912    0.1218963 -82.91  0.001034078    1.437    0.304
       268  -9.8604    167.6144    237.7722   1.0031228897e+02   2.0457856978e+00    0.1476433    0.1205664 -62.08 0.0009497634    1.639    0.390
       269 -10.9340    155.9169     41.9731   5.7197098786e+01   4.1125270374e+01    0.5834558    0.4439417  12.85  0.002845237    1.624    0.384
       270 -11.6868    153.1740     36.0120   5.5791220173e+01   4.2633629775e+01    0.3194237    0.2993503 -30.12 0.0004109701    1.123    0.109
       271 -11.3817    160.1441     29.7947   5.2493936087e+01   4.1654034682e+01    0.4993058     0.379108 -28.51  0.001471462    1.401    0.286
       272 -12.2913    164.2592     27.7627   5.1147801774e+01   4.0849190753e+01    0.3154912    0.2951766 -26.05 0.0002870369    1.153    0.132
       273  -9.0070    101.4766     44.4864   7.1486866944e+01   5.3566190768e+01    0.2105048    0.1793004 -63.81  0.000883738    1.524    0.344
       274 -11.1279     94.5040     41.4165   7.2466694549e+01   5.5473937581e+01    0.7130331    0.3066213  46.81  0.002901023    2.314    0.568
       275  -9.6090      5.4493     42.6845   1.0878425861e+02   6.6562795134e+01    0.3880388    0.2083568 -56.98  0.001755922    1.451    0.311
       276  -9.9950    247.3880    231.3752   8.4762626760e+01  -9.3795746163e+00    0.1901608    0.1304505 -18.76 0.0006291526    1.392    0.282
       277 -10.4288    242.6518    231.1775   8.5540755297e+01  -8.6898579774e+00    0.2523812     0.125968  47.53  0.001250359    2.764    0.638
       278  -9.3818     23.3527    231.5384   1.2669397523e+02   2.3666905163e+01    0.1823024    0.0792787  44.56 0.0006598835    1.882    0.469
       279  -8.9689    190.1440    229.8130   9.4848725783e+01  -4.4869606031e-01    0.1745009    0.1278911  17.34 0.0006503136    1.317    0.241
       280  -9.3108    108.4528    230.4798   1.1085353358e+02   1.2726489003e+01    0.1249385    0.1008921  56.73 8.329342e-05    1.021    0.021
       281  -9.9147    234.1576    223.0768   8.5648383947e+01  -6.4535973903e+00     0.195509    0.1366466   9.69 0.0006766886    1.271    0.213
       282  -8.6506    209.3377    223.3308   9.0196404660e+01  -2.6336774870e+00    0.1322988   0.08516642   9.29 0.0007051998    1.737    0.424
       283 -10.1975    189.1090     41.4180   5.1287042591e+01   3.2725513371e+01    0.5599388    0.2105257 -27.46  0.001915339    2.962    0.662
       284 -10.2634     86.0197     30.5202   7.0833976015e+01   5.8772671805e+01    0.4844189    0.2718713 -13.08  0.002150716    2.235    0.553
       285 -10.8496     80.7078     40.0166   7.6487429920e+01   5.8323076530e+01    0.5787699    0.4123349  37.65  0.003013236    1.410    0.291
       286 -10.7022     77.6942     34.4285   7.5285334732e+01   5.9744840845e+01    0.4065198     0.262417  37.87  0.001471976    1.532    0.347
       287 -10.6178     81.7587     31.7454   7.2767157755e+01   5.9405011636e+01    0.4474452    0.2953793 -54.66  0.002146998    2.302    0.566
       288 -10.1549    231.8477     39.1662   4.5164405428e+01   2.2587357225e+01    0.4356576    0.2128794 -56.99  0.001884354    2.192    0.544
       289 -11.1494    177.3573     36.0392   5.1546394847e+01   3.6447381512e+01    0.5345381    0.3833774  33.28  0.002428907    1.660    0.398
       290  -9.6439    133.1291     36.9026   6.0317329763e+01   4.7497769781e+01    0.3572709    0.2115295 -53.93  0.001507256    2.238    0.553
       291  -9.6489    206.9625     37.0506   4.7585163553e+01   2.8833141216e+01    0.2160498    0.1998923 -80.59 0.0006927484    1.024    0.024
       292  -9.6542    193.6163     38.9984   4.9935771922e+01   3.1911579625e+01    0.2494039    0.1832727  51.31 0.0003188101    1.405    0.288
       293  -9.3700     94.5805     36.0648   7.0345591294e+01   5.6274560936e+01    0.2529256    0.1922324  63.92  0.001317096    1.695    0.410
       294  -9.5745    215.8412     33.4243   4.5547731815e+01   2.7133194969e+01    0.3841725    0.2304684   6.36   0.00148454    3.483    0.713
       295  -9.6555     10.1414    217.8334   1.2826059376e+02   2.7603271640e+01    0.1370957    0.1092964 -85.40 0.0006773962    1.313    0.238
       296 -12.1642    106.0851     32.5801   6.5569356941e+01   5.4346790520e+01    0.5336829    0.3192993  17.82  0.001774555    2.239    0.553
       297 -10.3015    165.0908    212.4347   9.7025885720e+01   6.5169796782e+00    0.2885555    0.1818576  56.03  0.001449848    1.822    0.451
       298 -10.2137     68.7024     33.0767   7.7998204469e+01   6.1501302611e+01    0.4245291    0.3017954  43.53  0.002379184    1.573    0.364
       299 -10.0855    240.5072     32.4768   4.2674511592e+01   2.1484092908e+01    0.2471001    0.1896998 -65.70   0.00113477    1.173    0.148
       300  -9.8027    171.5311     33.1360   5.1611689894e+01   3.8317262689e+01    0.2944318    0.2066396  57.67  0.001245297    1.344    0.256
       301  -9.1920    204.5207    208.5012   8.8563452468e+01   3.1876105584e-01    0.1313719    0.1118979  18.44 -1.709777e-05    1.014    0.014
       302 -10.5198    177.0864     29.7381   4.9709250728e+01   3.7319291806e+01    0.4648078    0.2457468  54.07  0.001592981    1.793    0.442
       303  -9.6943    153.0565    207.8482   9.8768204093e+01   9.4296987671e+00    0.2076499    0.1708549  57.05 0.0007240694    1.236    0.191
       304 -10.6058    189.0508     28.4162   4.7594190699e+01   3.4427902060e+01    0.5316384    0.3410106  10.47  0.002313207    2.512    0.602
       305  -9.5074    221.8249     29.5812   4.3901577399e+01   2.6183657635e+01     0.211229    0.1800842 -29.95 0.0005199282    1.282    0.220
       306  -9.3428     99.5391     30.3440   6.6562643311e+01   5.6058472657e+01    0.2475371    0.2015024  66.10  0.001046812    1.506    0.336
       307  -9.3329     97.8999     26.6555   6.5552106245e+01   5.6893720459e+01    0.2332678    0.2172657  48.70 0.0008950385    1.203    0.169
       308  -8.8445     41.1304     28.6100   8.7465282944e+01   6.6167833217e+01     0.353683    0.1142335 -35.27  0.001390706    3.062    0.673
       309 -10.1379    230.5782     27.0889   4.2380580309e+01   2.4433744523e+01    0.3524132    0.1820427 -43.13  0.001053602    1.727    0.421
       310  -8.9431    237.0438     33.0000   4.3140854579e+01   2.2201005283e+01    0.2369664    0.1456939  65.30 0.0008346171    1.660    0.398
       311  -9.1261     65.7365     28.4305   7.7149414292e+01   6.2699883430e+01     0.183071    0.1129187  26.81 0.0009545844    1.642    0.391
       312  -9.6048    250.5427     26.5622   4.0401986737e+01   2.0009047327e+01    0.2532162    0.1129915 -33.24 0.0007384075    2.080    0.519
       313  -9.7160     61.0286    206.9436   1.1786408681e+02   2.4085748861e+01    0.1872295    0.1471846  70.60 0.0004426267    1.029    0.028
       314  -9.0764     44.9382     24.3819   8.3944313816e+01   6.6375705337e+01    0.1973185    0.1528369 -36.39 0.0006817654    1.327    0.247
       315  -9.5774    168.8162     23.8721   4.9205449762e+01   4.0141465158e+01    0.2209837    0.1848942  37.98  0.000880282    1.280    0.219
       316 -10.2832     86.0589     23.9436   6.8053964634e+01   5.9659706108e+01    0.1959316     0.167171  12.31  0.001180542    1.033    0.032
       317  -9.6532    238.5056    204.5042   8.1569140523e+01  -4.6627560999e+00    0.2503763    0.1143805 -33.65  0.001214491    2.177    0.541
       318  -9.5384      4.5235    204.5063   1.2858100592e+02   3.0750474888e+01    0.2161358   0.08399234 -78.72  0.001152847    2.115    0.527
       319 -10.2200     16.4630    203.2395   1.2630358616e+02   2.9894947067e+01    0.2756034   0.09227971 -80.95  0.001312209    2.661    0.624
       320  -9.5453     59.5096     23.9679   7.7622919874e+01   6.4353074601e+01    0.2099563    0.1356985 -25.76 0.0003863838    1.414    0.293
       321  -9.9101     60.4079     20.0402   7.5484214817e+01   6.4768597118e+01    0.2872048    0.2177024 -49.68  0.001197819    1.868    0.465
       322 -11.0200    245.3727    200.3986   7.9602482713e+01  -5.1690656542e+00    0.2915362    0.1987229 -17.64  0.001409318    1.350    0.259
       323  -8.4976    207.2892    201.3072   8.6739124862e+01   9.4879705661e-01     0.133629   0.09347452   6.00 0.0004564869    1.574    0.365
       324 -10.3945    234.2795    196.9788   8.0914330261e+01  -2.9359530440e+00    0.3842152    0.2602111  16.58   0.00146502    1.419    0.295
       325  -8.5887    195.3328    199.6773   8.8771442000e+01   3.3016497776e+00    0.1274947    0.1073474  72.81 0.0007050203    1.704    0.413
       326 -10.9110      6.1024    198.3202   1.2796077049e+02   3.1863359440e+01    0.2612405    0.1084705 -71.08  0.001467708    2.077    0.519
       327 -12.1222      4.8888    184.3455   1.2738924730e+02   3.4881297567e+01    0.5774585    0.3957928  76.80  0.003144187    1.120    0.107
       328  -8.9817    223.1951     22.1657   4.1925086466e+01   2.6764684146e+01    0.1861345    0.1363984 -69.93 0.0006365679    1.278    0.218
       329  -8.7039     83.7553    195.9771   1.1192272199e+02   2.3243843314e+01    0.1579281     0.104134 -68.83 0.0004800819    1.522    0.343
       330  -9.8099     74.1271     19.5354   7.0132345681e+01   6.2487666077e+01    0.2580389    0.1816561  31.00 0.0007912967    1.312    0.238
       331  -9.9328    169.6075    191.4737   9.2535774495e+01   9.4076078421e+00    0.3575609    0.1799887  30.49  0.001040635    2.233    0.552
       332  -9.9432    239.7985    184.7123   7.7558317137e+01  -2.0570921054e+00    0.2522576    0.1771521   7.80 0.0007492634    1.425    0.298
       333  -9.4147    211.3268     18.8978   4.2331790452e+01   3.0001297341e+01    0.1775898    0.1624058 -64.92 0.0003629185    1.081    0.075
       334 -10.2621    250.2917    178.8541   7.4578382733e+01  -2.9184763785e+00    0.3958818    0.1526871 -32.50  0.001699675    2.425    0.588
       335  -9.1593    205.4804     17.4774   4.2594342330e+01   3.1596086648e+01    0.1355252    0.1203774 -82.11 2.874263e-05    1.006    0.006
       336  -9.5339    191.3529     16.8459   4.4051510329e+01   3.5190300217e+01    0.2589501    0.1983385  28.95  0.001390432    1.645    0.392
       337  -9.6802     27.9136    176.2963   1.2203668099e+02   3.4519129445e+01     0.239627    0.1514706 -72.92  0.001458863    1.378    0.274
       338 -10.4793    249.6414     16.2776   3.8203177269e+01   2.1441001435e+01    0.2091542    0.1376928  55.39  0.001187169    1.797    0.443
       339 -10.4148    186.3590     15.0360   4.4157592887e+01   3.6648343656e+01    0.2596417    0.2046537  71.15 0.0004226956    1.164    0.141
       340  -9.1312    182.5413     12.4856   4.3907340924e+01   3.7884588995e+01    0.2079425    0.1239314  85.38 0.0006505194    1.731    0.422
       341  -9.0634    174.2373     15.6456   4.5919145172e+01   3.9666505895e+01    0.1903959    0.1142509  59.94 0.0004692594    1.512    0.339
       342  -9.9843     51.7377    172.9343   1.1638391548e+02   3.2657341414e+01    0.3248782    0.1631681 -86.06  0.001382188    2.151    0.535
       343  -9.9493    247.6422    173.9238   7.4034155321e+01  -1.7608244772e+00    0.4585739    0.1614408  30.12  0.001486875    4.591    0.782
       344  -9.5318    230.4576    175.4896   7.7377644980e+01   9.4020907975e-01    0.2125491    0.1255241  39.07 0.0001057486    1.681    0.405
       345  -9.8293     38.8991    173.3550   1.1934345705e+02   3.4033029009e+01    0.3552514    0.1569614  49.58  0.001706285    2.148    0.534
       346 -10.2961     35.1580    169.8294   1.1984007137e+02   3.5232467460e+01    0.2607544    0.2023006 -82.29  0.001038265    1.101    0.092
       347 -10.3442      8.6982    157.0900   1.2469818258e+02   4.0547684818e+01    0.3282097    0.1682861 -66.68  0.001275827    1.645    0.392
       348 -11.7290      9.5451    167.0587   1.2527392323e+02   3.8247591755e+01     0.496685    0.3399295  79.38  0.002310651    1.184    0.155
       349 -11.2919     13.8052    159.4001   1.2373122121e+02   3.9612418363e+01    0.4278268     0.245023 -71.97  0.001380404    1.433    0.302
       350  -9.1470    197.9695    167.7719   8.2007737304e+01   8.2948588213e+00    0.1988477    0.1823286  13.40 0.0007962518    1.016    0.015
       351  -9.9587    188.4945    165.5932   8.3495028013e+01   1.0565791887e+01    0.5550457    0.2244645 -30.64  0.001797572    3.563    0.719
       352  -8.7118    156.4907    166.4435   9.0636476995e+01   1.6802116358e+01    0.1468513    0.1394169  37.97 0.0002967055    1.006    0.006
       353  -8.6320    152.4118    166.5301   9.1580365548e+01   1.7591606959e+01    0.1446198    0.1399278  30.29 0.0001101898    1.028    0.027
       354 -10.2178     18.7491    164.9809   1.2308801201e+02   3.7923599918e+01    0.2706019    0.2270366 -59.12  0.001594153    1.396    0.283
       355  -9.2840    209.1274    164.3892   7.9077116543e+01   6.7236222575e+00    0.3049169    0.2328977 -46.82 0.0008959983    1.462    0.316
       356  -9.7596    205.0027    163.0032   7.9591460589e+01   7.7707688406e+00    0.2200867    0.1978831   7.26 0.0005696914    1.039    0.038
       357  -8.7025     40.6779    164.3125   1.1800105971e+02   3.5907588838e+01     0.133928   0.08073746  70.03 0.0003603388    1.654    0.396
       358 -10.4423     28.1013    162.1439   1.2070688103e+02   3.7699887211e+01    0.3807006    0.1757672 -69.71  0.001952319    1.802    0.445
       359  -9.4326     79.1970    160.2112   1.0812257760e+02   3.1952526167e+01    0.1991739    0.1501566  77.66 0.0009246127    1.348    0.258
       360  -9.5479    215.1457    158.3102   7.6609732974e+01   6.6152087335e+00    0.2586984    0.1823925 -22.84 0.0008235371    1.434    0.303
       361  -9.3297    223.9439    156.7272   7.4617792031e+01   5.1935283761e+00    0.1978669    0.1776306   8.04 0.0006556414    1.054    0.051
       362  -9.9494     21.6926    155.6985   1.2158311102e+02   3.9777781701e+01    0.2795188    0.2052207  13.79  0.001747371    1.950    0.487
       363 -11.9681     22.7674    149.2350   1.2069231184e+02   4.1179443831e+01    0.5739982    0.3074148 -39.92  0.001929062    2.710    0.631
       364 -10.5972     15.3751    147.7465   1.2233354314e+02   4.2150834181e+01    0.2776819     0.222602  60.12  0.001091551    1.278    0.218
       365 -11.5827     12.6418    139.4544   1.2220670272e+02   4.4287406328e+01     0.812569    0.3979146 -81.62  0.004297203    1.714    0.416
       366 -10.5108    104.5790    154.1797   1.0072746700e+02   2.9311298310e+01    0.3559674    0.3095709 -59.21  0.001959988    1.148    0.129
       367 -10.7640     31.6987    153.2012   1.1893956479e+02   3.9421644764e+01    0.4430421    0.2758786  89.65  0.002500774    1.458    0.314
       368  -9.9247     70.7181    151.5828   1.0893741720e+02   3.5208739172e+01     0.335198    0.1338649  36.15  0.001200263    2.588    0.614
       369 -11.8890      4.1610    147.8337   1.2499846910e+02   4.2984232661e+01    0.7609572    0.3778939 -84.20  0.004247928    1.626    0.385
       370 -10.8976      4.9897    141.9707   1.2431263204e+02   4.4263724451e+01     0.308189    0.2238509  52.31  0.001298874    1.456    0.313
       371 -12.1077      3.7408    137.2040   1.2420023465e+02   4.5442985087e+01    0.2947285    0.1843162 -63.58 0.0002314578    1.391    0.281
       372 -11.2205     63.0226    150.4126   1.1073610905e+02   3.6521823601e+01    0.4448819    0.4009759 -21.39  0.002116867    1.439    0.305
       373  -8.7982     41.9705    148.7852   1.1588065529e+02   3.9408691928e+01    0.2487048    0.1628085  20.30  0.001285684    2.046    0.511
       374  -9.5280     45.0248    152.0026   1.1551596105e+02   3.8311808054e+01    0.3137972    0.2389566  35.58  0.001890925    1.497    0.332
