#   1 NUMBER                 Running object number                                     
#   2 MAG_AUTO               Kron-like elliptical aperture magnitude                    [mag]
#   3 X_IMAGE                Object position along x                                    [pixel]
#   4 Y_IMAGE                Object position along y                                    [pixel]
#   5 X_WORLD                Barycenter position along world x axis                     [deg]
#   6 Y_WORLD                Barycenter position along world y axis                     [deg]
#   7 A_WORLD                Profile RMS along major axis (world units)                 [deg]
#   8 B_WORLD                Profile RMS along minor axis (world units)                 [deg]
#   9 THETA_WORLD            Position angle (CCW/world-x)                               [deg]
#  10 FWHM_WORLD             FWHM assuming a gaussian core                              [deg]
#  11 ELONGATION             A_IMAGE/B_IMAGE                                           
#  12 ELLIPTICITY            1 - B_IMAGE/A_IMAGE                                       
         1 -10.1590      9.3389     19.8038   1.1502882435e+02   6.9262075910e+01    0.3503834    0.1867731   3.46 0.0005742832    1.903    0.474
         2 -10.2070     24.6968     16.5006   1.0666691926e+02   6.8387119586e+01    0.3378823    0.2378401  11.76 0.0007647363    1.276    0.216
         3  -9.7417     64.0493     14.2004   9.0002073484e+01   6.3450606773e+01    0.3496754    0.2080919  21.34 0.0007747164    1.587    0.370
         4  -8.5388    134.4911     13.5198   7.1390297133e+01   4.9208744115e+01    0.2981886    0.1439218  36.88  0.001023909    2.311    0.567
         5  -8.4907     88.5222     13.0855   8.1907182059e+01   5.9184695456e+01    0.3024653    0.1447415  29.17  0.001417215    2.259    0.557
         6  -8.8920     74.7082     13.6164   8.6236457868e+01   6.1699660549e+01    0.2781084    0.1907934  11.64  0.001420913    1.385    0.278
         7  -8.6929     80.0657     12.8042   8.4259163831e+01   6.0812287848e+01    0.2357564    0.2158004  20.67 0.0009474612    1.213    0.176
         8  -8.8100     97.3655     11.9368   7.9093905831e+01   5.7531329713e+01    0.2346212    0.1485684  43.26 0.0003919991    1.308    0.235
         9  -8.4289    157.2607     10.3806   6.6572955070e+01   4.4073653323e+01    0.2948356     0.159267 -61.70  0.001329038    2.556    0.609
        10  -8.2059    105.9955     10.5427   7.6451800671e+01   5.5859371177e+01    0.1828832    0.1596046  20.71 0.0004433247    1.129    0.115
        11  -8.8499     31.7882     10.5010   1.0097861960e+02   6.8377468356e+01    0.3182633    0.1615915 -17.86  0.001835604    1.930    0.482
        12 -10.7036     19.9901      8.9038   1.0557418596e+02   6.9837712873e+01    0.3123406    0.1666989  14.26 0.0004797167    1.780    0.438
        13  -8.5243     39.5235      8.3002   9.6741134496e+01   6.7679592877e+01    0.2315881    0.1318105  12.09 0.0009594506    1.706    0.414
        14  -8.4443      1.7665      8.2221   1.1409512014e+02   7.1450252553e+01    0.2058715    0.1235942 -40.38  0.001471401    1.544    0.352
        15  -8.2454    128.0709      7.9029   7.0840400659e+01   5.1198476366e+01    0.2080858     0.127175  35.41 0.0006238099    1.653    0.395
        16  -8.3095    118.7763      7.4077   7.2533424724e+01   5.3343933116e+01    0.1920344   0.09266266  50.18 0.0006575921    1.662    0.398
        17  -8.6475     76.5780      6.8461   8.2940401834e+01   6.2009714238e+01    0.2279057    0.1445286  43.49 0.0007443978    1.350    0.260
        18  -7.8705     84.3383      6.3357   8.0479337177e+01   6.0606501954e+01    0.1336398   0.07432046  26.78  0.000705153    1.751    0.429
        19  -9.1735     56.7360      4.5389   8.8482182079e+01   6.5590968750e+01    0.3282425     0.165141  20.46   0.00174407    2.094    0.522
        20  -9.8367     49.0703      4.6626   9.1352391098e+01   6.6742473570e+01    0.2402719    0.1583617  10.78 0.0003979656    1.298    0.229
        21  -8.9842    247.3904      5.2019   5.5571969203e+01   2.3468351963e+01    0.1689227   0.08823964 -50.85 0.0003895242    1.678    0.404
        22  -9.0004    110.8705      3.9779   7.3045440957e+01   5.5365348567e+01    0.3270492    0.1818437 -30.73  0.001320609    2.091    0.522
        23  -8.1173     92.1107      5.2025   7.7945791922e+01   5.9182788397e+01    0.1999362    0.1380575  30.88  0.001225517    1.254    0.202
        24  -8.9203     68.9284      3.8114   8.4068055970e+01   6.3638943206e+01    0.3094111    0.1529418  -6.04  0.001572381    2.452    0.592
        25  -8.4564     12.4953      4.1838   1.0704311282e+02   7.1127426313e+01    0.2441181    0.1527208 -33.40  0.001752576    1.517    0.341
        26  -8.6666    125.1810      3.9987   7.0139847407e+01   5.2182260011e+01    0.2033141    0.1404643  39.04 0.0007436138    1.340    0.254
        27  -8.5507    103.7540      4.4117   7.4795149649e+01   5.6854157077e+01    0.1893175   0.08911709  47.71 0.0009497537    1.685    0.407
        28  -8.1581    153.7768      3.2119   6.5086586322e+01   4.5551174991e+01    0.1755647    0.1259052  48.96 0.0003078612    1.303    0.233
        29  -8.1484    182.3643      2.1809   6.1050247877e+01   3.8756699882e+01    0.2144812    0.1388178  64.53 0.0003421211    1.303    0.233
        30  -7.8760    143.1665      1.9794   6.6367974379e+01   4.8174655613e+01    0.1815455    0.1521609  88.79 0.0003512687    1.241    0.194
        31  -7.9137      3.1081      1.2809   1.1042534219e+02   7.2266814540e+01    0.1235614   0.07578122  20.70 0.0003851598    1.674    0.403
        32  -7.6533    138.1216    234.6466   1.2446971474e+02   6.0445416507e+00    0.1939381    0.1125133  34.16 0.0009330183    1.727    0.421
        33  -7.8886    249.1902    249.8386   1.0522217742e+02  -1.4740015351e+01    0.1685586    0.1118811  10.22 0.0005595058    1.331    0.249
        34  -8.6916    212.6941    250.4061   1.1205598298e+02  -9.3562553620e+00    0.2395432    0.1021249  41.68   0.00100517    2.086    0.521
        35  -9.9329    200.4202    249.1505   1.1420448590e+02  -7.1938190599e+00    0.4353176    0.2307345  26.86  0.001620021    1.887    0.470
        36  -9.3382    185.4616    249.2951   1.1713498770e+02  -4.7180009628e+00    0.3813187    0.2215072  13.06  0.001713203    2.709    0.631
        37  -8.5841    123.6811    250.2352   1.2942321848e+02   5.7096661346e+00    0.2266244    0.1600474  43.67  0.001143867    1.211    0.174
        38  -7.5710    124.6326    230.3074   1.2664498012e+02   9.2426984008e+00    0.1444472   0.09224781  66.41 0.0007036345    1.754    0.430
        39  -8.5617    237.5730    228.5179   1.0361249796e+02  -1.0191553808e+01    0.2221027    0.1680153   3.09 0.0005813572    1.198    0.165
        40  -8.1029    195.0507    229.0442   1.1193559327e+02  -3.1861797989e+00    0.2184761    0.1492924   9.88 0.0009140986    1.768    0.435
        41  -7.4327    158.3351    229.3064   1.1949229619e+02   3.3857872416e+00    0.1355548    0.1030811  11.36 0.0003164962    1.670    0.401
        42  -7.4954    133.4856    229.4758   1.2468972417e+02   7.8407919833e+00    0.1366447    0.1180359  50.47 0.0001931003    1.030    0.029
        43  -8.0013    100.9933    229.2657   1.3137551194e+02   1.3461537764e+01    0.1722108    0.1010755  44.54 0.0005265829    1.501    0.334
        44  -8.8152    247.3595    225.9109   1.0134579370e+02  -1.1317596906e+01    0.3324977    0.2422308  38.33  0.002046617    1.477    0.323
        45  -8.0388    230.4134    226.7438   1.0463163775e+02  -8.8045283381e+00    0.1781769    0.1116405 -21.77 0.0009558543    1.676    0.403
        46  -8.1416    186.7029    226.8220   1.1324232800e+02  -1.3316100651e+00     0.247607    0.1672111  29.79  0.001124514    1.383    0.277
        47  -7.4608     92.6908    227.6973   1.3287809591e+02   1.5121954208e+01    0.1145006    0.1054406  -6.78 0.0006466233    1.605    0.377
        48  -7.6810     70.0566    226.2208   1.3725701238e+02   1.8868740738e+01    0.1625829   0.09272497  42.63 0.0008658353    1.651    0.394
        49  -7.9544    223.7260    225.0592   1.0559874211e+02  -7.4650231878e+00     0.209619    0.1328504  -6.69  0.001053944    1.940    0.485
        50  -7.5920    206.6617    222.6365   1.0849214800e+02  -4.1842499882e+00    0.1433366   0.09642674   4.98 -4.105248e-05    1.831    0.454
        51  -7.7669     51.4359    221.7755   1.4046819244e+02   2.2359914984e+01    0.1590424      0.10242 -65.51 0.0004053989    1.581    0.367
        52  -7.9573    216.6532    220.3546   1.0611197313e+02  -5.5475707851e+00    0.2790524    0.1753134   5.52  0.001331884    2.086    0.521
        53  -8.4502    182.5307    219.7940   1.1288610242e+02   6.4107414491e-01    0.2691811    0.1941912  19.24 0.0009705999    1.512    0.338
        54  -7.8421    130.5596    220.2316   1.2395386623e+02   1.0172752302e+01    0.1720066    0.1331212 -43.30 0.0005578045    1.554    0.356
        55  -8.1784    240.7164    219.0612   1.0130177086e+02  -9.3098500172e+00    0.2089856     0.183529  53.05  0.001029184    1.588    0.370
        56  -8.3502    226.9475    218.4822   1.0377998968e+02  -6.9919445693e+00    0.2516659    0.1655209 -15.56  0.001333874    1.662    0.398
        57  -7.6093    173.5853    219.1543   1.1463868665e+02   2.4142539382e+00    0.1805974    0.1302657 -27.41 0.0007397414    1.674    0.402
        58  -7.5961    203.7940    216.4041   1.0793682003e+02  -2.6498655143e+00    0.1952138    0.1160657  29.07  0.000610502    1.661    0.398
        59  -8.0214    193.7260    215.5418   1.0982296271e+02  -6.7567529588e-01    0.2515372    0.1230345  36.30 0.0007982832    1.909    0.476
        60  -7.4621    179.3203    215.3165   1.1276796563e+02   2.0387323071e+00    0.1419234    0.1055518   7.31 0.0004862882    1.659    0.397
        61  -7.6389     83.5460    214.9928   1.3324475223e+02   1.9220282320e+01    0.1697175    0.1047863 -42.44 0.0006602646    2.400    0.583
        62  -7.4663    210.7054    214.6838   1.0623943836e+02  -3.5946337604e+00    0.1377098   0.09803759   4.18 0.0002503588    1.603    0.376
        63  -8.8184    249.1193    212.1189   9.8467442714e+01  -9.5967414299e+00    0.3312465    0.2041223  45.77  0.001776394    1.920    0.479
        64  -8.0490    122.1050    213.1873   1.2472285414e+02   1.3131890719e+01    0.2056441    0.1817462  35.89 0.0006783984    1.219    0.179
        65  -7.9170    232.8949    211.6605   1.0137365047e+02  -6.9205252107e+00    0.1805822    0.1498478  21.27 0.0004920436    1.107    0.097
        66  -7.6911    169.5333    211.9896   1.1424985589e+02   4.5038029885e+00    0.1886251    0.1216619 -18.79 0.0007626155    2.406    0.584
        67  -7.8523    186.0558    210.3033   1.1045626788e+02   1.6819471950e+00    0.2037936    0.1669067  32.46 0.0006581496    1.111    0.100
        68  -7.3374    132.7051    209.6977   1.2186277473e+02   1.1924349495e+01    0.1331218    0.1128758   1.23 0.0004060551    1.576    0.365
        69  -7.8944    162.4738    208.4731   1.1514796122e+02   6.5290723544e+00    0.2551264     0.128318  31.84 0.0008709426    2.230    0.552
        70  -7.5739     93.7238    208.3570   1.3021992453e+02   1.9039821989e+01    0.1429839   0.09415745  75.72 0.0005203402    1.654    0.395
        71  -7.8430    215.6757    205.6742   1.0355515490e+02  -2.9741306138e+00    0.2146389    0.1481794   5.71 0.0007972093    1.721    0.419
        72  -9.3031    124.0207    205.9809   1.2319357486e+02   1.4302558375e+01    0.2042189    0.1817219  60.76  0.001167841    1.004    0.004
        73  -8.0185    246.9921    205.0545   9.7503587695e+01  -8.1961391663e+00    0.2165566    0.1412422   0.01  0.001127876    1.753    0.429
        74  -7.5337    205.4386    204.8071   1.0543548930e+02  -9.6203697296e-01    0.1923155    0.1283049 -25.12 0.0006182373    1.665    0.399
        75  -8.1230    117.5548    205.1091   1.2449678060e+02   1.5659551830e+01    0.2824675    0.1817595  27.10  0.001036867    1.972    0.493
        76  -8.2107    236.8477    203.8571   9.9137000184e+01  -6.3492026241e+00    0.2018844    0.1578161  -2.33 0.0003920296    1.220    0.181
        77  -7.5150    148.6546    204.6833   1.1750978305e+02   9.9443285024e+00    0.1450617    0.1140393   4.92 0.0007048408    1.720    0.419
        78  -8.1396    250.4847    199.5352   9.5805726805e+01  -7.9032929861e+00    0.2407171    0.1106154 -26.77  0.001040156    2.385    0.581
        79  -7.7741    229.0421    199.9579   9.9849844638e+01  -4.3829940690e+00    0.2875535    0.1565045   2.40 0.0004623432    4.182    0.761
        80  -8.0119    196.2168    200.4339   1.0648433576e+02   1.5516970178e+00    0.2706515    0.1291358  36.87  0.001110428    2.037    0.509
        81  -7.7423    184.8369    200.3814   1.0886118150e+02   3.7534091813e+00    0.2110937    0.1262824  31.35 0.0009379323    1.724    0.420
        82  -7.6366    243.8514    197.3794   9.6580612360e+01  -6.4839348571e+00    0.1821797    0.1134177  26.37 0.0005662778    1.654    0.396
        83  -8.3402    166.1149    197.2266   1.1231169457e+02   8.0461559476e+00    0.3024731    0.1861128  32.05 0.0008812788    1.703    0.413
        84  -8.0883    192.9253    194.1685   1.0595018066e+02   3.3501552631e+00    0.2909126    0.1890487 -13.76  0.001250595    2.216    0.549
        85  -7.6861      1.5157    194.5104   1.4784119817e+02   3.3623278486e+01    0.1149358   0.08443139  87.75 0.0008103622    1.013    0.013
        86  -7.8783    149.7789    193.5700   1.1527876198e+02   1.2034081722e+01    0.2046631    0.1318773  52.29 0.0003106718    1.536    0.349
        87  -7.6895     90.5829    192.2080   1.2865726916e+02   2.3163623804e+01    0.1852642     0.125513 -54.30 0.0009354241    1.558    0.358
        88  -8.0664    246.5766    190.1833   9.4661595274e+01  -5.7809741863e+00    0.1859191    0.1144023 -24.03 0.0005041118    1.626    0.385
        89  -7.8433    224.7648    189.2982   9.8549124794e+01  -1.8113972301e+00    0.2125701    0.1059584 -28.31 0.0007125258    2.314    0.568
        90  -7.2844    186.3022    189.3657   1.0640253599e+02   5.5800042496e+00    0.1526266    0.1135851  -1.01 0.0007035048    1.735    0.424
        91  -7.4809    161.6388    189.7406   1.1188695894e+02   1.0469807344e+01    0.1495697    0.1151055  13.05 0.0005347987    1.629    0.386
        92  -8.0392     64.5903    189.2900   1.3417149185e+02   2.7756710485e+01    0.2016016    0.1696782   6.61  0.001164623    1.766    0.434
        93  -7.1609    172.6961    187.6978   1.0902869076e+02   8.6539265007e+00    0.1482431    0.1164477   3.91 0.0007007712    1.593    0.372
        94  -7.6511    130.4379    182.8012   1.1776980183e+02   1.8179306265e+01    0.2039059    0.1410507 -41.51 0.0005977779    1.646    0.393
        95  -7.7016    156.4284    180.7862   1.1132188664e+02   1.3422173205e+01    0.2005002    0.1451532 -35.09 0.0004024358    1.572    0.364
        96  -7.4307    183.6864    180.3041   1.0513000910e+02   7.9050531662e+00    0.1472211    0.1199809  82.41 0.0004473432    1.618    0.382
        97  -7.6562     96.5429    178.4463   1.2511553962e+02   2.5369413830e+01    0.1424868     0.132602  84.67 8.252545e-05    1.048    0.046
        98  -7.4922     68.9810    178.2286   1.3167456024e+02   2.9718504664e+01    0.1706338    0.1094099  40.71 0.0006059036    1.611    0.379
        99  -7.7165    204.3248    175.3482   9.9734024653e+01   4.6710255860e+00    0.1549483    0.1133565   1.19 0.0007049441    1.749    0.428
       100  -7.5970     47.2236    175.5997   1.3641220732e+02   3.3194009098e+01    0.1596657    0.1287525  19.87 0.0009486862    1.677    0.404
       101  -7.9307    149.0029    174.4786   1.1178536321e+02   1.6323685635e+01    0.2345257    0.1467054  42.18 0.0004593486    1.542    0.352
       102  -7.5904    192.9865    173.2359   1.0165338959e+02   7.4010522846e+00    0.2029562    0.1227535  43.64 0.0008799069    1.621    0.383
       103  -7.7296    183.5551    171.9557   1.0341153056e+02   9.6269917544e+00    0.2156108    0.1315144 -20.00 0.0008077216    2.531    0.605
       104  -7.8279    177.2222    167.1819   1.0378505630e+02   1.1957602859e+01    0.2530288    0.1673154   1.55 0.0009343495    2.721    0.633
       105  -7.3387    150.6801    165.6700   1.0957386710e+02   1.7933176200e+01    0.1571983    0.1251706  -2.60 0.0004473947    1.690    0.408
       106  -7.9783    168.4632    163.8393   1.0503647295e+02   1.4545549411e+01    0.2841009    0.2007975   6.49  0.001157325    2.173    0.540
       107  -7.6089    122.2934    162.9937   1.1594632261e+02   2.4321771263e+01    0.2098395    0.1997329  73.20 0.0008330457    1.011    0.011
       108  -7.2566    250.3191    155.3391   8.6829606340e+01  -5.5594761069e-01    0.1415199    0.1023334  -3.55 0.0007049583    1.711    0.415
       109  -7.6607    106.5023    152.4331   1.1784440150e+02   2.9810006222e+01    0.1478218    0.1442028 -74.47 0.0002683316    1.063    0.059
       110  -7.8547    178.0257    148.9973   9.9551418199e+01   1.5629464840e+01    0.2333593    0.1886389   8.19 0.0004062135    1.537    0.349
       111  -8.1489    133.3063    147.5749   1.0990568928e+02   2.5706784803e+01    0.2668545    0.1912993 -29.37 0.0007073769    1.727    0.421
       112  -9.3874     67.0462    144.5371   1.2681347426e+02   3.8063702880e+01     0.469307    0.3094378  63.61  0.002290922    1.801    0.445
       113  -9.4096    224.5593    142.9389   8.8672620479e+01   6.7182705375e+00      0.25502    0.2439081  -3.77 0.0003451874    1.063    0.059
       114  -7.7087     41.3742    140.2770   1.3298054838e+02   4.2216609408e+01    0.1301414   0.09168566 -35.69 0.0005058171    1.695    0.410
       115  -8.3652     13.3649    140.2503   1.4022389302e+02   4.4781984413e+01    0.2354838    0.1088172 -30.34 0.0009596473    4.139    0.758
       116  -7.0603    119.6834    148.6817   1.1363590843e+02   2.8203107855e+01      0.15397    0.1242507 -11.92 0.0007039643    1.655    0.396
       117  -8.4027     23.5962    130.1420   1.3622367462e+02   4.6288500949e+01    0.3400846     0.155762 -30.55  0.001349248    3.929    0.746
       118  -8.5925    243.0928    124.3531   8.1323894616e+01   6.3347276347e+00    0.2490116    0.1820998 -45.16 0.0003974163    1.249    0.200
       119  -7.3852    152.6921    124.6582   9.9604733231e+01   2.6651583098e+01    0.1626801     0.128892  -0.29 0.0007043475    1.690    0.408
       120  -9.6464     11.9879    122.0118   1.3821727296e+02   4.9045622566e+01    0.3544919    0.1093085 -53.50  0.001566919    2.489    0.598
       121  -7.8693    119.4817    118.9826   1.0674600987e+02   3.5145085578e+01    0.3137428    0.1982805   4.25   0.00103323    3.475    0.712
       122  -7.8413    100.5280    118.5422   1.1192855715e+02   3.8907415966e+01    0.2609647    0.1471645  26.92   0.00102759    2.278    0.561
       123  -7.7154     84.3174    121.8581   1.1738143635e+02   4.0910813748e+01    0.2988347    0.1747781   9.41  0.001072072    3.366    0.703
       124  -7.4311    131.3263    113.3202   1.0211048622e+02   3.3907954584e+01    0.1602029    0.1259506   0.29 0.0002382868    1.682    0.406
       125  -7.8560    142.2343    111.9263   9.8925825846e+01   3.1788625891e+01    0.2617228    0.1895163  -9.69  0.001077413    2.015    0.504
       126  -9.1679      2.9973    109.4482   1.3895362206e+02   5.2426925434e+01    0.3883649    0.1908663 -26.38  0.001993998    2.786    0.641
       127  -8.2896    133.6813    107.5106   9.9951911782e+01   3.4646636755e+01    0.3948026    0.1881705 -41.91   0.00141434    2.134    0.531
       128  -7.9886    123.7441    107.1370   1.0250055123e+02   3.6877281124e+01    0.3006665    0.2053027  16.27  0.001228309    2.105    0.525
       129  -9.0250     13.8268    105.9050   1.3525452436e+02   5.2534611293e+01    0.2974466    0.1567564 -46.89  0.001030004    1.640    0.390
       130  -8.6438     17.8219    103.3664   1.3362090877e+02   5.2818355149e+01    0.2050456    0.1523606   4.97 0.0008123322    1.673    0.402
       131  -7.3472    109.5456    106.4622   1.0627063323e+02   3.9918444727e+01    0.1508885      0.14423 -17.46  0.000226032    1.050    0.048
       132  -7.5721     66.9408    104.7787   1.1862054124e+02   4.7419924455e+01    0.1769207     0.115114  29.90 0.0008792228    1.698    0.411
       133  -7.5009     93.4996    103.4840   1.1016648645e+02   4.3551922836e+01    0.1458731    0.1388242 -32.82 -1.506705e-05    1.001    0.001
       134  -9.7259      8.8116     96.6262   1.3522483268e+02   5.4891441747e+01    0.4360704    0.2247139 -20.53  0.002277045    2.612    0.617
       135  -7.9984    129.4560     97.4498   9.8312104524e+01   3.7684392905e+01    0.3182431     0.214885  16.28    0.0012841    2.178    0.541
       136  -9.5441     19.1944     92.2144   1.3112718289e+02   5.5158955421e+01    0.4266443    0.1988318 -56.41  0.002242636    1.648    0.393
       137  -8.7399     44.1513     92.0695   1.2291242962e+02   5.2986420949e+01    0.3630412    0.2194506 -10.79   0.00176592    2.317    0.568
       138  -7.6695     57.3634     91.8469   1.1850555989e+02   5.1516323701e+01    0.1883988    0.1069393 -43.88 0.0003445307    1.569    0.363
       139  -7.8934    108.8826     91.3750   1.0229681565e+02   4.3242903308e+01    0.2207741    0.1358964  30.36 0.0009422768    1.838    0.456
       140  -7.5043     96.3472     90.3381   1.0570918529e+02   4.5843542629e+01    0.1543455    0.1119901  -6.50 0.0002059258    1.783    0.439
       141  -8.4560     67.5674     85.9635   1.1359441507e+02   5.1405971827e+01    0.4192982     0.183774  22.74  0.001566487    3.301    0.697
       142  -9.3509     35.4439     82.2720   1.2350791881e+02   5.5932587409e+01    0.5871858    0.2587593 -29.05  0.002413641    3.128    0.680
       143  -7.9276    126.5230     83.9659   9.5231192240e+01   4.1002923153e+01    0.3084876     0.181976  15.95  0.001028852    3.380    0.704
       144  -8.5947     88.2905     79.2483   1.0495596682e+02   4.9499866576e+01    0.6031908    0.2467527  25.98  0.001788212    4.686    0.787
       145  -9.8918      8.0176     77.4529   1.3189737300e+02   5.8990423478e+01    0.4090529    0.1689263 -38.24  0.002091867    2.200    0.545
       146  -8.8868     48.6825     76.8855   1.1751609599e+02   5.5667334484e+01    0.3416717    0.2471856 -14.36  0.001832766    1.462    0.316
       147  -8.5179    184.1287     78.5722   8.0599571264e+01   2.8181161405e+01    0.2833081    0.2301111 -27.06 0.0007461636    1.394    0.283
       148 -10.0457     23.9321     73.2049   1.2534539177e+02   5.8780579436e+01    0.7777331    0.3038021 -29.94  0.003170471    3.433    0.709
       149  -8.1761     23.3343     69.6474   1.2468042154e+02   5.9539084425e+01    0.2159682    0.1327909 -49.03 0.0005445246    1.307    0.235
       150  -8.0711     75.1030     74.4938   1.0778674262e+02   5.2588252977e+01    0.1929708    0.1315004  29.88 0.0004507191    1.515    0.340
       151  -8.8585     62.0894     66.8121   1.0987132648e+02   5.5945482623e+01    0.4374171    0.1543901 -38.69  0.001349065    2.792    0.642
       152  -9.5010     65.3451     61.0009   1.0688950275e+02   5.6546883606e+01    0.3361724     0.265349   9.53  0.002012141    1.238    0.192
       153  -9.2314    237.8941     68.7839   6.9718034303e+01   1.6972057626e+01    0.2550087    0.2144469  65.42 0.0004477476    1.258    0.205
       154  -8.4435     43.2768     68.2719   1.1703267373e+02   5.7966839821e+01    0.2774767    0.1678731 -25.11  0.001486724    1.705    0.414
       155  -8.3375     80.7588     67.8272   1.0385403896e+02   5.2930504068e+01    0.3279412    0.2071311  -4.94  0.001126881    2.256    0.557
       156  -8.4643     84.0510     63.7757   1.0148031644e+02   5.3099522468e+01    0.3023901    0.2079387   3.90  0.001270257    1.770    0.435
       157  -9.5291     17.6498     62.1628   1.2487852623e+02   6.1424809988e+01    0.4099195    0.1938989 -41.06   0.00178824    1.686    0.407
       158  -8.4755    242.0560     64.6635   6.8286494452e+01   1.6691834575e+01    0.1873333    0.1604737 -89.10 0.0005390836    1.103    0.094
       159  -8.7067     52.1291     61.1371   1.1166432953e+02   5.8289083493e+01    0.2384642    0.1770579 -11.28 0.0009711472    1.311    0.237
       160 -10.8390     38.5000     57.4775   1.1560872877e+02   6.0498144891e+01    0.4491796    0.2569749  -4.97 0.0004995309    2.227    0.551
       161  -7.3981    111.4600     58.4611   9.1464068664e+01   4.8736620875e+01    0.1441545    0.1282369  18.44 0.0001141337    1.068    0.064
       162  -9.1314      1.9770     45.6056   1.2664342685e+02   6.5470395478e+01    0.2756469    0.2142237 -43.47  0.001745152    1.135    0.119
       163  -8.6907      3.7035     40.5082   1.2448623814e+02   6.6279264226e+01    0.2746847   0.08061299 -51.43  0.001343269    2.456    0.593
       164  -9.3831      2.5441     54.9190   1.2883156282e+02   6.3726955848e+01    0.6214989    0.1451235 -49.33  0.002861176    2.594    0.615
       165 -10.0326      9.7414     47.7968   1.2408201234e+02   6.4628659796e+01     0.507756    0.2384614 -22.17  0.002360568    2.287    0.563
       166  -8.4606     98.8463     55.0691   9.3984452162e+01   5.1833680046e+01    0.3532599    0.1928784 -23.33  0.001542533    2.193    0.544
       167  -9.2294     74.8921     50.6137   1.0009699809e+02   5.6835912136e+01    0.3667312    0.2351665  -1.98 0.0005183974    1.933    0.483
       168  -8.2773    118.5734     51.0978   8.7144784587e+01   4.8341174196e+01    0.2577062    0.1941631  65.98 0.0008344135    1.546    0.353
       169 -10.2960     45.2850     49.0997   1.1031418246e+02   6.1227100034e+01    0.2771055    0.1966734  -1.36 0.0006758821    1.380    0.275
       170  -8.1905    106.9568     48.0541   8.9277892569e+01   5.1265975107e+01    0.2010104    0.1798882  23.87            0    1.004    0.004
       171  -9.6658     24.3546     47.1496   1.1795001387e+02   6.3668331097e+01    0.4767078    0.2288073   4.48  0.002365232    2.766    0.638
       172  -8.8204     31.0518     44.4503   1.1436623217e+02   6.3527522683e+01    0.2699483    0.1596106  -7.47  0.001019204    1.855    0.461
       173  -9.8334     39.1597     41.6087   1.1013540878e+02   6.3161326766e+01    0.3572639    0.1858079  17.78  0.001904779    2.102    0.524
       174  -8.6461     93.5851     42.6300   9.1291719796e+01   5.4712164173e+01    0.5444458    0.1552505  41.77  0.001889128    3.344    0.701
       175  -9.7239     17.3924     38.7339   1.1813137839e+02   6.5671502812e+01    0.4912239    0.1652332 -31.14  0.002093903    3.312    0.698
       176  -7.7690    123.0542     40.9529   8.2698484933e+01   4.8763295614e+01    0.2345471    0.1533411  24.05  0.001121765    1.804    0.446
       177 -10.1477     83.3247     39.9658   9.3529004279e+01   5.6989472332e+01    0.2778338    0.2019637  19.92  0.001587914    1.312    0.238
       178  -8.8602    106.4374     36.8780   8.5601563700e+01   5.2905626745e+01    0.3539883    0.2038735  24.36  0.001613858    2.117    0.528
       179  -8.5742     92.2956     37.1026   8.9714603104e+01   5.5714786416e+01    0.2594799     0.170209  35.24 0.0006891469    1.389    0.280
       180  -9.4737     96.0624     33.2767   8.7232884206e+01   5.5473863932e+01    0.2433838     0.196486  24.09 0.0002682255    1.105    0.095
       181  -9.5367     54.6301     36.6320   1.0230709864e+02   6.2015136262e+01    0.2791692    0.1943259  13.79 0.0007656314    1.350    0.259
       182  -9.5090     38.4103     35.3024   1.0816992162e+02   6.4237375874e+01    0.3253981    0.1960187   2.27  0.000628353    1.781    0.439
       183  -8.8640     70.5016     36.0028   9.6335915410e+01   5.9728131706e+01    0.2922819    0.1394225  25.44    0.0012905    2.505    0.601
       184  -7.4494    144.0093     33.9978   7.5842703502e+01   4.4750566391e+01    0.1719161    0.1398604  57.14 0.0003419472    1.090    0.082
       185  -9.2633      7.3410     33.4580   1.2074360482e+02   6.7258966170e+01    0.3545471    0.1999992  -9.26    0.0014319    1.771    0.435
       186  -8.0693     82.1042     32.1420   9.1045996055e+01   5.8256855176e+01    0.1990093    0.1447355  18.05 0.0004575828    1.290    0.225
       187  -7.9642    105.1685     31.7969   8.4174468126e+01   5.3804610312e+01    0.1876759    0.1400169  24.93 0.0009511916    1.292    0.226
       188  -7.2199    155.3658     31.3179   7.2873846776e+01   4.2315612190e+01    0.1487949   0.09464382  36.47 0.0007039157    1.778    0.437
       189  -8.7700    127.8916     30.2342   7.8078827598e+01   4.8991365392e+01    0.2155673    0.1875364   8.12 0.0002299914    1.236    0.191
       190  -7.8469     88.6953     31.0114   8.8584569744e+01   5.7181979854e+01    0.2838716    0.1323638  28.21  0.001175982    2.669    0.625
       191  -9.0835      1.5724     29.8946   1.2214719510e+02   6.8194294290e+01    0.2439985    0.1021732 -47.91  0.001253932    1.837    0.456
       192  -8.4673    112.4081     29.9038   8.1638351248e+01   5.2490257882e+01    0.3346687     0.137674  40.55  0.001369817    2.361    0.576
       193  -9.2481     61.8781     26.9097   9.5894142046e+01   6.2300679767e+01    0.2452363     0.169169  12.83  0.001220916    1.340    0.254
       194  -8.7804     57.6115     25.1495   9.6756572393e+01   6.3167799809e+01    0.2755366    0.1566609  31.09 0.0007673642    1.617    0.382
       195  -9.6520     71.4520     26.0447   9.2213269376e+01   6.0872281565e+01    0.3687847    0.1952824  34.34  0.001417702    1.722    0.419
       196  -8.9990     47.7671     25.9554   1.0083421577e+02   6.4439532619e+01    0.3801026    0.1448359  29.54  0.001671133    2.726    0.633
       197  -8.5327     80.3556     23.3138   8.8258008116e+01   5.9643114522e+01    0.2839564    0.1919008   0.93  0.001630022    1.547    0.354
       198  -8.7836     84.6398     21.6225   8.6293414899e+01   5.9044974690e+01    0.2304356    0.2071498  24.36 0.0007150486    1.151    0.131
       199  -7.2211    123.6863     26.7145   7.7875036125e+01   5.0351971540e+01    0.1391358     0.090416  32.43 0.0003194267    1.580    0.367
       200  -8.6185     92.1453     20.8504   8.3809570058e+01   5.7689669792e+01    0.2891691    0.2199085   2.92  0.001606741    1.319    0.242
       201  -8.8681    230.3405     20.1217   6.0025150750e+01   2.5500545807e+01    0.2659076     0.210452 -36.01  0.001278373    1.494    0.331
       202  -7.5534    130.9559     21.7795   7.4700982299e+01   4.9215111107e+01    0.1755843   0.09568777  57.45 0.0003200262    1.573    0.364
       203  -8.7140    150.7098    249.5636   1.2402262381e+02   1.2107207074e+00    0.2544274    0.1088746  37.84 0.0008064241    2.064    0.516
       204  -7.3220    117.0287     20.0359   7.7163601920e+01   5.2556974884e+01    0.1548017    0.1336116  39.74 0.0003346866    1.022    0.021
       205  -7.8686     45.6110     20.2213   9.9366413919e+01   6.5470512582e+01    0.1611306   0.09276899 -19.96 0.0004867084    1.626    0.385
       206  -7.8027    112.0007     19.4914   7.8153977741e+01   5.3715837254e+01    0.1910104   0.08271628  38.27 0.0004736364    2.316    0.568
       207  -9.6025    209.8182    246.3536   1.1194380346e+02  -8.3256815270e+00    0.2923785    0.1931399   2.04  0.001022838    1.811    0.448
       208  -8.0505    127.6671     16.9164   7.3818178190e+01   5.0465560730e+01    0.1669689      0.15967  23.72 0.0003196619    1.145    0.127
       209  -8.1093     74.3606    247.4073   1.3851934878e+02   1.4028040212e+01    0.2160141    0.1112639  28.19  0.000956719    3.244    0.692
       210  -7.9333    189.5180     15.9656   6.3575468362e+01   3.5647158006e+01    0.1688705    0.1117884  18.36 0.0008100453    2.557    0.609
       211  -8.6415     50.3069     15.0717   9.5381316073e+01   6.5449153461e+01    0.2346429    0.1495103  15.21 0.0009137479    1.414    0.293
       212  -8.3351    146.7279     14.0549   6.9342245807e+01   4.6261756891e+01      0.21884     0.161353  60.27 0.0003540413    1.140    0.123
       213  -7.5384     18.0298    248.0000   1.4837381008e+02   2.1152479204e+01    0.1565227   0.05265918  38.95 0.0007209745    2.858    0.650
       214  -8.3030    242.9779    244.8867   1.0549723804e+02  -1.3229803356e+01    0.2475957    0.1502351 -16.62  0.001432894    1.704    0.413
       215  -9.5934    156.8377    245.4555   1.2222613727e+02   8.3537999378e-01    0.2692886    0.1939484   6.56  0.001422878    2.016    0.504
       216  -7.8651     32.3025    246.6772   1.4592215939e+02   1.9758875524e+01    0.1209209   0.06213604  68.83  0.000310043    1.634    0.388
       217  -7.6246    233.9944    247.2454   1.0754266407e+02  -1.2215131652e+01    0.1571984   0.08777335  34.13 0.0002404219    1.548    0.354
       218  -8.8157    224.9230    244.0232   1.0868690471e+02  -1.0398767325e+01    0.1882021    0.1558061  15.05 0.0004766832    1.042    0.040
       219  -9.0181    176.1545    243.7607   1.1811897739e+02  -2.2572165114e+00    0.2327814    0.1636509  -3.78  0.001222563    2.008    0.502
       220  -7.9818     95.2388    243.8101   1.3420550602e+02   1.1540774924e+01    0.1575394    0.1460792  40.04 0.0007519698    1.367    0.268
       221  -7.8526    233.8145    243.4046   1.0692331771e+02  -1.1677995443e+01    0.1799815   0.09647455  26.37 0.0008905421    1.716    0.417
       222  -7.8513     42.4837    243.5961   1.4394692204e+02   1.9101863235e+01    0.1160494   0.08691381  71.33 0.0001163214    1.031    0.030
       223  -7.5822    114.6494    242.6827   1.3027428266e+02   8.5958967299e+00    0.1210851    0.1012748  10.54 0.0007047501    1.735    0.424
       224  -7.8370     25.7856    241.3745   1.4667332444e+02   2.1543732524e+01    0.1374347   0.09836367  40.86 0.0009492544    1.642    0.391
       225  -8.2674    218.2764    247.3855   1.1050290697e+02  -9.8215636239e+00    0.1283611   0.08426628   3.31 0.0001284277    1.721    0.419
       226  -9.1280    170.6578    239.6332   1.1858226596e+02  -6.1907516657e-01    0.2810602    0.2017952   8.37  0.001235551    1.823    0.451
       227  -8.8602    249.2891    238.4230   1.0323492522e+02  -1.3299079518e+01    0.2578045    0.1662256  -9.44  0.001533859    1.534    0.348
       228  -8.1201    204.7816    231.0032   1.1033748470e+02  -5.1904628609e+00    0.2090842    0.1386328  -3.64 0.0005344073    1.943    0.485
       229  -9.0559    242.3216    236.7722   1.0420753429e+02  -1.2060076028e+01     0.342585    0.2318851  -6.91  0.002058123    1.458    0.314
       230  -9.5174    192.9061    243.6781   1.1479214318e+02  -5.1243555659e+00    0.2917233    0.2030804  26.29  0.001006266    1.305    0.233
       231  -8.2659     79.2184    238.6061   1.3674390959e+02   1.5015812715e+01    0.1698167     0.110557  35.72 0.0009426452    1.720    0.419
       232  -8.1950    231.8927    236.3707   1.0606413954e+02  -1.0419955716e+01    0.1923126    0.1656161 -25.69 0.0006048724    1.326    0.246
       233  -7.5003    148.4777    237.5439   1.2276736804e+02   3.6795004569e+00    0.1348703    0.1143235  43.98 9.326168e-05    1.026    0.025
       234  -7.3695    112.6572    237.6466   1.3005044652e+02   9.8805006618e+00     0.123241    0.1038795   0.84 0.0007040284    1.814    0.449
       235  -7.9391    195.5322    236.0714   1.1302867066e+02  -4.3948806177e+00    0.2082997    0.1494298  34.31 0.0005429651    1.194    0.163
       236  -9.7128    188.5820    234.6874   1.1418440231e+02  -2.9652618464e+00    0.2938719    0.2816108 -67.36  0.001252572    1.322    0.243
       237  -7.3890    129.3617    235.2554   1.2634994001e+02   7.4722939722e+00    0.1274474   0.09980027  20.21 0.0004796551    1.622    0.384
       238  -9.9085    250.1323    232.7165   1.0207270882e+02  -1.2662685843e+01    0.2706625    0.1805806  14.51 0.0004069876    1.368    0.269
       239  -8.2814    162.1057    234.1537   1.1947096314e+02   1.8411974159e+00    0.2056858    0.1667786  23.31 0.0006133023    1.275    0.216
