#   1 NUMBER                 Running object number                                     
#   2 MAG_AUTO               Kron-like elliptical aperture magnitude                    [mag]
#   3 X_IMAGE                Object position along x                                    [pixel]
#   4 Y_IMAGE                Object position along y                                    [pixel]
#   5 X_WORLD                Barycenter position along world x axis                     [deg]
#   6 Y_WORLD                Barycenter position along world y axis                     [deg]
#   7 A_WORLD                Profile RMS along major axis (world units)                 [deg]
#   8 B_WORLD                Profile RMS along minor axis (world units)                 [deg]
#   9 THETA_WORLD            Position angle (CCW/world-x)                               [deg]
#  10 FWHM_WORLD             FWHM assuming a gaussian core                              [deg]
#  11 ELONGATION             A_IMAGE/B_IMAGE                                           
#  12 ELLIPTICITY            1 - B_IMAGE/A_IMAGE                                       
         1 -14.7305    105.7783    105.0124   3.9669467144e+01   4.0472441424e+01      1.55302     1.496727  83.80  0.008154267    1.082    0.076
         2 -14.5956    100.9448     49.7511   2.3413496531e+01   5.2609661668e+01     1.562491     1.009881  32.14  0.005512036    1.811    0.448
         3 -14.1158     64.6311     52.9205   3.7570220790e+01   5.9925200091e+01     3.054577     1.329847 -25.63  0.008225806    5.631    0.822
         4 -14.9996      6.6754     71.3070   7.2168965763e+01   6.2872182910e+01     1.185452      0.82956 -61.87  0.004803668    1.261    0.207
         5 -14.6846    119.6488     54.5274   2.0089540937e+01   4.7304996549e+01     1.139212    0.7037712  49.60  0.001833542    1.543    0.352
         6 -13.0167    135.9466     50.8526   1.5224077661e+01   4.3830043461e+01     1.033637    0.5253947 -35.41  0.004373274    2.047    0.511
         7 -14.7844    166.8796     29.3337   3.7875557618e+00   3.9042758532e+01     1.048441    0.8079752  88.34  0.003653242    1.183    0.155
         8 -15.0594    147.5673     29.5611   6.4955172012e+00   4.3782436789e+01     1.655623    0.7878963  63.14  0.007364606    1.883    0.469
         9 -14.7012    124.2662     36.0903   1.2742426227e+01   4.8847268477e+01      1.57278    0.5627484  49.64  0.005135967    2.709    0.631
        10 -14.1539     41.5856      4.9777   2.4730200461e+01   7.1592438976e+01     1.032056    0.6219122  14.84  0.004539925    1.934    0.483
        11 -13.3660      8.7627      3.0275   4.5377154947e+01   7.6952979053e+01    0.7086301     0.517123  38.36  0.003803326    1.721    0.419
        12 -16.0550     12.0658     22.1187   5.3541874090e+01   7.3371509019e+01     2.128782     1.158242 -23.97     0.010918    1.892    0.471
        13 -14.0116     26.1677     13.5431   3.8933771914e+01   7.3102870333e+01    0.7551509    0.4122613  20.65  0.003508581    1.917    0.478
        14 -15.0148    218.5428     14.9544   3.5554319621e+02   2.9061482593e+01     1.719741      1.17846 -27.21   0.01083564    1.682    0.406
        15 -14.9965    188.7999     20.3196   3.5908542441e+02   3.4917040002e+01      1.68144    0.7748853 -46.27  0.008300453    1.904    0.475
        16 -12.8563    120.5678     26.1104   9.9997000325e+00   5.1020586563e+01    0.7269188    0.4651019  44.29  0.003555421    1.627    0.385
        17 -15.3794     99.5764     12.0261   8.9870789100e+00   5.7797291046e+01     1.573394    0.8471285  59.60  0.003220448    1.557    0.358
        18 -12.3277     85.5486     13.8696   1.3185322486e+01   6.1050846182e+01    0.4400347    0.3554326 -42.90  0.002059923    1.430    0.301
        19 -11.8176     61.3067     14.7063   2.1502014599e+01   6.6496207318e+01    0.5899562    0.2677856  36.56  0.002324625    2.279    0.561
        20 -11.7274     71.0888     16.2038   1.8678701566e+01   6.4174758734e+01    0.3453127    0.2196079 -11.10  0.001731892    1.914    0.478
        21 -11.5948     74.5471     10.3227   1.4706204960e+01   6.4004258887e+01    0.2879508    0.2344137   0.12   0.00103533    1.370    0.270
        22 -13.0895    140.5493     21.2868   4.9649426844e+00   4.6495583241e+01    0.7438415    0.3257059  66.39  0.001539589    1.994    0.498
        23 -11.7522     46.6731     12.7750   2.6824137375e+01   6.9705754169e+01    0.3583241    0.2796238  63.11  0.001517212    1.646    0.392
        24 -12.4585    152.8583      8.7050   3.5953520605e+02   4.4691812216e+01    0.2992862    0.2573454  65.52  0.001888256    1.202    0.168
        25 -12.1826    120.2039      3.0557   1.8520979806e+00   5.3391302420e+01    0.5355864    0.2414096 -85.17  0.002069991    2.979    0.664
        26 -11.0838     67.7378      2.6945   1.2999066389e+01   6.6275619054e+01    0.2983658    0.1690914  35.89  0.001513143    1.719    0.418
        27 -11.7250     80.7706      1.7341   8.8798892129e+00   6.3297901528e+01    0.6707036   0.07192504  59.54  0.001982511    4.374    0.771
        28 -11.4602     61.4692      1.4709   1.4398562668e+01   6.7795212812e+01    0.4068252    0.1108326  59.64  0.001468224    3.167    0.684
        29 -15.4479      8.3825    183.0460   8.3182157115e+01   3.3960875805e+01     1.341022     1.123604 -87.87  0.008537273    1.142    0.124
        30 -14.7481     95.3150    235.1294   6.5773735647e+01   1.2450379590e+01     1.461519    0.8351055  57.63  0.007228058    2.133    0.531
        31 -11.8776     41.0722    248.0237   7.9128019125e+01   1.6555867082e+01    0.4708112    0.2107048 -85.95  0.002351199    2.743    0.635
        32 -13.4872     28.1729    246.5885   8.1833732609e+01   1.8188623999e+01    0.6083128     0.466392  26.32  0.004049365    1.339    0.253
        33 -12.0702      2.7880    249.5312   8.7238419517e+01   2.0044116899e+01    0.3454775    0.1955345  39.19  0.001668848    1.359    0.264
        34 -14.0611      9.3770    245.5301   8.5757128135e+01   2.0215404662e+01    0.9390946    0.3813221  47.47  0.003927119    1.774    0.436
        35 -15.4371     15.3407    175.0027   8.0774991267e+01   3.5361385121e+01     2.463977      1.04803  59.33   0.01043754    2.374    0.579
        36 -10.7732    212.6586    199.6730   3.5259367096e+01   2.1976064811e+00    0.1322068   0.08161841  -5.40 0.0007051331    1.737    0.424
        37 -13.1573    164.3750    195.0542   4.4053503239e+01   9.9503009381e+00      0.54041    0.3605422 -67.97  0.002458378    2.709    0.631
        38 -12.2139    200.9901    191.3074   3.5923312084e+01   5.1181674311e+00    0.3016396    0.2238097  -0.06  0.001354535    1.263    0.209
        39 -12.2209     48.4011    181.6263   7.2012546154e+01   3.0341662471e+01    0.5044898    0.3139739 -47.98  0.002387027    1.846    0.458
        40 -13.1312    198.0459    180.3320   3.4459801896e+01   7.3744380664e+00    0.4747697    0.3661819 -79.50  0.002385398    2.670    0.625
        41 -11.0955    122.2626    181.2565   5.1631271606e+01   1.9582179279e+01    0.3975253    0.2464584  77.06  0.001399099    3.619    0.724
        42 -12.8898    124.3163    166.4468   4.8400199980e+01   2.2528093226e+01    0.7013305     0.456925 -66.40  0.003059286    1.983    0.496
        43 -14.1682     22.3207    180.8837   7.9256521162e+01   3.3281487628e+01     1.000246    0.5152132 -53.11  0.004514077    2.169    0.539
        44 -12.2746     77.1590    157.0257   6.0141984017e+01   3.2693977025e+01    0.4883682    0.3711253  25.49  0.001518431    1.342    0.255
        45 -13.0637     74.0059    153.3113   6.0491911528e+01   3.4121376336e+01    0.7071115    0.5228866  25.53  0.001791823    1.387    0.279
        46 -11.9538    111.6041    155.6667   4.9749709655e+01   2.7286998336e+01     0.594812    0.3712235  75.09  0.002117974    3.037    0.671
        47 -11.4653     55.6117    155.5966   6.6635768770e+01   3.6093759339e+01    0.4013781    0.2591656 -28.19  0.001741946    2.097    0.523
        48 -12.7097    211.0042    154.4756   2.7063354438e+01   9.7403533310e+00      0.39414    0.2463716  24.88   0.00204228    1.875    0.467
        49 -11.6697     85.7335    152.6361   5.6751921776e+01   3.2463142357e+01    0.5708415    0.2776968 -40.18  0.002055588    2.590    0.614
        50 -13.0344      7.9885    148.8561   8.1047725820e+01   4.2603660905e+01    0.6412753    0.4213423  59.78  0.003407249    1.465    0.318
        51 -11.5977    103.5076    149.6852   5.0872037507e+01   3.0171346120e+01    0.3942413    0.2862253 -24.54  0.001351081    1.715    0.417
        52 -11.6032     59.4050    148.7757   6.4398512592e+01   3.7383060671e+01    0.2124208    0.1324154 -54.36 0.0009447419    1.604    0.377
        53 -11.5635    244.2461    146.9832   2.0400323042e+01   5.9269362272e+00    0.1702199   0.08462219 -36.54 0.0008596709    1.628    0.386
        54 -10.6112     38.2256    145.7713   7.0923855317e+01   4.0747721054e+01    0.1975732     0.162209 -37.99 0.0005356127    1.351    0.260
        55 -11.7819     42.8352    138.8892   6.8421469203e+01   4.2073091790e+01    0.3003543    0.2153196   1.18  0.001433054    1.715    0.417
        56 -12.5063    245.8176    134.2005   1.7720145597e+01   7.6257365137e+00    0.3217628    0.2172483 -63.24  0.001798752    2.220    0.549
        57 -11.3935     47.3762    133.0237   6.5939870072e+01   4.3108466094e+01    0.3630753    0.2105589 -76.81  0.001544224    1.852    0.460
        58 -11.6096    138.2830    131.8820   3.7382645536e+01   2.7628248803e+01    0.4018104    0.2730365  18.47  0.001526944    1.927    0.481
        59 -12.5270    222.9123    127.6608   1.9644190272e+01   1.2241729073e+01    0.3112679    0.1921083 -53.05  0.001612911    1.806    0.446
        60 -10.9949      5.4080    128.8560   8.0249171089e+01   4.8016147444e+01    0.2760893    0.1366848 -40.32  0.001212113    2.284    0.562
        61 -13.9554    104.9433    122.2563   4.4367627628e+01   3.6578262677e+01      1.67173     1.113099  36.24  0.007282541    1.499    0.333
        62 -12.4830    109.3054    242.6933   6.3413759232e+01   9.2005513595e+00    0.3352678    0.2241299  35.90  0.001481606    1.230    0.187
        63 -14.3773     18.2715    110.7739   7.3411316821e+01   5.1951900607e+01      1.11997    0.8131062  -8.67  0.004949833    1.593    0.372
        64 -14.0363     10.8899    102.8458   7.5299203942e+01   5.4557146900e+01     0.835533    0.7555637  36.39  0.004241595    1.210    0.174
        65 -13.6545      2.3685     97.0334   7.8108999694e+01   5.6541698636e+01     1.101762    0.3896015 -76.82  0.003845494    2.577    0.612
        66 -14.6379     25.3480     93.9222   6.7670487866e+01   5.5812514025e+01     1.693914    0.9833778   0.14  0.007582419    2.103    0.525
        67 -12.0559    229.8423    118.2659   1.6695278438e+01   1.2588382363e+01    0.2632143    0.1220645 -47.35  0.001222016    2.068    0.517
        68 -13.2838     32.2515    112.4540   6.8145428844e+01   5.0284822275e+01    0.8328124    0.3593866 -55.30   0.00333749    2.064    0.516
        69 -12.0880     78.6784    110.5034   5.0113469545e+01   4.4376920244e+01    0.3992638    0.2761656 -67.82  0.001655254    1.647    0.393
        70 -12.8847     84.9558    115.0299   4.9049133533e+01   4.2129705555e+01     1.010288    0.5636973  22.34  0.003597345    2.296    0.564
        71 -11.7446     88.5141    109.5470   4.6466327599e+01   4.2827539387e+01    0.5168082    0.3123551 -63.35  0.001969876    1.943    0.485
        72 -11.5079      2.0021    114.0476   8.0104887669e+01   5.2108090259e+01    0.2061585    0.1808686 -74.23  0.000443754    1.012    0.012
        73 -10.7414    195.3127    113.3163   2.0924508530e+01   1.9681341839e+01    0.1377432    0.1072103  -0.83 0.0007034676    1.642    0.391
        74 -11.3794     45.8540    110.1077   6.2351368991e+01   4.9398467288e+01    0.6326171    0.2696739 -36.13  0.002044404    3.400    0.706
        75 -10.4020     42.9651    107.0406   6.2876175836e+01   5.0554884716e+01    0.2100793    0.1703232  60.16 0.0004881981    1.363    0.266
        76 -11.9158    121.6855    111.9576   3.6855985336e+01   3.5531937204e+01    0.3072835    0.2327144  49.92 0.0006792996    1.336    0.252
        77 -12.0474     62.7553    108.8799   5.5554804059e+01   4.7395101319e+01    0.7035325    0.3408444 -66.12  0.002581916    2.385    0.581
        78 -12.4184    135.9720    102.9567   3.0663607424e+01   3.4345746584e+01    0.5608253    0.3192003  51.04  0.001619533    1.794    0.443
        79 -12.9601    120.5393    102.4856   3.4632584064e+01   3.7873564326e+01    0.6301996    0.3283969  45.24  0.002443969    1.898    0.473
        80 -10.6992     64.6669    101.7054   5.3088200681e+01   4.8926260047e+01    0.2087735    0.1496164 -40.99 0.0002668201    1.429    0.300
        81 -12.0328     61.3946     97.9436   5.3409948597e+01   5.0383125053e+01    0.5086228    0.3951354  74.47    0.0017418    1.632    0.387
        82 -12.0453     48.8961     93.0892   5.7291120695e+01   5.3409816267e+01    0.8848065     0.519026 -42.19  0.002590806    1.728    0.421
        83 -10.9514     48.5116    100.9919   5.9331016580e+01   5.1442179933e+01    0.2813513    0.2452348 -46.94  0.001080516    1.106    0.096
        84 -12.2824     52.2764     98.0275   5.7098328353e+01   5.1697196182e+01    0.7973174    0.4192879   6.56  0.002771969    3.124    0.680
        85  -9.9506     75.2781    100.6719   4.8818124281e+01   4.7411765201e+01    0.1545689    0.1227072  78.03 0.0004377399    1.595    0.373
        86 -11.8501    249.0281     99.0212   1.0387323864e+01   1.2356223225e+01    0.1986763    0.1244781 -58.29  0.001147869    1.732    0.423
        87 -12.4117    163.9810     97.3245   2.2838288196e+01   2.9166763030e+01     0.329964    0.2704164  53.85 0.0006036723    1.259    0.206
        88 -12.7977    137.2648     95.0536   2.8176684231e+01   3.5669348974e+01    0.4959451    0.3893265  69.28  0.001291411    1.426    0.299
        89 -13.0998     28.9285    121.6354   7.0870924720e+01   4.8148532602e+01    0.5727854    0.3707634 -57.09  0.002669928    1.438    0.304
        90 -10.7602     58.9471    125.1524   6.0423855175e+01   4.3695550113e+01    0.2242108    0.1972534  74.48 0.0004828783    1.199    0.166
        91 -11.9234     43.0246     90.4214   5.9149085087e+01   5.4840203528e+01    0.4485011    0.2584787 -66.42  0.001104879    1.829    0.453
        92 -11.6922    181.1173    120.4773   2.5151487983e+01   2.1195212001e+01    0.2367763    0.1968196 -58.94    0.0011582    1.294    0.227
        93 -12.4895      4.3181    119.3587   7.9757649452e+01   5.0585566493e+01    0.5756491    0.3797562  -7.95  0.002976707    1.823    0.451
        94 -12.2885     36.8292     92.8273   6.2410968954e+01   5.4953661153e+01     0.492012    0.3056433   6.22  0.001564366    1.916    0.478
        95 -13.2101    188.5322     83.9838   1.5061121397e+01   2.6106218745e+01    0.6532994    0.3410588  47.13  0.002105583    2.178    0.541
        96 -12.1106    158.8501     64.9743   1.5055688255e+01   3.6007239616e+01    0.7999426    0.2694138 -48.61  0.002585678    3.404    0.706
        97 -13.3477    164.5913     71.0762   1.5721223111e+01   3.3650860366e+01     1.245357    0.4134734  50.81  0.004289228    3.076    0.675
        98 -13.3651    160.5044     80.8751   1.9157316619e+01   3.2942408954e+01     0.905163    0.5865828  16.46  0.002294964    2.970    0.663
        99 -14.2552    169.5985     76.8637   1.6394440803e+01   3.1522465309e+01     1.443191    0.5712751  55.71  0.005483545    2.543    0.607
       100 -13.2091    237.5321     79.9813   7.7663805700e+00   1.7055883597e+01    0.4337873    0.3016303 -82.77   0.00258232    1.763    0.433
       101 -11.0430     98.0509     83.7185   3.5920280944e+01   4.6849880556e+01    0.2257323    0.2006006  46.06 0.0008339031    1.102    0.093
       102 -12.4500     39.3744     67.5290   5.4537148751e+01   6.0850306171e+01     2.268499    0.4790667  26.86  0.006115635    5.218    0.808
       103 -13.6938    171.0545    242.2010   5.0084538685e+01   1.1454427054e+00    0.7484569    0.3928278  23.62  0.004082302    1.619    0.382
       104 -12.4114    147.5138    238.8451   5.4521618735e+01   4.7403716582e+00    0.2610728    0.2282957  80.69  0.001016125    1.777    0.437
       105 -13.7312     74.7519     73.5739   4.0927532454e+01   5.3793065144e+01     1.593208    0.8075211  20.55   0.00504219    3.629    0.724
       106 -13.6162     87.3830     65.2378   3.3393365226e+01   5.2931640227e+01    0.8726372    0.6066592  -9.85  0.001833157    2.066    0.516
       107 -13.0919     55.4505     80.7363   5.1134116729e+01   5.5501315660e+01     0.594742    0.4209149 -24.21  0.002077849    1.621    0.383
       108 -13.9307     61.1458     75.8804   4.7209514599e+01   5.5722011696e+01    0.9030272    0.5919392 -36.67  0.001941222    1.596    0.374
       109 -12.3355    214.4361     71.5050   8.5375624155e+00   2.2653855232e+01    0.3815684      0.23396 -70.27  0.001885351    1.953    0.488
       110 -12.4845    216.7677     80.6778   1.0318466780e+01   2.0821608285e+01    0.5714355    0.3672987 -30.37  0.002420435    1.563    0.360
       111 -12.4947    210.5176     77.6398   1.0421366046e+01   2.2521548942e+01    0.5932851    0.3283976 -65.98   0.00267807    2.395    0.582
       112 -11.8541    114.1501     79.8420   2.9803971396e+01   4.4051627133e+01    0.5030843    0.3408744 -51.04  0.002248001    1.574    0.365
       113 -12.7728    135.1467     79.2394   2.4147014059e+01   3.9231493994e+01    0.8462609    0.3985603  55.79  0.003169824    2.166    0.538
       114 -13.0414     21.3281     86.2110   6.7968457494e+01   5.8138851994e+01     0.843183    0.4925799   2.04  0.002795167    1.996    0.499
       115 -13.1580     25.2456    217.2850   8.0913531338e+01   2.4513974925e+01     1.174295    0.2279024  43.14  0.004343532    3.277    0.695
       116 -14.3027      6.2683     63.2940   7.0762539393e+01   6.4848757335e+01     0.834288    0.5550848  15.46  0.004606773    1.606    0.377
       117 -11.3905     42.5032     79.4759   5.6542782781e+01   5.7619484423e+01    0.2879233    0.2282899 -30.91 0.0009801461    1.252    0.201
       118 -11.4222     41.7710     75.9905   5.5904773322e+01   5.8553544309e+01    0.3468975    0.1977035 -55.59  0.001405518    1.691    0.408
       119 -13.0290    187.8635     78.1780   1.3728511648e+01   2.7199136277e+01    0.3429969    0.2885466   9.51   0.00189557    1.582    0.368
       120 -11.5242     27.4389     76.3244   6.2857480083e+01   6.0079358909e+01    0.3030709    0.2476205  88.07  0.001169738    1.461    0.316
       121 -13.7366    198.6761     70.1851   1.0222341251e+01   2.6112029779e+01    0.8775491    0.4756922  47.09  0.003107549    2.244    0.554
       122 -11.8519    100.3412     64.4043   2.8837988343e+01   5.0205537586e+01    0.3766492    0.3346239  -3.28  0.001744577    1.258    0.205
       123 -13.0256     78.8619     60.2352   3.4671245114e+01   5.5699665920e+01    0.7538186     0.529682 -49.13  0.003610615    1.556    0.357
       124 -12.1881     82.8661     54.8381   3.1184130630e+01   5.5859045003e+01    0.5198364    0.3173348 -10.32  0.001955304    2.906    0.656
       125 -11.8459     38.8913     59.8359   5.2281543486e+01   6.2652850388e+01    0.4310831    0.2834111  54.56  0.002002765    2.123    0.529
       126 -11.1796     34.5527     60.7613   5.4823879775e+01   6.2991828506e+01    0.3841471    0.1754257 -49.57  0.001634411    2.015    0.504
       127 -12.3984     35.3456     54.9222   5.2427166103e+01   6.4185302362e+01    0.3859978    0.2735056 -19.46  0.000960409    1.479    0.324
       128 -13.7804    177.7699     56.8457   9.7719700788e+00   3.2775856977e+01     0.866645    0.5324836 -51.94  0.002675582    1.567    0.362
       129 -12.0010     24.8307     59.3477   5.9558092441e+01   6.4377659564e+01    0.4993839    0.2428459 -45.59  0.001815434    1.852    0.460
       130 -14.3330     26.7168    225.9693   8.1066991442e+01   2.2501517477e+01     1.340047    0.4036203 -60.44   0.00550985    3.650    0.726
       131 -14.2367     20.7012    224.5462   8.2375295886e+01   2.3398156295e+01    0.8475779    0.5509917  57.81  0.005165324    1.282    0.220
       132 -12.1985    144.7396    233.0271   5.4325747923e+01   6.0825483200e+00    0.4270641     0.192531 -40.27  0.002002725    2.527    0.604
       133 -13.2467     57.5930    202.2183   7.1631148979e+01   2.4304992990e+01     1.327381    0.5488028 -66.92  0.005609625    2.537    0.606
       134 -13.0985     64.4225    224.1465   7.1998836047e+01   1.8637301989e+01     0.829409     0.358895  42.08  0.003830707    1.892    0.471
       135 -13.2546    113.6115     38.0236   1.5776298805e+01   5.1263629992e+01    0.4240393    0.3490888  81.75  0.001516039    1.250    0.200
       136 -12.5318    248.0681     52.3953   1.1504236281e+00   1.8936235684e+01    0.5884692    0.2670717 -36.69  0.003177857    1.817    0.450
       137 -10.7671     47.3139     56.2998   4.6809264386e+01   6.2220374524e+01    0.2812441    0.1585597  51.75  0.001160917    2.476    0.596
       138 -11.3793     17.4970     54.8485   6.2313789932e+01   6.6073299449e+01    0.3058807    0.2068298 -66.05  0.001626567    1.563    0.360
       139 -11.6257    231.1115     54.9607   3.1385342779e+00   2.1711843797e+01     0.284131    0.1643011  87.97  0.001546083    2.069    0.517
       140 -12.9916    133.8805     66.1291   2.0469876599e+01   4.1883570724e+01    0.8361781    0.6863163  23.34  0.003463547    1.486    0.327
       141 -12.4567    154.5372     46.5049   1.0478442130e+01   3.9839972784e+01    0.4446222    0.2510877  58.98  0.002060196    1.685    0.406
       142 -13.2733    158.4741     43.0236   8.8368977809e+00   3.9351742883e+01    0.6286344    0.4907312  56.22  0.002536303    1.311    0.237
       143 -11.2986     38.8051     46.1810   4.7276331286e+01   6.5546115920e+01    0.1971459    0.1503452 -10.92  0.001066769    1.332    0.249
       144 -13.3047      6.0681     43.1271   6.5767582688e+01   6.9528460432e+01     1.124357     0.607206  -1.12  0.005159509    1.948    0.487
       145 -12.9943     68.5913    220.9814   7.0690805706e+01   1.8781080485e+01    0.5631387    0.3848769  85.96  0.003083018    1.728    0.421
       146 -13.9576     64.1200    214.5779   7.1176910904e+01   2.0720237712e+01    0.5160587    0.4873391  87.04  0.002723186    1.165    0.141
       147 -13.3821     59.3407    212.9573   7.2219295127e+01   2.1669641530e+01     0.556264    0.3624659  -8.68  0.001180705    2.435    0.589
       148 -11.0829    248.7380    224.7672   3.3378652476e+01  -5.4571410833e+00    0.1485673   0.07817651  36.55 0.0008916113    2.410    0.585
       149 -13.0438     94.9203    218.4034   6.3966554229e+01   1.5809610372e+01     0.495287    0.2753126  26.45  0.002384205    1.658    0.397
       150 -14.6530    211.9433     40.8554   1.8239864558e+00   2.7387239797e+01     1.967377    0.6332099  77.65  0.006977162    4.408    0.773
       151 -13.2293     57.2393    246.8075   7.5497481716e+01   1.4973202605e+01    0.6110798    0.3767905  21.42  0.003258628    1.636    0.389
       152 -12.2094     40.4444     40.2862   4.3930981946e+01   6.6451832199e+01    0.5705486    0.2873369  34.69   0.00261053    1.911    0.477
       153 -13.0582     32.7936     40.1664   4.8145341132e+01   6.7560724586e+01    0.4118749    0.3141315   9.86  0.001194697    1.253    0.202
       154 -10.3022    169.6470     42.7186   7.1214708708e+00   3.6680057035e+01    0.1347548    0.1019223  39.73 0.0004652811    1.656    0.396
       155 -13.1643     74.6476     36.9182   2.6920838345e+01   6.0632655806e+01    0.7208816    0.3316306  52.98  0.001927476    2.140    0.533
       156 -13.1523    242.7069     35.5584   3.5818486678e+02   2.1995225445e+01    0.5516229    0.4018568  87.93  0.002701456    1.408    0.290
       157 -12.0923    104.9994     35.6466   1.7011336765e+01   5.3722356488e+01    0.4927786     0.224575 -21.42  0.001819132    3.118    0.679
       158 -10.7924      5.5823    219.2550   8.5589878072e+01   2.5913785761e+01    0.1552665    0.1026555 -74.12 0.0007839171    1.601    0.375
       159 -13.1307     56.3926     27.1864   2.9876859277e+01   6.5868241275e+01    0.7490879    0.3088258  46.49  0.001923259    2.241    0.554
       160 -11.6642     64.5005     24.9587   2.5363311309e+01   6.4529844806e+01    0.3348701    0.2431892 -39.83  0.001434009    1.573    0.364
       161 -12.2862     30.7623     25.3519   4.2484699475e+01   7.0549462670e+01    0.4229482    0.2450951  19.54  0.001561501    1.781    0.439
       162 -11.4181     35.7983     23.0305   3.8278242767e+01   7.0170580258e+01    0.3208713    0.2178952 -20.37  0.001436165    1.523    0.344
       163 -11.7114     85.5419    215.3566   6.5917984152e+01   1.7738282087e+01    0.2625795    0.1971329  39.97  0.001200903    1.150    0.131
       164 -12.9584      5.0770    210.8643   8.5363980119e+01   2.7783932983e+01    0.4594627    0.2106887 -73.95  0.002350871    2.159    0.537
       165 -10.3650     60.3273     18.3225   2.3752062304e+01   6.6270161122e+01    0.1869856    0.1180396  37.16 0.0009586876    1.440    0.306
       166 -12.7728     72.1615    206.6461   6.8318157633e+01   2.1434384226e+01    0.3227879     0.268456  38.38  0.001888004    1.063    0.060
       167 -10.8858    136.5242    210.9830   5.2977680928e+01   1.1223077964e+01      0.19081    0.1357892 -48.38  0.000950848    1.584    0.369
       168 -11.2072     40.5184    210.9789   7.6763910984e+01   2.4308231612e+01    0.1751614   0.09324252 -47.28 0.0008093463    2.459    0.593
       169 -12.2832     46.4093    208.7176   7.5102901565e+01   2.4154269110e+01    0.4915272    0.2168741  77.68  0.001876222    3.341    0.701
       170 -11.1521     80.7750    208.5709   6.6331911354e+01   1.9849962895e+01    0.2067031    0.1076046  40.70 0.0008557189    1.661    0.398
       171 -12.6618    110.1521     41.9402   1.8042591291e+01   5.1570729120e+01    0.5327504    0.2341003  55.75 0.0009256424    2.050    0.512
       172 -10.8417    124.0748     11.4845   4.2271978435e+00   5.1669027210e+01    0.2136334    0.1184288  71.21   0.00102662    1.575    0.365
       173 -13.6191     16.2103    197.0966   8.1953468018e+01   2.9944656677e+01    0.7985162    0.2774937 -57.93  0.003260718    3.143    0.682
       174 -11.9555     48.2789     19.8865   2.9946050318e+01   6.8468392571e+01    0.6299576    0.2255282  47.50  0.002491748    2.660    0.624
       175 -12.6424     46.0188     33.3262   3.7835769878e+01   6.6802064175e+01    0.5402364     0.414149  -8.01  0.003021982    1.349    0.259
       176 -10.8517    151.0023    206.4932   4.8956351894e+01   9.8873048608e+00     0.201772    0.1095329  10.54 0.0008106416    2.622    0.619
       177 -12.3044     36.7645     34.2158   4.3246783170e+01   6.8122133123e+01    0.5973627    0.3090999   8.34  0.002190819    3.520    0.716
       178 -13.8271     40.6563    196.1778   7.5527470657e+01   2.7703730929e+01    0.9162046    0.4634219  56.33  0.004104583    1.947    0.486
       179 -14.4524     30.1838    168.9634   7.6009318350e+01   3.5518435820e+01     2.321636     1.221583 -38.74  0.004201399    2.589    0.614
