#   1 NUMBER                 Running object number                                     
#   2 MAG_AUTO               Kron-like elliptical aperture magnitude                    [mag]
#   3 X_IMAGE                Object position along x                                    [pixel]
#   4 Y_IMAGE                Object position along y                                    [pixel]
#   5 X_WORLD                Barycenter position along world x axis                     [deg]
#   6 Y_WORLD                Barycenter position along world y axis                     [deg]
#   7 A_WORLD                Profile RMS along major axis (world units)                 [deg]
#   8 B_WORLD                Profile RMS along minor axis (world units)                 [deg]
#   9 THETA_WORLD            Position angle (CCW/world-x)                               [deg]
#  10 FWHM_WORLD             FWHM assuming a gaussian core                              [deg]
#  11 ELONGATION             A_IMAGE/B_IMAGE                                           
#  12 ELLIPTICITY            1 - B_IMAGE/A_IMAGE                                       
         1 -14.1480      7.6932    208.2090   2.9291951671e+02   5.3160314232e+00    0.2393061    0.1969836 -53.77    0.0282004    1.183    0.154
         2 -14.9877     16.5315    166.9593   2.9257453529e+02   5.7425559883e+00    0.3711409    0.1497215 -77.40   0.02339998    4.637    0.784
         3 -13.5409      5.6521     15.5133   2.9179872753e+02   7.5556510080e+00    0.1677584   0.03969443 -57.98   0.01136017    3.537    0.717
         4 -13.2047    190.6250     28.4747   2.8976430298e+02   6.3376966439e+00   0.05818282   0.05506748 -27.97  0.005964396    1.079    0.073
         5 -13.6881    204.3143      9.6509   2.8949568700e+02   6.4753387584e+00   0.08278759    0.0576845 -25.69   0.00862694    1.724    0.420
         6 -10.4724     81.8422    242.5234   2.9227808857e+02   4.4925996446e+00   0.02037627   0.01097392  59.13  0.001727622    2.604    0.616
         7 -10.8154    249.1278    249.0179   2.9041430687e+02   3.4516415660e+00   0.01558958   0.01449716  88.37  0.001936615    1.110    0.099
         8 -10.5870    139.6352    250.0898   2.9166525745e+02   4.0719202305e+00   0.01194574   0.01128176 -86.90  0.001491276    1.078    0.072
         9 -10.7068    125.1935    249.6788   2.9182712039e+02   4.1599844712e+00   0.01653901  0.007920831  37.30  0.001487149    2.055    0.513
        10 -11.1492    101.9757    247.2994   2.9207721890e+02   4.3213632186e+00   0.01588288   0.01179773  37.69 0.0009043125    1.357    0.263
        11  -9.3893     67.0681    250.4994   2.9249348472e+02   4.4853903939e+00  0.009733431  0.006442575  28.63 0.0006866964    1.528    0.345
        12 -11.3866     28.3626    248.9108   2.9292472409e+02   4.7263487317e+00   0.03887789    0.0136762  33.05  0.003082457    2.669    0.625
        13 -11.0066     36.0454    243.6135   2.9280593630e+02   4.7434886442e+00   0.02034274    0.0151314 -10.90  0.001631189    1.625    0.384
        14 -10.1097     11.3065    249.1656   2.9312042190e+02   4.8213610299e+00   0.01399813   0.01245541   8.45  0.001698111    1.187    0.158
        15 -11.5430     12.6561    241.0987   2.9305740494e+02   4.9069556201e+00   0.02866905   0.01823177  74.94  0.002700558    2.187    0.543
        16 -10.8337      3.1458    248.6705   2.9321041563e+02   4.8739327082e+00   0.02640977   0.02256711  32.56  0.002517773    1.186    0.157
        17 -11.2784      3.7759    240.8014   2.9315677477e+02   4.9613723907e+00   0.02898438   0.02307663  12.59  0.002006317    1.359    0.264
        18  -9.3136    182.7098    238.6735   2.9110757577e+02   3.9551852352e+00  0.006874661  0.004823964 -31.80 0.0003191214    1.616    0.381
        19 -10.7056    233.1482    235.8910   2.9051773542e+02   3.6957212608e+00   0.01679606   0.01029471  82.32  0.001505535    2.401    0.584
        20 -12.2814     22.6262    201.2346   2.9270807521e+02   5.3109633532e+00   0.03749917    0.0136703  42.60  0.002879992    2.913    0.657
        21  -9.6829    175.9882    250.0000   2.9125127483e+02   3.8630889279e+00   0.01097475  0.003749571  26.96 0.0008087539    2.986    0.665
        22 -12.9362      3.2768    181.6115   2.9281246334e+02   5.6491484882e+00    0.1051324      0.03786 -60.78  0.006845055    2.604    0.616
        23  -9.4107    162.1299    249.1767   2.9140397812e+02   3.9526383841e+00  0.009329403   0.00768432  65.59 0.0005755505    1.336    0.251
        24 -11.3193     66.3547    198.5619   2.9219395695e+02   5.0903576776e+00    0.0209785   0.01195568 -42.06  0.001481455    1.882    0.469
        25  -9.7822    192.2937    193.8125   2.9073183368e+02   4.4183248212e+00   0.03023053   0.01360078 -84.72  0.001771114    5.570    0.820
        26  -9.0639     51.4907    197.1495   2.9235494955e+02   5.1922570292e+00  0.009229035  0.008594851  36.55  0.000581814    1.091    0.084
        27 -11.5507     71.7854    190.7578   2.9208579429e+02   5.1493657993e+00   0.01517514   0.01159369 -42.35 0.0006891284    1.334    0.250
        28  -9.8818    229.8139    230.4437   2.9052321713e+02   3.7779462185e+00   0.01370805  0.008826239 -88.02  0.001317316    2.005    0.501
        29  -8.3603    103.8591    179.8670   2.9165570521e+02   5.0904634065e+00  0.008607951  0.007272822  62.89 0.0009993889    1.277    0.217
        30 -10.6988     81.0018    178.0958   2.9190562997e+02   5.2427374454e+00    0.0122654    0.0106842 -43.08  0.000353149    1.149    0.130
        31 -13.0636     68.3412    175.8828   2.9203678360e+02   5.3412789651e+00    0.0279452   0.01356024 -41.19  0.002017629    2.352    0.575
        32  -8.6077    171.1745    173.1731   2.9084930955e+02   4.7790496601e+00  0.008687424  0.007423503  61.92 0.0002901688    1.254    0.203
        33  -8.8670    250.7538    171.9849   2.8993710676e+02   4.3320390156e+00  0.008595168  0.005468919 -62.13 0.0003744988    1.535    0.348
        34 -11.7480     88.1838    168.3758   2.9176605991e+02   5.3137690679e+00   0.03274924   0.02905266  29.82   0.00399647    1.146    0.127
        35 -12.4229     41.2221    233.3284   2.9268615903e+02   4.8327299474e+00   0.01896752   0.01403092 -41.72 0.0007556332    1.390    0.281
        36 -10.7125    189.9471    153.4791   2.9051835137e+02   4.8980605089e+00   0.02351062   0.01330956  65.24  0.001391372    2.644    0.622
        37  -9.6664    184.0640    147.3177   2.9054860010e+02   5.0033182508e+00   0.01452803  0.009557098  74.21  0.001045884    2.040    0.510
        38  -9.7436    100.0785    152.4787   2.9153601478e+02   5.4290225055e+00   0.01271758   0.01218899  48.42 0.0007543633    1.064    0.060
        39 -11.9573     88.7739    151.8414   2.9166108566e+02   5.5015961787e+00   0.01386419   0.01141043 -34.41 0.0005490216    1.275    0.216
        40 -12.3763     67.1046    144.0852   2.9186205638e+02   5.7161966857e+00   0.03853038   0.02711654  70.95  0.003995539    1.764    0.433
        41  -8.9214    102.9174    148.0512   2.9147732962e+02   5.4638411199e+00    0.0107612  0.007447185 -29.51 0.0006698241    1.684    0.406
        42  -8.4972    192.0215    143.9805   2.9043813332e+02   4.9958163074e+00  0.007937406     0.007142 -62.40 0.0003818954    1.089    0.082
        43  -9.1107    180.1283    142.9811   2.9056756094e+02   5.0762144209e+00   0.01013378  0.008417304  67.43 0.0005071425    1.325    0.245
        44  -9.4832    110.6328    137.3739   2.9132586751e+02   5.5427718122e+00   0.01548887  0.008634599 -30.81  0.001135717    2.397    0.583
        45  -8.5934     87.4850    137.0434   2.9158779968e+02   5.6801568199e+00  0.009079614  0.006426115 -66.76 0.0003182209    1.417    0.294
        46 -14.7534     47.4684    225.9094   2.9257111771e+02   4.8826471479e+00    0.3214822    0.1060779  27.02  0.008466453    3.080    0.675
        47 -10.4000     98.3136    134.6098   2.9144986029e+02   5.6458320261e+00   0.01282033  0.009984353 -35.16 0.0002958655    1.364    0.267
        48 -10.6198    173.6543    222.2293   2.9111285699e+02   4.1976042944e+00   0.02228904    0.0150454  63.14  0.002259835    1.813    0.449
        49 -10.5437    162.5279    126.9497   2.9067244426e+02   5.3633372915e+00   0.04249258   0.01784754  57.93  0.002573768    5.188    0.807
        50 -11.4791     57.3991    130.7002   2.9189321405e+02   5.9268974619e+00   0.07033898   0.02727223 -78.99  0.003587466    7.172    0.861
        51 -10.2784    151.7386    229.0125   2.9140247328e+02   4.2457736436e+00    0.0128555  0.007988104  42.33  0.001295932    1.652    0.395
        52  -9.4371    107.6605    123.9721   2.9127998728e+02   5.7148755243e+00   0.00946022  0.008720127  -7.91  0.000317084    1.142    0.124
        53  -8.7071    152.4805    212.9257   2.9129848083e+02   4.4274951826e+00  0.009392662   0.00636694 -63.01 0.0003738253    1.448    0.309
        54  -9.7521     31.7782    206.6135   2.9263562985e+02   5.1961286176e+00   0.02075702  0.008930696  46.64  0.001436758    2.684    0.627
        55 -10.4123    168.0200    113.1413   2.9052755891e+02   5.4911176478e+00   0.01534282    0.0119541  63.93 0.0007878095    1.447    0.309
        56  -9.2487    203.1866    111.5843   2.9011782021e+02   5.3054174590e+00  0.008830276   0.00639002   7.17 0.0005458897    1.605    0.377
        57 -10.0467     34.1369     92.8751   2.9193381350e+02   6.4981489028e+00   0.02504662  0.009643704  43.15  0.001964867    2.787    0.641
        58  -9.0405    156.3117     76.2972   2.9044114153e+02   5.9845257812e+00  0.006787707  0.004894443 -28.09 0.0003217612    1.599    0.375
        59  -9.8150     16.4723     66.1506   2.9197657946e+02   6.9086105403e+00   0.01251539  0.009005858  38.81 0.0005840433    1.404    0.288
        60 -10.7679      5.7389     62.5896   2.9207801954e+02   7.0114330647e+00    0.0122469   0.01094918  31.47 0.0006896704    1.136    0.120
        61 -10.0340      1.8277     61.5908   2.9211676872e+02   7.0454371440e+00   0.01259088  0.009602938 -88.75 0.0009599238    1.497    0.332
        62  -8.7237     32.2083     62.0027   2.9177213563e+02   6.8660469641e+00  0.008903082  0.008437779 -60.29 0.0002938121    1.033    0.032
        63  -8.6539     23.8736     58.6491   2.9184738291e+02   6.9527369493e+00  0.009527063  0.005549832  39.70 0.0004636915    1.732    0.423
        64 -11.5511     10.8526     54.2754   2.9197012088e+02   7.0781174250e+00   0.02666472   0.01463266  48.36  0.002242649    2.040    0.510
        65 -10.4446     81.2801    248.4817   2.9231976947e+02   4.4269133086e+00   0.01591924   0.01208644  86.08  0.001521405    1.536    0.349
        66  -9.4855     46.8885    248.9073   2.9271378731e+02   4.6199003437e+00   0.01401152  0.008319393  63.95   0.00109183    2.318    0.569
