#   1 NUMBER                 Running object number                                     
#   2 MAG_AUTO               Kron-like elliptical aperture magnitude                    [mag]
#   3 X_IMAGE                Object position along x                                    [pixel]
#   4 Y_IMAGE                Object position along y                                    [pixel]
#   5 X_WORLD                Barycenter position along world x axis                     [deg]
#   6 Y_WORLD                Barycenter position along world y axis                     [deg]
#   7 A_WORLD                Profile RMS along major axis (world units)                 [deg]
#   8 B_WORLD                Profile RMS along minor axis (world units)                 [deg]
#   9 THETA_WORLD            Position angle (CCW/world-x)                               [deg]
#  10 FWHM_WORLD             FWHM assuming a gaussian core                              [deg]
#  11 ELONGATION             A_IMAGE/B_IMAGE                                           
#  12 ELLIPTICITY            1 - B_IMAGE/A_IMAGE                                       
         1 -12.3743    192.8008     51.6843   3.5896311304e+01   3.1043252133e+01     17.39922     2.852779 -49.56   0.02643112   19.837    0.950
         2 -12.6067    219.0852     34.6427   2.9208778920e+01   2.7740769264e+01     1.825423    0.5325906 -45.29   0.00791594    2.848    0.649
         3 -11.6893    214.4864     25.6139   2.7819377650e+01   2.9786338994e+01    0.4763248    0.3071362 -55.92  0.001704959    1.362    0.266
         4 -14.0332    228.8646     92.2965   3.9921752549e+01   1.7281790018e+01      6.72682     1.696131 -51.82  0.007787291    5.803    0.828
         5 -14.3864    241.7960     63.2975   3.2595450615e+01   1.9384355405e+01     4.836493     1.213183  66.32   0.01704408    5.104    0.804
         6 -14.1908    220.7076     78.4001   3.8092821396e+01   2.1138552258e+01     4.030064      3.40605  89.34   0.02291716    1.172    0.147
         7 -13.0468    249.5307     40.9291   2.7694327944e+01   2.1051684563e+01     1.763816     0.312263 -38.23   0.00612031    5.023    0.801
         8  -9.9158    128.3407     15.9694   3.6455389979e+01   5.0003891746e+01    0.3643559    0.2403009 -47.18  0.001173968    1.757    0.431
         9 -10.3225    133.9901     18.7278   3.6285549578e+01   4.8445419596e+01    0.4348657    0.2473206 -16.85  0.002143949    2.384    0.581
        10 -11.0529    204.8323     21.6413   2.7910560027e+01   3.2259613606e+01      1.23706    0.7995874 -46.75   0.00624006    1.483    0.326
        11 -10.2819    231.8845     33.4909   2.7806231136e+01   2.5336081566e+01     2.448376    0.8518702 -47.67   0.01056159    2.366    0.577
        12 -10.3790    243.8170     20.6693   2.4491156007e+01   2.4618791215e+01    0.2635533    0.1675902 -40.58 0.0006885448    1.611    0.379
        13  -9.4847     79.0505     13.4963   4.6810594321e+01   6.0937163767e+01    0.3375159    0.1766709 -17.78 0.0007076411    2.279    0.561
        14  -9.1661     90.2302     11.2148   4.2928168332e+01   5.8845309197e+01    0.2573621    0.1906624 -11.10  0.001110117    1.562    0.360
        15 -12.0037    248.6068      5.6059   2.1559405158e+01   2.5431108866e+01    0.4113691    0.2895632 -17.99  0.002060411    2.625    0.619
        16 -10.0680    120.1590      9.0833   3.5822974853e+01   5.2477951331e+01    0.3085729    0.2708948 -38.81  0.001081166    1.351    0.260
        17  -9.3807    142.5996      8.2783   3.1988559140e+01   4.7453627501e+01    0.1959032    0.1682371   4.00  0.001313666    1.515    0.340
        18  -8.6858    182.6511      3.3570   2.6091843594e+01   3.8925478827e+01    0.2853755    0.1710411 -83.41    0.0016943    1.534    0.348
        19  -7.8516    158.3325      4.2730   2.8890837941e+01   4.4238520572e+01    0.1196605   0.07760379  50.70 0.0002349225    1.595    0.373
        20  -8.3615    136.6609      3.7891   3.1600798627e+01   4.9185643141e+01    0.1564014    0.1039044 -42.84 0.0004207742    1.715    0.417
        21  -8.4038    236.2663      2.9938   2.1864489979e+01   2.7997604059e+01    0.2086821    0.1176715  75.55  0.001379611    1.615    0.381
        22 -13.5803    181.9212     79.9209   4.4257812922e+01   2.9078651472e+01     2.450594     2.094949  46.98  0.002065168    1.292    0.226
        23  -8.7603    187.8786      9.0186   2.6839670041e+01   3.7242001618e+01    0.1720395    0.1419121 -87.67 0.0003461984    1.047    0.045
        24  -8.4335    128.5738      8.2997   3.4141943348e+01   5.0642775693e+01    0.2114229    0.1144399 -32.74  0.001140443    2.123    0.529
        25  -7.8884    201.8519    181.6508   6.3191109238e+01   5.3509660874e+00    0.1818892    0.1298546  46.43 0.0005462774    1.670    0.401
        26  -8.6751    135.6906    249.8575   8.9516375566e+01   2.3684016419e+00    0.2562293    0.1478224  51.76 0.0009764314    2.107    0.525
        27  -9.3627    213.2921    176.2408   5.9877640459e+01   4.5457422598e+00    0.3246407    0.2412656 -11.14 0.0008748547    1.447    0.309
        28 -10.5783    222.7233    176.6385   5.8203517420e+01   2.9885626047e+00    0.4368798    0.2774979 -18.33  0.002156347    1.803    0.445
        29 -10.0390    238.3353    175.6067   5.5266559366e+01   8.4556094793e-01    0.3363411    0.2540278  69.70  0.001360937    2.348    0.574
        30  -9.7035    228.6708    171.3273   5.6096777574e+01   3.0559095339e+00    0.3590909    0.2506351 -62.56  0.001832531    2.012    0.503
        31 -10.3911    230.8447    168.1274   5.5089486513e+01   3.3093942996e+00    0.6628836    0.2320916 -49.58  0.002381272    3.232    0.691
        32  -9.8363    249.4576    169.4588   5.2277646959e+01   3.4192934422e-01    0.3089731    0.1387443 -46.14  0.001444679    2.001    0.500
        33  -7.4662    189.3377    170.6944   6.3535455457e+01   9.6862922388e+00    0.1404478    0.1183845 -89.03  0.000326584    1.674    0.403
        34  -7.9970    172.2970    170.6959   6.7247202659e+01   1.2750225205e+01    0.1430268    0.1216232 -89.85 0.0005112009    1.583    0.368
        35 -10.2727    191.2713    247.8770   7.7309152080e+01  -5.1513334706e+00     0.231229    0.1940081 -12.85  0.000379649    1.129    0.115
        36  -9.4617    157.8954    246.9254   8.4218820001e+01  -3.2725738600e-01     0.251231    0.2019992  33.23 0.0004717534    1.197    0.165
        37  -9.3170    159.2063    242.2151   8.3216164221e+01   3.3390140729e-01    0.2290551    0.2039373  24.83  0.000372198    1.127    0.113
        38  -8.3994    160.1656    237.8339   8.2323076533e+01   9.9896871679e-01    0.1910083    0.1686105  28.25 0.0003351108    1.147    0.129
        39  -8.2498    130.9625    236.9375   8.8752350445e+01   5.5656647023e+00    0.2169328    0.1577556  62.63 0.0005772536    1.778    0.437
        40 -10.8424    194.9822    158.0345   5.9715104995e+01   1.1278917997e+01    0.8573608    0.5530325 -68.45  0.003558952    2.508    0.601
        41 -12.0235     14.0511    146.2754   1.0700785004e+02   4.2791831370e+01     1.349585    0.5118995 -53.44  0.005687578    2.237    0.553
        42  -8.9316    218.5751    172.2528   5.8094321789e+01   4.4601515803e+00    0.2121285    0.1989069 -22.91 0.0004886524    1.133    0.118
        43  -8.1657    104.1086    157.9072   8.2007412332e+01   2.8359815664e+01    0.2011644    0.1718842 -29.37  0.000984075    1.235    0.190
        44  -7.8228    137.8423    157.6214   7.2773162200e+01   2.2224245812e+01    0.2151397    0.1446269  49.63 0.0004725824    1.630    0.387
        45  -9.8642     65.4884    143.7236   9.0745600539e+01   3.8077553660e+01     3.069563    0.7745444  39.63  0.009009462    4.007    0.750
        46 -12.5513     30.7339    149.4695   1.0243833823e+02   4.0570059677e+01    0.8157268    0.7281817 -46.23  0.001964838    1.140    0.123
        47 -12.3386     41.8993    145.9492   9.8500817853e+01   4.0369266617e+01    0.8750797    0.8395164 -59.74  0.002828378    1.067    0.063
        48 -12.7217    236.5421     72.7532   3.5012763393e+01   1.8954895065e+01    0.7156196    0.5515296 -69.14  0.002636771    1.150    0.130
        49  -8.3995    204.0267    151.7004   5.6594503397e+01   1.0923343367e+01    0.1983294     0.190616   6.34  0.001171456    1.121    0.108
        50  -9.2100    164.5507    149.1991   6.4357347268e+01   1.8944969372e+01    0.3512161     0.253147 -66.05  0.001155254    1.731    0.422
        51  -9.3888    134.0222    147.2467   7.1461113062e+01   2.5429992067e+01    0.8293952    0.2769464 -55.82   0.00225725    3.987    0.749
        52  -7.9563    150.1111    153.1468   6.8690334484e+01   2.0893745575e+01    0.2059767    0.1872133  84.88 0.0003470196    1.281    0.220
        53  -8.6641    173.7031    149.4061   6.2334268570e+01   1.7104376299e+01    0.2124465    0.1449341  28.89 0.0009514594    1.675    0.403
        54  -9.0231    223.8654    145.9960   5.1830302812e+01   8.5518087240e+00    0.3608484    0.2608817 -83.05   0.00160036    2.270    0.559
        55  -9.2597    217.7227    145.1249   5.2707228602e+01   9.7758388088e+00     0.342191     0.253779 -15.76 0.0009044216    1.592    0.372
        56 -10.3664    214.1151    140.3687   5.2341408506e+01   1.1326347359e+01    0.4081128    0.3392612 -87.29   0.00155937    1.554    0.357
        57  -9.3600    192.4619    144.0197   5.7193407146e+01   1.4615928603e+01    0.2681708    0.2239907  43.42 0.0006096593    1.305    0.234
        58 -10.9377    181.3913    140.1939   5.8609256369e+01   1.7557731399e+01    0.7176492    0.5114191  86.50   0.00306252    2.308    0.567
        59  -8.7568    159.0325    142.3027   6.4076116576e+01   2.1578050192e+01    0.3011155    0.2210614 -36.83  0.001074036    1.352    0.260
        60  -8.8087    202.0560    141.3095   5.4740319383e+01   1.3352450086e+01    0.2542653    0.1883492 -63.81 0.0008363816    1.588    0.370
        61 -10.1244    180.3648    136.6936   5.8031845055e+01   1.8495256949e+01    0.4284524    0.3192382 -88.59  0.001412857    1.985    0.496
        62  -9.1775    147.4133    149.3856   6.8514868961e+01   2.2291852933e+01    0.2890216    0.2200007  85.55  0.001066278    1.909    0.476
        63  -9.5583    144.9698    138.8266   6.6692236552e+01   2.5213000253e+01    0.5922265    0.2686954 -64.36  0.001402892    5.938    0.832
        64  -8.9679    195.1145    138.0913   5.5364937009e+01   1.5312860267e+01    0.2850133    0.1881711 -48.05  0.001358101    1.422    0.297
        65  -7.4866    224.2686    138.3354   5.0182984246e+01   9.9168982704e+00    0.1350876   0.09963972 -18.42 0.0004564142    1.592    0.372
        66  -9.8803    175.0130    127.8118   5.7111933978e+01   2.1438799853e+01    0.6209405    0.3133584 -59.40  0.001704166    2.812    0.644
        67  -9.5594    159.8672    128.6723   6.0676310933e+01   2.4404738059e+01    0.5706204    0.2734286 -33.98  0.002014205    2.524    0.604
        68  -9.4713    135.9066    127.6170   6.6320269018e+01   2.9633084129e+01    0.5296676    0.1962408 -51.89  0.001468982    2.976    0.664
        69  -9.5916    153.9243    159.1985   6.9091440296e+01   1.8765483960e+01    0.4600546    0.3148959 -73.76  0.001874395    2.199    0.545
        70  -9.4738    223.4839    128.6713   4.8301385220e+01   1.1851048380e+01    0.2770404    0.2261955   5.05 0.0004615873    1.601    0.375
        71  -8.0508    196.6271    129.1466   5.3088466868e+01   1.6808239941e+01    0.2165359    0.1270567 -33.68 0.0009448783    1.771    0.435
        72  -7.5940    215.7005    126.6626   4.9154938919e+01   1.3644126333e+01    0.1374864    0.1059174 -12.53 0.0007034492    1.660    0.398
        73  -8.9377    201.8868    125.8105   5.1374867455e+01   1.6434502655e+01    0.2508383     0.189208 -57.62 0.0005344283    1.343    0.255
        74  -7.5107     91.4841    126.5500   7.8858365791e+01   3.8428409286e+01    0.1545402    0.1486942 -29.01 6.225996e-05    1.005    0.005
        75  -9.2071    167.6227    124.4146   5.7906293003e+01   2.3688856694e+01    0.3145595    0.2409894 -65.36  0.001332414    1.490    0.329
        76  -8.8783    226.3103    122.6797   4.6605305896e+01   1.2442235637e+01    0.2770462     0.171988 -57.47  0.001350445    1.689    0.408
        77  -9.2071    222.6332    118.4977   4.6301586698e+01   1.3871929092e+01    0.4067552    0.2127286 -59.09  0.001480304    2.365    0.577
        78  -8.0073    205.6366    121.8797   4.9839490492e+01   1.6461778421e+01    0.2005907    0.1187884 -51.00 0.0004097248    1.614    0.380
        79  -8.3447     55.2456    122.0734   8.9741007268e+01   4.4985768357e+01    0.2188902    0.1771785 -35.16  0.001144795    1.198    0.165
        80  -9.7500    169.5640    118.5764   5.6082055543e+01   2.4493901252e+01    0.4113045    0.2712846 -42.14 0.0009052593    1.459    0.315
        81  -8.1737    188.6490    235.8170   7.5880801797e+01  -2.7632254846e+00     0.166418    0.1203918 -48.43 0.0003246946    1.652    0.394
        82  -8.7941    201.2218    116.2611   4.9366814478e+01   1.8402085080e+01    0.2949302    0.1922006 -77.66  0.001262065    2.394    0.582
        83  -9.5927    135.0000    112.0113   6.2609316926e+01   3.3293688757e+01     0.450105    0.1916454 -43.77  0.001592063    2.332    0.571
        84  -9.9725    134.6332    105.4858   6.0990578897e+01   3.4763313204e+01    0.7129168     0.173617 -43.06  0.001920891    4.139    0.758
        85 -10.9869    136.2163     99.8660   5.9085075905e+01   3.5582072169e+01    0.7584954    0.4920218  74.53 0.0009029776    2.457    0.593
        86 -10.0019    205.4450    109.9350   4.7228465372e+01   1.8745890109e+01    0.4201324    0.3774613   1.86  0.001982023    1.374    0.272
        87  -9.8428    207.6960    104.3926   4.5627801501e+01   1.9309938072e+01    0.2815335    0.2189472 -54.69 0.0003549671    1.179    0.152
        88  -7.8797     86.0304    112.5612   7.7151655844e+01   4.2746356103e+01    0.1990575    0.1281457  59.20 -7.39014e-06    2.194    0.544
        89  -9.3837    196.7228    110.5990   4.8883794862e+01   2.0384928912e+01    0.3768577     0.255303  -9.28  0.001596117    2.580    0.612
        90 -11.1534    121.7339     98.4809   6.2529628174e+01   3.8986374399e+01     1.097131    0.7209423 -81.77  0.004005757    3.010    0.668
        91 -11.0863    122.6619    103.2675   6.3584689863e+01   3.7784843120e+01    0.6256296    0.3811091  58.81  0.002186145    2.047    0.511
        92 -10.0387    170.3224    105.1308   5.2643300866e+01   2.7031472826e+01    0.4046278    0.3012702 -62.27  0.001483048    1.461    0.316
        93  -8.1662    143.7284    107.2211   5.9162452156e+01   3.2428688444e+01    0.2070129    0.1809249   3.65 0.0006011832    1.322    0.243
        94 -10.2864     74.8663    105.8082   7.9146963828e+01   4.6173817085e+01    0.2582921    0.2271813 -37.54 0.0002676834    1.076    0.070
        95  -9.5791    150.0835    104.3758   5.6902713088e+01   3.1622386152e+01    0.4947336     0.312566  38.14   0.00215389    1.729    0.422
        96 -10.0055    160.5102    100.4906   5.3555792727e+01   3.0093826394e+01    0.4742883    0.2627757  41.60  0.001968911    1.973    0.493
        97 -10.0541    163.5327     99.5147   5.2660712434e+01   2.9614477394e+01    0.3595339    0.3138354 -55.17 0.0009944014    1.126    0.112
        98  -7.8677     74.6927    100.3142   7.7754617094e+01   4.7470698923e+01    0.1436299    0.1196431  76.56 0.0004322655    1.625    0.385
        99 -10.2075    168.9435     97.6920   5.1080150326e+01   2.8766915161e+01    0.4113273    0.3361267 -43.12  0.002155164    1.201    0.167
       100 -10.0890    144.8447     95.0476   5.5682172227e+01   3.4638849862e+01    0.3563976    0.3212014  70.59  0.001661825    1.154    0.134
       101 -10.2062    124.3924    107.2609   6.4184544997e+01   3.6565281593e+01    0.3856345    0.3084823 -75.51  0.001247009    1.572    0.364
       102 -11.0418    161.1421     91.3494   5.1080464910e+01   3.1695575718e+01    0.3559144    0.3131261 -53.74 0.0006990173    1.120    0.107
       103  -9.7777    139.1912     88.8036   5.5341914985e+01   3.7102292230e+01    0.4610383    0.2249094 -61.52  0.001399759    4.057    0.754
       104  -9.4631    134.7831     90.0197   5.6758877144e+01   3.7849929429e+01    0.2181818    0.1681932  75.79 0.0004768062    1.600    0.375
       105  -9.9149    125.2073     87.9142   5.8629434883e+01   4.0360439851e+01     0.553539    0.2078042 -46.82  0.001880452    2.863    0.651
       106  -9.2049    130.0445     88.4888   5.7531250637e+01   3.9190929968e+01    0.2333648     0.145438  48.48 0.0007652198    1.578    0.366
       107  -8.0990    118.0185     87.0107   6.0317029280e+01   4.2085750679e+01    0.1784483     0.170247 -27.94 0.0009733085    1.064    0.060
       108  -8.5732      4.3113     80.6756   1.0018680508e+02   5.9441331545e+01    0.1161254   0.09458779  69.14 0.0004505969    1.657    0.396
       109  -9.5953    141.0504     79.0422   5.2204669600e+01   3.8477982676e+01    0.4367039    0.2118494  54.76   0.00132803    2.070    0.517
       110  -8.6953    224.0363    229.9437   6.7837885439e+01  -6.5067725017e+00    0.2123433    0.1277515 -10.51 0.0008440528    1.740    0.425
       111  -9.9215    125.3985     71.5856   5.3848606086e+01   4.3302175408e+01    0.4954049    0.2813852 -33.88  0.002085627    1.923    0.480
       112  -9.7955    155.0089     71.0392   4.7002419763e+01   3.6657684594e+01    0.2912244    0.2348255 -47.50 0.0005258623    1.262    0.208
       113  -9.3741    151.1676     71.1775   4.7824441736e+01   3.7516760165e+01    0.2557377    0.2495341  70.94 0.0003749364    1.050    0.047
       114 -10.3712    143.8138     60.1074   4.6293405125e+01   4.0972665029e+01    0.4122137    0.3439011  31.13  0.002174864    1.349    0.259
       115  -8.4556    130.7914     66.3398   5.0984071016e+01   4.2969082449e+01    0.1945936    0.1800991 -55.77 0.0006499637    1.147    0.129
       116 -13.0152    244.0544     70.3625   3.3722174046e+01   1.7922054157e+01     2.169916    0.3771085 -48.64  0.005948446    5.257    0.810
       117  -7.7990    149.6623     63.7276   4.6098691151e+01   3.9063446182e+01    0.1404412    0.1062237  30.56 0.0002883146    1.604    0.377
       118  -9.4316    135.1121     61.8551   4.8677053194e+01   4.2702091368e+01    0.2666796    0.2266444  47.19 0.0007829223    1.128    0.114
       119 -10.0324    134.3147     56.4846   4.7291181884e+01   4.3704327224e+01    0.3329386     0.238823 -48.86 0.0006846558    1.522    0.343
       120  -8.0406    125.4732     62.4563   5.1114002164e+01   4.4794228582e+01     0.141397    0.1325209  52.47 0.0001036173    1.017    0.017
       121  -8.4354     73.0025     59.2680   6.5809968793e+01   5.6021292721e+01    0.3262428    0.1729174 -43.39  0.001033439    2.014    0.503
       122  -8.6432    207.8968     59.9559   3.5780105810e+01   2.6603677964e+01    0.1915162    0.1624297 -66.38 0.0003581019    1.039    0.038
       123  -8.9494    111.9473     52.0345   5.1300608967e+01   4.9390560114e+01    0.2002082    0.1847002  43.93            0    1.026    0.025
       124  -8.0457     27.8044     51.7649   8.1986445702e+01   6.3677590829e+01    0.1505338    0.1410159 -18.91 0.0003030384    1.297    0.229
       125  -9.5258    160.7016    164.4735   6.8607926387e+01   1.6278737243e+01    0.2704532    0.2537276 -51.82 0.0002499601    1.115    0.103
       126  -9.6352    199.1839     44.4724   3.3450601419e+01   3.0642145143e+01    0.4072063    0.1740478 -40.37  0.001904568    2.224    0.550
       127  -9.2898    133.1240     46.5142   4.4618278385e+01   4.5395894573e+01    0.2559375    0.1918475 -46.36 0.0008951116    1.459    0.315
       128  -8.3819    104.3500     45.8096   5.1293537958e+01   5.1926255245e+01    0.1813948    0.1280156 -18.13 0.0004976293    1.651    0.394
       129 -11.5644    134.8512     39.6514   4.2243754766e+01   4.5895711136e+01    0.5890763    0.3953779  82.12   0.00195762    1.756    0.430
       130  -9.5490    110.8227     41.2001   4.8093226104e+01   5.1135604103e+01    0.2644112    0.2243263 -44.28  0.001569192    1.342    0.255
       131 -10.0555     23.5342    163.0790   1.0626446936e+02   3.7696930307e+01    0.3178491    0.2225204  56.87  0.001709402    1.514    0.340
       132  -8.3829    192.2007     39.5510   3.3197712214e+01   3.2809878110e+01    0.1885897    0.1528527 -39.32  0.001178767    1.368    0.269
       133  -8.2804    205.0026     37.3348   3.1219638520e+01   3.0328374535e+01    0.1680631    0.1330637  88.88 0.0004333135    1.109    0.098
       134  -8.8255    190.0726     35.3839   3.2508648253e+01   3.3806301213e+01    0.1921358    0.1748153 -24.87 0.0005395167    1.418    0.295
       135  -8.5097    171.2009     33.1129   3.4414010450e+01   3.8315591522e+01    0.2634225    0.1403005 -31.79  0.001311766    2.136    0.532
       136  -8.9198    166.2364     32.9226   3.5068191228e+01   3.9471574926e+01    0.1944418    0.1596364 -73.72 0.0007724172    1.179    0.152
       137  -9.6566    127.7004     22.6811   3.8583566126e+01   4.9484615066e+01    0.2437288    0.2283339  22.41 0.0004333583    1.212    0.175
       138 -10.1183    127.4275    229.8730   8.8532469620e+01   7.5431960043e+00    0.2606623    0.2377069 -38.04  0.000619824    1.179    0.152
       139 -10.5034    132.5553     29.4497   3.9686526853e+01   4.7641377470e+01    0.4431783    0.2175582 -26.62  0.002070191    2.452    0.592
       140 -10.0723    133.9959     24.7142   3.8029079160e+01   4.7828939690e+01    0.3066569     0.248755  12.02  0.001861704    1.556    0.357
       141  -9.5277    240.5328    229.0973   6.4664104038e+01  -8.3774075667e+00    0.2082777    0.1843394 -52.37  0.001401196    1.790    0.441
       142  -7.6289     53.4606     32.5741   6.3397799595e+01   6.3409756822e+01    0.1284587    0.1032238  11.90 6.319823e-05    1.030    0.029
       143 -10.2523    145.2934     30.1896   3.7617442494e+01   4.4618828934e+01    0.3190895     0.211844 -10.25 0.0009958068    2.176    0.540
       144  -7.8905     86.6870     29.1914   5.0490775527e+01   5.7744774193e+01    0.1709704    0.1155839 -12.93 0.0009333168    1.712    0.416
       145  -8.3482    164.5218     27.5017   3.3940828100e+01   4.0496159076e+01    0.1829529    0.1320932  50.13 0.0006012776    1.460    0.315
       146  -7.9494    167.7199     26.6618   3.3290091873e+01   3.9861582940e+01    0.2250507    0.1648527  47.37 0.0007646882    1.522    0.343
       147  -9.0713     78.3229     27.2216   5.2309093462e+01   5.9643390174e+01    0.3159957    0.1625971 -23.14   0.00154806    2.247    0.555
       148  -8.0817    159.6994     27.3046   3.4578937359e+01   4.1623482110e+01    0.1522846    0.1250859 -21.57 0.0002117644    1.521    0.342
       149  -8.8445    158.1678     24.1655   3.3987161061e+01   4.2322793475e+01    0.2163656    0.1722847 -39.88 0.0005741459    1.400    0.286
       150  -9.2889     79.3622    221.5729   9.8824386292e+01   1.6521257920e+01    0.2460365    0.2267779 -31.33  0.000487023    1.264    0.209
       151  -8.8903     92.0762     25.2140   4.7519987720e+01   5.7080126682e+01    0.1922111    0.1738262  10.40 0.0004315248    1.155    0.134
       152  -9.8926    237.0849     24.0529   2.5605832528e+01   2.5488080103e+01    0.1995389    0.1425024 -51.21 0.0003556559    1.276    0.216
       153  -8.9770    224.8421    218.5897   6.5690447296e+01  -4.7517973115e+00    0.2736591    0.2040649  54.31    0.0013566    2.299    0.565
       154  -9.0412    150.9305    216.9401   8.0993381545e+01   6.5230919490e+00     0.208657    0.1918754   6.67  0.000320741    1.013    0.013
       155  -9.1698    239.0735     18.7248   2.4484378461e+01   2.5735418057e+01    0.1671876    0.1397637 -60.74 0.0003334364    1.246    0.197
       156 -12.4720    202.3513     84.5084   4.2019009295e+01   2.3889910027e+01      2.11399     1.140212  35.55  0.008413229    3.275    0.695
       157  -8.1663    148.6130     17.7742   3.3690829115e+01   4.5184062030e+01    0.1644212    0.1111239 -45.73 0.0008800557    1.614    0.381
       158  -8.6849     36.4845    214.4903   1.0823016484e+02   2.3579139194e+01    0.1312398    0.1129253  75.76 1.005433e-05    1.003    0.003
       159  -9.1805    188.7497    210.1888   7.1375432569e+01   1.8910651118e+00    0.3856978     0.278517  66.23    0.0016635    2.572    0.611
       160  -8.7169    208.0172    206.9544   6.6822405404e+01  -3.9669914938e-01    0.3811128    0.2401372  61.92  0.001498859    3.959    0.747
       161  -9.1269     11.1712    203.3833   1.1315192481e+02   2.8743704829e+01    0.2104412    0.1637529 -60.05 0.0007047341    1.366    0.268
       162  -9.6560    195.4790    199.4591   6.7961349813e+01   2.9038497428e+00    0.4043751    0.2211521 -53.18  0.001493575    2.225    0.551
       163  -9.1809    190.9886    191.4814   6.7365846631e+01   5.1841752661e+00    0.4387526    0.2737777 -69.95  0.001645384    3.498    0.714
       164  -7.4582     78.3238    198.3214   9.6033649997e+01   2.2209840674e+01    0.1461459    0.1104773 -26.68 0.0007046451    1.679    0.404
       165  -8.7292    210.3435    190.3215   6.3212479045e+01   2.3353852133e+00    0.1454482   0.09753184  -9.76 0.0005632758    1.728    0.421
       166  -8.3674    222.9905    188.5087   6.0461117483e+01   7.6495057303e-01    0.2845686    0.1456217 -16.05  0.001040967    3.478    0.712
       167  -8.6731     14.7842    187.9332   1.1105915820e+02   3.2175170664e+01    0.1846061    0.1507246 -64.21 0.0003831786    1.217    0.178
       168  -9.3804    242.2435    182.8113   5.5980704475e+01  -9.7140473945e-01    0.3518042    0.1816075 -28.23  0.001159783    1.913    0.477
