#   1 NUMBER                 Running object number                                     
#   2 MAG_AUTO               Kron-like elliptical aperture magnitude                    [mag]
#   3 X_IMAGE                Object position along x                                    [pixel]
#   4 Y_IMAGE                Object position along y                                    [pixel]
#   5 X_WORLD                Barycenter position along world x axis                     [deg]
#   6 Y_WORLD                Barycenter position along world y axis                     [deg]
#   7 A_WORLD                Profile RMS along major axis (world units)                 [deg]
#   8 B_WORLD                Profile RMS along minor axis (world units)                 [deg]
#   9 THETA_WORLD            Position angle (CCW/world-x)                               [deg]
#  10 FWHM_WORLD             FWHM assuming a gaussian core                              [deg]
#  11 ELONGATION             A_IMAGE/B_IMAGE                                           
#  12 ELLIPTICITY            1 - B_IMAGE/A_IMAGE                                       
         1 -12.3383     30.0253     86.5961   1.2896143763e+02   5.5178536926e+01     2.095791       1.2767  68.02   0.01028925    2.979    0.664
         2 -11.2838    101.1895     43.4720   9.3095356438e+01   5.3221058412e+01     1.617786     1.016691  47.24   0.00832407    1.579    0.367
         3 -10.8235    121.7322     38.5139   8.5966216572e+01   4.9643652513e+01     1.385791    0.8222176   9.14  0.005814163    2.659    0.624
         4 -11.5436     51.9277     36.9453   1.0678178870e+02   6.2192316174e+01     2.170588     1.799997 -84.41   0.01295871    2.441    0.590
         5 -12.2827     58.0387     69.4238   1.1534253486e+02   5.5751720183e+01     1.636299     1.228852 -72.74  0.005881036    1.903    0.474
         6 -11.8788    130.3240     20.3044   7.7897356521e+01   4.9890178792e+01     1.128483    0.4527927  53.73  0.003084645    2.103    0.524
         7 -12.2022    148.4531     16.0038   7.3041904443e+01   4.6094849934e+01     1.663581     0.830874 -32.08  0.006952598    2.168    0.539
         8 -12.3576    135.8641      5.4237   7.1946966923e+01   5.0039695174e+01     4.237562     2.040233 -86.57   0.01236044    6.519    0.847
         9 -13.1721     91.5116     20.6452   8.7492329789e+01   5.8017622507e+01     1.981532    0.5770659 -20.12  0.005424796    7.105    0.859
        10 -11.5722    113.7324      9.1264   7.7626315372e+01   5.4661463184e+01     1.230759     0.579372  47.84  0.006041535    1.777    0.437
        11 -11.5859     40.6713     64.5861   1.1989716757e+02   5.8659455236e+01     5.526871     2.575102  52.88   0.01851505    6.566    0.848
        12 -12.5763    120.6886     15.4691   7.8316509212e+01   5.2546571746e+01     1.479111    0.2387751  55.23  0.004588924    4.239    0.764
        13 -13.3503     99.9138      6.6169   7.9934876732e+01   5.7768953544e+01    0.6632092    0.3844733 -31.50 0.0009185051    1.927    0.481
        14 -11.7996     93.2058      8.4809   8.2352010234e+01   5.8933098481e+01    0.4997979     0.305858  45.99 0.0005444033    1.417    0.294
        15 -12.2192    164.2275     63.0141   8.4164522300e+01   3.6049339614e+01      3.08783     1.076453  39.94  0.008301979    4.838    0.793
        16 -12.2457     38.0974     46.6656   1.1534724712e+02   6.2196801471e+01     1.066238    0.8173446  61.30  0.006435143    2.374    0.579
        17 -10.9192    107.8666     32.5501   8.7413524965e+01   5.3364741139e+01    0.9473581     0.658247 -43.25  0.005123173    1.686    0.407
        18 -12.5478     71.3035     30.9974   9.7716844915e+01   6.0271675241e+01     1.829152    0.9432822  39.73  0.009532984    1.909    0.476
        19 -10.5322     54.4496     18.0100   9.8416401621e+01   6.4480414999e+01    0.4638267    0.2914451   8.30  0.002458248    1.610    0.379
        20 -11.0139     78.4089      7.0208   8.5899043312e+01   6.1831442598e+01    0.6298268     0.407286   1.56  0.003220012    1.564    0.360
        21 -12.4796     19.1175     13.6589   1.1088919237e+02   6.9135557696e+01    0.7789186    0.4988922 -34.52  0.005085764    1.357    0.263
        22 -10.6656     26.0000      5.2476   1.0421413979e+02   6.9543310118e+01    0.5560827    0.2923321 -15.39  0.003398187    1.814    0.449
        23 -11.9921     29.5840     25.4841   1.1115572771e+02   6.6456524964e+01     1.477434    0.4818569 -36.99  0.006859978    2.600    0.615
        24 -11.4495     69.1725      4.3652   8.7613021189e+01   6.3679178704e+01    0.7124881    0.3415523  35.41  0.003859073    1.846    0.458
        25 -12.0382     57.2123      4.0352   9.1435664444e+01   6.5626203470e+01    0.7227162    0.3957905  51.77  0.004047223    2.336    0.572
        26 -12.4177     41.5413     17.1098   1.0294570418e+02   6.6293451939e+01     1.213821    0.5061657 -32.45    0.0064151    2.148    0.534
        27 -11.7912     50.1014     11.1013   9.7092327392e+01   6.5908058977e+01    0.4580422     0.291469  25.80  0.001491628    1.421    0.296
        28 -12.5710     20.4532     42.9370   1.2093483307e+02   6.4440963429e+01    0.6434081    0.4663753 -74.78 0.0007903209    2.309    0.567
        29 -13.2630      5.5085     14.5817   1.1739819023e+02   7.0087488315e+01      1.27221    0.4987444 -37.50  0.004685433    1.904    0.475
        30 -11.3145      2.7181      3.0571   1.1397885624e+02   7.1895691323e+01    0.3036124    0.1908357   8.46  0.001362917    1.509    0.338
        31 -12.3271    112.2817     21.7602   8.2460189091e+01   5.3712574136e+01    0.6656677    0.5622898  80.19   0.00401609    1.494    0.331
        32 -10.5336    161.7498     39.3901   7.7707187517e+01   4.0137234364e+01    0.5611585    0.2994633 -22.98  0.002407627    2.280    0.561
        33 -12.1444     68.8061     20.2699   9.4330241485e+01   6.2042498681e+01     1.241525    0.4728216  31.11  0.004633419    3.138    0.681
        34 -11.3100    184.8119     25.9157   7.0111132984e+01   3.6100948013e+01    0.7283034    0.4806895  10.94  0.002525283    2.457    0.593
        35 -10.1039    190.3254      8.5056   6.4816880009e+01   3.6652352579e+01     0.361967    0.1974148  53.16  0.001444453    1.776    0.437
        36 -11.0238    214.9523     22.1828   6.5308242992e+01   2.9150456325e+01    0.6877214    0.4465379 -64.19  0.003488835    1.528    0.346
        37 -10.7283    212.3973     14.4752   6.3764563962e+01   3.0661697483e+01    0.6508411    0.3835484 -41.33  0.002761683    1.703    0.413
        38  -9.7681    217.7811     14.0986   6.3105069226e+01   2.9417753188e+01    0.3333621    0.2949327  12.90  0.002084823    1.579    0.367
        39  -9.3408    221.4176     10.6993   6.1959132307e+01   2.8938930513e+01    0.4375138     0.192816 -58.41  0.001241609    2.453    0.592
        40 -10.1524    196.7960      3.5527   6.2833161058e+01   3.5574314804e+01    0.5908382    0.3833706 -56.34  0.003296091    1.572    0.364
        41 -11.6096    204.2652      6.4035   6.2717070716e+01   3.3486747427e+01    0.5182222    0.3546152  55.28   0.00139391    1.488    0.328
        42 -11.8147    209.9361      3.8619   6.1529712572e+01   3.2389630669e+01    0.5440156    0.3381903  88.91 0.0005397084    1.474    0.322
        43 -10.1012    230.8714     18.8649   6.2855269026e+01   2.5780929236e+01     0.511258    0.3573327 -34.50  0.002945437    1.571    0.364
        44 -11.1102    222.7274      2.1691   5.9929255798e+01   2.9551180932e+01    0.5256026    0.2606129  80.79  0.001215658    1.828    0.453
        45  -9.6737    229.8262      3.5598   5.9602491353e+01   2.7762412892e+01    0.3363259    0.2109134  38.04  0.001734615    2.515    0.602
        46 -11.3338    232.5709     11.1643   6.1001159062e+01   2.6289630992e+01    0.8177131    0.3808953 -83.78 0.0006279114    2.533    0.605
        47 -10.7141    244.8583     19.8053   6.1726374472e+01   2.2471286566e+01    0.4914087    0.3095351  82.52  0.002057984    1.457    0.314
        48 -10.8935    202.3907     19.0520   6.6017207815e+01   3.2565722574e+01    0.4756846    0.3682553  46.86  0.001701244    1.462    0.316
        49 -10.2713    169.8483     13.6979   6.8927840645e+01   4.1142199473e+01    0.2770755    0.2173941 -60.28 0.0001795943    1.377    0.274
        50 -11.6218    164.3592      6.9604   6.7823063110e+01   4.3135350815e+01    0.8251366     0.475633 -24.70  0.003283855    2.013    0.503
        51 -10.5192    156.9970     16.9239   7.1862698930e+01   4.3945384810e+01    0.6646999    0.3029332 -26.79   0.00295669    2.455    0.593
        52  -9.9915    185.8859     14.5603   6.6942678199e+01   3.7111998733e+01    0.5255848    0.2724698  55.57  0.001912565    1.764    0.433
        53 -10.4802    243.0978     12.3707   6.0318809248e+01   2.3758609794e+01      0.43862    0.2847734 -38.10  0.002359727    1.594    0.373
        54  -9.1001    241.9455      1.5119   5.8166211146e+01   2.5241076482e+01    0.2484643    0.1448736  87.15  0.001016609    1.510    0.338
        55 -10.5412    248.3423      7.4223   5.8861381790e+01   2.3165960565e+01    0.5835112    0.2981482 -36.32  0.002624054    1.978    0.494
        56  -9.5186    245.4192      3.7554   5.8349385661e+01   2.4223884069e+01    0.2827244    0.2233969  34.46  0.001285998    1.965    0.491
        57  -8.9409    180.5665      8.1567   6.5940866794e+01   3.9071262361e+01    0.4436657    0.2180499 -26.26  0.001381812    2.353    0.575
        58  -9.9692    171.0500      1.3549   6.5343207463e+01   4.2021038959e+01    0.2649427    0.1058914  68.60   0.00114652    2.124    0.529
        59  -9.8207    173.6833      8.8826   6.7049955510e+01   4.0682821632e+01     0.240091    0.2010266 -56.60 0.0006425192    1.277    0.217
        60 -10.2480    175.3082      4.1957   6.5560337818e+01   4.0731135736e+01    0.7088988    0.1882168  62.46  0.002662485    2.832    0.647
        61 -10.3764    162.9079     16.9653   7.0917686622e+01   4.2503236012e+01    0.4261115    0.3473315  57.37  0.001562409    1.106    0.096
        62  -8.5699    238.4129      7.2284   5.9642674160e+01   2.5402780423e+01    0.1714148   0.09809792 -49.66 0.0007478496    1.590    0.371
        63 -11.2212    123.5320     10.2509   7.5921162958e+01   5.2413289069e+01    0.3509871    0.2441743  55.42 0.0005858294    1.260    0.206
        64  -8.3476    189.4517      1.4412   6.3127027550e+01   3.7553010641e+01    0.1293521    0.1083623  73.36 0.0001367187    1.068    0.064
        65 -10.8274     67.4698    107.8753   1.2231422904e+02   4.6407702017e+01    0.7174907    0.3648008 -36.39  0.003045449    2.386    0.581
        66  -9.1344    183.8951    250.2933   1.2127757038e+02  -3.6221567238e+00    0.2064881    0.1360916  51.41  0.001196673    1.466    0.318
        67 -10.3042     73.9829    108.1226   1.2048200589e+02   4.5447778880e+01    0.3357065    0.2865004  21.96 0.0007627137    1.345    0.257
        68  -9.5942     67.9523    115.4553   1.2384325338e+02   4.4617630300e+01    0.2971227    0.2000034  69.52  0.001054292    2.055    0.513
        69 -10.0880     63.5001    114.1493   1.2482731670e+02   4.5504997217e+01    0.4067067    0.1983175  38.62  0.001279362    2.280    0.561
        70  -9.8413     92.0297    120.9436   1.1835876430e+02   3.9731178706e+01    0.4311059    0.2113409 -41.85   0.00173038    2.184    0.542
        71  -9.7336     36.7246     98.4543   1.2939396428e+02   5.2017710710e+01    0.4871742    0.2784767 -25.89  0.002438532    2.359    0.576
        72 -11.4613      5.2666     99.7981   1.3887159311e+02   5.4119323067e+01    0.6253149    0.4230107 -38.53  0.003729972    1.519    0.342
        73 -10.4053     23.1001    108.7158   1.3527228745e+02   5.0929640417e+01    0.4116949    0.2876711 -27.43  0.002546341    1.735    0.423
        74 -10.2703     28.1964    102.0109   1.3262322245e+02   5.1996284481e+01    0.3792787    0.3289695 -75.85  0.001557051    1.164    0.141
        75  -9.3142    234.8276    248.9873   1.1185344598e+02  -1.1694024034e+01    0.2385051    0.1529862  59.47  0.001222163    2.895    0.655
        76 -10.6231     42.1053     87.1954   1.2525961235e+02   5.3927203307e+01     1.328787     0.339775 -50.78  0.005078727    2.918    0.657
        77 -11.0806      3.1571     89.5907   1.3784284034e+02   5.6415375874e+01     0.566231    0.2384993 -57.01  0.002474412    1.676    0.403
        78 -11.4628      4.4061     80.6993   1.3589130198e+02   5.8202680568e+01    0.5752023    0.2978054 -56.50  0.002732738    1.399    0.285
        79 -11.7165      5.1144    116.2797   1.4127188797e+02   5.0539538152e+01    0.7967607    0.2186141 -62.77  0.003624032    2.412    0.585
        80 -12.1497     15.9415    103.2568   1.3638827761e+02   5.2673273486e+01    0.8682796    0.6005678 -49.24  0.005657404    1.265    0.209
        81 -10.9897     21.8088     96.2899   1.3344867009e+02   5.3760298796e+01     0.346111    0.2889565 -39.91  0.001439266    1.202    0.168
        82 -11.1756     51.7726     88.8242   1.2258961240e+02   5.2541985631e+01      1.00754    0.4296882 -57.11  0.003803849    2.134    0.531
        83 -11.4255     13.3890     89.0743   1.3465427081e+02   5.5906353489e+01    0.3591267    0.2558452 -58.61 0.0004891069    1.080    0.074
        84 -10.2016      9.3055     85.9791   1.3533816120e+02   5.6818689147e+01    0.2548304    0.1538013 -62.93 0.0004589966    1.294    0.227
        85 -10.0517     97.7414    114.7539   1.1534019595e+02   4.0178321435e+01     0.365846     0.295159  39.29  0.001393311    1.330    0.248
        86 -11.0403    105.4178    116.2396   1.1360330027e+02   3.8473058293e+01    0.5680254    0.2888485  36.75  0.002300895    2.187    0.543
        87  -8.9314     34.8249    109.9163   1.3216590799e+02   4.9647964151e+01    0.4528776    0.2920293  79.10  0.002399523    2.114    0.527
        88  -8.6646     38.6292    107.2904   1.3058325561e+02   4.9874621570e+01    0.1839048   0.09279544 -52.97 0.0005423987    1.613    0.380
        89  -9.2376     41.5140    118.4610   1.3183308918e+02   4.7056841657e+01    0.2424005    0.1847767  73.51  0.001448929    1.519    0.342
        90  -8.9849     39.1983    115.4291   1.3193257883e+02   4.7981295674e+01    0.2013214    0.1451231 -64.39 0.0004400618    1.153    0.133
        91  -9.6145     12.9059    117.3199   1.3937697468e+02   4.9784497386e+01    0.2336905    0.1888425  53.36     0.001011    1.475    0.322
        92  -8.9766     27.8815    115.8608   1.3513195894e+02   4.8932794241e+01    0.1804236    0.1319813 -54.68 0.0002769425    1.177    0.151
        93 -10.2756    132.8984    111.7803   1.0523788246e+02   3.3998866653e+01    0.4723241     0.440248 -74.23  0.002400734    1.101    0.092
        94 -10.0767    133.6799    104.3221   1.0306190255e+02   3.5429042137e+01    0.6446797    0.2690243 -46.09  0.002284359    2.370    0.578
        95  -8.8092     45.4134    112.9984   1.2973475889e+02   4.7895452991e+01    0.1772327    0.1717433  42.59 0.0007755358    1.226    0.184
        96  -9.1071     92.9614    111.2790   1.1582608576e+02   4.1780781240e+01     0.371729    0.2430749  24.24   0.00171052    1.950    0.487
        97  -8.9398     15.9885    110.6631   1.3756206978e+02   5.1039359176e+01    0.3223868      0.19585 -26.00  0.001844937    2.208    0.547
        98  -9.9361    105.6127    109.5313   1.1187985681e+02   3.9941860685e+01    0.3520188    0.3410434  -0.39  0.001997813    1.097    0.089
        99  -9.6911    120.5012    109.1308   1.0776139135e+02   3.7152723663e+01    0.2880574    0.2642994  37.25 0.0007599915    1.137    0.121
       100  -8.6820     60.1427    109.8587   1.2487593410e+02   4.6908631402e+01    0.1822453    0.1430383 -38.56 0.0004300117    1.277    0.217
       101 -10.8880     57.2489     85.6408   1.2005939400e+02   5.2569987775e+01    0.4266218    0.3465931   8.76  0.002601358    1.399    0.285
       102  -8.8623     97.5837    103.8954   1.1267241915e+02   4.2631055160e+01    0.2886147    0.1896458  60.30   0.00129746    1.987    0.497
       103 -11.2559    116.8774     99.0358   1.0603189999e+02   4.0052852444e+01    0.6688814    0.5867391 -89.17  0.002402505    1.327    0.246
       104  -8.0180    105.6990    103.2663   1.1023436650e+02   4.1303452413e+01    0.1409691    0.1158364  86.00 0.0003524486    1.522    0.343
       105  -9.5903    151.3518    100.4463   9.7662548028e+01   3.2268852951e+01    0.4653613    0.2254645 -52.56  0.001660298    2.398    0.583
       106  -9.7547    140.9796    101.0347   1.0033666312e+02   3.4509711639e+01    0.3384009    0.2241585 -43.04  0.001497193    1.495    0.331
       107  -8.5272     25.5252    248.5591   1.4896147219e+02   2.0785723260e+01    0.1089462    0.0746657  74.24 0.0002226884    1.007    0.007
       108  -8.6905      3.5900    246.1808   1.5215829539e+02   2.3578152298e+01    0.1357445   0.07313351 -74.40 0.0007008404    1.703    0.413
       109 -10.0376    142.2685    243.6627   1.2811944021e+02   4.5657666848e+00    0.3370217    0.1902372  38.63 0.0008360771    1.635    0.388
       110 -11.3774     13.1104     56.4570   1.2758392459e+02   6.2504153427e+01    0.4439626    0.3104025  87.86 0.0008502406    2.504    0.601
       111  -9.3589     37.1537    242.8478   1.4674301836e+02   2.0472613916e+01    0.1406908    0.1172823 -89.76  0.001087429    1.347    0.258
       112  -9.3785    211.0247    240.8609   1.1481531875e+02  -6.8383298752e+00    0.2045056    0.1727144 -22.60  0.001070167    1.311    0.237
       113  -8.9889    113.3413    238.6864   1.3292817088e+02   1.0316282636e+01    0.1338555   0.08197518  68.44 0.0007047081    1.702    0.413
       114 -10.0259     13.1368    238.5911   1.5030331758e+02   2.3984193175e+01    0.2218716    0.1274488 -72.02  0.001438049    1.669    0.401
       115 -12.1668     87.6279     58.6646   1.0233438878e+02   5.3308759922e+01     1.491807     1.001524  17.28  0.007581385    1.747    0.428
       116 -11.9293     85.9059     51.9062   1.0058897034e+02   5.4734326331e+01    0.7298496     0.489686   9.42  0.001643804    1.812    0.448
       117  -8.7511     24.6477    235.3041   1.4827052932e+02   2.3350995257e+01    0.1195999   0.05815687  68.24 0.0004215267    1.706    0.414
       118  -9.6461     12.4875    232.6096   1.5005849601e+02   2.5178023046e+01    0.2425312    0.1261572  67.71  0.001592761    1.499    0.333
       119  -8.8625     52.4677    224.5239   1.4268871605e+02   2.2098777254e+01    0.1191768   0.09171949  77.85 -1.626175e-05    1.030    0.029
       120  -9.7356    123.9862    206.0046   1.2645329436e+02   1.4827734949e+01    0.1960865    0.1729908  66.25  0.001168501    1.011    0.011
       121  -8.2786    244.6875    204.6553   1.0222462251e+02  -7.2338829819e+00    0.1358377   0.09047388   3.02 0.0007046559    1.708    0.415
       122  -8.9703    234.0000    201.0158   1.0345715331e+02  -4.8595086865e+00    0.2132807    0.0721488 -38.01 0.0002458405    2.986    0.665
       123  -8.8886    184.4963    101.0035   9.0510293241e+01   2.4258204750e+01    0.2216076    0.1419922 -12.80 0.0008106736    2.599    0.615
       124 -10.1098    159.1122     96.8926   9.4885255270e+01   3.1164304431e+01    0.3964656    0.3909776   2.76  0.001390332    1.058    0.055
       125  -9.6106    187.9371     92.9865   8.7714850032e+01   2.4943858362e+01     0.432296    0.2134172 -47.24  0.001643169    2.073    0.518
       126 -10.2237    114.6998     51.4146   9.2097706381e+01   4.9302121538e+01    0.7368982    0.5763642  30.27  0.004022263    1.260    0.206
       127 -11.6625     96.7339     62.1681   1.0072631492e+02   5.1081184482e+01     1.021886     0.669247 -21.96  0.003315063    1.685    0.407
       128 -10.9715    105.7822     53.7099   9.5305995569e+01   5.0760362731e+01    0.6432788    0.3420654  33.38  0.002814289    2.093    0.522
       129 -11.9904    119.4663     86.3734   1.0175398769e+02   4.2122767038e+01     1.282251    0.8134327  55.58  0.005724396    1.789    0.441
       130 -10.1142     89.7098     77.7595   1.0771284742e+02   4.9438726685e+01    0.6625572     0.273172  37.01   0.00260544    2.645    0.622
       131 -10.7217    130.5572     40.3775   8.4488895516e+01   4.7424963446e+01    0.9339248    0.4542599 -18.77  0.003683449    2.805    0.644
       132 -10.7656    135.1237     34.1745   8.1436405963e+01   4.7185021775e+01    0.3741275    0.2538517  43.97 0.0004640867    1.373    0.272
       133 -12.0598    121.5203     67.7542   9.5571451802e+01   4.5173262595e+01      1.37245     1.236798 -81.16   0.00757982    1.331    0.249
       134 -10.5727    102.2677     70.6889   1.0182425593e+02   4.8525644380e+01     0.598197    0.3717628 -51.98  0.002461313    1.838    0.456
       135 -11.1474    109.6796     66.4285   9.8368823479e+01   4.7851540194e+01     1.094162    0.4677364 -31.55  0.004068824    2.706    0.630
       136 -11.7702    118.3413     59.4169   9.3758323245e+01   4.7263443806e+01     1.659862    0.9163988  21.68  0.006129048    3.085    0.676
       137 -11.4978    141.7031     40.4157   8.2018756696e+01   4.4840109560e+01    0.7835571    0.5776909  53.92  0.003422434    1.258    0.205
       138 -10.7616    147.8581     35.0251   7.9052632255e+01   4.4078121101e+01     1.294037    0.2267864  55.69  0.003697555    4.295    0.767
       139 -11.4293    105.5875     87.3031   1.0586261088e+02   4.4683433054e+01    0.8745578    0.4727774 -40.06  0.003773334    1.806    0.446
       140 -12.1203    100.5478     79.0895   1.0489667815e+02   4.7257165206e+01    0.9744073     0.883509 -70.09  0.004393036    1.289    0.224
       141  -8.9203    206.4972     91.9854   8.3990301067e+01   2.0617642449e+01    0.2392675    0.1453056 -39.56   0.00103667    1.602    0.376
       142  -9.2440    194.2744     90.5682   8.5860753728e+01   2.3842117535e+01    0.3144472    0.2134239 -27.23  0.001288921    1.686    0.407
       143  -9.5908     74.4899     88.9605   1.1554388623e+02   4.9562475005e+01    0.3389294    0.2543214  -1.40  0.001803002    1.657    0.397
       144  -8.9445     77.0087     84.7771   1.1362671064e+02   5.0061418276e+01     0.241103    0.1843622 -68.85 0.0009448893    1.608    0.378
       145  -8.3182     69.4714     89.5140   1.1723589372e+02   5.0159948285e+01     0.135958    0.1198717 -40.10 0.0001584982    1.005    0.005
       146  -8.6333     20.0803     89.5265   1.3268191297e+02   5.5344137384e+01    0.1428438    0.1188028  13.44 0.0003915526    1.489    0.329
       147  -9.8498    161.8182     87.7551   9.1746711981e+01   3.2286931583e+01    0.3932277    0.2649764 -70.01 0.0009622861    2.061    0.515
       148  -9.7994    161.1263     82.0253   9.0286540742e+01   3.3521077354e+01    0.5861956     0.428126  88.91  0.002592654    1.829    0.453
       149 -10.1949    152.8989     87.2967   9.3640153069e+01   3.4500121845e+01    0.3533907    0.3011638  42.87 0.0007890661    1.186    0.157
       150  -8.9361    237.9806     86.5126   7.7575678459e+01   1.4212589277e+01     0.212783    0.1405609  61.09 0.0008244032    1.601    0.375
       151 -10.5965    149.9552     75.6081   9.0947400271e+01   3.7357861017e+01     0.804418    0.4946962 -20.56  0.003281918    2.168    0.539
       152 -10.6014    134.3593     81.0304   9.6302445965e+01   3.9954004591e+01    0.7340546     0.463169 -25.86  0.003152935    1.879    0.468
       153 -11.0844    143.3363     77.2948   9.2996342182e+01   3.8603995573e+01    0.8537909    0.5863511   2.36  0.003530035    2.288    0.563
       154  -8.8758    155.2574     71.2618   8.8477081688e+01   3.6855607836e+01    0.3678444    0.1865608 -35.75  0.001464515    2.037    0.509
       155 -10.5137    152.2231     67.0668   8.7910504753e+01   3.8299678641e+01    0.8424248    0.2972845  46.66  0.002824788    2.829    0.647
       156 -11.5312    140.6144     68.5487   9.1026536444e+01   4.0783595273e+01    0.8767119    0.7602229 -81.39  0.003584099    1.352    0.261
       157  -9.9726    132.4041     68.5398   9.3024486299e+01   4.2655222371e+01    0.4499269    0.3163254  74.07  0.002032422    1.929    0.482
       158  -9.5193    218.2701     78.4407   7.8621636277e+01   2.0156183319e+01    0.4496328    0.2704432  -9.47  0.001594629    3.460    0.711
       159  -9.7041     17.7934     82.1757   1.3192303188e+02   5.7058805137e+01    0.2277904    0.1650761   4.75  0.001514367    1.707    0.414
       160  -8.9332     15.0993     78.6808   1.3206640332e+02   5.7968483804e+01    0.3120196    0.1883928 -14.50  0.001162823    2.090    0.522
       161 -10.5534     19.7670     72.6022   1.2918368536e+02   5.8884912211e+01    0.5108832    0.2753111 -27.56  0.002835952    2.065    0.516
       162  -9.8395     37.0961     75.4680   1.2404096767e+02   5.6855813663e+01    0.2532964     0.177117 -33.75 0.0008484149    1.307    0.235
       163  -8.9551    192.9861     74.3220   8.1812998220e+01   2.7030037964e+01    0.2144022    0.1976944  84.07 0.0006587149    1.048    0.046
       164  -9.5525    215.0067     71.6462   7.7443023444e+01   2.2072026772e+01    0.3459718    0.2137944 -28.44  0.001456911    1.847    0.459
       165 -10.4444    250.2320     67.1245   7.1484351034e+01   1.4632949879e+01    0.5614864    0.1906146 -33.52  0.002009651    3.127    0.680
       166 -10.2503    157.9393     50.6571   8.1798199080e+01   3.9499886767e+01    0.5380382    0.3940775  72.03  0.002672041    1.449    0.310
       167 -10.3881    153.0345     56.1853   8.4473750414e+01   3.9859665902e+01    0.6631438    0.4038444  20.97  0.001169912    2.664    0.625
       168 -10.6760    150.1366     51.6418   8.3710961067e+01   4.1246144098e+01    0.7493132    0.4558277  -5.47  0.002994763    2.687    0.628
       169 -10.0339    170.0375     55.6661   8.0897172126e+01   3.5766096479e+01    0.4713462    0.3691423 -80.07  0.001529945    1.467    0.318
       170 -10.2720     26.4389    191.9439   1.4466480485e+02   3.1961089305e+01    0.3781939    0.2354346  85.51  0.001999947    1.332    0.249
       171 -10.5235    164.6368     57.0617   8.2350383931e+01   3.6889459813e+01    0.5522846    0.3591036 -18.00  0.002127731    1.969    0.492
       172 -10.3252    178.0448     60.3310   8.0717078097e+01   3.3048133546e+01    0.8499141    0.4663743  33.00  0.002434498    2.767    0.639
       173 -11.7950    174.2130     57.3617   8.0593348412e+01   3.4466792974e+01      1.25579    0.7691842 -23.66 0.0005169159    1.979    0.495
       174  -8.4858    202.4799     68.4921   7.8647118562e+01   2.5650958540e+01    0.1491518    0.1372093 -79.20 0.0001092123    1.024    0.023
       175  -8.9427    189.0774     64.8558   7.9970126292e+01   2.9571016424e+01    0.2328665     0.190686 -75.41 0.0005784515    1.287    0.223
       176 -11.8096     79.9663     75.4242   1.1001294428e+02   5.1486819598e+01     1.117998    0.9228783  55.42  0.000913195    1.504    0.335
       177  -9.5336    219.1762     60.8916   7.4154406482e+01   2.2783242289e+01    0.3914587    0.2499137  54.20  0.001203972    1.621    0.383
       178 -10.0151    222.4251     57.1395   7.2782325873e+01   2.2578794311e+01    0.3894541    0.2864308  88.99  0.001271783    1.396    0.284
       179 -10.4671    201.2759     57.4591   7.5975594100e+01   2.7695321264e+01    0.5280017    0.4083682  15.25  0.002590698    1.850    0.460
       180  -9.4341    158.6319     58.8653   8.4098608777e+01   3.8082686744e+01    0.3398064     0.257674  26.10  0.001400282    1.571    0.363
       181 -11.2496     18.0177    186.3478   1.4580630904e+02   3.4015869755e+01    0.3412228    0.3240836 -30.62  0.001554478    1.632    0.387
       182  -8.8629    243.6520     56.9753   7.0007193337e+01   1.7655565752e+01    0.2434714   0.06895673 -51.68 0.0004947064    4.443    0.775
       183  -9.4024    238.0305     52.2355   6.9609463713e+01   1.9643928251e+01    0.1994479    0.1198049  54.78 0.0009727012    1.798    0.444
       184  -8.6026    192.8482     53.8706   7.6379073911e+01   3.0337442030e+01    0.2015473    0.1607342 -79.26 0.0004087744    1.306    0.234
       185 -11.0480     25.8769     53.0542   1.2191863935e+02   6.2192713266e+01    0.3333764    0.2111058 -10.11 0.0008191024    1.752    0.429
       186  -9.8169     28.8241     49.3731   1.1970814649e+02   6.2607130096e+01    0.1908609    0.1356733 -31.76 0.0003102631    1.132    0.117
       187 -11.5545    140.5864     51.7134   8.5829819389e+01   4.3500609386e+01     1.229814     0.351143  48.45  0.002972806    3.226    0.690
       188  -9.0506    221.9842     46.2533   7.0213198537e+01   2.4288465714e+01    0.4234455    0.1598945  46.79  0.001453026    3.663    0.727
       189  -8.6823    212.9886     50.4700   7.2455017353e+01   2.5856998240e+01    0.2108507    0.1316223  64.33 0.0004948576    1.539    0.350
       190 -10.7940      6.0657    185.8148   1.4804111269e+02   3.5235002579e+01    0.4390386    0.1557016  56.55  0.002169158    2.820    0.645
       191  -9.6389     38.9082    177.1635   1.4069054155e+02   3.3853220770e+01    0.3758527    0.1876654 -64.00  0.001996503    1.727    0.421
       192  -9.1413      1.6746    177.9689   1.4827563472e+02   3.7275020849e+01    0.1685324    0.1076501 -85.05 0.0008083286    1.153    0.133
       193  -8.3619     80.4793    177.0012   1.3157476435e+02   2.8435295891e+01    0.1878536    0.1018833 -43.55 0.0008093474    2.492    0.599
       194  -9.6332     62.7249    167.9140   1.3430121668e+02   3.3049746834e+01    0.2984618    0.2025377 -86.46 0.0009265089    1.410    0.291
       195  -8.8726     27.4411    167.8502   1.4212371696e+02   3.7156395917e+01     0.349319     0.103824 -74.01  0.001371002    3.104    0.678
       196  -9.2263     11.7671     41.5311   1.2393576388e+02   6.5316699260e+01    0.4754265    0.2740553 -31.79   0.00268877    1.431    0.301
       197 -11.4920     37.3368     27.6602   1.0886047441e+02   6.5323160976e+01     0.397044    0.2581946  21.47  0.001604828    1.550    0.355
       198 -10.4569     23.8537     34.1509   1.1667561111e+02   6.5641039710e+01    0.3347247    0.2440628 -63.50  0.002143726    2.102    0.524
       199  -8.8878      9.0633    167.5070   1.4594298680e+02   3.8919295839e+01    0.1445005    0.1107615  42.50  0.001025599    1.569    0.363
       200  -9.3723     13.4872    165.1003   1.4480371634e+02   3.9069527567e+01     0.219993    0.1751259  76.75  0.001276996    1.175    0.149
       201 -10.4130      2.5718    159.8826   1.4660252416e+02   4.1106531062e+01    0.5851918    0.2014972 -79.01  0.002756198    2.423    0.587
       202  -9.4626     22.2630    138.1272   1.3982291813e+02   4.4366805342e+01    0.2174432    0.1706094 -17.45 0.0009264043    1.829    0.453
       203 -10.6733     16.8048    158.7303   1.4346169897e+02   4.0194310297e+01    0.4060467     0.253402 -44.04  0.002410596    2.049    0.512
       204 -11.8451     19.7965    148.0120   1.4161585250e+02   4.2341056880e+01    0.7372696    0.4742385 -61.27  0.003393061    1.349    0.258
       205 -10.8084     15.4888     31.2944   1.1913005301e+02   6.6783552117e+01    0.3328627     0.224538 -30.50  0.001193135    1.121    0.108
       206 -11.7548      5.1850     26.8846   1.2199930025e+02   6.8210167094e+01    0.4798048    0.2872425  17.11  0.003365017    1.868    0.465
       207 -11.7850     13.5741     25.0608   1.1774463284e+02   6.7920438962e+01    0.5682474    0.2353778  27.11  0.003250582    2.690    0.628
       208  -8.8135     55.4795    155.5150   1.3422206354e+02   3.6863625998e+01    0.1319948      0.11134 -75.89 5.921769e-05    1.047    0.044
       209  -8.6992     83.1759    154.6254   1.2737795931e+02   3.3232729508e+01    0.1804434    0.1363827  27.19 0.0007897966    1.658    0.397
       210  -9.0658    196.8519     42.0260   7.2625178572e+01   3.1039664542e+01     0.219289    0.1746769 -75.04 0.0004753458    1.259    0.206
       211 -10.0495    191.8820     38.9746   7.2561362689e+01   3.2691767519e+01    0.5327701    0.4023929   6.40  0.001389694    1.907    0.476
       212  -9.9181    207.0923     44.6605   7.1825929687e+01   2.8137212166e+01    0.4933891    0.3483258 -66.57  0.002520849    1.467    0.318
       213 -10.1472    210.3529     32.7103   6.8407867211e+01   2.8951700747e+01    0.4831825    0.3608708 -10.37  0.001808748    1.875    0.467
       214 -10.0692    194.6300     30.7498   7.0000328794e+01   3.3073950879e+01    0.3660038    0.3110563  25.69  0.001359322    1.482    0.325
       215 -10.8813    202.9624     37.9047   7.0687493980e+01   3.0083333253e+01    0.5415042    0.3537188  46.95  0.002325314    1.703    0.413
       216 -10.6430    201.2290     32.9185   6.9654172705e+01   3.1165318277e+01     0.515322    0.3049644 -67.59  0.001843502    1.975    0.494
       217  -8.6668    200.3824     45.6320   7.3041647619e+01   2.9659347632e+01    0.2621461    0.1242012 -39.60 0.0007390692    2.077    0.519
       218  -7.9629     81.2630     46.3745   1.0012693056e+02   5.6402648517e+01    0.1355536   0.09243077  -5.30  0.000698314    1.665    0.399
       219 -11.9788     16.2336     62.2293   1.2792121786e+02   6.1188520774e+01     1.403684    0.7880036  24.60  0.008635468    2.138    0.532
       220  -9.9037    231.4093     44.2418   6.8566244061e+01   2.2337316175e+01    0.5186155    0.2894089  34.35  0.002024769    3.496    0.714
       221  -9.0080    234.7978     39.4077   6.7060649169e+01   2.2219597703e+01    0.2969328    0.1124684  60.80  0.001218409    2.510    0.602
       222  -8.0946    196.3139     45.3089   7.3566163508e+01   3.0716703032e+01    0.1411401    0.1079632  33.75 0.0002412711    1.628    0.386
       223  -8.9686    152.4725     45.0790   8.1220344636e+01   4.1629113843e+01    0.2124507    0.1401236 -35.42  0.001024442    1.596    0.373
       224  -8.8216    249.0269     44.0178   6.6517200351e+01   1.8336402929e+01    0.2016852    0.1629428  32.00  0.001145139    1.816    0.449
       225 -10.8154     34.7309    150.4128   1.3843369656e+02   4.0386207509e+01    0.3416963    0.2737117  71.98  0.001499573    1.244    0.196
       226  -8.3416    219.5224     43.4740   6.9860884910e+01   2.5273649756e+01    0.1404365    0.1223828 -79.27 0.0008096136    1.019    0.019
       227  -8.7079     52.9603    151.5538   1.3424470493e+02   3.8096358185e+01    0.1762185    0.1273751  40.36 0.0007991238    1.558    0.358
       228  -9.4966     77.0694     41.2847   9.9654792828e+01   5.7873300306e+01    0.2317984    0.2027556  38.32 0.0007324195    1.308    0.235
       229 -10.1849    180.3060     39.0627   7.4392624336e+01   3.5571158561e+01    0.4400377    0.3319707 -56.63  0.001790967    1.398    0.285
       230 -10.1152     67.2346    148.7067   1.3030386273e+02   3.6935066107e+01    0.3085874    0.1995029 -84.53  0.001542438    1.677    0.404
       231  -8.7609    173.4579     38.8202   7.5463149583e+01   3.7311864761e+01    0.2931098    0.2009281 -83.97  0.001058676    1.771    0.435
       232  -9.4756    168.5125     36.2871   7.5587269510e+01   3.8871431280e+01    0.3403528    0.2593573 -55.41  0.001430892    1.424    0.298
       233  -8.6382    114.1090     36.6880   8.7245903263e+01   5.1527766471e+01    0.1889818    0.1649171  28.86 0.0006841542    1.046    0.044
       234  -8.5469    221.8176     35.9473   6.7773714641e+01   2.5752803494e+01    0.1910325     0.139658  49.93 0.0006594961    1.561    0.359
       235 -11.0308    237.8080     32.3591   6.5145000055e+01   2.2473142457e+01    0.7416863    0.3392043  63.27  0.003442561    2.088    0.521
       236 -10.5308    246.0943     33.1121   6.4454198111e+01   2.0488910977e+01    0.4008088    0.2166308  60.23 0.0003871082    1.899    0.473
       237 -10.8567    177.0959     29.5886   7.2273605785e+01   3.7577444424e+01    0.4661576    0.3900244 -17.99    0.0014163    1.409    0.290
       238  -9.7499      1.4051    144.1634   1.4537350643e+02   4.4638137311e+01    0.4674448   0.07200171 -70.68  0.001622129    4.254    0.765
       239  -9.2754     39.0538     32.8129   1.1013293064e+02   6.4358489241e+01    0.4460806    0.1534048  21.71  0.001650146    4.885    0.795
       240 -10.5985    226.5730     28.5298   6.5492254181e+01   2.5590933960e+01    0.6025367    0.2853985 -54.76  0.002704435    2.142    0.533
       241  -9.0228    215.0131     42.0434   7.0098732727e+01   2.6564652803e+01    0.2206596    0.1648139  34.67  0.001133091    1.790    0.441
       242  -9.6105      4.9727    147.0539   1.4486864585e+02   4.3744646698e+01    0.2536932    0.1520533 -65.27  0.001614472    1.342    0.255
       243  -9.7983      7.0122    142.6637   1.4395166165e+02   4.4566651244e+01    0.3229036    0.2259191  72.10  0.001789441    1.430    0.301
       244  -9.5371     60.6867    147.3420   1.3170517196e+02   3.8121179373e+01    0.2294596    0.1659193  -5.08  0.001158468    2.342    0.573
       245 -10.7989     39.0696    145.8457   1.3678370416e+02   4.0990612166e+01    0.4409872    0.2921202 -77.41   0.00154627    1.301    0.231
       246  -9.8569     47.1578    137.1929   1.3348525786e+02   4.2123266801e+01    0.5160206    0.2386199  60.82  0.002055729    3.391    0.705
       247 -10.1481     54.4921    137.9661   1.3173621250e+02   4.1091548380e+01    0.4071124    0.2885965 -68.19  0.002316248    1.212    0.175
       248 -11.1675     55.3324    132.1541   1.3052886568e+02   4.2349895447e+01     1.070096    0.2426813 -54.50  0.003637115    3.412    0.707
       249 -10.2541     55.4853    128.4945   1.2983960824e+02   4.3185331990e+01    0.4130564    0.2286006 -52.28  0.001705639    1.604    0.377
       250  -9.0440    193.3021     24.6268   6.8589684727e+01   3.4149824246e+01    0.2947199    0.1822682  12.39   0.00113132    3.069    0.674
       251  -9.9185    241.3124     24.0231   6.2961998725e+01   2.2746641907e+01    0.3169085    0.1927049 -52.85  0.000525277    1.481    0.325
       252  -9.8658     18.5774    121.0491   1.3842157527e+02   4.8528778176e+01    0.8052918    0.2468465 -50.73  0.003469181    2.811    0.644
       253  -9.3151     28.1785    120.9065   1.3586166273e+02   4.7766052889e+01    0.3664182    0.1506854 -68.88  0.001201306    2.099    0.523
       254 -10.1676     22.2205    128.2263   1.3850249262e+02   4.6616506364e+01     0.430988    0.2543543  66.85  0.002361986    2.085    0.520
       255 -10.0119     26.5022    127.7097   1.3733245494e+02   4.6367502153e+01    0.3300368    0.2891647  65.85  0.001693467    1.281    0.220
       256 -10.3772      3.7655    135.3538   1.4390922915e+02   4.6418212376e+01    0.4193854    0.2955224  87.58   0.00230956    1.270    0.213
       257  -9.5462    239.7503     18.4170   6.1902459567e+01   2.3793951259e+01     0.242898    0.2121362  65.56  0.001582875    1.321    0.243
       258  -9.9903     97.9870     22.2515   8.6305232194e+01   5.6585411009e+01    0.2343398    0.1965317  22.90 0.0006127252    1.040    0.039
       259  -9.9701      9.0240    134.7363   1.4259411146e+02   4.6183025250e+01    0.2407107    0.2039013   1.43 0.0009216748    1.677    0.404
       260  -9.7717    197.6999     16.8680   6.6041369617e+01   3.3959993938e+01    0.4780177    0.2050359  79.21  0.001909419    2.581    0.613
       261  -9.5958    177.8699     20.0947   6.9533856437e+01   3.8488255354e+01    0.2579408    0.2046531 -36.65  0.001338406    1.382    0.276
       262 -11.2779     13.9651    130.7796   1.4091240299e+02   4.6699451040e+01    0.5283349    0.3515517  65.71  0.002673552    1.676    0.403
       263 -10.2006     12.0133    125.7137   1.4074702151e+02   4.7978712402e+01    0.2559721    0.1989891  76.35  0.001058083    1.346    0.257
       264  -9.4211     98.4956    135.9386   1.1991976310e+02   3.5148376740e+01     0.231002    0.1360925 -54.50  0.001032083    1.589    0.371
       265  -9.9247     45.2768    132.6267   1.3323568800e+02   4.3392891082e+01    0.4713915    0.2171634 -39.46  0.001954898    3.047    0.672
       266  -9.1917     86.7807     15.9465   8.7027481887e+01   5.9416494832e+01    0.2604197    0.1775637  17.73  0.000870878    1.425    0.298
       267  -8.9377     61.4641     15.9808   9.5071809541e+01   6.3695338528e+01    0.1608454    0.1299828  11.16 0.0003737216    1.054    0.051
       268  -8.8881    178.5015     15.0314   6.8063071657e+01   3.8879100634e+01     0.254545    0.1557645  53.94 0.0006517397    1.518    0.341
       269 -10.5493     47.8503    125.0867   1.3128024111e+02   4.4858004502e+01    0.3630239     0.204751 -60.00  0.001682616    1.473    0.321
       270 -10.4237     41.9706    122.0000   1.3232967892e+02   4.6198973856e+01    0.3410852    0.1872152  14.18  0.001272985    2.848    0.649
       271  -8.7837     23.3775    133.9438   1.3899778961e+02   4.5221116685e+01    0.1925311    0.1548205  60.07  0.001296997    1.380    0.275
       272 -10.6837     72.4795    128.8447   1.2534939760e+02   4.0886263795e+01     0.548968    0.3948025 -51.90  0.002306819    1.278    0.218
       273  -8.3625    191.9706     12.7717   6.5706134913e+01   3.5808533017e+01    0.1702617    0.0969606  69.41 0.0004885035    1.532    0.347
       274 -10.0769     74.4981    125.0121   1.2403062033e+02   4.1495048588e+01    0.6209819    0.3094712  55.02  0.002522942    2.734    0.634
       275 -10.8412     65.0901    130.2814   1.2760468986e+02   4.1557337187e+01     0.396577    0.2954808  84.03  0.002153854    1.524    0.344
       276  -9.2577     95.5558    130.7330   1.1958019069e+02   3.6867574274e+01    0.2893936    0.1293078 -50.09  0.001136922    2.089    0.521
       277  -9.2172    120.8276    130.0000   1.1282958425e+02   3.2404633704e+01    0.2558158    0.1749231 -25.73 0.0008698312    2.012    0.503
       278 -10.3735     38.5432    126.9859   1.3408186662e+02   4.5401881726e+01    0.2684359     0.204404 -32.69  0.001072707    1.583    0.368
       279  -9.3303     75.8631    102.3345   1.1855377622e+02   4.6469319735e+01    0.3372127    0.2182851 -52.68  0.001516764    1.394    0.283
       280 -10.8082     67.8390    122.4849   1.2533819102e+02   4.3009711443e+01    0.7091084    0.3269547 -40.92  0.002866238    2.569    0.611
