#   1 NUMBER                 Running object number                                     
#   2 MAG_AUTO               Kron-like elliptical aperture magnitude                    [mag]
#   3 X_IMAGE                Object position along x                                    [pixel]
#   4 Y_IMAGE                Object position along y                                    [pixel]
#   5 X_WORLD                Barycenter position along world x axis                     [deg]
#   6 Y_WORLD                Barycenter position along world y axis                     [deg]
#   7 A_WORLD                Profile RMS along major axis (world units)                 [deg]
#   8 B_WORLD                Profile RMS along minor axis (world units)                 [deg]
#   9 THETA_WORLD            Position angle (CCW/world-x)                               [deg]
#  10 FWHM_WORLD             FWHM assuming a gaussian core                              [deg]
#  11 ELONGATION             A_IMAGE/B_IMAGE                                           
#  12 ELLIPTICITY            1 - B_IMAGE/A_IMAGE                                       
         1 -13.5722    163.0053     55.6315   7.2386393514e+01   3.7309247529e+01     1.920759     1.482433   5.71  0.005920204    1.526    0.345
         2 -13.5967    176.4437     40.7046   6.4840402908e+01   3.6074647027e+01     1.118832    0.9343411 -17.54  0.003534011    1.189    0.159
         3 -13.8893    195.0983      9.0973   5.1647941722e+01   3.4862512484e+01     1.176443     1.064372  22.11  0.003833173    1.180    0.152
         4 -13.1191    219.2895      3.6579   4.7585465566e+01   2.9074011608e+01     2.102254    0.5214759  75.29  0.006306244    4.394    0.772
         5  -9.0215    122.5471      6.9519   6.1919216756e+01   5.4116374081e+01    0.2060686    0.1356768 -17.47 0.0002907085    1.480    0.324
         6  -8.4433    219.2824    224.2680   1.0015170189e+02   2.9370629617e-02    0.1081117   0.06786539  21.16            0    1.492    0.330
         7 -12.4469    248.5913    245.7763   9.8807048354e+01  -6.1114104050e+00     0.526496    0.2962227 -17.45  0.003792221    1.988    0.497
         8 -18.4348     55.2162    238.7220   1.2799243316e+02   2.1602809461e+01      5.89412      4.45174  83.59   0.03805196    1.269    0.212
         9 -10.8994    153.1696    192.2192   1.0664754870e+02   1.4919762989e+01    0.2177846    0.1763706 -74.26 0.0007278972    1.515    0.340
        10 -19.2138     42.5397    103.4068   1.1762369887e+02   4.9565240755e+01      16.6161    0.7931923 -65.64   0.02707511   16.400    0.939
        11 -10.4062    154.8505    187.0835   1.0557247640e+02   1.5437161372e+01    0.1860711    0.1571626  66.11 0.0004918743    1.224    0.183
        12 -11.7812    136.3742    185.7180   1.0883588073e+02   1.8802234653e+01    0.2388334    0.2198776   9.39 0.0009124705    1.357    0.263
        13 -11.0930      9.7419    210.8916   1.3369443787e+02   3.0835509941e+01    0.1702716   0.07679519  72.74 0.0006887948    1.685    0.407
        14 -11.0588    149.0536    179.9599   1.0556443507e+02   1.7597357969e+01    0.2769079    0.2114189 -81.45  0.001075547    1.672    0.402
        15 -10.7918    204.5561    175.8280   9.4677519123e+01   8.2324966310e+00     0.329881    0.2760034  34.95  0.001060178    1.087    0.080
        16  -9.6960    196.8733    176.8244   9.6209263465e+01   9.4868028236e+00    0.2021062    0.1553978  24.78 0.0008501095    1.226    0.185
        17 -10.4447      6.6315    207.7633   1.3406327063e+02   3.1652395503e+01    0.1251996   0.06517574  50.96 0.0004258099    1.513    0.339
        18  -9.4850    185.1255    169.7006   9.7035560790e+01   1.2691087018e+01    0.2150186    0.1768636 -49.45  0.001073869    1.430    0.301
        19  -8.6628      1.7615    166.8274   1.3308864989e+02   3.9577314973e+01   0.07719143   0.06513161  89.40            0    1.334    0.250
        20  -9.9108    192.5780    164.6533   9.4722967038e+01   1.2053461704e+01    0.2265177    0.2191518  29.49 0.0006569742    1.132    0.117
        21 -10.0623     11.6150    205.9108   1.3318780114e+02   3.1514822166e+01    0.2089123    0.1620731  47.29  0.001080165    1.518    0.341
        22 -11.1646    113.2172    160.4356   1.0969179623e+02   2.7269070480e+01    0.2387383      0.21146  80.87 0.0005822898    1.040    0.039
        23 -11.0871    120.3736    156.4541   1.0754562015e+02   2.6841792221e+01    0.2674408    0.2177169 -72.15  0.001590998    1.251    0.201
        24 -11.2687    193.1493    195.3125   1.0000911496e+02   7.6233270679e+00    0.8162798    0.4200001 -60.07  0.003007051    5.630    0.822
        25 -10.1966    161.1008    199.5995   1.0628410688e+02   1.2470940426e+01     0.170967    0.1574825  81.14  0.001112623    1.245    0.197
        26 -11.9131    133.9724    145.8548   1.0276732213e+02   2.6488029226e+01     1.162988    0.2969567 -55.18  0.003137328    5.867    0.830
        27 -11.3124    149.7870    149.8251   1.0018931171e+02   2.2756106863e+01    0.5529569    0.2333426  57.40  0.001957464    3.306    0.698
        28  -9.8156    174.8626    149.1085   9.4999245831e+01   1.7981793914e+01    0.2024306    0.1864898  82.38 0.0005021982    1.245    0.197
        29 -10.7125    189.1109    154.9460   9.3458264753e+01   1.4214757150e+01    0.4342213    0.3475094  58.56  0.002457503    1.387    0.279
        30 -12.1933    101.9983    136.7209   1.0823491533e+02   3.3969945838e+01    0.3298956    0.2652472 -50.54 0.0004053762    1.331    0.249
        31 -11.7365    105.8347    130.7490   1.0624074214e+02   3.4604506445e+01    0.4180248    0.3542101  81.57  0.001161631    1.155    0.134
        32 -11.3345    135.6379    126.7893   9.8531143974e+01   2.9966226881e+01     0.806219    0.1637824 -48.34  0.002158209    5.048    0.802
        33 -11.2996    117.9695    128.5140   1.0295355685e+02   3.2947790025e+01    0.3158216    0.2709471 -22.95 0.0006705964    1.477    0.323
        34 -10.6584    106.4472    124.2725   1.0482744426e+02   3.5893769357e+01    0.2720008    0.2328793 -43.18  0.001523166    1.291    0.225
        35 -10.5777    160.6130    127.8463   9.3312510950e+01   2.4690098898e+01    0.3782371    0.2773162 -74.20  0.001788626    1.870    0.465
        36  -9.9068    112.7786    118.0552   1.0199040935e+02   3.6116707928e+01    0.2316591    0.1962309  55.12 0.0005123415    1.200    0.167
        37 -10.4920    167.5219    112.6605   8.8219469733e+01   2.6040882079e+01    0.3744181    0.2905869 -80.22  0.001293687    1.740    0.425
        38 -11.9652    149.5565    187.4871   1.0661707944e+02   1.6281824885e+01     0.342606    0.2733799  77.01  0.001172706    1.439    0.305
        39  -9.9006    205.4588    110.1605   8.0212095561e+01   1.7979713787e+01    0.3224564    0.2047362  39.98  0.001034399    1.614    0.380
        40 -10.2220    175.9473    217.3042   1.0618580729e+02   7.6228241355e+00    0.1704593    0.1241987  40.98 0.0007519152    1.093    0.085
        41 -11.1058     74.6342     99.3618   1.0788042342e+02   4.6529195917e+01    0.2643553    0.2270317 -52.68  0.001043536    1.162    0.140
        42  -9.6035    149.7919     81.3837   8.3483380671e+01   3.5986743230e+01    0.2650481    0.2002553 -47.73 0.0006118146    1.319    0.242
        43 -10.5023     85.2285     77.0487   9.9243380677e+01   4.9932942591e+01    0.2188027    0.2071881  54.53 0.0004596182    1.183    0.155
        44 -10.1704    175.8257     74.4076   7.5842310774e+01   3.0972824801e+01    0.3172342     0.238729 -66.27 0.0007745567    1.658    0.397
        45  -9.7565    101.7097     71.8317   9.2848457657e+01   4.8147079413e+01    0.2980202    0.2094393  60.81  0.001425675    1.746    0.427
        46 -10.1160     15.7484    238.8102   1.3385349574e+02   2.5773155514e+01   0.07115018   0.05561285  61.79 0.0006453264    1.358    0.264
        47 -10.0542     21.2844    235.2237   1.3291122392e+02   2.5780718680e+01   0.07406148   0.06162233  64.69 0.0004031438    1.435    0.303
        48 -12.4375    181.1108     33.5727   6.1663091223e+01   3.5800278513e+01    0.5108486    0.4282233  11.26  0.001141472    1.291    0.225
        49  -9.6254     13.3976     59.8535   1.1900287874e+02   6.2029569442e+01    0.1715603    0.1436251 -83.37 0.0004384287    1.199    0.166
        50 -11.7718    151.9160    197.1367   1.0758091815e+02   1.4373527901e+01    0.2825617    0.2627307 -54.67  0.001064585    1.272    0.214
        51  -9.8802    167.7974    229.5201   1.0910030313e+02   7.3730474700e+00    0.1504412      0.14986 -11.96 0.0004583326    1.299    0.230
