#   1 NUMBER                 Running object number                                     
#   2 MAG_AUTO               Kron-like elliptical aperture magnitude                    [mag]
#   3 X_IMAGE                Object position along x                                    [pixel]
#   4 Y_IMAGE                Object position along y                                    [pixel]
#   5 X_WORLD                Barycenter position along world x axis                     [deg]
#   6 Y_WORLD                Barycenter position along world y axis                     [deg]
#   7 A_WORLD                Profile RMS along major axis (world units)                 [deg]
#   8 B_WORLD                Profile RMS along minor axis (world units)                 [deg]
#   9 THETA_WORLD            Position angle (CCW/world-x)                               [deg]
#  10 FWHM_WORLD             FWHM assuming a gaussian core                              [deg]
#  11 ELONGATION             A_IMAGE/B_IMAGE                                           
#  12 ELLIPTICITY            1 - B_IMAGE/A_IMAGE                                       
         1 -13.9336     66.9335    144.3913   7.3758307129e+01   3.7700867393e+01     2.091456     1.228318  89.83  0.002152651    2.585    0.613
         2 -13.3841     28.0483     45.1349   6.4901717685e+01   6.6591584532e+01     1.396805     0.882681 -35.00   0.00552597    1.499    0.333
         3 -14.1693     58.8190     24.7926   4.0715256289e+01   6.5130079356e+01     2.134765     1.629618 -83.42  0.009508565    2.316    0.568
         4 -13.0016    242.5357     21.4067   9.0805246210e+00   2.4727043824e+01    0.7622973     0.577095 -57.62  0.004411524    1.011    0.011
         5  -8.7480    189.4954     14.5545   1.1375625011e+01   3.6019999488e+01    0.1211713    0.1013908 -74.59 4.561015e-05    1.017    0.017
         6 -10.8896    143.9400    250.0751   6.9676853489e+01   4.3634330674e+00    0.3575863    0.1439842  29.56  0.001313287    2.037    0.509
         7 -10.2102    114.7120    250.1517   7.5904077246e+01   7.9865942216e+00    0.2364616    0.1356902  36.68  0.001325107    1.472    0.320
         8 -10.4787     80.0758    248.5528   8.3335134031e+01   1.2492304103e+01    0.3450185    0.2083449  57.08  0.001066611    1.819    0.450
         9  -9.3756     74.6452    250.1608   8.4671809889e+01   1.2834848224e+01    0.2615504    0.1273684 -45.10  0.001210803    2.738    0.635
        10  -9.8274     76.0037    243.7138   8.3805032183e+01   1.3872399359e+01    0.2946225    0.1723955 -64.03 0.0008445243    2.009    0.502
        11 -10.5939     34.4515    248.8163   9.3307355984e+01   1.7456045219e+01     0.298447    0.1787186  54.93  0.001831975    1.444    0.307
        12 -13.5526      3.5083     65.7632   8.4335584009e+01   6.4034308989e+01     2.988062    0.6993637 -71.77   0.00917959    4.663    0.786
        13 -15.2500      6.3368    137.3856   9.2858898646e+01   4.5699137388e+01     5.683971     2.025117 -81.99   0.02013878    2.753    0.637
        14 -13.5367      7.1487    183.8724   9.5996189461e+01   3.3993305515e+01    0.7914282    0.6935469  46.94  0.005221651    1.126    0.112
        15 -14.2435     13.1977    243.2102   9.7535647247e+01   2.0553481648e+01    0.7863435     0.273542 -68.63  0.003854512    3.009    0.668
        16 -17.5832      6.8064    223.2227   9.8066276439e+01   2.5159808293e+01     4.748629     3.427788  -8.61   0.01423687    1.981    0.495
        17 -10.8942     56.6638    232.2165   8.7223459532e+01   1.8360393839e+01    0.5051805    0.4138706 -69.75  0.003301771    1.382    0.276
        18 -11.1718     61.5983    230.8868   8.5965500005e+01   1.8067540650e+01    0.4807958    0.2362122 -62.16  0.001380137    2.245    0.555
        19 -10.1459     62.6882    225.0162   8.5188241267e+01   1.9146004819e+01    0.2030191    0.1683872  10.25 0.0004045922    1.329    0.248
        20  -9.3068     45.1581    246.4483   9.0853243514e+01   1.6808731886e+01    0.1729752   0.07951538 -68.22   0.00046503    2.431    0.589
        21  -9.5120     38.0506    236.9504   9.1806984014e+01   1.9409025104e+01    0.1602201    0.1340947 -37.12 0.0004813813    1.553    0.356
        22 -13.5653    145.8043    230.7207   6.6700539376e+01   7.3055824295e+00      1.44089    0.8543516   3.11  0.007159215    2.085    0.520
        23  -9.3302     42.3358    233.4118   9.0604223908e+01   1.9678037970e+01    0.2551955    0.1369151 -79.95  0.001363923    2.085    0.520
        24 -11.3718     73.4108    228.9634   8.3021170611e+01   1.7060312361e+01    0.3831102    0.3004074 -43.23  0.001805001    1.516    0.340
        25 -13.1047    111.0810    227.8230   7.4081875990e+01   1.2467178602e+01    0.8579546    0.5999314  35.14  0.004938562    1.250    0.200
        26 -10.3354     82.4135    221.6901   8.0127785709e+01   1.7426160916e+01    0.4486499    0.2989014  62.04  0.002394418    1.733    0.423
        27 -10.8971    126.0533    213.6919   6.8698841950e+01   1.3121369477e+01    0.2450772     0.225861  50.29  0.001151089    1.244    0.196
        28 -10.6042    114.1735    205.6961   7.0368973804e+01   1.6414497704e+01    0.2285186    0.1593218  41.75  0.001201392    1.387    0.279
        29 -10.2037    191.8453    192.7747   5.1041658784e+01   7.4279650746e+00    0.3245836    0.2090932 -64.92  0.001421937    3.398    0.706
        30 -11.3323    109.3936    240.6750   7.6002258460e+01   1.0312635321e+01    0.2993194    0.1926511 -24.94  0.001458599    2.025    0.506
        31 -14.0131    127.9024    229.8969   7.0524735032e+01   9.8368124337e+00     1.773051    0.8649231  30.30  0.008652686    1.752    0.429
        32 -10.2836     77.7837    185.1221   7.6844404283e+01   2.6121585757e+01    0.3303594     0.238049 -86.38 0.0007011272    1.649    0.393
        33 -10.1190    175.9713    183.9679   5.2618751869e+01   1.1302397303e+01    0.1981008    0.1730404  74.15 0.0009477794    1.736    0.424
        34  -9.8031     52.7357    246.1767   8.9175816134e+01   1.6049769497e+01    0.1848519    0.1661711 -86.25 0.0007639722    1.269    0.212
        35 -10.7469     98.9905    180.9627   7.0486713101e+01   2.4042698144e+01    0.3091813    0.2811531  28.54 0.0006559573    1.038    0.037
        36  -9.8729    128.9878    181.5014   6.2843279624e+01   1.9232879874e+01    0.2262381    0.1335367  34.08  0.001035049    1.602    0.376
        37 -10.6310    172.6681    177.0394   5.2011955067e+01   1.3088576792e+01     0.326415     0.239981 -33.25  0.001115515    1.292    0.226
        38 -10.7304     62.5067    237.3643   8.6306189438e+01   1.6668616344e+01    0.2038383    0.1807802  47.55  0.000461977    1.068    0.063
        39 -10.9486     52.2269    237.4068   8.8646516734e+01   1.7812738534e+01    0.5340543    0.1473953  38.51  0.002228906    2.603    0.616
        40 -11.0501    180.1959    168.8766   4.8885740222e+01   1.3393408797e+01    0.5176985    0.3492706 -61.84  0.002479235    2.222    0.550
        41  -9.7708    198.4123    170.0366   4.5577222830e+01   1.0329930766e+01    0.3516696     0.108684 -50.48 0.0009581246    6.205    0.839
        42 -10.4645    102.6958    170.4348   6.7735887881e+01   2.5905104397e+01    0.2896714    0.1308209  37.32  0.001117776    2.077    0.519
        43 -10.3874    230.3730    166.8073   3.9497229205e+01   6.2337818876e+00    0.1843642   0.09505711 -29.54 0.0009552519    1.728    0.421
        44  -8.9890    110.5212    167.0033   6.5004056876e+01   2.5440338817e+01    0.2151931    0.1468928 -54.71 0.0006572183    1.532    0.347
        45 -10.8758     91.0879    166.3594   7.0266370973e+01   2.8675679787e+01    0.4538956    0.2067476  38.93  0.001783455    2.077    0.518
        46 -10.6683     54.7823    146.8397   7.8072062883e+01   3.8673885126e+01    0.6871981    0.4649473 -34.84  0.003223219    1.716    0.417
        47 -11.5453     77.9926    153.0489   7.1820908495e+01   3.3917953734e+01    0.7193706    0.4436255 -45.45  0.002090986    1.698    0.411
        48 -11.5790    124.8456    246.1334   7.3246371590e+01   7.3976371240e+00    0.5200057     0.224221 -47.36  0.002535567    2.638    0.621
        49  -9.4125     49.7812    157.7693   8.1240728667e+01   3.6460805661e+01      0.34626     0.177485  44.07  0.001481215    1.940    0.484
        50 -10.5263    133.7326    145.6085   5.4618880118e+01   2.6209542933e+01     1.058885    0.2425706 -52.67  0.002457726    6.195    0.839
        51 -11.4155     85.5543    146.5521   6.8329870752e+01   3.4382730758e+01    0.5832347    0.4314402 -16.01  0.002067327    1.710    0.415
        52  -8.9376     40.1162    146.6243   8.2794523678e+01   4.0424005728e+01    0.1997213    0.1356372   3.03 0.0009432883    1.810    0.448
        53  -9.3369     47.5008    145.4883   8.0228673994e+01   3.9899320430e+01    0.1423093    0.1372539 -85.58 -3.356236e-05    1.005    0.005
        54  -8.7164     36.6386    144.2348   8.3610810215e+01   4.1410197099e+01    0.1981268    0.1199705 -59.89 0.0005292704    1.552    0.356
        55 -10.5840     29.5792    143.0294   8.5780932711e+01   4.2414621931e+01     0.466233    0.3080725   9.74   0.00173594    1.760    0.432
        56 -11.2618     64.8056    163.2193   7.7442262050e+01   3.3205941460e+01    0.4286708    0.2903542  -0.30  0.001946637    1.963    0.490
        57 -11.5164     69.7262    159.1362   7.5339787281e+01   3.3569793864e+01    0.4480655    0.3119265  -6.07  0.001779947    1.929    0.482
        58 -11.0113     66.8421    125.4626   7.0199781507e+01   4.2558215918e+01    0.6116326    0.3493067 -67.17  0.002539863    1.923    0.480
        59 -10.0055     61.9639    122.9702   7.1381818150e+01   4.3893745628e+01    0.3134211    0.2323661  57.30 0.0005155488    1.533    0.348
        60 -10.7720    103.3735    132.1770   5.9966284860e+01   3.4866768323e+01    0.7981747    0.5022377  -4.95  0.002766029    2.924    0.658
        61 -11.6140     87.8279    133.1137   6.4912287526e+01   3.7342604236e+01      0.30172    0.2738087 -41.67 0.0003831213    1.106    0.096
        62 -10.4426     49.5575    130.7425   7.7181755071e+01   4.3502180831e+01    0.3517112    0.1828989  40.37  0.001478151    1.950    0.487
        63 -10.9545     44.5658    130.1200   7.8818029702e+01   4.4251183035e+01    0.3545629    0.2517927  58.91  0.001722956    1.575    0.365
        64  -9.3417    110.2187    126.8890   5.6749924056e+01   3.4845382705e+01    0.2751011    0.1979996   3.33 0.0007184382    1.903    0.475
        65 -10.1182     97.4706    121.9277   5.9381068617e+01   3.8375053834e+01    0.2835557    0.2260494  29.09 0.0006401452    1.279    0.218
        66 -10.7363     54.5079    117.9736   7.3029839024e+01   4.6189758738e+01    0.3876117     0.270912 -82.97  0.001528144    1.708    0.414
        67  -8.9514    106.9570    116.5129   5.5188074456e+01   3.7861392552e+01     0.216642    0.1509348  39.48 0.0003084315    1.431    0.301
        68  -8.2735     88.3393    112.6273   6.0023680314e+01   4.2240906800e+01    0.1630306    0.1215181  76.81 3.052957e-05    1.863    0.463
        69 -13.2024     28.0705    232.1882   9.3753010554e+01   2.1370685169e+01    0.5969058    0.3231371  67.25  0.001449359    1.845    0.458
        70  -8.9789     48.0184    160.5243   8.2147391940e+01   3.5960099966e+01    0.2245017    0.2039698 -79.77 0.0005841314    1.076    0.071
        71  -9.7597    205.5377    110.1359   3.1883991471e+01   1.9401241627e+01    0.2243435    0.1937116  35.45 0.0007019011    1.323    0.244
        72 -10.6009     30.1647    108.0002   8.0373585928e+01   5.1532070763e+01     0.278841     0.200454  28.84 0.0004879559    1.459    0.315
        73 -11.9445     24.4767    106.0589   8.2298883352e+01   5.2547154814e+01     0.446903    0.4141112 -16.32  0.001762842    1.126    0.112
        74  -9.9516     44.4004    101.3374   7.3368464624e+01   5.1709707928e+01    0.2581699    0.1864613 -75.72  0.001255539    1.537    0.349
        75 -10.6319     31.6520     95.7601   7.7410315510e+01   5.4523406999e+01    0.6511586    0.1663442  40.68  0.001909949    4.633    0.784
        76  -9.0097    184.6283     77.1815   2.7432214316e+01   2.8912124737e+01    0.1883314    0.1242172 -27.15 0.0005853414    1.674    0.403
        77 -11.2708     21.7328     72.3389   7.6611513899e+01   6.1208997716e+01    0.5879751    0.2520963 -75.28  0.002101525    3.448    0.710
        78  -8.9415     41.6543     72.7241   6.7234709939e+01   5.8972616061e+01    0.1471173    0.1017606 -18.20 0.0004162883    1.628    0.386
        79 -11.8787    192.8621     60.3087   2.2132388025e+01   2.9684908871e+01     0.442684    0.3486447  46.64 0.0008452632    1.500    0.333
        80 -12.8322    205.0208     51.9177   1.8693890871e+01   2.8297793424e+01     0.825248    0.7203022 -55.11  0.002996963    1.059    0.055
        81 -11.5324     25.8906     33.0176   6.1209716784e+01   6.9187524217e+01    0.5689377     0.328782  17.77  0.001911251    1.755    0.430
        82 -10.7186     19.8613     31.6167   6.4272161270e+01   7.0152451448e+01    0.4453178    0.2898676 -12.32  0.002445235    1.582    0.368
        83 -12.1039     30.2349     57.7443   6.8150471598e+01   6.3695606333e+01     0.739715    0.4873082  16.63  0.003864478    1.542    0.352
        84 -11.7870    102.9765    241.4463   7.7523401280e+01   1.0986919422e+01    0.9654834    0.3161097 -42.60   0.00356053    4.455    0.776
        85 -10.6941     13.5021     60.2498   7.7755207056e+01   6.4701514939e+01     0.241686    0.2277472 -38.48 0.0005512275    1.115    0.103
        86 -12.5467     82.9284     43.7140   3.9951138075e+01   5.7382055111e+01    0.7763186    0.5669544 -38.18  0.003741901    1.464    0.317
        87 -12.5986     98.7967    226.8142   7.6816902666e+01   1.4282967998e+01     1.032731    0.5152832  45.72  0.004882007    1.995    0.499
        88 -12.9229    214.7696     44.5911   1.6036313882e+01   2.7274829653e+01    0.5842072    0.5470162 -48.24   0.00124844    1.212    0.175
        89 -11.2714     89.8367    226.5644   7.8896281028e+01   1.5492613122e+01    0.5226363    0.3526788  66.11  0.002079332    1.860    0.462
        90  -9.1596     32.5066     26.4669   5.4331973333e+01   6.9437148985e+01     0.131492    0.1095113   2.12 0.0001048898    1.041    0.039
