#   1 NUMBER                 Running object number                                     
#   2 MAG_AUTO               Kron-like elliptical aperture magnitude                    [mag]
#   3 X_IMAGE                Object position along x                                    [pixel]
#   4 Y_IMAGE                Object position along y                                    [pixel]
#   5 X_WORLD                Barycenter position along world x axis                     [deg]
#   6 Y_WORLD                Barycenter position along world y axis                     [deg]
#   7 A_WORLD                Profile RMS along major axis (world units)                 [deg]
#   8 B_WORLD                Profile RMS along minor axis (world units)                 [deg]
#   9 THETA_WORLD            Position angle (CCW/world-x)                               [deg]
#  10 FWHM_WORLD             FWHM assuming a gaussian core                              [deg]
#  11 ELONGATION             A_IMAGE/B_IMAGE                                           
#  12 ELLIPTICITY            1 - B_IMAGE/A_IMAGE                                       
         1 -14.1351    210.1886      9.6216   4.1434672602e+01   3.1275469815e+01      2.95654     1.689963  35.13   0.01325626    2.614    0.617
         2 -13.3357    188.1736     39.7943   5.2538133569e+01   3.3213402758e+01     1.008318    0.9552174 -22.04  0.003574743    1.147    0.128
         3 -10.3270     61.2410      2.8711   6.8344828721e+01   6.6886511632e+01    0.2583705    0.1290382  25.52  0.001256798    2.159    0.537
         4 -13.2599    173.4686     53.5899   5.9155574515e+01   3.5002880424e+01     1.926015      1.26149  26.85  0.005955548    2.076    0.518
         5  -9.6201    167.7135    231.3147   1.0098013738e+02   3.2667756360e+00    0.2315872     0.175495  17.84 0.0007423952    1.435    0.303
         6 -12.9193    246.4917    242.4190   8.8572938347e+01  -1.0350350553e+01     1.129587    0.6385716 -19.76  0.007077306    1.817    0.450
         7  -8.6032    175.4981    211.4849   9.6464065614e+01   5.0449346355e+00    0.1317858    0.1136359  36.25 0.0003535803    1.032    0.031
         8 -11.0699     67.8684    206.9952   1.1768368074e+02   2.3389136378e+01    0.1915134    0.1507714  64.03 0.0003143828    1.063    0.059
         9 -19.4957     26.2066    147.0786   1.2075986671e+02   4.1448278675e+01     19.11471     4.842234 -74.94   0.06764515    3.725    0.732
        10 -10.8970    193.1518    195.3858   9.0209033586e+01   4.5114867179e+00    0.9468991    0.4712933 -60.03   0.00309806    5.181    0.807
        11  -9.0868     73.2250    205.2142   1.1643070396e+02   2.3018358377e+01    0.2643596    0.2135257  30.98  0.001466067    1.560    0.359
        12 -11.3317     59.2963    203.1745   1.1903376687e+02   2.5298636698e+01    0.2925558    0.2211975 -43.90  0.001567673    1.966    0.491
        13  -8.7310     87.7847    202.3637   1.1313782433e+02   2.1503891369e+01    0.1693563    0.1139778  33.48 0.0009335967    1.673    0.402
        14 -10.2053    247.9926    200.1817   8.1011110186e+01  -5.5285891106e+00    0.1785113     0.150197  62.22  0.001096713    1.974    0.494
        15  -9.9201     75.1437    249.6303   1.2001720985e+02   1.4503018430e+01    0.2685968   0.09361369 -61.03  0.001357859    3.256    0.693
        16 -11.4350    151.1323    196.2992   9.8936309833e+01   1.2064772100e+01     0.432331    0.3483484  20.94  0.002436721    1.384    0.277
        17 -11.6112     61.8014    196.2052   1.1785446982e+02   2.6424735383e+01    0.3262557    0.2248251 -45.46  0.001331815    2.070    0.517
        18  -9.2425     82.2351    195.0835   1.1345239927e+02   2.3831387995e+01    0.1849877    0.1670396  89.91  0.001213362    1.162    0.139
        19  -8.4089    159.4898    194.5041   9.6887347953e+01   1.0865191652e+01    0.1377928    0.1237378  42.39 0.0008105615    1.013    0.013
        20  -8.5910     78.2880    193.2158   1.1407343833e+02   2.4797654121e+01    0.1044395   0.09905718  19.59 0.0002057748    1.434    0.303
        21  -9.5879    156.7011    190.0769   9.6712758582e+01   1.2204265566e+01    0.1821513    0.1770952  19.43 0.0003474022    1.090    0.083
        22 -10.5517    150.7279    188.1557   9.7652437061e+01   1.3682217905e+01    0.3790362    0.1700017 -62.59  0.001298888    3.884    0.743
        23 -10.0724    141.3765    187.7966   9.9606041139e+01   1.5480510031e+01    0.1882763    0.1298553 -40.28 0.0007390763    1.693    0.409
        24 -10.2855    238.1727    185.1895   7.9839476595e+01  -1.8691180021e+00    0.1642582    0.1580483 -14.94 0.0007395169    1.330    0.248
        25 -10.3864    151.4117    180.3079   9.6120296594e+01   1.5084281838e+01    0.4000499    0.2525872 -81.36  0.001549074    2.962    0.662
        26 -10.9919     99.2121    180.8508   1.0786963131e+02   2.4267598030e+01    0.2836761    0.2750778   6.04 0.0007572203    1.311    0.237
        27  -9.8431    189.0615    178.4331   8.7814533023e+01   8.1684414159e+00    0.3856194    0.2765985  62.11  0.001052274    1.802    0.445
        28  -9.7689    187.8692    173.7328   8.7123167115e+01   9.2403028187e+00    0.4082331    0.2622208 -64.29  0.001748095    2.519    0.603
        29  -9.5645     62.9747    221.1100   1.1990661626e+02   2.1255093760e+01     0.326666    0.1376642  62.24  0.001564826    2.423    0.587
        30 -10.1631    240.0290    169.4564   7.6338214258e+01   1.4528654232e-01    0.1946603    0.1250904  38.89 0.0004773053    1.568    0.362
        31 -10.8003      7.2411    214.9729   1.2955326517e+02   2.8708754322e+01    0.1347808   0.08280873  38.45 0.0006327389    1.786    0.440
        32  -8.5847    149.3057    155.6692   9.1815504432e+01   2.0554879549e+01     0.151927    0.1179198  84.66 0.0003853688    1.659    0.397
        33 -11.0004    133.8145    145.3362   9.3314734437e+01   2.5926458259e+01     1.219807    0.3330306 -55.72  0.002989155    5.525    0.819
        34 -10.1379    113.3705    151.1914   9.9539220063e+01   2.8499658792e+01    0.3608209    0.2360029  70.63  0.001464125    1.970    0.492
        35  -9.7088    186.6720    151.4369   8.2654302139e+01   1.3637076866e+01    0.2970876    0.1356248  58.28 0.0009587785    3.405    0.706
        36  -9.2319    174.7007    149.0395   8.4674806648e+01   1.6634313072e+01    0.2108088    0.1976569 -37.15 0.0004729862    1.086    0.079
        37  -9.9860    143.5611    145.7968   9.1064330797e+01   2.3851140925e+01     0.366036    0.1437707 -56.50  0.001141671    3.362    0.703
        38 -11.2459     39.4028    212.8114   1.2366565758e+02   2.5774033106e+01    0.1920187    0.1287159  48.34 0.0002530942    1.379    0.275
        39 -11.4495    108.4327    138.2209   9.8211569289e+01   3.2404063861e+01    0.6730298    0.3393569 -41.38  0.002618821    2.340    0.573
        40  -9.7604     43.9468    211.3566   1.2270670800e+02   2.5533667414e+01    0.2736289    0.1765412 -77.72   0.00152918    1.437    0.304
        41 -11.8198     96.9388    137.3435   1.0104483748e+02   3.4622475594e+01    0.3218645    0.2837371  67.74 0.0003066901    1.133    0.117
        42 -10.2185    135.9783    129.2668   8.9166427782e+01   2.9081171409e+01    0.4347067    0.2101098 -51.92  0.001546019    2.138    0.532
        43 -10.8282    105.9376    130.8550   9.7313742566e+01   3.4585624739e+01    0.4134507    0.3264704 -65.20  0.001151148    1.248    0.199
        44  -9.6281    160.8899    127.6537   8.2769395812e+01   2.4041080213e+01    0.3443333    0.2815071 -85.20  0.001625057    1.526    0.345
        45 -10.4973    103.2348    124.6292   9.6675180460e+01   3.6540310814e+01    0.2992839    0.2523655  -5.07 0.0006156376    1.531    0.347
        46 -10.3632    120.6063    122.8845   9.1602101767e+01   3.3663348257e+01    0.4647657    0.3005266 -15.90  0.001708454    2.882    0.653
        47 -10.0664    115.2766    129.0318   9.4435435753e+01   3.3278595001e+01    0.3017251    0.2533359 -26.38 0.0006238722    1.396    0.284
        48 -11.5880     55.7094    212.4066   1.2055209564e+02   2.3888837577e+01    0.2450422    0.1547109  72.91 0.0006058789    1.374    0.272
        49  -9.2363    150.9914    117.9349   8.2669830455e+01   2.8319104585e+01    0.2466577    0.1914585 -79.31 0.0005193072    1.657    0.396
        50  -9.3400    110.6204    118.1681   9.3157355875e+01   3.6692926475e+01    0.2316481    0.2011587  58.89 0.0003674958    1.202    0.168
        51 -10.0013    231.2050    113.6429   6.5312540134e+01   1.0970483201e+01    0.2699732     0.267023   2.28  0.000706104    1.098    0.089
        52  -9.6014    167.5170    112.6439   7.7436560166e+01   2.5649889621e+01    0.3706184    0.2709355 -70.16  0.001549801    1.794    0.443
        53  -9.9630    134.6172    105.5582   8.3498390635e+01   3.4629364994e+01    0.5577543    0.1474306 -46.52  0.001523091    3.791    0.736
        54 -11.5064    119.2005    110.0425   8.8786142303e+01   3.6879655894e+01    0.5819486     0.495269  68.59  0.002932213    1.299    0.230
        55  -9.6876    205.3322    110.1085   6.8987914699e+01   1.7327568000e+01    0.3222395    0.2305488  44.85  0.001025211    1.458    0.314
        56 -12.4695     51.0750    208.5197   1.2111985430e+02   2.5243998406e+01    0.4984237    0.2023205  55.86  0.001767983    2.202    0.546
        57  -8.9876    184.0232     83.9890   6.6079743510e+01   2.7206868926e+01    0.2579763    0.1908722 -71.50  0.001087252    1.691    0.409
        58 -10.9707     71.9677    245.2228   1.2022706962e+02   1.5677245054e+01    0.2485514     0.159474 -73.84  0.001678078    1.672    0.402
        59  -8.5509     84.0000    244.9799   1.1809428468e+02   1.4078660691e+01    0.1529202   0.06183381 -66.89 0.0007807941    2.794    0.642
        60 -12.5939    193.1027     33.6075   5.0025243638e+01   3.2769101302e+01    0.5849906    0.5305654  44.07  0.001297878    1.205    0.170
        61  -8.2511     93.6150     62.2765   8.2097430941e+01   5.2079484866e+01    0.1408077    0.1165516  85.98 0.0007000417    1.720    0.419
        62 -10.0631    184.4463    210.8907   9.4615550505e+01   3.5706979256e+00    0.3675005    0.2119816 -32.33   0.00185609    2.064    0.516
