#   1 NUMBER                 Running object number                                     
#   2 MAG_AUTO               Kron-like elliptical aperture magnitude                    [mag]
#   3 X_IMAGE                Object position along x                                    [pixel]
#   4 Y_IMAGE                Object position along y                                    [pixel]
#   5 X_WORLD                Barycenter position along world x axis                     [deg]
#   6 Y_WORLD                Barycenter position along world y axis                     [deg]
#   7 A_WORLD                Profile RMS along major axis (world units)                 [deg]
#   8 B_WORLD                Profile RMS along minor axis (world units)                 [deg]
#   9 THETA_WORLD            Position angle (CCW/world-x)                               [deg]
#  10 FWHM_WORLD             FWHM assuming a gaussian core                              [deg]
#  11 ELONGATION             A_IMAGE/B_IMAGE                                           
#  12 ELLIPTICITY            1 - B_IMAGE/A_IMAGE                                       
         1 -15.5123     68.8773    145.2065   1.0716291774e+02   3.7053487376e+01     4.872901     2.474272  73.36   0.00663898    3.636    0.725
         2 -14.0369    220.9639     17.8946   4.0031721448e+01   2.7946160107e+01     1.080088    0.8521953  48.80  0.003440679    1.518    0.341
         3 -13.4568    196.9855     40.0401   4.8517684006e+01   3.1001837251e+01     1.229962    0.9181991   7.37  0.003229509    1.917    0.478
         4 -13.9055    206.0006     33.6531   4.5628906145e+01   2.9617528472e+01     1.174541     1.129826 -13.54  0.005570692    1.232    0.189
         5 -10.4109      2.1489      3.6313   9.5164425414e+01   7.3966434248e+01    0.3094421   0.03676787 -46.47  0.001120294    4.731    0.789
         6 -10.7687     47.6375      2.2086   7.0554306818e+01   6.9037524418e+01     0.215045    0.1706727  23.23 0.0005060727    1.178    0.151
         7 -12.4850    213.4864     25.9879   4.2791072971e+01   2.8762567071e+01      0.51448      0.39801  47.77  0.001112843    1.508    0.337
         8 -10.1646     56.7672      1.5507   6.6499691855e+01   6.7629951624e+01    0.1528408    0.1114276  50.60 0.0009411779    1.628    0.386
         9 -10.1937     99.3985    180.8634   1.0508843230e+02   2.4022692308e+01    0.2523651    0.1970119  36.31 0.0006610162    1.339    0.253
        10 -14.1414     46.8977    221.2447   1.2080578735e+02   2.2792472997e+01     1.431784     0.869864  79.67  0.004886711    1.476    0.323
        11 -14.3491     87.0083    227.3682   1.1353253584e+02   1.6250559362e+01     1.749558    0.9394937  48.79  0.002381205    1.542    0.352
        12 -15.9341     74.4136    247.8403   1.1777489079e+02   1.4258868913e+01     8.891656     2.590122  32.06   0.02870176    6.055    0.835
        13 -11.0709    124.7467    174.0135   9.7975299743e+01   2.1167208223e+01    0.2659817    0.1905496  26.59 0.0009758887    1.614    0.380
        14 -13.5513     65.8894    160.1278   1.1020807573e+02   3.3857239215e+01    0.5441909    0.4035208 -58.65  0.001879787    1.334    0.250
        15 -11.8204     78.4434    164.2091   1.0765895328e+02   3.1121058549e+01    0.3571851    0.3007334 -82.94 0.0004218839    1.095    0.087
        16 -13.1178     85.2344    157.8205   1.0494349067e+02   3.1616759958e+01     0.999055    0.6121514 -52.89   0.00195355    1.637    0.389
        17 -13.3615     39.8612    234.1227   1.2301494466e+02   2.1130834888e+01    0.8797984    0.3819235  57.96  0.001735705    1.896    0.472
        18 -11.3235    133.3636    172.2731   9.5627242604e+01   1.9953818809e+01    0.3504284    0.1727547  35.06   0.00139141    2.146    0.534
        19 -11.4298    133.7438    143.5156   8.9742160416e+01   2.6297526627e+01     1.111694    0.2767034 -53.48  0.002753936    5.102    0.804
        20  -9.8363    174.8529    149.0981   8.1288488560e+01   1.6529409303e+01      0.23324    0.2132875  89.34 0.0006077352    1.270    0.212
        21 -12.0999     64.0138    179.4376   1.1317664011e+02   2.9588541025e+01    0.4164261     0.311048 -34.39  0.002011452    1.950    0.487
        22 -12.0343     69.1207    173.8718   1.1128144499e+02   3.0180826361e+01    0.3323191    0.2624329 -52.82 0.0004910629    1.418    0.295
        23 -11.7662    100.4410    141.6327   9.8010348275e+01   3.3010427216e+01    0.6248308    0.3636136 -30.89   0.00238905    2.716    0.632
        24 -12.2227     87.4490    141.8000   1.0154747575e+02   3.5129017521e+01    0.2994808    0.2613431 -48.71 0.0005387242    1.194    0.163
        25 -11.3789     81.4343    141.3997   1.0310799717e+02   3.6162323153e+01    0.3992869    0.2340344  64.55 0.0006659355    2.234    0.552
        26 -11.3259     29.3417    136.4883   1.1654827064e+02   4.3700929221e+01    0.2318406    0.1727178 -82.58 0.0004026411    1.138    0.121
        27 -12.1030     32.2961    131.7445   1.1513104398e+02   4.4570317733e+01    0.3816173    0.1758261 -60.88  0.001598976    1.792    0.442
        28 -10.3308    109.8491    131.4156   9.3307514929e+01   3.3760612117e+01    0.3134078    0.2649275  -7.56 0.0008707286    1.485    0.326
        29 -10.3786    106.0188    131.0023   9.4262251664e+01   3.4563982864e+01    0.3711573    0.3175716  78.16  0.001438316    1.267    0.211
        30  -9.7254    162.2200    167.2070   8.7987359283e+01   1.5418050702e+01    0.1953359    0.1740237  81.44  0.000371725    1.305    0.234
        31 -10.6871    135.0000    120.4800   8.4001032505e+01   3.1260882585e+01     0.442182    0.1132387 -49.45  0.001147011    4.205    0.762
        32 -10.7834     97.4487    127.6383   9.5903761712e+01   3.6894278127e+01     0.290327    0.2476353 -22.03 0.0005380419    1.388    0.280
        33 -10.5613    116.2233    125.2990   9.0169238570e+01   3.3989062365e+01    0.2734897    0.2243479 -55.29  0.001133528    1.196    0.164
        34 -16.3480      7.9216    240.9941   1.2885552822e+02   2.3285126550e+01     3.325222     1.675893 -79.55   0.02239115    1.787    0.440
        35  -9.9866    107.0548    119.9441   9.1434686215e+01   3.6997694215e+01    0.2194395    0.2121145 -48.29  0.001191948    1.039    0.038
        36  -9.7031    168.3094    113.2957   7.4069338621e+01   2.5354715388e+01    0.3126211    0.2255359 -80.58  0.001170291    2.043    0.511
        37 -12.5392     33.1690    156.4160   1.1788824502e+02   3.8578191443e+01    0.4758894    0.2439313 -79.82  0.001831688    1.752    0.429
        38  -9.8554    135.0000    111.9703   8.1812293922e+01   3.3158295861e+01    0.2664773   0.08881488 -45.24 0.0008049436    2.960    0.662
        39  -9.8143    205.5292    110.2109   6.5654158770e+01   1.7393022236e+01    0.2630052    0.2125038  50.55 0.0006399771    1.302    0.232
        40 -11.7939     32.9876    108.5668   1.1142786938e+02   5.0104883610e+01    0.4707223    0.1833719 -69.92  0.001717212    2.374    0.579
        41  -9.6182    126.1740    127.7795   8.8093282318e+01   3.1434526571e+01    0.2685221    0.1736393  84.52 0.0009181414    2.858    0.650
        42 -10.8479     38.7344    101.9550   1.0840907949e+02   5.1149718042e+01    0.3409882     0.124032  44.34  0.001093155    3.467    0.712
        43  -9.3129    121.6796     98.6893   8.1787585950e+01   3.8937332755e+01    0.1578904    0.1239983  -2.32 0.0004352673    1.646    0.393
        44  -9.7588     33.0199     96.8116   1.0930070208e+02   5.2905010802e+01    0.1920012    0.1302059 -83.62 0.0006225641    1.595    0.373
        45  -9.1334    112.6481     82.3121   7.9557445690e+01   4.4318052431e+01    0.1544528    0.1230254 -89.34  0.000704534    1.725    0.420
        46 -10.7430     13.4889     60.0304   1.0862630673e+02   6.2688835810e+01    0.2345242    0.1763627 -57.00 0.0004627971    1.118    0.105
        47 -10.0255      7.6472     61.7117   1.1137050168e+02   6.2662219728e+01    0.1270263    0.0674224 -38.64  0.000702488    1.670    0.401
        48 -13.7324     38.2183    207.3383   1.2143201668e+02   2.6642937194e+01    0.8677363    0.6482893  23.66  0.005592835    1.869    0.465
        49 -16.6767     44.3499    196.2667   1.1926559068e+02   2.8288521540e+01     10.71783     4.259278  76.54   0.03949677    4.004    0.750
        50 -15.0300      9.1829    207.2796   1.2700832313e+02   2.9654303393e+01     1.022473    0.9656838  88.57  0.004303619    1.461    0.316
        51  -9.7169    144.2194     40.8580   5.7868239927e+01   4.4230239456e+01    0.2653709    0.1537165 -68.49 0.0009661508    3.029    0.670
        52 -10.0192    189.5025     15.0515   4.2663908474e+01   3.5925178090e+01    0.1920289    0.1327413 -30.96 0.0006280623    1.551    0.355
        53  -8.9926    134.3384     11.7155   4.9850559719e+01   5.0130921034e+01    0.1355512    0.1014651 -73.92 0.0004115906    1.630    0.386
        54 -11.1579    139.3947     44.9775   6.0299051303e+01   4.4830828027e+01    0.3918045    0.2833563 -77.75  0.001095309    1.901    0.474
        55 -12.1361    183.8477    214.8826   9.2175842311e+01   2.6355659380e+00    0.3508008    0.3214414   1.72  0.002272238    1.121    0.108
        56 -11.6436    193.1075    193.5101   8.6543258105e+01   4.5685327997e+00    0.8198517    0.4242353 -56.48  0.003239263    3.217    0.689
        57 -10.6775     67.1073    195.6634   1.1433435265e+02   2.5547856246e+01    0.2941148    0.2255309  80.93  0.001519832    1.160    0.138
