#   1 NUMBER                 Running object number                                     
#   2 MAG_AUTO               Kron-like elliptical aperture magnitude                    [mag]
#   3 X_IMAGE                Object position along x                                    [pixel]
#   4 Y_IMAGE                Object position along y                                    [pixel]
#   5 X_WORLD                Barycenter position along world x axis                     [deg]
#   6 Y_WORLD                Barycenter position along world y axis                     [deg]
#   7 A_WORLD                Profile RMS along major axis (world units)                 [deg]
#   8 B_WORLD                Profile RMS along minor axis (world units)                 [deg]
#   9 THETA_WORLD            Position angle (CCW/world-x)                               [deg]
#  10 FWHM_WORLD             FWHM assuming a gaussian core                              [deg]
#  11 ELONGATION             A_IMAGE/B_IMAGE                                           
#  12 ELLIPTICITY            1 - B_IMAGE/A_IMAGE                                       
         1  -9.3942     40.0977      7.5794   9.9086281055e+01   6.7565058489e+01    0.3336216    0.2512009  -7.16   0.00244137    1.075    0.070
         2 -10.6744     39.1981     29.8683   1.0857902503e+02   6.4724516122e+01    0.5070711    0.3119553 -46.59   0.00280629    1.849    0.459
         3 -11.9243     43.7480     20.8975   1.0327175954e+02   6.5458126479e+01    0.9285607    0.9050268  81.72  0.006945265    1.801    0.445
         4 -11.5711    128.0730     17.9212   7.7031100485e+01   5.0545741006e+01     1.040745    0.6728786  49.65  0.004800343    1.336    0.252
         5 -11.8495    109.5455      4.2388   7.6339981228e+01   5.5885416757e+01     1.828046    0.6862424  53.90  0.008315016    2.138    0.532
         6 -11.0728    121.2875      3.9376   7.3738782141e+01   5.3363674544e+01    0.9708693    0.6169013 -83.19  0.004736823    2.561    0.610
         7 -10.8109    132.0225      3.0890   7.1395704999e+01   5.1016618640e+01    0.9522437    0.2689536  57.89  0.003765516    2.637    0.621
         8 -11.4145    144.8964      4.8391   6.9697900889e+01   4.7878454885e+01     1.115823    0.4979492  56.72  0.005268448    1.806    0.446
         9 -13.8460    166.6940     10.9888   6.8080238978e+01   4.2076820993e+01     3.235172     1.667585  59.26   0.01581641    1.633    0.388
        10 -11.1241     76.5969     19.4362   9.1010810002e+01   6.0770931372e+01    0.9763409    0.4504923 -21.74  0.004715319    2.340    0.573
        11 -10.0130     79.1300     12.3380   8.7404581856e+01   6.1100418108e+01    0.3453914    0.2795649  41.60  0.002300613    1.263    0.208
        12 -11.3271     84.1778      3.7239   8.2492984470e+01   6.0998053304e+01    0.8282874       0.4219  42.62  0.003763696    1.637    0.389
        13 -10.4973     71.0012      5.4479   8.7103466018e+01   6.3193140479e+01    0.4927565    0.3159665  40.40  0.002324818    1.384    0.277
        14  -8.9593    104.9932     25.6498   8.5152210806e+01   5.4699338383e+01    0.3635335    0.2031153  51.61    0.0018309    1.675    0.403
        15 -10.2798    117.1010     16.3349   7.8893429994e+01   5.3146802321e+01    0.8596753    0.2946675 -28.76   0.00352401    3.068    0.674
        16  -9.8958    111.9052     15.4389   7.9783590027e+01   5.4356474596e+01    0.4725972    0.2072679  40.66  0.001864763    2.129    0.530
        17 -10.7597    248.9421     15.4270   5.9865322129e+01   2.2050064438e+01     0.487153    0.3584621 -41.85   0.00305709    1.417    0.294
        18 -11.0694    248.6945      6.2903   5.8047575509e+01   2.3175391505e+01    0.7033571    0.5408367 -84.24   0.00467718    1.062    0.059
        19  -9.6745     93.9146     17.5101   8.5137890199e+01   5.7812447531e+01    0.3567537    0.3364022 -84.47  0.001844966    1.454    0.312
        20  -8.6694     64.3510     16.5808   9.3905829162e+01   6.3108580649e+01    0.2512161    0.1906482 -40.21  0.001400582    1.709    0.415
        21  -9.7851    226.0311     14.2791   6.1732889778e+01   2.7379342500e+01    0.4203714    0.2163534 -88.40  0.001986503    2.063    0.515
        22  -8.6285     20.4959     14.2354   1.1024693328e+02   6.8860851823e+01    0.3263358    0.1511615 -32.43  0.001948661    1.769    0.435
        23  -9.2087     59.8887     10.2022   9.2798385630e+01   6.4510423224e+01    0.2146098     0.143939 -18.77  0.001336359    1.396    0.284
        24  -9.8545    229.7617      6.1236   5.9609718274e+01   2.7435973287e+01    0.3131161    0.1875366 -50.96  0.001282291    1.558    0.358
        25 -10.2725    200.1864      8.0539   6.3011375616e+01   3.4210242917e+01      0.34174    0.1642853  71.24  0.001116637    1.798    0.444
        26  -9.8321    204.1797      4.1804   6.1655195498e+01   3.3647709636e+01    0.4042212    0.1967252 -40.69  0.002018848    2.076    0.518
        27 -11.4283    156.0926     20.5075   7.2511229106e+01   4.3676097400e+01     1.060976    0.3867172  56.12  0.003738517    2.258    0.557
        28  -8.5328     54.5417      7.4104   9.3504277085e+01   6.5610498746e+01     0.241935    0.1380064  54.29  0.001266367    2.784    0.641
        29  -7.5147     49.1602      6.6595   9.5160786498e+01   6.6462513202e+01    0.2519712    0.1357819  18.27  0.001431119    1.897    0.473
        30  -8.5470     52.0593      2.1641   9.2101461776e+01   6.6510451340e+01     0.236672    0.1588091  12.47   0.00104085    1.266    0.210
        31 -10.4154    214.8148      4.0477   6.0549729478e+01   3.1135261558e+01    0.4797144    0.2601802  48.72  0.002402873    2.205    0.547
        32  -9.9328     60.9289      2.2216   8.9016231739e+01   6.5152082580e+01    0.4607802    0.2334864  41.23  0.002660766    1.749    0.428
        33  -8.8289     17.2143      2.2426   1.0655418067e+02   7.0718495283e+01    0.2380521     0.210503 -52.03  0.001824627    2.215    0.549
        34  -8.5294     26.4379      3.0696   1.0278617931e+02   6.9684805658e+01    0.2269593    0.1436375 -24.86  0.001517341    1.354    0.261
        35  -8.3027     39.9045      1.4775   9.6423641722e+01   6.8258453480e+01    0.2610959   0.09433632  38.69  0.001338449    2.638    0.621
        36  -7.9375     70.3031     61.3416   1.0820825386e+02   5.5538432271e+01    0.1372499   0.09309402 -13.09 0.0006801123    1.678    0.404
        37  -7.8754    139.6297     58.6846   8.7542220192e+01   4.2542303874e+01    0.1564425    0.1092055  22.88  0.000307897    1.784    0.439
        38  -8.2545     16.0054     58.2655   1.2661616549e+02   6.1904977165e+01    0.1570105    0.1267652 -36.72  0.001115737    1.063    0.060
        39  -7.7276     66.3340     56.3173   1.0791929146e+02   5.7003974225e+01    0.1351854   0.09107511  -9.49 0.0007048031    1.694    0.410
        40  -8.2640    198.4973     54.9005   7.5038654159e+01   2.8671102146e+01    0.2071318    0.1426373 -35.33 0.0008339061    1.528    0.346
        41  -7.7087    100.6818     53.3163   9.6014746081e+01   5.1735839554e+01    0.1300052     0.111443 -79.69 0.0006507716    1.654    0.395
        42  -7.9388     34.7479     52.5963   1.1805440663e+02   6.1423936800e+01    0.1460469    0.1087604  30.71 0.0009483251    1.601    0.376
        43  -8.0889     23.0259     52.4776   1.2242438389e+02   6.2470189079e+01    0.1509464    0.1087612  14.69  0.001016834    1.552    0.356
        44  -7.9722     65.3220     51.6764   1.0672103556e+02   5.7945753963e+01    0.1155492    0.1039447 -81.56 0.0003291166    1.680    0.405
        45 -10.0361     83.3433     48.1445   9.9525559733e+01   5.5701922541e+01     0.543728    0.3674003  50.99  0.002573448    1.780    0.438
        46 -10.1891     81.1675     39.9319   9.7307412192e+01   5.7316756458e+01      0.60028    0.2780276 -36.50  0.002811796    2.129    0.530
        47  -8.0518    110.7959     46.1781   9.0763750168e+01   5.0808149219e+01    0.2018881    0.1559072  14.75  0.001088361    1.373    0.271
        48 -10.2457      3.6594     40.4117   1.2653278583e+02   6.5939234420e+01     0.416122    0.3552591 -89.12  0.003160629    1.811    0.448
        49  -8.7489     97.7524     43.4015   9.3473200112e+01   5.3811151026e+01    0.1939602    0.1149465  35.59  0.000950376    1.651    0.394
        50  -9.3688    182.9930    246.5051   1.2005597354e+02  -3.1636960379e+00    0.2011635    0.1052125  42.03 0.0006548625    1.585    0.369
        51 -10.1982     51.1219     35.7896   1.0620610025e+02   6.2407793804e+01    0.5688694    0.3458468 -47.35   0.00320817    1.929    0.482
        52 -10.1653    162.0357    243.5172   1.2360113034e+02   9.2643392536e-01    0.3544853    0.1910947  61.43  0.001602956    2.526    0.604
        53  -9.4311    193.9423     37.0126   7.1090192807e+01   3.2335252009e+01    0.3943675    0.2011405  46.89  0.001692759    2.172    0.540
        54  -9.8498    168.5191    240.4851   1.2191894302e+02   2.8247462666e-01    0.2790354    0.1090934  41.98  0.001147541    2.147    0.534
        55  -9.2040     10.1170     34.2907   1.2204499642e+02   6.6599882247e+01    0.5373416    0.3150003   9.01  0.003577103    1.853    0.460
        56  -8.5445     27.4913     35.2114   1.1520956907e+02   6.5080643192e+01     0.195678    0.1459277   2.08 0.0009862612    1.293    0.226
        57  -9.5447     66.6384     30.7971   9.8741579899e+01   6.0955474138e+01    0.5109605    0.2172085 -35.56  0.002441899    2.269    0.559
        58  -9.7077     86.7102     31.2612   9.2392894824e+01   5.7539685898e+01    0.3412947    0.2251036  26.52   0.00127553    1.472    0.321
        59 -10.3799    225.4442     29.0472   6.5111210644e+01   2.5715818406e+01    0.4058278    0.3455718  50.05  0.001301107    1.415    0.293
        60  -9.5799    207.5173    225.9901   1.1207880061e+02  -4.2919034859e+00    0.1866409    0.1274568 -35.96  0.001040733    1.615    0.381
        61  -9.3329    238.9707    202.7104   1.0190922731e+02  -6.1419018593e+00    0.1894608    0.1615762  18.58  0.001173903    1.079    0.073
        62 -12.6772    241.1218    133.3802   8.6989700071e+01   5.2130933049e+00     1.584618     1.211264  56.32  0.005140951    1.461    0.315
        63  -9.6339     41.0788    142.0899   1.3526497336e+02   4.1583577661e+01    0.3759136    0.2265273  61.62  0.001980872    1.930    0.482
        64 -10.2670      4.1586    138.6871   1.4379013453e+02   4.5576962494e+01    0.3604355    0.2497218   4.96  0.002359449    2.194    0.544
        65 -11.1049     11.3393    140.6160   1.4231735808e+02   4.4622733619e+01    0.4001695    0.3117211 -46.58  0.002775143    1.455    0.313
        66  -8.4664    125.2293     28.9943   8.1345983560e+01   4.9964060330e+01    0.2496251    0.1882829   5.23  0.001368441    1.507    0.336
        67 -11.3143     12.1000    127.5602   1.4055408029e+02   4.7493026302e+01    0.6610934    0.2031084 -61.35  0.003039368    2.296    0.565
        68  -8.0120     37.9686    120.4915   1.3267139618e+02   4.6894989854e+01    0.1754019   0.09131498  55.63  0.000810185    2.608    0.617
        69 -10.2946     11.0067    116.4952   1.3935540838e+02   5.0037362465e+01    0.4561619      0.23659 -13.43  0.002208845    3.546    0.718
        70  -8.2296     91.0000    115.0187   1.1661554853e+02   4.1198505660e+01    0.2436486   0.07762273 -52.27 0.0007995213    2.922    0.658
        71  -9.7462     10.3783     25.4095   1.1896302024e+02   6.8027438061e+01    0.4371789     0.149204 -48.00  0.002274613    2.390    0.582
        72  -9.5731     16.7723    104.6187   1.3595845629e+02   5.2257632968e+01    0.2535109    0.2247362  39.93  0.001845785    1.403    0.287
        73  -9.9959     47.1299    100.2008   1.2611850029e+02   5.0535228141e+01    0.4902874    0.1252632 -54.60  0.001793283    2.994    0.666
        74  -9.4376     30.0588    102.0640   1.3162837453e+02   5.1773748529e+01    0.3387669    0.1796965 -44.52  0.001805737    1.720    0.418
        75  -7.7434     19.7781     21.9891   1.1362792177e+02   6.7816780418e+01    0.1611556   0.09697594  -8.15  0.001036707    1.606    0.377
        76  -8.8874     68.8160     37.2315   1.0040858711e+02   5.9709159383e+01    0.3373463    0.2712925 -36.37  0.002140764    1.357    0.263
        77 -11.4178     43.9588     82.1315   1.2294944453e+02   5.4753711978e+01     1.022467       0.6931 -17.76  0.005562294    1.722    0.419
        78  -8.8798     34.9678     79.5083   1.2527968913e+02   5.6175254448e+01    0.3049824    0.1908643 -59.77  0.001258396    1.464    0.317
        79  -8.5785    226.9733     89.2122   7.9075012928e+01   1.6181013400e+01     0.239493    0.1940648 -47.49 0.0003784184    1.157    0.135
        80  -7.7134     83.3090     90.3334   1.1261213479e+02   4.7874424670e+01    0.1447373     0.104125 -18.29 0.0004308462    1.672    0.402
        81  -8.5163      2.4100     89.2921   1.3764560372e+02   5.6454112752e+01    0.2745548    0.1621361 -83.27  0.001548823    1.838    0.456
        82 -10.0515     24.4626     65.6068   1.2544940895e+02   5.9866138706e+01    0.7972926    0.2176254 -45.50  0.003393171    2.756    0.637
        83  -7.7208     12.9975     15.2379   1.1400450179e+02   6.9361974437e+01    0.1231958   0.07824438  13.45 0.0006565981    1.563    0.360
        84  -8.6434     97.4683     28.2246   8.8126835321e+01   5.5897704817e+01    0.4097286    0.2132934  -5.99  0.001687693    3.037    0.671
        85 -10.3729      3.6797     75.7492   1.3482082729e+02   5.9192689904e+01    0.5892318    0.4355777 -77.41  0.004115226    1.423    0.297
        86 -10.0514     11.0892     70.7000   1.3130858636e+02   5.9789804762e+01     0.461763     0.255323 -51.88  0.002842529    1.349    0.259
        87  -9.9840     14.0293     76.9971   1.3166753931e+02   5.8326880822e+01    0.5423044    0.3156311  -3.67  0.003189429    2.247    0.555
        88  -9.9280     16.9782     73.4931   1.2992372820e+02   5.8844108243e+01    0.3164764    0.2416437   1.61  0.002103625    1.531    0.347
        89  -9.2403    227.9696     78.6733   7.6412039171e+01   1.7744792766e+01    0.3450486    0.2740613  35.59  0.001565198    1.582    0.368
        90  -8.0090    136.0006     76.9866   9.3968113895e+01   4.0240921040e+01    0.1812267    0.1780944  19.53  0.001001847    1.007    0.007
        91  -7.8738    204.4382     76.5081   7.9618986916e+01   2.3733372145e+01     0.150005    0.1375897 -75.29 0.0001041468    1.035    0.033
        92 -10.3572     74.5955     69.3149   1.0928891928e+02   5.3427477233e+01    0.4908419    0.3512514  58.67  0.002546037    2.028    0.507
        93  -8.3529     33.3270     68.8196   1.2316249994e+02   5.8485263495e+01    0.2377069    0.1353841 -19.39  0.001244654    2.156    0.536
        94  -9.0901     16.0423     63.9681   1.2803129367e+02   6.0803073840e+01    0.2711667    0.1498558 -64.96  0.001542715    1.840    0.456
        95  -9.4445     48.4176     62.1766   1.1599316323e+02   5.8231012727e+01    0.3970089    0.2737572  12.77  0.002354282    1.605    0.377
        96  -8.8650     76.1383     60.7335   1.0608609134e+02   5.4765349444e+01    0.2644285    0.1597192 -18.14  0.001242462    2.063    0.515
