#   1 NUMBER                 Running object number                                     
#   2 MAG_AUTO               Kron-like elliptical aperture magnitude                    [mag]
#   3 X_IMAGE                Object position along x                                    [pixel]
#   4 Y_IMAGE                Object position along y                                    [pixel]
#   5 X_WORLD                Barycenter position along world x axis                     [deg]
#   6 Y_WORLD                Barycenter position along world y axis                     [deg]
#   7 A_WORLD                Profile RMS along major axis (world units)                 [deg]
#   8 B_WORLD                Profile RMS along minor axis (world units)                 [deg]
#   9 THETA_WORLD            Position angle (CCW/world-x)                               [deg]
#  10 FWHM_WORLD             FWHM assuming a gaussian core                              [deg]
#  11 ELONGATION             A_IMAGE/B_IMAGE                                           
#  12 ELLIPTICITY            1 - B_IMAGE/A_IMAGE                                       
         1  -9.9773    249.9114     16.7250   2.1685615875e+01   2.4267546219e+01    0.4646865     0.159027 -40.84  0.002453316    2.492    0.599
         2  -7.8257    191.5151      5.5527   2.3974716639e+01   3.6793542554e+01    0.1140553   0.09094238 -89.89 0.0002048801    1.047    0.045
         3  -7.2493     76.0326    248.0000   1.0067537529e+02   1.1039254074e+01    0.2197897   0.06699352  31.50 0.0008067379    2.972    0.664
         4  -8.9720    153.6394    247.2308   8.3044605021e+01   2.5820304662e-01    0.2395272    0.1949344   7.29 0.0004134086    1.111    0.100
         5  -7.6137    125.9675    249.9483   8.9630039865e+01   3.7041914282e+00    0.1550482    0.1426353  15.93 0.0004255346    1.057    0.054
         6 -10.6399     27.4629    248.3127   1.1116568038e+02   1.6787401165e+01     1.013855    0.3563014  21.79  0.003812217    4.305    0.768
         7 -10.5730     17.4055    250.1847   1.1332006154e+02   1.7437306245e+01     1.468218    0.5042435  17.99  0.004437616    7.531    0.867
         8 -10.0738      4.4904    249.3847   1.1580481283e+02   1.8860143508e+01    0.6009323    0.2597584  34.30  0.003254152    2.116    0.528
         9 -10.4475     13.1721    243.8418   1.1378398355e+02   1.9197699519e+01    0.6127812    0.3181228 -89.27  0.001526124    1.827    0.453
        10  -7.9322    224.7235    246.3643   6.8232406047e+01  -8.8643336067e+00     0.102563   0.09657907 -37.79 0.0007008101    1.671    0.401
        11  -8.8918     21.1439    243.9288   1.1216837748e+02   1.8381800890e+01    0.2681649    0.1376528 -69.86  0.001456659    1.886    0.470
        12  -8.7604      1.3700    241.2571   1.1598656111e+02   2.0857220222e+01    0.1973627   0.09400366 -76.98 0.0004718722    1.894    0.472
        13  -9.0753      4.8843    239.5723   1.1519879138e+02   2.0898372695e+01    0.2744428    0.1732079  76.06 0.0006163575    1.360    0.265
        14  -7.8390    150.2297    238.7463   8.2502956405e+01   2.3475053440e+00     0.187514    0.1452708  -4.98 0.0005448008    1.318    0.241
        15  -8.8932     50.9707    236.8563   1.0519242612e+02   1.6615107222e+01    0.3214165    0.2033259  89.54  0.001712729    1.691    0.409
        16  -9.6843    121.3654    234.4691   8.8516247084e+01   7.4887283828e+00    0.3279344    0.2464064 -37.56  0.000667756    1.444    0.308
        17  -7.3970     94.3300    236.2837   9.5126328825e+01   1.1038931560e+01    0.1331166    0.1040355 -10.33 0.0007007188    1.610    0.379
        18  -8.0783     75.4306    236.1964   9.9533362160e+01   1.3658747047e+01    0.2442754    0.1620472  -0.73  0.001145799    2.326    0.570
        19  -8.3893     41.5108    233.9590   1.0704840899e+02   1.8369586195e+01    0.3117661     0.184871 -45.88  0.001585823    2.146    0.534
        20  -7.2516     83.3421    233.3086   9.7346392128e+01   1.3225162736e+01    0.1349739    0.1043008 -16.92 0.0003062541    1.692    0.409
        21  -8.0958     36.5299    233.0258   1.0807552240e+02   1.9139521572e+01    0.2849116    0.1393934  47.92  0.000968864    1.839    0.456
        22 -10.2017     26.7929    181.2867   1.0553034876e+02   3.2706971478e+01    0.4859427    0.3305578  -5.49  0.001206333    2.036    0.509
        23 -11.9914      5.9481    224.9839   1.1412114314e+02   2.4021548412e+01     2.676984    0.7735422 -82.16   0.01019638    3.538    0.717
        24 -11.7319     23.4454    195.4916   1.0782716126e+02   2.9433021100e+01    0.9645855    0.7425891  66.75   0.00566269    1.239    0.193
        25  -8.8286     90.5717    229.9618   9.5213987443e+01   1.2959691947e+01    0.2219289    0.1818126  20.42 0.0005525512    1.262    0.208
        26  -7.8866     61.5585    229.7233   1.0206118819e+02   1.6916124711e+01    0.1801276    0.1229422 -88.13 0.0009454252    1.581    0.367
        27  -9.2820     26.4843    228.3824   1.0992159452e+02   2.1268862492e+01    0.2689883    0.1904501  43.26 0.0002682096    1.326    0.246
        28  -9.9162     19.2752    222.1836   1.1104370418e+02   2.3417106068e+01    0.5482441    0.3227873  62.28  0.002993962    1.594    0.373
        29  -9.9430     17.4986    217.9073   1.1111984059e+02   2.4582579165e+01    0.4523239    0.3143127  23.22  0.001942436    1.676    0.403
        30  -7.7331     72.9264    225.1871   9.8858773712e+01   1.6476744948e+01    0.2035019    0.1646396  66.00 0.0004370813    1.233    0.189
        31  -7.5192     55.3218    224.7177   1.0300174928e+02   1.8846099598e+01     0.140221   0.08937563  60.35 0.0001643822    1.590    0.371
        32  -8.0788    112.1746    223.6333   8.9124665390e+01   1.1200663733e+01    0.2014652    0.1292028  21.18 0.0008379532    1.649    0.394
        33  -8.3839     36.9268    223.1049   1.0713276840e+02   2.1367522975e+01    0.2621736    0.1950821  39.36  0.001542482    1.310    0.237
        34  -8.2448     86.9943    222.0527   9.5053078101e+01   1.5260362524e+01    0.2061256    0.1934589  43.29            0    1.021    0.020
        35  -8.4198     25.9375    221.6921   1.0951600409e+02   2.2864794644e+01    0.1785678    0.1492295  57.70 0.0004741023    1.108    0.098
        36  -7.2308    145.6522    221.3201   8.0741561790e+01   6.5354188231e+00    0.1420792     0.110921  62.59 0.0006247638    1.735    0.424
        37  -8.2635    249.5140    219.9407   5.9241918294e+01  -7.5721099359e+00    0.1808361    0.1414488  -5.71 0.0008164431    1.141    0.123
        38  -8.2579     49.7339    219.7940   1.0381874774e+02   2.0676072317e+01     0.255121    0.1626282   8.30  0.001217131    2.230    0.552
        39  -9.7222     31.5659    217.4553   1.0787172522e+02   2.3273231168e+01    0.3426373    0.2702664 -10.78  0.001984879    1.766    0.434
        40  -7.1215     84.9457    214.9948   9.4616858766e+01   1.7200201968e+01    0.1625274    0.1564742  81.81 0.0003077481    1.043    0.041
        41  -9.3482     27.0617    212.6013   1.0849897374e+02   2.4895345873e+01    0.3770559    0.2137705  53.83  0.001497824    1.697    0.411
        42  -9.0396     31.8296    210.7224   1.0720427145e+02   2.4854430869e+01    0.3125547     0.288918 -76.57  0.002014386    1.138    0.121
        43  -7.8705     95.4936    211.9775   9.1538978871e+01   1.6378385641e+01    0.2076651    0.1097164 -37.11 0.0008091269    2.480    0.597
        44  -7.3482     64.5372    208.5594   9.8915498642e+01   2.1535890691e+01    0.1355662    0.1320229  88.44 0.0008055629    1.068    0.064
        45  -7.9505     91.7167    204.6908   9.1422919023e+01   1.8684418602e+01    0.1916759     0.160785  68.56 0.0004720092    1.289    0.224
        46  -6.9174    115.7372    203.3184   8.5033680385e+01   1.5291242791e+01    0.1439482    0.1156697  73.03 0.0001881816    1.548    0.354
        47  -6.9335    140.4137    202.4862   7.8722407982e+01   1.1452734384e+01    0.1447988    0.1404373   6.04 6.780202e-05    1.073    0.068
        48  -8.7522    101.0975    198.6452   8.8038387226e+01   1.8726080734e+01    0.2513151    0.2094488 -52.06 0.0003684054    1.213    0.176
        49  -8.0149     78.7391    198.4082   9.3880490184e+01   2.2116166625e+01    0.2265705    0.1682378 -55.93 0.0005206685    1.340    0.254
        50  -8.0732     52.0242    199.4758   1.0100161592e+02   2.5353290166e+01    0.1983369    0.1361592  29.89 0.0003371477    1.516    0.340
        51  -7.7882     47.7678    198.9867   1.0203859211e+02   2.5980238818e+01    0.2741777    0.1715303 -14.34  0.001180862    2.630    0.620
        52 -10.8406     10.1307    208.3399   1.1207543287e+02   2.7516860041e+01    0.4325643    0.3371952  60.77 0.0003472501    1.183    0.154
        53  -7.9877     89.3494    197.4097   9.0929970951e+01   2.0821430701e+01    0.2866211     0.143092  13.63 0.0009486389    3.386    0.705
        54  -8.6296     98.3455    231.2630   9.3526730009e+01   1.1560017302e+01    0.2913502    0.1632081  -3.29 0.0009644713    4.269    0.766
        55 -10.5486     14.1293    202.6343   1.1070807597e+02   2.8534993216e+01    0.3688756    0.3394187 -40.99 0.0007779991    1.323    0.244
        56  -7.8429    106.3956    188.2414   8.4872984619e+01   2.0436949536e+01    0.2924143    0.1384101 -51.49  0.001060853    2.066    0.516
        57  -7.3375     90.3953    189.2430   8.9347411612e+01   2.2703427612e+01     0.151596    0.1148236 -10.25 0.0006932035    1.671    0.401
        58  -7.9619     64.7557    187.5220   9.6056650063e+01   2.6787189573e+01    0.2824164    0.1520704 -55.14 0.0008744508    1.770    0.435
        59  -8.2955    111.9885    230.3371   9.0142694075e+01   9.7618226811e+00    0.2303322    0.1152164   9.51 0.0007051476    4.377    0.772
        60  -7.4768     59.4244    183.1945   9.6900986699e+01   2.8592160080e+01     0.194762     0.134416 -82.92 0.0001297419    1.552    0.356
        61 -10.7740     32.4144    188.8824   1.0487493664e+02   3.0213730658e+01    0.6375401    0.4676611  83.98  0.002984601    1.332    0.249
        62  -8.4111     12.5019    182.1965   1.0935230416e+02   3.3739017968e+01    0.3661475    0.1524679 -52.32  0.001584305    2.360    0.576
        63  -8.7456      2.6449    182.1145   1.1183578313e+02   3.4524330089e+01    0.3672861    0.1698234 -43.12  0.001641134    2.645    0.622
        64  -7.3390     42.3000    182.6938   1.0152520560e+02   3.0752861107e+01    0.1452025   0.09926529  66.97  0.000277621    1.594    0.373
        65  -8.2166     80.1500    180.1261   9.0663598014e+01   2.6555541056e+01    0.4111066    0.2224668 -25.83  0.001397277    3.260    0.693
        66  -7.6146    117.0256    178.0042   8.0132702690e+01   2.1188875048e+01    0.1829246    0.1760055 -31.79 0.0003890191    1.022    0.021
        67  -7.5639     86.6360    178.1906   8.8521617836e+01   2.6087255080e+01    0.2189303     0.131018 -48.61 0.0004518174    1.649    0.394
        68  -9.6570     46.6940    176.8276   9.9554620422e+01   3.1783287961e+01    0.3789616    0.2823871 -36.30 0.0009454656    1.511    0.338
        69  -7.3211     64.3185    176.7239   9.4576673035e+01   2.9641562103e+01    0.1499391    0.1083899  64.07 0.0002994445    1.572    0.364
        70  -8.8252     27.9054    173.8344   1.0439323121e+02   3.4522627662e+01    0.3960427    0.1570897 -73.55  0.001511162    2.384    0.580
        71  -7.8542      1.5073    174.9861   1.1153343355e+02   3.6387765741e+01    0.2012241    0.1088914 -76.73 0.0006046303    1.549    0.354
        72  -9.1097    175.3090    172.3646   6.4577909006e+01   1.2097091873e+01    0.2921644    0.2538027 -10.99  0.000746232    1.136    0.120
        73  -8.0898     35.2602    173.1423   1.0227079457e+02   3.3980296265e+01    0.2057916    0.1715121 -51.45   0.00115764    1.197    0.164
        74  -9.4610     53.9385    171.1321   9.6692410465e+01   3.2421975034e+01    0.3017189    0.2541906 -32.77 0.0004426622    1.294    0.227
        75  -9.1862     16.1994    171.0165   1.0728116957e+02   3.6283416103e+01     0.260754    0.2361985  29.01  0.001258938    1.273    0.214
        76  -7.2420     42.6709    168.7334   9.9588433805e+01   3.4352149962e+01    0.1425766    0.1031421 -33.61  0.000274353    1.576    0.365
        77  -9.5899     25.9652    163.2145   1.0366485743e+02   3.7464616353e+01    0.3790445    0.2437451 -58.40 0.0003189269    1.380    0.275
        78  -7.4203      5.4800    162.4997   1.0934127635e+02   3.9275137812e+01    0.1803103     0.117022  38.72  8.19513e-05    1.687    0.407
        79  -8.3621    245.5001    161.5092   4.9166497444e+01   2.8163164079e+00    0.2392895   0.09981237 -34.26 0.0007587955    2.275    0.560
        80  -7.3147     99.0363    162.0226   8.1978510523e+01   2.8263063328e+01    0.1873748    0.1770873 -45.62 0.0003818161    1.030    0.029
        81  -8.8901     66.0606    161.7281   9.1624910222e+01   3.3345388881e+01    0.2831255    0.2487626  16.97 0.0004050366    1.230    0.187
        82  -7.5317     19.2644    162.3350   1.0547272588e+02   3.8273176554e+01    0.1413856   0.08812982 -47.58 0.0002239283    1.584    0.369
        83  -8.3515     15.9636    159.5159   1.0608799895e+02   3.9270396111e+01    0.1836132    0.1381805  12.67   0.00102413    1.592    0.372
        84  -8.4696     51.9868    157.8655   9.5208395645e+01   3.6155192663e+01    0.2162373    0.2077585 -73.23 0.0004971678    1.043    0.042
        85  -9.8897      9.6420    163.9332   1.0834092224e+02   3.8612182194e+01    0.3634306    0.2386169 -27.78  0.001909496    1.895    0.472
        86  -9.9551     74.5736    155.5464   8.7944716947e+01   3.3776836890e+01    0.5617388    0.3714387 -23.91  0.001553156    1.943    0.485
        87  -9.3928     14.8305    151.8883   1.0552129542e+02   4.1333447942e+01    0.3547107    0.2441411  -3.39  0.001882986    1.833    0.454
        88  -7.9248     50.8298    150.7625   9.4386210985e+01   3.8167764260e+01    0.2027334    0.1686797  79.49 0.0008477008    1.333    0.250
        89  -7.8230     26.0355    155.5201   1.0266123681e+02   3.9469270595e+01    0.1943462     0.139425  23.14  0.000446453    1.577    0.366
        90  -7.9824      2.0669    145.9285   1.0860022587e+02   4.3727354075e+01    0.2192815    0.1257994 -45.78  0.001122833    1.676    0.403
        91  -7.9231     90.6855    143.3347   8.0542086740e+01   3.4430745123e+01    0.1596528    0.1241514  75.64 0.0007046583    1.688    0.408
        92 -10.6261     68.5847    144.3648   8.7633355562e+01   3.7556238825e+01    0.7143884    0.5320414  73.37  0.002727225    1.740    0.425
        93  -9.0254    241.5016    141.0720   4.5824658468e+01   7.0447507467e+00    0.2047928    0.1071968 -42.14 0.0008480423    1.556    0.357
        94  -9.3978     78.6605    140.7292   8.3707036705e+01   3.7017909045e+01    0.2801178    0.2563125 -20.17 0.0002989507    1.104    0.094
        95  -8.6016     22.4423    149.5123   1.0294199974e+02   4.1347813702e+01    0.3959025    0.2214736 -17.33  0.001206893    2.527    0.604
        96  -7.5324     94.4865    139.5008   7.8532641007e+01   3.4761038635e+01     0.157952    0.1495956 -29.03 6.139754e-05    1.019    0.019
        97  -7.7961    109.0873    136.7346   7.3536874885e+01   3.2844097985e+01    0.2230789    0.1957362  35.76 0.0009035706    1.167    0.143
        98  -8.0708     12.9973    135.4965   1.0398549610e+02   4.5697481411e+01    0.1932194   0.09603822 -25.54 0.0008106547    2.611    0.617
        99  -7.6906     30.4603    132.9763   9.7929784053e+01   4.4954392717e+01    0.2151587    0.1238941 -62.85 0.0003282111    1.515    0.340
       100  -7.3169     10.3408    133.2808   1.0453289897e+02   4.6443624832e+01    0.1412822   0.08479549 -40.44 0.0007009591    1.627    0.385
       101  -8.8180    245.1436    131.3537   4.3403611085e+01   8.1857674077e+00    0.2253418    0.1170794  39.05  0.001103017    2.597    0.615
       102  -8.8278     49.9964    130.5769   9.0962121501e+01   4.3538724308e+01     0.271317    0.1968712 -55.58 0.0003245502    1.249    0.199
       103  -7.6370    250.3222    129.3153   4.2295517548e+01   7.7286430134e+00    0.1218233   0.09113293 -17.51 0.0004862241    1.661    0.398
       104  -7.0998     95.3227    126.7381   7.5283706524e+01   3.7777548357e+01    0.1516489    0.1233663  68.91 0.0004097096    1.555    0.357
       105  -7.3161     38.0022    124.6776   9.3903158078e+01   4.6364558019e+01    0.2314594   0.07814862  44.43 0.0007047385    4.269    0.766
       106  -7.6216     22.1494    122.3518   9.8955934581e+01   4.8381723088e+01    0.1816722    0.1208294  33.49 0.0005694423    1.709    0.415
       107  -7.0144     36.5448    117.4230   9.2999051248e+01   4.8346405034e+01    0.1442213     0.123599 -40.64 9.304158e-05    1.044    0.043
       108  -8.6782    248.7892    115.3959   3.9830726646e+01   1.0341765900e+01    0.1532527    0.1190093  37.71 0.0009514929    1.717    0.418
       109  -7.7578     10.7004    113.7166   1.0152346228e+02   5.1355766085e+01    0.1395541   0.08210946 -40.09 0.0001968014    1.549    0.354
       110  -9.3517     17.5090    110.7306   9.8574520335e+01   5.1639393532e+01    0.2562431    0.2187964 -52.97 0.0003781978    1.037    0.036
       111  -9.3847     70.8599    109.0803   7.8903050499e+01   4.6068454712e+01    0.2626173    0.2333017  27.54 0.0002943566    1.173    0.148
       112  -7.6592     45.6505    110.2713   8.8193631681e+01   4.9147755285e+01     0.138607    0.1102798  60.59 0.0002064771    1.627    0.385
       113  -7.5060     39.2870    100.2850   8.8256577533e+01   5.2250761969e+01    0.1447912   0.09422257 -29.01            0    1.528    0.346
       114  -8.8722     75.0093     97.8634   7.4466554311e+01   4.7991197943e+01    0.2336019    0.1995929 -34.62 0.0002808669    1.114    0.102
       115  -8.6610     18.5994     96.6461   9.5443897378e+01   5.4968808519e+01    0.3119832     0.165767 -39.62 0.0008773835    1.656    0.396
       116  -7.5859     41.3527     96.2670   8.6490951347e+01   5.2969138753e+01     0.147355   0.09579148 -22.30 0.0005443395    1.625    0.385
       117  -9.0387      4.0538     94.5383   1.0069534910e+02   5.6375838601e+01    0.2446653    0.1866634 -44.28 0.0005313891    1.072    0.067
       118  -7.6402     18.0696     92.4899   9.4773763369e+01   5.5983900740e+01    0.1754523    0.1275858   6.20 0.0003556186    1.471    0.320
       119  -7.5388      1.9803     87.9889   1.0029708479e+02   5.8006415478e+01    0.1526047     0.124477 -40.12 0.0003389831    1.052    0.049
       120  -8.2697     23.4645     82.6414   9.0291196533e+01   5.7806688004e+01    0.2154681     0.135483 -18.01 0.0006148424    1.615    0.381
       121  -7.9649      1.3492     72.7618   9.7431014584e+01   6.1451633786e+01    0.1833278   0.08621708 -51.62 0.0003460929    1.617    0.382
       122  -7.1180     46.4302     65.4886   7.5642096755e+01   5.8907835248e+01    0.1338853    0.1171077 -10.44 0.0001059242    1.064    0.060
       123  -8.0135    213.0778     62.8315   3.3752296201e+01   2.5327931265e+01    0.1878028    0.1426257 -72.53 0.0002734874    1.206    0.171
       124  -8.3373      6.0044     61.9738   9.2700475758e+01   6.3480505322e+01    0.1558174    0.1223125 -27.81 0.0005253043    1.038    0.036
       125  -8.0725      1.4049     62.0346   9.4864741781e+01   6.3725123683e+01    0.1786201    0.1013634 -56.04 0.0009948763    1.536    0.349
       126  -7.9306     12.1030     61.1504   8.9622168933e+01   6.3248331347e+01    0.1530024    0.1468488 -16.10 0.0006044435    1.315    0.240
       127  -7.5162      5.4931     54.4706   9.0878513318e+01   6.5019382991e+01    0.1235229   0.09751596 -28.18 3.837579e-05    1.035    0.034
       128  -7.6863      5.6957     43.6801   8.7481089812e+01   6.7056055525e+01    0.1300024   0.06857107 -26.40 0.0003579993    1.631    0.387
       129 -10.7909    225.8435     38.6856   2.7520038080e+01   2.6101072030e+01    0.6302652    0.4092753 -68.16   0.00400067    1.345    0.257
       130 -10.4455    231.5864     34.2839   2.6171860831e+01   2.5551515747e+01    0.3601236     0.297651  45.20  0.001243296    1.811    0.448
       131  -7.4910    105.4245     40.5429   4.6869319104e+01   5.2182407820e+01    0.1332898    0.1169899  39.65 6.205847e-05    1.022    0.021
       132  -7.7346     53.9637    249.2469   1.0564992011e+02   1.3569305104e+01    0.1704745    0.1432156  52.46 0.0003052749    1.041    0.040
