#   1 NUMBER                 Running object number                                     
#   2 MAG_AUTO               Kron-like elliptical aperture magnitude                    [mag]
#   3 X_IMAGE                Object position along x                                    [pixel]
#   4 Y_IMAGE                Object position along y                                    [pixel]
#   5 X_WORLD                Barycenter position along world x axis                     [deg]
#   6 Y_WORLD                Barycenter position along world y axis                     [deg]
#   7 A_WORLD                Profile RMS along major axis (world units)                 [deg]
#   8 B_WORLD                Profile RMS along minor axis (world units)                 [deg]
#   9 THETA_WORLD            Position angle (CCW/world-x)                               [deg]
#  10 FWHM_WORLD             FWHM assuming a gaussian core                              [deg]
#  11 ELONGATION             A_IMAGE/B_IMAGE                                           
#  12 ELLIPTICITY            1 - B_IMAGE/A_IMAGE                                       
         1 -13.9545    161.2277     52.6577   7.9308255056e+01   3.8313195889e+01     1.784658     1.262584  18.42  0.005881037    1.991    0.498
         2 -13.7051    173.7203     36.7721   7.2587147000e+01   3.7429782395e+01    0.8604608    0.8217068 -73.11  0.003126271    1.100    0.091
         3 -11.7233    190.0388     14.6717   6.4449239663e+01   3.6031775431e+01    0.3100013    0.2303811 -25.79  0.001265032    1.626    0.385
         4 -13.5597    191.4681      4.8439   6.1858087839e+01   3.6695894113e+01    0.9258941    0.5815582  70.92  0.004130336    1.345    0.257
         5 -11.1372    168.8738    234.5833   1.1941427673e+02   8.9903424730e-01    0.2368648    0.2116904 -64.60 8.366969e-05    1.328    0.247
         6 -18.4231     64.5614    245.2903   1.4068680263e+02   1.6012003947e+01     6.375024     5.327532  55.40   0.04335867    1.304    0.233
         7 -11.0820    161.1804    198.0460   1.1486454174e+02   9.1166843908e+00    0.3229878    0.2503194 -63.11  0.001215368    1.458    0.314
         8 -11.8303    154.8494    196.7231   1.1598895777e+02   1.0618934387e+01    0.3931465    0.2934993  89.32  0.001906742    1.769    0.435
         9 -11.0967    208.3604    196.9227   1.0491229728e+02   2.2072752788e-01    0.2964437    0.1944717  55.02 0.0005296424    1.819    0.450
        10  -9.7247    180.1543    192.2244   1.0974091172e+02   6.5382222228e+00     0.197676    0.1688001  71.89 0.0005002537    1.359    0.264
        11 -11.5869    167.7266    190.0541   1.1196748767e+02   9.4396350683e+00     0.413263    0.3459143  -7.34  0.001548827    1.460    0.315
        12 -12.4219    153.3717    184.9328   1.1412932534e+02   1.3373015663e+01     0.527285    0.2819891 -59.39  0.002125036    2.240    0.553
        13  -9.9813    176.5194    187.9619   1.0968043238e+02   8.1023907237e+00     0.219842    0.1451332 -45.84  0.001030672    1.586    0.369
        14  -9.9425     35.4912    212.6668   1.4317121699e+02   2.6370852355e+01    0.1770992    0.1126605  19.17 0.0009383335    2.911    0.656
        15 -11.8968     34.6068    184.2324   1.4065955461e+02   3.2711466296e+01    0.2099684    0.1841276 -80.54 0.0002571361    1.213    0.176
        16 -10.9788    163.0635    210.2258   1.1661845463e+02   6.3640255954e+00    0.2345698    0.2084502 -49.21 0.0009483426    1.233    0.189
        17 -11.7162    207.0161    179.8248   1.0174536560e+02   3.5921738684e+00    0.7343619    0.4324875  27.83  0.003174027    2.050    0.512
        18 -11.6922     11.4033    206.1556   1.4712342546e+02   3.0342118490e+01    0.2507704    0.1968956  48.45  0.001274202    1.473    0.321
        19  -9.5915    171.1581    177.1659   1.0867908596e+02   1.1391998410e+01    0.2065127    0.1770869  79.15 0.0004499537    1.335    0.251
        20 -11.9435    195.9876    171.6410   1.0226238642e+02   7.3838902363e+00    0.6944802    0.3786174 -48.31  0.002233359    1.931    0.482
        21 -10.6890    194.0102    165.7941   1.0141884230e+02   8.9548902846e+00    0.3391376    0.2840217  57.63  0.001062852    1.278    0.218
        22 -19.0615     47.5193     96.3810   1.2343752786e+02   5.1643563814e+01     18.66431     1.682277 -57.38    0.0358984   11.020    0.909
        23 -11.0114    122.1940    165.3849   1.1756566204e+02   2.3887392943e+01    0.2660863    0.2240224  88.68 0.0003248664    1.233    0.189
        24 -10.1207    223.7779    163.7258   9.5099903576e+01   3.2816142084e+00     0.255611    0.1785507 -62.52 0.0008003581    1.923    0.480
        25  -9.8645      3.6902    176.1360   1.4629309339e+02   3.7511779523e+01   0.09720775   0.06348877  57.99   0.00018531    1.503    0.335
        26  -9.3582     26.3059    165.3757   1.4043599561e+02   3.7887712028e+01    0.3209426    0.1347615  19.02  0.001288772    4.556    0.781
        27 -10.6978    163.5303    204.2709   1.1548127274e+02   7.4274651905e+00    0.2796389    0.2526259 -54.06  0.000713234    1.199    0.166
        28 -10.5738    139.6682    156.0714   1.1146118884e+02   2.2559001229e+01    0.2119625    0.1981345 -65.53 0.0006478761    1.059    0.055
        29 -12.9314    134.0000    144.4640   1.1029187736e+02   2.6395197708e+01     1.312539    0.3326893 -54.37  0.003114596    5.390    0.814
        30 -10.4851    174.8212    148.9656   1.0177353396e+02   1.6578465766e+01     0.290978    0.2190722 -65.57 0.0007997914    1.539    0.350
        31 -11.2242    158.7637    204.8689   1.1659492925e+02   8.2242045011e+00    0.3759826    0.2306728  57.97  0.001237018    1.816    0.449
        32 -12.2092    145.3847    146.4265   1.0796736645e+02   2.3556072363e+01     0.501012    0.3590928  70.99  0.002191613    1.731    0.422
        33  -9.9305     14.5371    146.5078   1.4100904631e+02   4.3283784334e+01    0.1226336   0.09465194 -77.69 -2.498794e-05    1.003    0.003
        34 -12.0266    106.0976    130.8347   1.1436300310e+02   3.5051266129e+01    0.4266575    0.3587852 -75.06   0.00122163    1.234    0.190
        35 -11.1495    107.3481    125.5993   1.1281382129e+02   3.6041398563e+01    0.2877559    0.2483435 -21.48  0.000536285    1.340    0.254
        36 -12.8895    135.7659    124.4935   1.0512879262e+02   3.0576969478e+01       1.1372    0.2685233 -49.17  0.002899975    4.466    0.776
        37 -13.2046    124.3761    126.6892   1.0857510946e+02   3.2463046891e+01    0.7994183    0.4871248 -64.31  0.003232404    1.997    0.499
        38 -10.9179    160.6472    127.6180   9.9898155338e+01   2.4369276414e+01    0.3372676    0.2498691 -64.71  0.001505955    1.534    0.348
        39 -11.5289     92.6183    124.1328   1.1649615560e+02   3.9002619771e+01    0.3180238    0.2278764  70.51  0.001488746    1.800    0.445
        40 -11.1069    113.1625    118.6669   1.0956793589e+02   3.6527145810e+01    0.2736316    0.2585644  79.45 0.0003857647    1.096    0.088
        41 -10.6698    168.4700    113.3149   9.4511564392e+01   2.5591422653e+01    0.3996673    0.2883267 -81.45  0.001164761    1.901    0.474
        42 -12.0347    118.8089    129.4868   1.1069281489e+02   3.2937765679e+01     0.418947    0.3594314 -56.13  0.001099929    1.128    0.114
        43 -10.3320    163.0648    110.2144   9.4919639577e+01   2.7502087166e+01    0.2621887    0.2253979 -63.72  0.000311167    1.207    0.172
        44 -10.2397    205.6164    110.1221   8.6157238067e+01   1.7475967318e+01    0.2851285    0.2228138  46.93 0.0007768921    1.356    0.263
        45 -11.5835    143.0363    127.8142   1.0414347067e+02   2.8259838532e+01    0.3981193    0.3022428  85.58  0.001172871    1.707    0.414
        46 -10.2730     18.1563    231.3918   1.4766615041e+02   2.4491647412e+01    0.1011586   0.06138528 -70.54 0.0003879199    1.600    0.375
        47 -10.0451    198.8901    222.5201   1.1150976531e+02  -2.4249378691e+00    0.1896248    0.1741081 -10.00 0.0004850813    1.133    0.117
        48 -11.3339     88.6471     78.1617   1.0555174671e+02   4.9653626464e+01    0.3048802    0.2279811  45.93 0.0007090908    1.467    0.318
        49  -9.3882    117.3531     78.2857   9.7284942753e+01   4.4143608411e+01    0.1507932    0.1135027  11.19 0.0007021376    1.665    0.399
        50 -13.5179    139.5437    200.3925   1.1995262459e+02   1.2798107163e+01    0.6121207    0.4805489 -46.60  0.003276066    1.409    0.290
        51  99.0000     14.3711    248.3046   1.4930602726e+02   2.1655883091e+01    0.3370284   0.09183949  47.74  0.001734978    2.693    0.629
        52  -9.7939     13.6302     59.8925   1.2612097807e+02   6.2128611330e+01    0.1613992    0.1143292 -49.06 0.0003960203    1.142    0.125
        53 -12.8173    177.7720     29.3984   6.9944830069e+01   3.7351268388e+01     0.501964    0.4313753  26.08   0.00136344    1.419    0.295
        54  -9.4081    155.6310     38.2964   7.6181538969e+01   4.1667125259e+01    0.1452198     0.104384 -78.66 0.0007029559    1.729    0.422
        55  -9.4414    125.4862     26.5069   7.8606715587e+01   5.0165215494e+01    0.1313172     0.120957  55.66 0.0008089762    1.088    0.081
        56 -12.7765    193.5178    192.7082   1.0706572153e+02   3.8219661329e+00    0.9526626    0.5521294 -55.63   0.00272321    2.192    0.544
