#   1 NUMBER                 Running object number                                     
#   2 MAG_AUTO               Kron-like elliptical aperture magnitude                    [mag]
#   3 X_IMAGE                Object position along x                                    [pixel]
#   4 Y_IMAGE                Object position along y                                    [pixel]
#   5 X_WORLD                Barycenter position along world x axis                     [deg]
#   6 Y_WORLD                Barycenter position along world y axis                     [deg]
#   7 A_WORLD                Profile RMS along major axis (world units)                 [deg]
#   8 B_WORLD                Profile RMS along minor axis (world units)                 [deg]
#   9 THETA_WORLD            Position angle (CCW/world-x)                               [deg]
#  10 FWHM_WORLD             FWHM assuming a gaussian core                              [deg]
#  11 ELONGATION             A_IMAGE/B_IMAGE                                           
#  12 ELLIPTICITY            1 - B_IMAGE/A_IMAGE                                       
         1 -13.5440    221.4545     27.8669   3.5596858483e+02   2.8055180509e+01    0.8151872    0.6752096 -43.86  0.004428554    1.139    0.122
         2 -11.9726    227.0478      9.7617   3.5143225461e+02   2.8927724061e+01    0.2621155    0.2034717 -64.61 0.0008443382    1.107    0.096
         3 -11.7092     39.0929      2.3888   1.9826409181e+01   7.4104809722e+01    0.3931571    0.0994541  50.32  0.001407996    3.401    0.706
         4 -11.0679     47.2718    229.2473   7.2234324997e+01   2.0203450493e+01    0.1792475    0.1190936  55.24  0.000869478    1.297    0.229
         5 -19.4538     13.5456    142.2930   7.5325239893e+01   4.3877470363e+01     19.27737     5.790061 -84.63   0.06532119    3.343    0.701
         6  -9.8095    210.8645    198.8440   3.3841606532e+01   4.5707201189e+00    0.1754062    0.1294743  -5.93 0.0004418123    1.153    0.133
         7 -10.9692     70.2100    197.1182   6.4101849930e+01   2.4256304180e+01    0.3606056     0.198261  84.50  0.001607704    2.486    0.598
         8 -11.5836     57.3300    194.4223   6.7130508878e+01   2.6435786737e+01      0.43581    0.2223569  71.75  0.001629703    2.467    0.595
         9 -11.2490     53.2744    189.0160   6.7685594598e+01   2.8153265409e+01    0.2458539    0.1759446  52.78 0.0003556939    1.246    0.197
        10 -11.7249     58.9851    231.4867   6.9755416728e+01   1.8493925155e+01    0.1822031    0.1590727 -78.15  0.000578402    1.336    0.251
        11  -9.5734    234.4018    191.2303   2.8783450304e+01   2.7758652581e+00    0.1482106   0.09110703 -37.91 0.0004395295    1.605    0.377
        12  -9.6757     43.3632    186.7166   7.0112842574e+01   2.9814334344e+01    0.2285273    0.1423468  72.75 0.0006581866    1.621    0.383
        13 -10.4641    157.1864    184.6131   4.1616877661e+01   1.4296120653e+01    0.1833987    0.1164892  22.22 0.0002990565    1.617    0.382
        14 -11.7015     54.6630    180.0213   6.6435942138e+01   3.0110619309e+01    0.3785268    0.3176311   2.50  0.001226152    1.455    0.313
        15 -11.2670    180.4666    168.1671   3.3910703279e+01   1.3652746834e+01     0.503445     0.385794 -17.54  0.002939651    1.266    0.210
        16 -11.2613    171.7265    175.4987   3.6998907664e+01   1.3716438096e+01    0.3022482    0.2835688 -14.12 0.0007543056    1.125    0.111
        17 -11.2234    173.7817    172.1661   3.5974397974e+01   1.3989470452e+01    0.3441919    0.2948705  63.00  0.002044623    1.601    0.375
        18 -12.8752    113.0175    172.2174   4.9778447553e+01   2.3693965563e+01    0.6716424    0.4235484  71.38  0.002812993    2.576    0.612
        19 -11.8976    110.6707    167.0373   4.9511791470e+01   2.5217832509e+01    0.3739968    0.2960961 -85.16  0.001048957    1.534    0.348
        20 -12.1029    104.5684    172.3237   5.1962811125e+01   2.4991732029e+01     0.325139    0.2741067  70.98  0.001238846    1.312    0.238
        21 -12.0610     95.9699    169.0336   5.3713322452e+01   2.7065958486e+01     0.416281    0.2887616  72.96  0.001394937    1.834    0.455
        22 -11.9362     89.3851    169.7490   5.5601882538e+01   2.7890655282e+01    0.7063029    0.4030479 -35.47  0.002952125    2.421    0.587
        23 -12.1434     83.5459    169.0318   5.7096585020e+01   2.8918040562e+01    0.5420603    0.3731162   9.79  0.002554362    1.872    0.466
        24 -10.8758    115.6937    154.9173   4.6034842385e+01   2.7127813879e+01    0.2665395    0.2354552   5.81 0.0001701179    1.235    0.190
        25 -11.7357    133.2698    145.3188   3.9657732568e+01   2.6169703693e+01    0.9806221    0.3189292 -55.40  0.002895477    4.044    0.753
        26 -11.1019     88.0419    149.1061   5.2631650094e+01   3.3087301754e+01    0.2557411    0.2406002  45.36 0.0003015342    1.051    0.049
        27 -12.6686     93.8479    143.9748   5.0000113482e+01   3.3412435571e+01    0.6021763    0.4707139 -13.23  0.001839331    1.676    0.403
        28 -11.6595    108.8802    145.4327   4.6028273873e+01   3.0499644295e+01     0.335776    0.3177675 -24.40  0.001195436    1.118    0.106
        29  -9.3674    170.5637    140.8186   3.0345966495e+01   2.0301628330e+01    0.2026277    0.1261909 -52.61 0.0009446941    1.764    0.433
        30  -9.0994    164.5263    138.5490   3.1092675735e+01   2.1832238067e+01    0.1397184    0.1326176 -36.25 9.610325e-05    1.065    0.061
        31 -12.4469    105.5566    131.8089   4.4137335607e+01   3.4342390518e+01    0.6589783    0.4241732 -42.02  0.002408833    1.657    0.396
        32 -11.6733     94.1943    131.1256   4.7335538174e+01   3.6536748600e+01    0.2867401    0.2809784  29.45 0.0004093437    1.074    0.069
        33 -10.0258    164.9716    130.9846   2.9316214462e+01   2.3221474591e+01    0.2178485    0.1737509 -75.73 0.0004803724    1.657    0.396
        34 -11.1203    113.7634    125.5079   4.0403547421e+01   3.4309927983e+01    0.3022149    0.2495985 -31.39  0.000881689    1.329    0.247
        35 -10.0705    160.6103    123.7865   2.8565588511e+01   2.5473029212e+01    0.2141331    0.1293769 -51.93 0.0008491207    1.724    0.420
        36 -12.3347     75.8552    121.6581   5.1175535239e+01   4.2042121230e+01    0.4339492    0.3677652 -67.15   0.00210311    1.151    0.131
        37 -10.5038    101.3140    120.7014   4.2876145499e+01   3.7818827937e+01    0.2777229     0.248731 -19.13 0.0004747131    1.271    0.213
        38  -9.8171     86.2424    119.9729   4.7394873988e+01   4.0729068934e+01    0.2184274    0.1936839 -59.91 0.0003078541    1.106    0.096
        39 -10.4826     85.6999    116.3936   4.6756471551e+01   4.1732181046e+01     0.309609    0.2109083  88.21  0.001276539    2.014    0.503
        40 -10.0018    109.3125    115.9624   3.9383957295e+01   3.7423994879e+01    0.2189953    0.1916163 -52.66  0.000296636    1.122    0.108
        41  -9.4374    157.5246    113.5243   2.6740760599e+01   2.8123947156e+01    0.1482092    0.1370877 -57.91 0.0001093964    1.086    0.079
        42  -9.7314     92.7358    111.7279   4.3371006611e+01   4.1627163524e+01    0.2111983    0.1757593  79.22 0.0005456312    1.341    0.254
        43 -11.0748    115.8694    109.5239   3.5891187707e+01   3.7611180568e+01    0.2568932     0.216308 -79.91 0.0006104736    1.324    0.244
        44 -15.6051     69.5640    142.9652   5.7190251517e+01   3.7454538085e+01     2.989891     1.990504  85.63   0.01038439    1.788    0.441
        45  -9.6820    150.8275    105.7802   2.6222459673e+01   3.1064537077e+01    0.2106912    0.1748734 -75.15 0.0007335322    1.378    0.274
        46  -9.6913    101.0077    106.5667   3.9469734235e+01   4.1297473703e+01    0.2276061    0.1535101  41.15 0.0003182698    1.517    0.341
        47 -11.6089    118.5615    103.6921   3.3600686421e+01   3.8376668610e+01    0.3332393    0.2653361  81.32 0.0007381759    1.520    0.342
        48 -10.8058    120.7144     98.9855   3.1723756766e+01   3.8965360578e+01    0.2270398    0.2039761 -52.58 0.0006354401    1.079    0.073
        49 -10.3734     24.4401    245.3173   7.7990767547e+01   1.9432128000e+01    0.1058909    0.0872203  33.60 0.0002868581    1.229    0.186
        50 -11.6923     88.3562    218.8224   6.1957105034e+01   1.7455837019e+01    0.3954551    0.3338002  28.44  0.001724244    1.093    0.085
        51 -12.1515     52.8715    231.8675   7.1148347828e+01   1.9092470290e+01     0.247761    0.1535673 -64.49  0.001097856    1.886    0.470
        52 -11.0487     47.2811    233.5514   7.2498367340e+01   1.9367362804e+01    0.1501196    0.1099147 -76.15 0.0009782308    1.561    0.359
        53 -12.4571    177.6727     66.3617   1.0561423843e+01   3.2236937207e+01    0.4039781    0.3688062 -51.57 0.0008427698    1.050    0.047
        54 -13.3914    194.0532     53.7961   4.9931559852e+00   3.0483906342e+01    0.9661199    0.8806084  12.34  0.003808383    1.413    0.292
        55 -12.1281    200.4204     48.3694   2.8696313293e+00   2.9858116183e+01    0.4331701     0.337224  42.31  0.001511857    1.679    0.404
        56 -10.1778     67.8707    214.6374   6.6359713963e+01   2.0813407210e+01    0.1634867    0.1289939  43.04 0.0004041935    1.064    0.060
        57 -10.7105     54.1277     59.3153   4.2483861604e+01   6.1241951046e+01    0.2498205    0.1922145 -41.03 0.0004882166    1.281    0.219
        58  -9.7453     69.8500     51.8619   3.2631871936e+01   5.9938726738e+01     0.195516    0.1737825  82.90 0.0002793481    1.289    0.224
        59  -9.4739    164.3739    206.5970   4.3699638813e+01   9.4617392618e+00    0.2164745    0.1162043 -60.19 0.0009545803    3.312    0.698
        60 -10.9869    146.1756    206.3976   4.7430038442e+01   1.1996946371e+01     0.188648    0.1040494  40.39 0.0009557989    1.771    0.435
        61 -11.0224     60.9893     21.4900   2.1754906940e+01   6.7084224549e+01    0.2462585    0.1940176 -52.60    0.0011319    1.470    0.320
        62  -9.9799     90.4989    246.2900   6.4073791993e+01   1.2211359666e+01    0.1565179    0.1114921 -51.67 0.0007539138    1.738    0.425
