#   1 NUMBER                 Running object number                                     
#   2 MAG_AUTO               Kron-like elliptical aperture magnitude                    [mag]
#   3 X_IMAGE                Object position along x                                    [pixel]
#   4 Y_IMAGE                Object position along y                                    [pixel]
#   5 X_WORLD                Barycenter position along world x axis                     [deg]
#   6 Y_WORLD                Barycenter position along world y axis                     [deg]
#   7 A_WORLD                Profile RMS along major axis (world units)                 [deg]
#   8 B_WORLD                Profile RMS along minor axis (world units)                 [deg]
#   9 THETA_WORLD            Position angle (CCW/world-x)                               [deg]
#  10 FWHM_WORLD             FWHM assuming a gaussian core                              [deg]
#  11 ELONGATION             A_IMAGE/B_IMAGE                                           
#  12 ELLIPTICITY            1 - B_IMAGE/A_IMAGE                                       
         1 -14.2157     20.1864     57.9187   8.8358137469e+01   6.4338138394e+01    0.6320572    0.5749552 -60.44  0.001164788    1.151    0.131
         2 -12.3782      3.5436     45.5115   9.3686735426e+01   6.8226071267e+01    0.8598056     0.644078  76.10  0.005233241    1.814    0.449
         3 -10.7301    170.6687     40.1535   3.5091796853e+01   3.7618543442e+01    0.2402129    0.1796959 -75.35  0.001295693    1.329    0.248
         4 -11.3100     13.7299     15.0153   7.6055529335e+01   7.3382622321e+01    0.4402139    0.2899555 -58.51  0.001517305    2.021    0.505
         5  -9.6287      8.6686      9.3052   7.6585812331e+01   7.4818440562e+01    0.1629357    0.1264551  62.84 0.0009816895    2.480    0.597
         6 -11.0995     17.6429     20.6489   7.6267040021e+01   7.2022517534e+01      0.47133    0.3309308 -10.49  0.001844003    1.363    0.266
         7 -11.3532    235.2479     14.6233   2.2468691243e+01   2.6405509483e+01    0.2724434    0.1851626  68.04  0.001101543    1.636    0.389
         8 -11.3743    208.1500     12.7598   2.3994088686e+01   3.2294671722e+01    0.2535214    0.1931911 -37.76 0.0005669098    1.355    0.262
         9 -10.8073    203.3018     12.5457   2.4330927464e+01   3.3387580872e+01    0.3334503     0.170954 -83.65  0.001669823    1.987    0.497
        10 -12.4207    194.3301     11.7186   2.4883967063e+01   3.5494444709e+01    0.4188115    0.3527963  73.42  0.002273716    1.249    0.200
        11 -11.0957    191.3227      9.7164   2.4646604052e+01   3.6393037790e+01    0.2078831    0.1910617 -66.00 0.0001822005    1.176    0.150
        12 -12.0134    126.0574     10.9325   3.2892254835e+01   5.1980070047e+01    0.3025453    0.2327492 -70.26 0.0003047569    1.375    0.273
        13 -11.1418     34.6242     12.1868   6.2019212028e+01   7.1174746992e+01    0.3162516     0.291693  41.77  0.001592309    1.392    0.282
        14 -11.7365     29.1044      8.1722   6.2830641378e+01   7.2540205472e+01    0.4355033    0.2853425   8.15  0.001620443    1.605    0.377
        15 -10.7538    171.5361     10.6714   2.6784648127e+01   4.0924908045e+01    0.3289714    0.1334614 -43.13   0.00148118    2.266    0.559
        16  -9.9597     91.0237     11.9965   4.0567988403e+01   6.0203445047e+01    0.3298224    0.1287136  42.34  0.001314966    2.668    0.625
        17  -9.9518     85.9433     11.1254   4.1528798334e+01   6.1439380232e+01    0.2490362    0.1541428  17.55 0.0007779301    2.094    0.522
        18  -9.4758    135.0341     11.0228   3.1495609888e+01   4.9772332196e+01    0.1588368    0.1357576  77.02 0.0003322865    1.036    0.035
        19 -10.1664     50.9666     10.9487   5.3479009628e+01   6.8613864152e+01    0.1837782     0.165953  28.88 0.0005267954    1.129    0.114
        20 -10.5143    148.5959      9.1199   2.8994383015e+01   4.6633546484e+01    0.2319286     0.172226   1.51  0.001287138    1.842    0.457
        21 -10.4656     97.6922      8.0805   3.7322112144e+01   5.9052106584e+01    0.3391434    0.2105163   6.64 0.0008039434    2.191    0.544
        22 -10.2857     45.7605      9.9011   5.5238889012e+01   6.9665725376e+01    0.2014942    0.1588762  33.43 0.0006093689    1.157    0.136
        23 -10.0140    182.0349      9.5534   2.5443333219e+01   3.8559514355e+01    0.1941736    0.1116547  78.18 0.0004498536    1.584    0.369
        24 -11.4788    116.8185      8.5812   3.3653264109e+01   5.4452891613e+01    0.2640678     0.233194  84.20 0.0004497688    1.088    0.081
        25 -10.2293     56.0342      8.5950   5.0147232820e+01   6.7945944146e+01    0.2345644     0.163031   2.29  0.001069599    1.588    0.370
        26 -10.0793    248.8337     12.0930   2.1122537529e+01   2.4041445821e+01    0.1771157    0.1122139 -60.34 0.0003544191    1.218    0.179
        27  -9.9565     16.1951      8.7441   7.1116383272e+01   7.4123619492e+01    0.1927981    0.1348126 -15.96 0.0007550012    1.295    0.228
        28 -11.8690     19.5419      2.3580   6.5186105490e+01   7.4636802177e+01     0.343813    0.2163976  12.71   0.00159849    1.579    0.367
        29 -10.2572     12.0036      1.7756   6.9926444472e+01   7.5630691544e+01    0.2413573    0.1925256  66.36  0.001010557    2.667    0.625
        30 -10.5918      3.8911      7.7460   7.9234520914e+01   7.5499490273e+01    0.2887812    0.2051117 -32.86  0.001976361    1.193    0.162
        31 -10.5533    165.3412      7.7870   2.6637022923e+01   4.2699501873e+01    0.1907309    0.1644303 -13.37            0    1.459    0.314
        32  -9.5146     88.8588      6.4383   3.8721309139e+01   6.1240131130e+01    0.1888775    0.1509029  -0.93 0.0006704922    1.406    0.289
        33 -11.7845    197.2974      5.3224   2.3074072947e+01   3.5490595287e+01    0.3740976    0.1560529  71.26  0.001535978    2.188    0.543
        34 -11.2717    194.1601      4.8111   2.3195702726e+01   3.6250592877e+01    0.2338777    0.1786652  70.70  0.000625345    1.329    0.248
        35 -10.6006    104.8802      3.8329   3.4091761243e+01   5.7744540037e+01    0.2566988    0.2058609  13.09 0.0009487153    1.447    0.309
        36 -10.2271     60.0797      3.6707   4.6038645814e+01   6.7677263330e+01    0.2972639    0.2068943  83.55  0.001568154    2.322    0.569
        37  -9.5843     38.9018      4.1098   5.5265904849e+01   7.1529912612e+01    0.1615913    0.1452351  28.34  0.001127819    1.206    0.171
        38 -11.1316    163.2480      2.3361   2.5312641098e+01   4.3722566441e+01    0.3916907    0.1868323 -82.04  0.001748642    2.334    0.572
        39 -11.3762    149.8632      2.6788   2.6866938698e+01   4.6927949472e+01    0.3886566    0.1938277  85.42   0.00113794    1.993    0.498
        40  -9.2204     43.6310      3.7321   5.2793027922e+01   7.0763030675e+01    0.1282334   0.07913414  22.62 0.0006993064    1.663    0.399
        41 -10.8986    123.0879      1.7510   3.0144695520e+01   5.3539973463e+01    0.2052114     0.162002  77.08 0.0006300486    1.124    0.110
        42 -10.1716    168.9345      1.4555   2.4509398259e+01   4.2444914463e+01    0.1957697    0.1097181  78.24 0.0008349729    1.579    0.367
        43  -9.0795     80.5419      1.3880   3.8583653313e+01   6.3560183191e+01     0.125683    0.1079114  50.78 0.0001035919    1.028    0.028
        44  -9.4603     28.4960      1.2921   5.9098577759e+01   7.3518643639e+01    0.2033682   0.09401275  39.77 0.0009355709    2.016    0.504
        45  -9.6311      3.5043    177.5489   1.1015439235e+02   3.6070283508e+01     0.124318    0.1019682  78.78 4.865629e-05    1.030    0.029
        46 -10.2300    110.0287    250.5783   9.2063002920e+01   8.1203879273e+00    0.1861649   0.09786488  34.19 0.0005503867    1.552    0.356
        47 -10.7438     28.4536    250.5011   1.0857205963e+02   1.8090206707e+01    0.2264959   0.09118062  33.20  0.001027748    2.105    0.525
        48 -11.8796     18.5502    248.4233   1.1039348441e+02   1.9498858846e+01    0.2975156    0.2569617 -26.82   0.00190881    1.839    0.456
        49 -12.1281      3.4069    247.8336   1.1324987925e+02   2.1070027872e+01    0.5214884    0.3443244  48.55  0.002906485    1.182    0.154
        50 -12.6907     10.6256    244.0107   1.1173809427e+02   2.1115665698e+01    0.6092723     0.261181 -87.49  0.003382012    2.277    0.561
        51 -12.9053      5.6615    240.2222   1.1255214825e+02   2.2315104956e+01    0.7362592    0.3850812  20.72  0.004178091    2.447    0.591
        52  -9.2217    226.2076    164.0560   5.5348418529e+01   5.6455920508e+00    0.1718873   0.08987182 -36.81 0.0008543601    1.683    0.406
        53 -10.3650      1.4778    158.0632   1.0949596235e+02   4.0920505813e+01    0.1844188    0.1062731 -82.98 0.0003385253    1.471    0.320
        54 -11.5700      5.5710    153.6351   1.0807083062e+02   4.1718684632e+01    0.5095698    0.2786886  18.95  0.002633683    2.171    0.539
        55  -9.6918     46.2946    152.6137   9.6250169136e+01   3.8124705500e+01    0.1755273    0.1371199  15.33 0.0005775126    1.542    0.351
        56  -9.6802     26.5490    149.8340   1.0172762535e+02   4.0923427370e+01    0.2798476    0.1624831  -3.28  0.001231977    2.793    0.642
        57 -10.8586      6.5594    145.3248   1.0715264360e+02   4.3721361140e+01     0.216084    0.1811254  72.13 0.0003742105    1.099    0.090
        58 -10.5139     29.0151    143.0429   1.0023673426e+02   4.2424953250e+01    0.1997438    0.1758169  88.54   0.00120111    1.010    0.010
        59  -9.5702    236.0572    138.4620   4.8743313503e+01   8.2519908887e+00    0.1685836    0.1272658  42.74   0.00101646    1.550    0.355
        60  -9.7793     96.0031    133.7596   7.8187186267e+01   3.5625112173e+01    0.2111108    0.2004794  64.08 0.0006308365    1.044    0.043
        61  -9.3692     50.1687    131.8329   9.2031010739e+01   4.3016735208e+01    0.1874651    0.1596581 -40.02 0.0002864446    1.288    0.224
        62 -10.5990     41.0285    128.2567   9.4438707175e+01   4.5008199541e+01    0.3223325    0.1315176 -46.39  0.001203635    2.725    0.633
        63 -10.3492     28.2153    127.8658   9.8595450003e+01   4.6414028724e+01    0.2104611    0.1721751  74.75 0.0006148316    1.198    0.166
        64  -9.5849    226.4773    124.5347   4.7300934397e+01   1.2153638203e+01    0.1325253     0.113778 -39.74 0.0001164744    1.036    0.035
        65 -11.3875     25.2009    122.4192   9.8863805092e+01   4.8094232835e+01    0.4016863    0.2330602  64.32  0.001881433    1.976    0.494
        66 -12.2207     10.5590    120.7035   1.0357261986e+02   4.9686019097e+01    0.4558836    0.4019466 -23.78 0.0001713589    1.337    0.252
        67 -11.1525     41.5483    118.9779   9.2760621261e+01   4.7351501149e+01    0.4687353     0.208645  88.17  0.001349398    4.873    0.795
        68 -10.2100     86.1593    118.8331   7.7904267115e+01   4.1025511897e+01    0.2123744    0.1782778 -29.82 0.0005162761    1.341    0.254
        69 -10.7100     69.2588    116.6285   8.2886524141e+01   4.4311232366e+01    0.2660598    0.2309422  77.49 0.0005369438    1.218    0.179
        70 -11.4416     15.3098    111.7276   1.0084681697e+02   5.1639085742e+01    0.2621955    0.1969626  66.41  0.001489989    1.397    0.284
        71 -10.2313      1.9438    114.0061   1.0577057844e+02   5.1923724283e+01    0.1957779    0.1604331 -79.09            0    1.026    0.025
        72  -9.1735     74.0000    112.8722   8.0479414675e+01   4.4519171710e+01     0.245667   0.08239576 -57.29 0.0007909979    2.864    0.651
        73 -10.7775     25.1718    112.0835   9.7389178337e+01   5.0755818487e+01    0.1923436    0.1489917  75.33 0.0008539192    1.346    0.257
        74 -10.6798     44.2671    110.0746   9.0201226763e+01   4.9329993481e+01    0.2173966    0.2042882  34.58 0.0003994178    1.154    0.133
        75 -10.0007     27.2632    107.9667   9.5986967764e+01   5.1623722439e+01    0.1840911    0.1081857 -69.88 0.0008322453    1.526    0.345
        76 -10.6678     39.1446    105.3078   9.1151978658e+01   5.1120633157e+01    0.2442512    0.1688875 -54.49 0.0005064306    1.321    0.243
        77 -10.4546      1.3733    104.2966   1.0492977499e+02   5.4396293766e+01     0.243085   0.09684917 -69.60  0.000625484    1.995    0.499
        78  -9.9715     66.6303    104.3310   8.1016598896e+01   4.7786027906e+01    0.2441942    0.1832732   0.73  0.001158523    1.739    0.425
        79 -11.0607     13.1295    103.7267   1.0054736195e+02   5.3826618539e+01    0.2511496    0.1621061 -64.01 0.0006686088    1.317    0.241
        80 -10.2179    247.0499    101.4934   3.9684963385e+01   1.2276030514e+01     0.158603    0.1261253  57.75 0.0007054528    1.527    0.345
        81 -12.7057    197.1212     97.5832   4.5864190439e+01   2.2449322738e+01    0.2716019     0.252261 -56.06  0.000431291    1.030    0.030
        82  -9.9179     61.3295     99.3240   8.1711863837e+01   4.9807594258e+01     0.152767    0.1091378 -26.30 0.0007049896    1.699    0.411
        83 -12.2305     19.9027     93.0499   9.6266133863e+01   5.6013167487e+01    0.5271567    0.3268331 -32.04  0.002677807    1.795    0.443
        84  -9.9476     37.2904     95.7167   8.9939602012e+01   5.3737105821e+01    0.2717164     0.169351 -86.89  0.001237652    1.992    0.498
        85  -9.5159     93.7722     94.9724   6.9463748765e+01   4.5341341445e+01    0.2007639    0.1235222 -49.27 0.0003639338    1.595    0.373
        86 -11.2105     11.0122     93.4230   9.9847475702e+01   5.6554515170e+01    0.2948705    0.1924292 -64.14 0.0004879523    1.293    0.226
        87 -11.6802      7.0992     90.5757   1.0097032992e+02   5.7500945914e+01    0.2663073    0.1854025 -67.20  0.001531408    1.213    0.175
        88 -11.8475    125.1385     93.0840   5.9794822287e+01   3.9246372683e+01    0.2657269    0.2539411  43.71 0.0002731759    1.078    0.072
        89 -10.0903     31.0287     93.3079   9.1899994355e+01   5.4975093684e+01    0.3312899    0.2172543  71.33   0.00126937    1.971    0.493
        90 -10.5087    105.9627     92.1090   6.4898173586e+01   4.3552121249e+01    0.3575146    0.2083059 -64.26 0.0009764539    2.320    0.569
        91 -11.5252     58.1117     91.3890   8.0938626934e+01   5.2203966738e+01    0.3472101    0.2455169 -26.93 0.0008784126    1.672    0.402
        92 -10.3124    160.0030     89.0360   5.0520047826e+01   3.2173380112e+01    0.2364279    0.1756027 -76.39 0.0005104105    1.634    0.388
        93 -10.2758     83.5023     90.1511   7.1488707581e+01   4.8363673925e+01    0.2412627     0.205018  35.59 -0.0002873949    1.211    0.174
        94 -10.7275     30.3121     84.7355   9.0389052138e+01   5.7156402196e+01     0.224079    0.1977419 -40.93 0.0003432408    1.083    0.076
        95  -9.9676     17.7955     84.9058   9.5642363695e+01   5.8188567562e+01     0.210775    0.1512844 -44.22 0.0006981957    1.298    0.230
        96  -9.7309     34.8109     84.2119   8.8406630275e+01   5.6830595135e+01    0.1908556    0.1810731 -88.64 0.0006203906    1.131    0.116
        97 -10.8897      8.5303     82.9738   9.9183911190e+01   5.9284686560e+01    0.4680419    0.1966314 -40.81  0.002060566    2.382    0.580
        98 -10.3450      2.4940     83.0906   1.0173162756e+02   5.9587176691e+01    0.2032658    0.1088724 -72.01  0.001034627    1.596    0.373
        99 -11.3918     66.5289     79.8277   7.4580635008e+01   5.3632106067e+01    0.3704712    0.2716779 -14.43  0.001778886    1.733    0.423
       100  -9.6111    178.6409     81.2680   4.4932423076e+01   2.9334556088e+01    0.1482136    0.1072341 -77.50  0.000699276    1.641    0.391
       101  -9.5227     43.1505     80.7908   8.4120249099e+01   5.6711896478e+01    0.1780746    0.1456384 -29.63 0.0009852386    1.240    0.194
       102 -10.3453     86.2319     78.4213   6.7090879342e+01   5.0459233127e+01    0.4407071    0.3012071  66.47  0.001938596    2.002    0.501
       103  -9.8717     44.6711     94.3686   8.6790101281e+01   5.3237151500e+01    0.2164426    0.1603968  71.96 0.0006972163    1.662    0.398
       104  -9.9461     87.5016     75.4558   6.5734465867e+01   5.0844327044e+01    0.2460781    0.2037776  38.80 0.0005062651    1.219    0.180
       105 -10.4336     48.0922     78.9307   8.1594202349e+01   5.6530267098e+01     0.209662    0.1866567 -34.44 0.0003588086    1.077    0.071
       106 -10.9246     53.4115     75.6533   7.8499996186e+01   5.6565578407e+01    0.4597242     0.296709  19.25  0.001494985    1.793    0.442
       107  -9.3542    157.9827     77.0582   4.7656697823e+01   3.4838103865e+01    0.1795984    0.1634267 -55.04 0.0004698522    1.060    0.057
       108  -9.4250     61.6577     77.6956   7.5818846288e+01   5.4883644530e+01    0.1485367    0.1085276 -16.92 0.0003090276    1.683    0.406
       109 -10.0072     22.5583     76.7460   9.1929464039e+01   5.9786083021e+01    0.1788277    0.1207781 -77.82 0.0005011182    1.578    0.366
       110 -11.5490     13.1043     76.5227   9.6041686861e+01   6.0555995913e+01    0.3715499    0.2220345  -4.03  0.001909879    2.031    0.508
       111 -11.8142      4.8022     74.7705   9.9387387865e+01   6.1476289500e+01    0.3356788     0.253945 -74.01  0.002049346    1.215    0.177
       112 -10.0303    176.9884     76.3338   4.3930597986e+01   3.0559300749e+01    0.2063254    0.1825361  70.45 0.0008912259    1.154    0.134
       113  -9.7510    250.4129     80.7506   3.5017923957e+01   1.4805950083e+01    0.1678292    0.1032868 -31.72 0.0005570031    1.543    0.352
       114 -11.4077    151.2103     72.1839   4.7652902159e+01   3.7295151041e+01    0.2547916    0.2460937 -72.93 0.0002187517    1.039    0.037
       115  -9.5004     34.7520     73.2921   8.5735967222e+01   5.9433150730e+01    0.2778303    0.1021155  33.71  0.001098677    2.787    0.641
       116  -9.0905    116.2909     72.3560   5.6004113541e+01   4.5387925678e+01    0.1514164    0.1200535   3.32  0.000702811    1.684    0.406
       117  -9.5676    105.8591     71.8567   5.8796653611e+01   4.7789964146e+01    0.2014785     0.168846  70.85 0.0006051322    1.321    0.243
       118 -10.1617     93.1799     71.4036   6.2561921193e+01   5.0548657759e+01    0.4411339    0.2299053  60.43  0.001604214    2.807    0.644
       119 -10.6575     80.9903     67.6543   6.5440352981e+01   5.3709378793e+01    0.4401031    0.1878801 -45.49 0.0003328701    2.328    0.570
       120 -10.0741     75.0435     71.4892   6.8835331856e+01   5.4010781813e+01    0.2139633    0.1419868  38.45 0.0005011951    1.530    0.347
       121 -10.0867     46.6891     69.1090   7.9372882064e+01   5.8959852793e+01     0.362185    0.2320962  34.69 0.0009241176    1.639    0.390
       122 -11.0544    191.4657    249.4981   7.5924237616e+01  -2.5196482836e+00    0.1978688    0.1286682  19.66   0.00101257    1.290    0.225
       123 -12.2154      6.9712     64.2824   9.6367373883e+01   6.3826898846e+01    0.8936848    0.1851718 -53.00  0.003330779    3.093    0.677
       124 -12.1781      4.2510    233.3123   1.1257006210e+02   2.3803360029e+01    0.4527164    0.2006517  41.94  0.002098466    1.735    0.424
       125  -9.6506    211.7280     67.4378   3.6554941274e+01   2.4313659693e+01    0.1601296    0.1259083  55.57 0.0003867744    1.452    0.311
       126  -9.3087     50.9912     67.0000   7.6891705695e+01   5.8840080057e+01     0.224093   0.07850903  32.48 0.0008077117    2.979    0.664
       127  -9.8359     39.9768     65.3102   8.1171399197e+01   6.0654697444e+01    0.1818026    0.1680683   6.10 0.0003458413    1.117    0.105
       128 -10.2499     38.9768     61.5251   8.0464087561e+01   6.1609121242e+01    0.1826729     0.169104 -11.92 0.0003726936    1.064    0.060
       129  -9.9705    138.5145     63.0144   4.7635229685e+01   4.1902513555e+01    0.2175585    0.1448637 -37.57 0.0004018086    1.534    0.348
       130  -9.6927     63.0000     62.4286   7.0435658867e+01   5.7976097905e+01    0.3057163   0.07742835 -48.73 0.0009256668    3.862    0.741
       131 -10.9159     57.4261     59.5675   7.1729734544e+01   5.9460285682e+01    0.4441897    0.2763606   5.06  0.001166353    2.478    0.596
       132  -9.8389     91.0461     59.8500   5.9358007482e+01   5.3231044612e+01    0.2189841    0.1952907 -75.62 0.0006742804    1.291    0.225
       133 -10.3789    146.0514     59.0098   4.4827025624e+01   4.0761846412e+01    0.2820554    0.1986453  60.10  0.001383636    1.390    0.280
       134  -9.1983     65.7202     59.2737   6.8259951588e+01   5.8159495135e+01    0.1291345    0.1116693  82.26 0.0001656693    1.497    0.332
       135  -9.8921     49.1154     59.1429   7.5141318823e+01   6.0788357415e+01    0.2082449    0.1696998  78.84  0.001120797    1.723    0.420
       136 -12.2385    119.3773     47.3084   4.6960876683e+01   4.9019064366e+01    0.2947011    0.2756284 -64.16  0.000269478    1.099    0.090
       137 -13.7253    114.5169     53.1475   5.0176257410e+01   4.9225616391e+01    0.4229077    0.3888953  66.22 0.0007873678    1.067    0.063
       138 -13.0927    106.2245     50.3017   5.1411399067e+01   5.1597917226e+01    0.4338813    0.3250147  66.78  0.000519902    1.440    0.306
       139  -9.3842    130.9224     57.4219   4.7588703309e+01   4.4653001759e+01    0.1933881    0.1255375  87.53 0.0005384012    2.204    0.546
       140 -10.7621     71.5526     56.6900   6.5080503406e+01   5.7635451343e+01    0.3228527    0.2315504  52.07  0.001634532    1.549    0.354
       141 -10.2549      3.0432     57.8092   9.6907445717e+01   6.5525755629e+01    0.2155803    0.1094962 -30.67 0.0008804791    1.996    0.499
       142  -9.7347     32.9750     55.5187   8.1375799986e+01   6.3604903223e+01    0.2148151     0.151859 -30.86 0.0003837243    1.373    0.272
       143  -9.4534     36.3550     54.2675   7.9343159368e+01   6.3479238195e+01    0.2518417    0.1979186  -5.54 0.0006570307    1.324    0.245
       144 -10.1963     38.5635     51.4937   7.7338137712e+01   6.3784968514e+01     0.254689    0.2039234  17.32  0.001080491    1.273    0.214
       145 -12.2119     86.6584     53.8383   5.8656947834e+01   5.5234068870e+01     0.448123    0.2986507  36.43 0.0008252026    1.541    0.351
       146 -12.1260     66.8357     52.5054   6.5364450711e+01   5.9279876494e+01     0.526471    0.2377544  38.46  0.001670544    2.236    0.553
       147 -10.4523     45.0208     52.4347   7.4647499151e+01   6.2742432842e+01     0.235524    0.1636459 -31.75 0.0006308376    1.424    0.298
       148  -9.3288    181.9694     52.0163   3.6702054312e+01   3.3264625659e+01    0.1679652    0.1477801 -61.89 0.0003891694    1.042    0.040
       149 -10.2938    148.9515     52.1936   4.2200038235e+01   4.1138453538e+01     0.223208    0.1830819 -78.78 0.0005907103    1.256    0.204
       150  -9.7719    232.3914     50.9411   3.0504244327e+01   2.2446987345e+01    0.2185086    0.1043532 -37.02 0.0008425674    1.824    0.452
       151 -11.1490    138.1335     49.2793   4.3432184766e+01   4.4210095543e+01    0.4878697    0.3000433 -38.19   0.00150178    1.652    0.395
       152 -10.7165    145.1777     48.0469   4.1651564212e+01   4.2682948713e+01    0.2229265    0.1912221  67.36  0.001232458    1.117    0.105
       153 -10.2829     74.5237     47.6611   6.0593455311e+01   5.8741771467e+01    0.2550257    0.2016681  71.12  0.001005879    1.670    0.401
       154 -10.8732    155.2511     46.8765   3.9464522200e+01   4.0402817523e+01    0.2567822    0.2407868  63.58 0.0005045438    1.121    0.108
       155 -10.9050     68.7124     46.4332   6.2309802155e+01   6.0051581538e+01    0.2539337    0.2064612  24.96  0.001002694    1.226    0.184
       156 -11.3065     79.1517     45.4661   5.8077291822e+01   5.8212854462e+01    0.2451629    0.2347263  52.05 0.0003630808    1.115    0.103
       157  -8.9427     54.3389     46.3264   6.8182703343e+01   6.2545101238e+01    0.1418402    0.1001878  -6.57 0.0007051544    1.729    0.421
       158 -10.5018     26.5888     45.1683   8.1097323706e+01   6.6458410653e+01    0.3734069      0.29276  31.88  0.001813622    1.409    0.290
       159 -10.3715     30.0167     41.7890   7.8079031953e+01   6.6760374433e+01    0.3462175    0.2552516 -82.83  0.001839739    2.211    0.548
       160 -11.0324     16.7744     42.7541   8.5535563958e+01   6.7884750694e+01    0.4927223    0.2627112 -53.34  0.001724392    1.652    0.395
       161  -9.9705    221.0347     43.0659   2.9850363041e+01   2.5831898707e+01    0.1900856    0.1534289 -61.24 0.0002890784    1.024    0.023
       162 -10.9832    184.1764     40.5043   3.3354553901e+01   3.4369367965e+01    0.3504838    0.2668421 -84.41  0.001311241    1.265    0.209
       163 -12.0408    141.5789     41.1398   4.0174336562e+01   4.4561103927e+01    0.2862496    0.2311299  84.18 0.0002992504    1.234    0.190
       164 -10.6059     88.6649     49.1203   5.6254594013e+01   5.5641698631e+01    0.3795843    0.2516638  66.72  0.001637756    1.956    0.489
       165  -9.6100     86.5802     42.2195   5.4300671958e+01   5.7218537110e+01    0.1789218    0.1331329 -19.59 0.0002414177    1.511    0.338
       166 -10.3975     38.0380     41.1366   7.3739665696e+01   6.5899964385e+01    0.3559438    0.2046934  10.09  0.001524566    2.303    0.566
       167 -10.0972    202.0096     41.5280   3.1478862471e+01   3.0153743085e+01    0.1848339    0.1224474  72.44 0.0003585363    1.514    0.339
       168  -9.5819    230.1506    247.2314   6.8817160942e+01  -6.8035737180e+00     0.132524    0.1102602   8.46 0.0004969592    1.278    0.218
       169  -9.6919     43.8323     39.8587   7.0399620061e+01   6.5338932471e+01    0.1611062    0.1538373  48.62 0.0003029312    1.285    0.222
       170 -12.8370    121.1897     37.2333   4.3058825747e+01   5.0062855968e+01    0.4308625    0.3643127 -47.91  0.002426228    1.236    0.191
       171 -11.3622     58.7539     65.9488   7.3327348541e+01   5.7917425934e+01    0.3487842    0.2202217 -48.84 0.0005100947    1.528    0.345
       172 -11.4635      1.9374     35.3899   9.1722393722e+01   7.0451755905e+01    0.3447716    0.1755155 -55.88  0.001897736    1.634    0.388
       173  -9.4502     71.6954     35.3173   5.6660012276e+01   6.1334824088e+01    0.1284577    0.1087966 -82.04  0.000520056    1.626    0.385
       174 -11.5968    206.0347     32.3500   2.8825561008e+01   3.0453925809e+01    0.2570743    0.1853308 -54.41 0.0002244813    1.198    0.165
       175 -10.1479     49.8456     33.4633   6.4870851649e+01   6.5543516017e+01    0.2010188    0.1664778 -40.47 0.0003468232    1.281    0.219
       176  -9.7650     40.8619     34.5758   6.9634133172e+01   6.6716006276e+01    0.1754629    0.1193045  31.11 0.0005750633    1.461    0.315
       177 -10.7838     28.4733     33.2201   7.5507902271e+01   6.8573666822e+01     0.245325    0.1625455 -16.93 0.0007518565    1.600    0.375
       178 -10.7480    144.5824     30.0773   3.6140533033e+01   4.5291472635e+01    0.5314395    0.2417743 -32.07   0.00227776    2.284    0.562
       179 -11.5363    135.8580     29.3424   3.7422977618e+01   4.7527541480e+01    0.3020611    0.2249769 -59.67  0.000319778    1.418    0.295
       180 -11.5579     91.1406     26.7508   4.6707022321e+01   5.8463597644e+01    0.3813802    0.2846574  53.77 0.0002579491    1.248    0.199
       181 -12.3731      9.9312     29.5218   8.4827634928e+01   7.1091731525e+01    0.3889099    0.2189237  34.12  0.002166007    2.062    0.515
       182  -9.4766    188.5298     30.0001   3.0088299099e+01   3.4715921978e+01    0.1666259    0.1168896   7.22 0.0008081613    2.464    0.594
       183  -9.1064     59.4309     30.4807   5.9364461412e+01   6.4388266736e+01    0.1331223    0.1160164   7.86 0.0003753392    1.075    0.070
       184 -10.0540     38.9450     30.3754   6.8753007303e+01   6.7718479026e+01    0.1749333    0.1437905  15.89 0.0004027752    1.150    0.130
       185 -10.4753     54.2954     29.1593   6.0955916219e+01   6.5497681411e+01    0.2120643    0.1759951  39.93 0.0003824399    1.235    0.190
       186  -9.4160     59.5257     41.5544   6.4057706470e+01   6.2547032862e+01    0.1323549    0.1241097   4.69 8.034822e-05    1.045    0.043
       187  -9.9803     80.9445     26.8871   4.9870504874e+01   6.0666271246e+01    0.1958808     0.186736  32.41 0.0005160661    1.055    0.052
       188 -10.2583     68.5581     26.2430   5.3877142486e+01   6.3290760698e+01    0.2513724    0.2000192  31.34  0.001203452    1.177    0.150
       189 -10.1672    217.0319     25.7917   2.6275800818e+01   2.8872531919e+01    0.1942374     0.135795 -65.24 0.0004266154    1.223    0.182
       190  -9.2464    168.6684     26.7020   3.1587381337e+01   3.9824056615e+01    0.1317336   0.09884746  41.11 0.0007029819    1.643    0.392
       191  -9.8638    128.2314     31.5545   3.9614164376e+01   4.9114609678e+01     0.271474    0.2463156 -55.71  0.001604818    1.140    0.123
       192  -9.6951     81.9612     32.2817   5.1812190609e+01   5.9700836567e+01    0.1898604    0.1619671  42.69 0.0003699851    1.099    0.090
       193 -10.4091    102.7182     26.1192   4.3344555327e+01   5.5903474645e+01    0.2632561    0.1640358 -32.21  0.001315951    1.714    0.417
       194  -9.6884     75.7995     26.2310   5.1294833985e+01   6.1831986303e+01     0.185151    0.1446464  19.05  0.001042038    1.344    0.256
       195  -9.3763     18.5921     26.2282   7.8197892869e+01   7.0934662899e+01    0.1754594    0.0939583 -37.89 0.0008094265    1.678    0.404
       196  -9.6586    191.5521     24.7746   2.8423981306e+01   3.4653712010e+01    0.1830664    0.1038118 -46.95 0.0004514107    1.587    0.370
       197  -9.7876     51.3573     24.8954   6.0279295676e+01   6.6652542664e+01    0.1772281    0.1532974 -11.55 0.0006837682    1.101    0.091
       198  -9.0346    119.2733     24.6892   3.9034147242e+01   5.2141775486e+01    0.1352908    0.1002955 -68.38  0.000276014    1.552    0.356
       199  -9.5884     34.2537     23.8299   6.8166431430e+01   6.9468076167e+01    0.1733775    0.1269402  -1.00 0.0004630773    1.378    0.274
       200 -10.0608    128.1704     23.1060   3.6735463948e+01   5.0162210328e+01    0.2023653    0.1710734  46.83 0.0003423051    1.212    0.175
       201 -10.3024    200.2935     21.9435   2.6859746658e+01   3.2999369956e+01    0.1744043    0.1461924 -60.20 0.0004022263    1.079    0.073
       202  -9.3910    224.4944    247.5009   6.9806020530e+01  -6.2026954578e+00    0.1104753   0.08380865   3.40 -0.0001727472    1.021    0.020
       203 -10.0084    170.9476    246.7863   7.9411843903e+01   5.0371263308e-01    0.1877694    0.1369711   9.21 0.0009359516    1.283    0.221
       204 -10.7375     52.0013    243.5910   1.0344700393e+02   1.6778403948e+01    0.2932455    0.1898801  84.88  0.001822772    1.604    0.376
       205  -8.9499     12.6701     20.2805   7.9253439727e+01   7.2576344407e+01    0.1547428    0.1429687  -6.08 0.0003192631    1.222    0.182
       206 -11.0019      2.0315     20.5183   8.6431953141e+01   7.3376956868e+01    0.2609349    0.2044508 -61.30 0.0008174406    1.448    0.309
       207  -8.2748      6.5037     19.8985   8.3148477034e+01   7.3170260660e+01    0.2794627    0.1896623  -6.40  0.001682979    1.412    0.292
       208  -9.4880    132.1155     20.5808   3.5168433367e+01   4.9483066005e+01    0.1935218    0.1090815  54.20 0.0007346908    1.655    0.396
       209  -9.6744    214.6911     19.6936   2.5075584380e+01   3.0093981689e+01    0.1100378   0.09455138  41.68 0.0003304709    1.612    0.380
       210  -9.4584    184.4791     19.5063   2.7800704575e+01   3.6908278912e+01    0.1300285    0.1117896 -77.68 2.952495e-05    1.023    0.023
       211  -9.4697    119.8693     18.8733   3.6824525850e+01   5.2663531390e+01    0.1801167    0.1478681 -82.24 0.0003794036    1.279    0.218
       212  -9.5231    104.1572     18.7836   4.0135178961e+01   5.6433895563e+01    0.1798317    0.1393224  38.58 0.0003136373    1.298    0.230
       213 -10.8719     75.2772     17.7151   4.7666180097e+01   6.3027542445e+01    0.3305412    0.2134932  61.87 0.0008836662    1.655    0.396
       214 -10.9948     70.0308     18.0885   4.9613421744e+01   6.4068251479e+01    0.3474602    0.1941717  54.12  0.001734909    1.738    0.425
       215 -10.3228     37.5411     17.9746   6.3534593756e+01   6.9903810885e+01    0.2606914    0.2515725  71.95  0.001090793    1.469    0.319
       216  -9.7987     39.4877     14.5277   6.0746173060e+01   7.0098680855e+01    0.1980764     0.114269 -32.72 0.0006693179    1.732    0.422
       217  -9.5344     54.4482     18.4723   5.5821957487e+01   6.7021864924e+01    0.1274052    0.1114626  15.16 6.434746e-05    1.008    0.008
       218 -10.8313    238.1824     16.8314   2.2737611615e+01   2.5571957137e+01     0.185128    0.1663097 -65.46 0.0002452122    1.237    0.191
       219  -9.3971     61.1699    240.6487   1.0132903524e+02   1.6246869036e+01    0.1642465    0.1029537  25.05 0.0005427967    1.718    0.418
       220 -10.1224    154.8801     17.3107   3.0663524116e+01   4.4251789720e+01    0.2188319    0.1478565 -87.48  0.001158659    1.461    0.316
       221 -10.1384    125.0892     17.0270   3.5190603158e+01   5.1592744084e+01    0.2001299    0.1762802  67.01 0.0003839082    1.036    0.034
       222 -10.2767     82.8194     16.0837   4.4594430892e+01   6.1597136964e+01    0.2375039    0.1783286  28.78   0.00023579    1.354    0.262
       223 -10.3460     60.7375     16.1211   5.2103745468e+01   6.6152492733e+01    0.2427595    0.1990834  79.68  0.001428762    1.728    0.421
       224 -10.1125    203.0163     16.5292   2.5306702266e+01   3.3010682317e+01    0.1831898    0.1113496  80.53 0.0004670706    1.550    0.355
       225 -10.2632    169.9006     15.5840   2.8321942315e+01   4.0798134937e+01    0.2661254    0.1291981 -62.39  0.001173252    2.291    0.563
       226 -10.8620    160.4804     15.8203   2.9503829969e+01   4.3047663189e+01    0.3632613    0.1592148  63.14  0.001047887    2.039    0.510
       227  -9.6813    222.3049     14.3239   2.3288441104e+01   2.9088399527e+01     0.106112   0.09268608  40.11  0.000389237    1.641    0.391
       228 -10.7664     29.9588    241.0000   1.0778243509e+02   1.9743665180e+01    0.3081234   0.05599052  29.78   0.00104699    4.895    0.796
       229  -9.4371    204.1843    235.4010   7.1562921163e+01  -2.1825728581e+00    0.1469324   0.09669312  33.88 0.0005113987    1.490    0.329
       230 -10.0996    116.0115    246.4887   9.0396610996e+01   8.0106444270e+00     0.164674    0.1601012 -81.31 0.0005673292    1.237    0.192
       231 -10.2184     38.9886    242.2573   1.0602431938e+02   1.8519369493e+01    0.2516278    0.1047798  68.99 0.0009871264    2.709    0.631
       232  -9.9120      1.5796    171.0033   1.1026110527e+02   3.7776524006e+01    0.1938241    0.1036017 -83.12 0.0005134941    1.603    0.376
       233 -10.1827      6.9712    168.4721   1.0872139273e+02   3.7971295161e+01    0.1759875    0.1180441  32.43 0.0004586485    1.569    0.363
       234  -9.8474     32.1937    233.1524   1.0688323026e+02   2.1057818383e+01    0.1630969    0.1421033  57.17  0.000433713    1.163    0.140
       235 -10.1356    245.0232    229.8957   6.3755778429e+01  -6.3224539098e+00    0.3110983    0.1129204  28.11  0.001570989    2.769    0.639
       236 -10.8852    140.1256    227.9876   8.3082461699e+01   7.8264341555e+00    0.2815845    0.1923651 -69.86  0.001536988    2.099    0.523
       237 -11.5047      3.3911    227.8149   1.1253211763e+02   2.4986810405e+01    0.2187974     0.160997 -85.32  0.001538513    1.341    0.254
       238 -10.8639      1.6455    223.9997   1.1273902182e+02   2.5922162837e+01    0.2050328    0.1194341  72.73 0.0004779604    1.400    0.286
       239  -9.4944     17.6808    227.7080   1.0960595344e+02   2.3660623688e+01    0.1000631   0.08916102 -42.37 0.0003280131    1.604    0.377
       240 -10.6632     12.5860    226.7896   1.1061545486e+02   2.4343415364e+01      0.16163   0.08905598  78.51 0.0005479016    1.611    0.379
       241  -9.7230    223.4286    226.5145   6.6797826983e+01  -3.3625192027e+00    0.1151653   0.09094724  -2.09 9.444285e-05    1.016    0.016
       242  -9.5687    210.2728    229.3739   6.9548256769e+01  -2.1144698102e+00    0.1218068    0.0761864  -7.10 0.0007000598    1.685    0.406
       243  -8.9622     61.2795    224.6348   1.0000710262e+02   1.9424171900e+01    0.1341504   0.07848648  63.04 0.0005687897    1.680    0.405
       244  -9.5475    130.9949    221.2037   8.4117424814e+01   1.0395901672e+01    0.1883011   0.09185334  34.61 0.0008785591    1.796    0.443
       245 -10.6349      8.0040    220.0030   1.1126114917e+02   2.6179652439e+01    0.1590813    0.1274216 -59.52 0.0003861459    1.587    0.370
       246 -10.0088      1.8307    218.8601   1.1250037711e+02   2.6972341466e+01    0.1705252    0.1014429  64.52  0.000525964    1.325    0.245
       247  -9.4957      9.6294    216.7166   1.1076807554e+02   2.6723442371e+01    0.1043448   0.08834194 -39.62 0.0007016232    1.701    0.412
       248 -10.4546     85.9206    215.0255   9.3480044418e+01   1.8174734269e+01    0.1888672    0.1659042  54.09  0.001185686    1.019    0.019
       249  -9.3739    205.4424    211.7615   6.7598218992e+01   1.0995360284e+00      0.16734    0.1032355 -25.22 0.0009394962    1.602    0.376
       250  -9.5135     20.2806    209.4462   1.0806090249e+02   2.7277415390e+01    0.1698363   0.08978707  45.56 0.0009237248    1.571    0.363
       251  -9.9942     39.3023    206.9608   1.0355337157e+02   2.5827242555e+01    0.1783495    0.1449117  78.24 0.0005435044    1.101    0.091
       252 -10.2915      3.2877    207.6636   1.1171920890e+02   2.9236460631e+01    0.1291096   0.06522963  61.80 0.0002930171    1.632    0.387
       253  -9.5733    124.0028    205.9809   8.3538610561e+01   1.4402255835e+01    0.1544151     0.139464  36.23 0.0009319971    1.003    0.003
       254  -9.3797     46.4477    202.5089   1.0150820800e+02   2.6007695261e+01    0.1307786     0.108989  65.42 8.862536e-05    1.014    0.014
       255  -9.6554    194.0220    201.4876   6.8002181446e+01   4.3615155898e+00    0.1874411    0.1164379  32.26 0.0006002998    1.544    0.352
       256 -10.9260      4.4920    201.1039   1.1115042034e+02   3.0576271216e+01    0.1772306    0.1013359 -85.40 0.0007196729    1.551    0.355
       257  -9.4793     22.4832    200.5317   1.0700743985e+02   2.9044972573e+01    0.1266373    0.1014517  67.90 5.684819e-05    1.014    0.013
       258  -9.8200     19.0000    195.0293   1.0746854038e+02   3.0636926093e+01    0.2019577   0.06350123 -77.76 0.0008052402    2.962    0.662
       259  -9.3489      1.0000    191.0774   1.1146338634e+02   3.3125375800e+01    0.1867814   0.05913445 -81.38 0.0005728464    2.790    0.642
       260  -9.0912     18.4882    182.4975   1.0674745874e+02   3.3611935675e+01    0.1280394    0.1069658  76.37 -0.0001261698    1.021    0.021
       261 -10.0789     13.6369    181.0816   1.0785868225e+02   3.4387145005e+01    0.2929899    0.1230634  86.27  0.001283646    2.396    0.583
       262  -9.4400     68.7614    178.7136   9.3372899342e+01   2.8750553730e+01    0.2587377    0.1558441 -24.44  0.001017853    3.140    0.682
       263  -8.9803     22.6826    179.6798   1.0548322508e+02   3.3889120497e+01    0.1244179   0.09276571 -46.06 0.0003938545    1.661    0.398
