#   1 NUMBER                 Running object number                                     
#   2 MAG_AUTO               Kron-like elliptical aperture magnitude                    [mag]
#   3 X_IMAGE                Object position along x                                    [pixel]
#   4 Y_IMAGE                Object position along y                                    [pixel]
#   5 X_WORLD                Barycenter position along world x axis                     [deg]
#   6 Y_WORLD                Barycenter position along world y axis                     [deg]
#   7 A_WORLD                Profile RMS along major axis (world units)                 [deg]
#   8 B_WORLD                Profile RMS along minor axis (world units)                 [deg]
#   9 THETA_WORLD            Position angle (CCW/world-x)                               [deg]
#  10 FWHM_WORLD             FWHM assuming a gaussian core                              [deg]
#  11 ELONGATION             A_IMAGE/B_IMAGE                                           
#  12 ELLIPTICITY            1 - B_IMAGE/A_IMAGE                                       
         1 -11.4800     32.9779     18.3781   4.7102303216e+01   6.8773482757e+01    0.4870604     0.321863  15.68  0.001506821    1.371    0.271
         2 -10.9359     15.3143     19.9859   5.6727413053e+01   7.0501407712e+01    0.2668266     0.170486 -43.27   0.00163484    1.592    0.372
         3 -11.7567     43.9913     11.2897   3.8875481648e+01   6.8112363005e+01    0.3547049     0.223863  16.27  0.001989787    1.521    0.343
         4 -11.1996     91.1630      9.9654   2.2430076608e+01   5.9539296955e+01    0.2715457    0.2086943  49.62 0.0007350496    1.103    0.093
         5 -10.0424     95.7304      9.3468   2.1049801829e+01   5.8619235887e+01    0.1844922    0.1645322  51.52 0.0005250335    1.087    0.080
         6 -11.1603     35.5036     12.0470   4.3013665193e+01   6.9249779042e+01    0.1632123     0.137247 -32.19 0.0005975132    1.497    0.332
         7  -9.5811    203.4639     11.0315   5.1525305985e+00   3.3277579679e+01    0.1665001    0.1172192 -39.01  0.001012368    1.546    0.353
         8  -9.6309    134.6076     10.7416   1.3660148699e+01   4.9617124866e+01    0.2224882    0.1422352 -89.91 0.0008767036    1.746    0.427
         9 -10.9736     55.3555      9.6641   3.3551336574e+01   6.6458435412e+01    0.2681756    0.2397355  76.01  0.001637633    1.720    0.419
        10 -10.5700    213.7610     18.6315   5.8657668760e+00   3.0099246661e+01    0.3063683    0.2296101  37.92  0.001714452    2.044    0.511
        11  -9.8509    192.7672      9.9652   5.9366698473e+00   3.5849544734e+01    0.1707431    0.1396209 -77.25            0    1.072    0.067
        12  -8.9014    169.3458      9.6786   8.4308376198e+00   4.1403051448e+01    0.1372916   0.08333784 -71.95 0.0007049702    1.734    0.423
        13 -10.5457    193.9598      4.9162   4.6579264098e+00   3.6093679361e+01     0.214409    0.1488862  72.06 0.0003759645    1.278    0.217
        14 -10.3893     70.8340      5.0621   2.6194794300e+01   6.4091118967e+01     0.180802    0.1442521  27.77   0.00040942    1.075    0.070
        15 -11.0437     44.1176      4.2465   3.5487767846e+01   6.8851304735e+01    0.4088745    0.2788531  70.99  0.002034186    3.709    0.730
        16 -10.7639     38.9647      3.9466   3.7553579500e+01   6.9670152720e+01    0.1876654    0.1376205  28.36 0.0003587901    1.175    0.149
        17 -11.5106     29.5515      4.6908   4.2288045745e+01   7.0915545883e+01    0.2372225    0.1821996 -31.36 2.985921e-05    1.548    0.354
        18 -12.3175    205.0046      2.6948   3.1859928051e+00   3.3804702884e+01    0.2368416    0.1847469 -81.86 0.0003430115    1.011    0.011
        19 -10.2000     56.9488      3.5235   3.0162268881e+01   6.6785643495e+01     0.275953    0.1428495  19.79  0.001403895    2.294    0.564
        20  -9.3490    148.7686      2.3763   9.0755734683e+00   4.6994155503e+01    0.1790851   0.09518792  62.22 0.0005242397    1.545    0.353
        21 -10.6381     80.2622      1.6701   2.2029494084e+01   6.2513856822e+01    0.1911784     0.134057  43.02  0.001199528    1.164    0.141
        22  -9.4450    245.2821      1.2740   6.9680887951e-03   2.5363030255e+01    0.0951917   0.08118863  71.07 0.0002268028    1.501    0.334
        23  -9.7587    100.4566      1.3235   1.6990081310e+01   5.8261439919e+01    0.1955199   0.09752797  61.99 0.0001969253    1.693    0.409
        24  -9.6254     19.8757      1.4101   4.5554650272e+01   7.2504192916e+01    0.1455271   0.08892229  26.26 0.0003383578    1.448    0.309
        25 -10.9532      6.8275    153.6418   8.8357972251e+01   4.2323771552e+01    0.2730943    0.1927396  47.18  0.001672297    1.493    0.330
        26 -10.7113     23.8918    249.5518   9.1650912896e+01   1.9141787047e+01    0.2233335    0.1560052  68.67   0.00153787    1.079    0.074
        27  -9.2016    223.6100    152.3005   3.3950482120e+01   6.3091176466e+00    0.1379509    0.1082572 -81.15 5.339146e-05    1.796    0.443
        28 -11.9256      3.9234    145.8408   8.8383797704e+01   4.4416872878e+01    0.4427039    0.3060094  77.26  0.001375095    1.371    0.271
        29 -10.1206     23.3263    147.3449   8.3211716421e+01   4.2496696952e+01    0.1371604   0.08663587 -44.66 0.0007050519    1.744    0.427
        30 -10.2779     16.2755    138.1276   8.4097452811e+01   4.5368688550e+01    0.2451013    0.1544649 -74.33  0.001276268    1.343    0.256
        31  -9.8115      3.2718    138.8830   8.7869740369e+01   4.6138074261e+01    0.2212444    0.1328336 -37.02 0.0008828819    2.011    0.503
        32 -12.2174     69.2273    135.8423   6.7901853565e+01   3.9986217172e+01    0.2941262    0.2450273 -58.92 0.0003822016    1.133    0.117
        33 -10.3552     26.9337    135.9912   8.0698067635e+01   4.4977565384e+01    0.1923497    0.1659709 -68.88 0.0003054799    1.044    0.043
        34 -11.0729    246.3314    127.6593   2.5212302526e+01   6.6015021576e+00    0.2389164    0.2022066 -29.63  0.000496216    1.171    0.146
        35 -10.2412     40.2842    128.0818   7.5409514264e+01   4.5608113018e+01    0.2801019    0.1888183  35.16 0.0006403561    1.612    0.380
        36  -9.4972     34.4066    127.7832   7.7195620954e+01   4.6292815328e+01    0.1975608    0.1063245 -56.54 0.0009416018    1.613    0.380
        37 -11.1058     74.9968    126.4718   6.4234669836e+01   4.1447316738e+01    0.2637016    0.2028305 -58.32  0.001333096    1.234    0.190
        38 -10.9183     74.6730    121.9091   6.3347002030e+01   4.2617287982e+01    0.2663354    0.2528607  -8.68 0.0004171644    1.141    0.124
        39  -9.7280      7.7272    126.7357   8.5228601746e+01   4.8769950974e+01    0.1584552     0.126266  79.43 0.0003788601    1.254    0.203
        40 -10.5306     44.6615    125.0119   7.3496383954e+01   4.5884661556e+01      0.35577    0.2159296  86.09  0.001480142    2.221    0.550
        41 -10.7620     83.0490    120.8434   6.0493986098e+01   4.1527449130e+01    0.4776049    0.2618194 -62.16  0.001160232    1.949    0.487
        42 -11.6056     26.7478    117.2956   7.7931407156e+01   4.9586313141e+01    0.3295814     0.229412 -25.22 0.0004322031    1.715    0.417
        43 -11.1001     68.9577    115.4719   6.3735508557e+01   4.5049192439e+01    0.4162055    0.2962781  51.66  0.001331299    1.570    0.363
        44 -10.6377     16.2107    116.3900   8.1201521309e+01   5.0663990238e+01    0.1655533    0.1135833  39.09 0.0003085704    1.656    0.396
        45 -11.5911      2.6512    111.8301   8.4922765673e+01   5.2643523342e+01    0.2182279     0.180412 -73.59 0.0002236248    1.053    0.051
        46 -10.1776     26.4776    109.0246   7.6610117670e+01   5.1604228439e+01     0.201554    0.1117924 -62.29  0.000548115    1.531    0.347
        47 -10.0724     50.3341    108.6719   6.8418090439e+01   4.9202878650e+01     0.141576    0.1050035  72.28 0.0003819733    1.721    0.419
        48 -12.8628      2.0817    104.6906   8.4142162369e+01   5.4350124913e+01    0.4057294    0.2143884 -41.32   0.00114919    1.845    0.458
        49  -9.8465      4.0991     97.3089   8.2366259021e+01   5.5949887959e+01    0.2353579    0.1762027  71.09 0.0004085382    1.578    0.366
        50 -10.4179     88.5517    104.7903   5.4843733289e+01   4.4364729715e+01    0.4304468    0.2822298  59.47  0.001878174    1.941    0.485
        51  -9.8936     40.7073    106.0445   7.1163892343e+01   5.0933509536e+01    0.1923908    0.1529659 -58.38 0.0002708335    1.126    0.112
        52 -10.1342    117.9891    105.4800   4.6246330105e+01   3.8443906769e+01    0.2429143    0.1513716  44.40  0.000897112    1.599    0.375
        53 -11.5141    104.0145    101.4327   4.9194201329e+01   4.2202328917e+01    0.2572186    0.2543173  70.79 0.0001518652    1.024    0.023
        54  -9.6988    246.7531    101.4441   1.9766680235e+01   1.0983502966e+01    0.1559067    0.1258924  45.70 0.0005325807    1.527    0.345
        55 -11.5379     20.5984     98.3117   7.6709612870e+01   5.4618533857e+01    0.2837135    0.2615247 -11.80  0.001538153    1.200    0.167
        56  -9.0865    218.0281     98.2074   2.3127697741e+01   1.7302922131e+01    0.1715465    0.1116707  58.42 0.0004495741    1.643    0.391
        57 -10.1234    107.8384     96.6425   4.6746375051e+01   4.2473323497e+01    0.3634738    0.2499454 -48.75  0.001677452    1.470    0.319
        58  -9.4382    139.9929     98.0000   3.8427606077e+01   3.5165307843e+01    0.2558454   0.08688037  48.91 0.0005110704    2.904    0.656
        59 -10.4713     64.0869     96.8968   6.0918431528e+01   5.0128972639e+01    0.3067766    0.2111809  75.31  0.001367361    2.319    0.569
        60 -10.8334    119.2787     93.7658   4.2677614327e+01   4.0668365451e+01    0.3266895    0.2667982  73.92 0.0005122334    1.417    0.294
        61 -11.0041     93.6501     92.7628   4.9975667309e+01   4.6099521491e+01    0.4053885    0.2727977  14.53  0.001021532    2.077    0.518
        62 -10.6518     66.6514     91.7188   5.8673721519e+01   5.0916161728e+01     0.228758    0.2178474 -39.66 0.0002829123    1.042    0.040
        63 -11.0574     58.2809     91.9383   6.1688422098e+01   5.2066592623e+01    0.3535988    0.2032818  20.52  0.001190852    2.074    0.518
        64 -10.8315    146.3376     91.2574   3.5064412104e+01   3.5042415197e+01    0.2746709    0.1859452  72.13 0.0009767771    1.810    0.448
        65  -9.7983     37.3813     97.3833   7.0504654322e+01   5.3320177389e+01    0.2574131    0.1566675 -85.44  0.001161352    2.369    0.578
        66  -9.8616      7.3873     91.3506   8.0219447227e+01   5.7125586162e+01     0.178713      0.10653 -41.53 0.0003605187    1.528    0.345
        67  -9.2390     22.2613     88.9642   7.4265619354e+01   5.6635382871e+01    0.1688262   0.09754209 -61.97 0.0008806975    1.519    0.342
        68  -9.8788     30.8670     87.5861   7.0728066974e+01   5.6199704267e+01    0.1566964    0.1480033   4.19  0.000352558    1.167    0.143
        69 -10.0392    164.4885     87.5068   3.0051336743e+01   3.1464448579e+01     0.153419    0.1404561 -84.70   0.00080973    1.064    0.060
        70 -10.1885    173.0126     85.5495   2.7831808278e+01   2.9796244786e+01    0.2235549    0.1965963 -53.17 0.0003432315    1.122    0.109
        71 -10.8306     81.3586     85.0866   5.1770953192e+01   4.9964439368e+01    0.3201212    0.2822794 -10.43  0.001776393    1.173    0.148
        72  -9.7345     91.9110     85.1389   4.8332635669e+01   4.8034787957e+01    0.1994202     0.191666 -87.61 0.0003024912    1.148    0.129
        73  -9.9000    136.1917     82.8349   3.5150221759e+01   3.9029037267e+01    0.2278849    0.2046821 -85.08 0.0005366794    1.179    0.152
        74  -9.8158     65.1933     82.4027   5.6612902091e+01   5.3158284105e+01    0.1922974    0.1331642  32.27  0.000551279    1.489    0.328
        75 -10.5306    181.7113     79.8633   2.4753416291e+01   2.8741926718e+01    0.2738231    0.2043715  70.16 0.0005724179    1.343    0.256
        76  -9.3077     48.0056     78.5337   6.1906487278e+01   5.6333393504e+01    0.1774531    0.1089021  -7.82 0.0003914483    2.266    0.559
        77 -10.1203    176.4615     76.9776   2.4964128787e+01   3.0492210575e+01    0.3008954    0.2153446  60.01  0.001205457    1.365    0.267
        78 -10.7812    145.8115     77.5847   3.1386540923e+01   3.7736389402e+01    0.2146043    0.1403414  66.74 0.0004333144    1.669    0.401
        79 -10.4509     18.7784     81.0484   7.3912900540e+01   5.8676198779e+01    0.1820638    0.1596671 -30.65 0.0002873359    1.102    0.093
        80  -9.9158     25.1090     75.9075   7.0220223594e+01   5.9287986575e+01    0.2036139    0.1249009 -30.84 0.0009884422    1.617    0.381
        81 -11.5535     11.5413     74.7861   7.5419337844e+01   6.0549439263e+01    0.2848928    0.2535345 -62.28  0.001401383    1.167    0.143
        82  -9.2195    228.7736     74.0035   1.6270232579e+01   1.9085183039e+01    0.1684736   0.09956767 -42.57 0.0003735166    1.539    0.350
        83 -11.4557      5.0448     73.1571   7.7695681432e+01   6.1289138687e+01    0.2112858    0.1692412 -49.36 0.0002579213    1.013    0.012
        84  -9.7551    151.7644     71.9330   2.8484797029e+01   3.7308211270e+01    0.1954141    0.1254168 -37.86 0.0008833713    1.642    0.391
        85  -9.8049    175.8195     71.1658   2.3573236310e+01   3.1632997361e+01    0.2175768    0.1816793 -77.59 0.0003874546    1.187    0.157
        86  -9.5712    158.0153     69.9645   2.6638706571e+01   3.6135432044e+01    0.2599247    0.1335161  39.23 0.0009759006    2.555    0.609
        87  -9.8502     37.0545     68.9096   6.3532700255e+01   5.9608682377e+01     0.171077    0.1661172 -71.24            0    1.256    0.204
        88 -11.4134     13.6986     66.3865   7.2595856048e+01   6.2188645495e+01    0.3629156    0.2088832 -48.02   0.00154824    1.405    0.288
        89 -11.2553      9.7099     66.3189   7.4266418421e+01   6.2465464653e+01    0.2542534    0.1927739 -89.71 0.0008365979    1.743    0.426
        90 -11.3310      7.5456     63.4940   7.4523583022e+01   6.3185091280e+01    0.2741866    0.1248765 -53.94  0.000720889    1.713    0.416
        91 -10.6795     17.0850     63.1170   7.0325062421e+01   6.2619505103e+01    0.2394656    0.1511917 -49.22            0    1.320    0.242
        92  -9.8561     20.2940     61.2685   6.8443834162e+01   6.2744097694e+01    0.1773664    0.1596767  26.20  0.000263958    1.326    0.246
        93  -9.1666    213.3965     65.7813   1.6435451272e+01   2.3730995601e+01    0.1392018   0.09268802 -82.01 0.0006856747    1.633    0.388
        94 -10.3961    144.8193     63.7233   2.7635399019e+01   4.0357591473e+01    0.2398396    0.2041415 -20.60 0.0005348642    1.375    0.273
        95  -9.4834    187.0900     61.8668   1.9304735693e+01   3.0435060454e+01     0.178284    0.1622759  44.50            0    1.302    0.232
        96 -10.5563     97.5994     60.7827   3.8923842925e+01   5.1519653329e+01    0.3334808    0.2204596  62.51  0.001318884    1.888    0.470
        97 -11.7915     58.2356     58.9378   5.1941683037e+01   5.8849885340e+01    0.2193149    0.1935196   1.94 0.0002662125    1.049    0.047
        98  -9.2485    174.3027     59.6540   2.0826933577e+01   3.3853076799e+01    0.1517123    0.1025589 -71.72 0.0007039751    1.688    0.407
        99  -9.5345     41.9996     59.4830   5.8653808212e+01   6.0920097096e+01    0.1733491    0.1207414  26.06 0.0009892585    1.475    0.322
       100  -9.6558     38.1882     59.1790   6.0152435966e+01   6.1421821482e+01     0.218032    0.1128782 -19.46 0.0007814264    2.777    0.640
       101  -9.9291    145.7596     58.3615   2.5874984186e+01   4.0988425865e+01    0.2048455    0.1235757  49.75    0.0005338    1.592    0.372
       102 -11.3361     85.9380     54.6197   4.0521807409e+01   5.4871247540e+01    0.2959397    0.2791345  29.86 0.0006548406    1.083    0.076
       103 -10.2609    127.1234     53.5066   2.8577487146e+01   4.6173496250e+01    0.3317142    0.2096696  28.64  0.001462999    2.098    0.523
       104  -9.7873     14.9366     54.5337   6.8940658063e+01   6.4499122076e+01    0.1644081    0.1114831  13.05 0.0008303935    1.562    0.360
       105 -11.7352     61.9377     50.0327   4.7419400714e+01   5.9853397569e+01    0.2801567    0.1800016 -34.45 0.0003528594    1.530    0.346
       106  -9.0926    214.3549     52.7666   1.3358493992e+01   2.5481751161e+01    0.1360146   0.08865488 -77.98 0.0003188594    1.573    0.364
       107  -9.7026    143.0887     51.8314   2.4514716551e+01   4.2627211005e+01    0.2195606    0.1832174 -84.64 0.0005403876    1.278    0.218
       108  -9.8391    138.0780     50.5269   2.5183060749e+01   4.4024530559e+01     0.194453    0.1903632 -86.16 0.0003516019    1.082    0.076
       109  -9.8519     92.9642     50.0142   3.6693444294e+01   5.4221260127e+01    0.2030245    0.1822098  27.16            0    1.029    0.028
       110  -9.6806     78.2580     49.9881   4.1471222702e+01   5.7069381424e+01    0.1828726    0.1663627  14.83 0.0005060262    1.016    0.016
       111  -9.4654     51.2668     48.3877   5.1055254390e+01   6.1730560054e+01    0.1660997    0.1150447  37.51 0.0009367206    1.524    0.344
       112  -9.0757     67.3467     46.3210   4.4033732011e+01   5.9579343359e+01    0.1388748   0.09509795   4.58 -1.027306e-05    1.735    0.424
       113  -9.9896     17.0518     46.1070   6.5441591915e+01   6.5943955959e+01    0.1899499    0.1263313 -26.67 0.0004844726    1.316    0.240
       114  -9.4911    120.4902     43.9972   2.7133619705e+01   4.9102450964e+01    0.1869763     0.139551 -32.49 0.0003431509    1.469    0.319
       115 -10.7170     70.8795     41.8463   4.1084956044e+01   5.9666482183e+01    0.3186219    0.2856931 -42.42  0.002009318    1.322    0.243
       116  -9.4333     85.5593     43.0223   3.6535515773e+01   5.6755645932e+01    0.1834933    0.1296937 -30.46 -4.58421e-06    1.487    0.328
       117  -9.6195     52.9530     42.7247   4.8286880927e+01   6.2431308639e+01    0.1660238    0.1429995   8.72 0.0003467864    1.057    0.054
       118 -10.9574     38.9689     41.9524   5.3939922567e+01   6.4447498915e+01    0.1851367    0.1555694   2.08  0.001228307    1.079    0.073
       119  -9.6001     28.4701     42.4872   5.8885882880e+01   6.5544568876e+01    0.1236539   0.09825376 -18.01 0.0008091851    1.055    0.052
       120 -10.9738    183.9814     41.1410   1.4553442721e+01   3.4198203020e+01    0.2403655    0.1694926  76.13 0.0004589923    1.299    0.230
       121 -10.3166    116.5939     40.8645   2.7050804401e+01   5.0427545485e+01    0.2472622    0.2062982  89.00 0.0004736482    1.401    0.286
       122 -10.6084    109.2302     40.8250   2.8897222458e+01   5.2093183235e+01    0.3053088    0.2132474  88.83  0.001444508    2.175    0.540
       123 -11.3153     91.0257     39.8803   3.3690405132e+01   5.6112297791e+01    0.2930052    0.2634971 -73.82 0.0003499225    1.425    0.298
       124 -10.4188     62.0812     41.0556   4.4048754236e+01   6.1279539661e+01    0.1856457    0.1613758   6.31            0    1.002    0.002
       125  -8.9308    130.2868     38.6450   2.3193406023e+01   4.7532069694e+01    0.1396013    0.1030937 -72.12 0.0007023085    1.672    0.402
       126 -10.9053    122.0219     37.4779   2.4652624241e+01   4.9625211565e+01    0.2448239    0.1988615 -30.72 0.0003273497    1.368    0.269
       127  -9.4897     80.9881     38.7578   3.6450314590e+01   5.8257199788e+01    0.1690661    0.1027653  44.38 0.0003680655    1.522    0.343
       128 -10.6667     67.0168     35.8752   4.0205535152e+01   6.1219411480e+01    0.2577802    0.2405376 -74.80 0.0009713923    1.506    0.336
       129 -10.4018     22.8465     34.5301   5.8666780855e+01   6.7471436905e+01    0.1887066    0.1384316 -34.78 5.004842e-05    1.214    0.176
       130  -9.8103      6.1785     34.7955   6.7104079234e+01   6.8795002908e+01    0.1591426    0.1407291 -26.88 0.0007382761    1.207    0.172
       131 -11.1941     46.8098     33.3883   4.7227414510e+01   6.4774493340e+01    0.2919097     0.230527  51.10  0.001802922    1.750    0.428
       132  -9.0713     18.2927     32.2994   6.0082048316e+01   6.8272540990e+01     0.119724   0.07213286 -19.99 0.0006985221    1.566    0.361
       133  -9.7381    217.4458     31.0373   8.1983532545e+00   2.7760551255e+01    0.1908754    0.1424986  87.04 0.0001330797    1.176    0.150
       134  -9.3803    110.8704     31.4169   2.5265397485e+01   5.2941632761e+01    0.1923223    0.1083186  46.18 0.0005376005    1.602    0.376
       135  -9.5017    101.8501     30.8852   2.7375579003e+01   5.5005570653e+01    0.1672779    0.1519629  86.15 0.0004467911    1.287    0.223
       136 -10.4269     11.4271     29.9595   6.2710236780e+01   6.9246440365e+01    0.1586095    0.1347482  -9.76  0.001179051    1.161    0.138
       137  -9.4981     97.2696     29.5943   2.8146128615e+01   5.6150843219e+01    0.1842118    0.1084384  44.40 0.0004716361    1.510    0.338
       138  -8.9876    124.4471     28.4805   2.1191685224e+01   5.0166057298e+01    0.1342447    0.1195897  63.22 0.0001199775    1.033    0.032
       139  -9.9666    117.4582     28.2368   2.2639299098e+01   5.1818993065e+01    0.2386587    0.1644595  58.56 0.0002740533    1.288    0.224
       140 -10.3326     91.0592     26.0094   2.8560631609e+01   5.7888002671e+01    0.3054613    0.1725384 -35.47  0.001187061    1.966    0.491
       141  -9.8359     80.8853     27.1260   3.2048038043e+01   5.9811862106e+01     0.182827    0.1766208  87.59 0.0006649405    1.315    0.239
       142 -10.1730      2.4865     26.2727   6.6102587041e+01   7.0507961250e+01    0.2125133   0.08114793 -47.21  0.001134704    2.072    0.517
       143 -10.9406    216.9840     25.7149   7.0912647638e+00   2.8530890870e+01    0.2037063     0.161006 -57.87 0.0002399672    1.177    0.150
       144 -10.2789    182.9594     25.4699   1.0764103059e+01   3.6428638739e+01    0.1974152    0.1839571 -59.13  0.001281584    1.217    0.179
       145  -9.7634     34.9716     26.5219   4.9687822395e+01   6.7376038606e+01    0.1631627    0.1040679  24.63 0.0003146435    1.466    0.318
       146 -10.0706     33.4507     23.5641   4.9148046434e+01   6.7994517776e+01    0.2096446     0.172511  17.57 9.791586e-06    1.208    0.172
       147 -11.0016     38.5940     23.4055   4.6699080557e+01   6.7350863814e+01    0.2823554     0.207498  13.09 0.0007053224    1.194    0.163
       148 -10.2889    125.5628     24.6189   1.9709838102e+01   5.0343406075e+01    0.4225006    0.1764607  63.94  0.001304043    2.226    0.551
       149  -9.8324     53.1529     23.8291   4.0639229943e+01   6.5161993431e+01    0.1732353    0.1564282  18.81 0.0006169726    1.204    0.169
       150 -10.6664     41.9912     19.5209   4.3481042547e+01   6.7402729206e+01    0.4078516    0.1807326  19.89  0.001670966    3.487    0.713
       151 -10.7263     19.2389    247.8661   9.2414696778e+01   1.9991019886e+01    0.1853089    0.1530594  -5.34  0.001242691    2.223    0.550
       152  -9.9071    213.1000     23.8632   7.0652028317e+00   2.9624464783e+01    0.1871883    0.1359423 -73.36  0.000264149    1.171    0.146
       153 -10.1695    112.8788     21.2201   2.1292864877e+01   5.3649534921e+01    0.3134971    0.1933108 -25.91  0.001656077    1.862    0.463
       154 -10.7347     63.4004     21.6340   3.5773673403e+01   6.3726703470e+01    0.2390229     0.175405  17.77 0.0001239328    1.272    0.214
       155  -9.5443     77.8463     20.8508   3.0533342813e+01   6.1143113862e+01    0.1534287    0.1481171  64.61  0.000368983    1.287    0.223
       156  -9.1648    225.0341    246.3146   5.1072160519e+01  -9.3837371396e+00    0.1978888   0.08035063  18.57 0.0007047082    4.337    0.769
       157  -9.2906    100.9772     20.2092   2.3759330670e+01   5.6415517062e+01    0.1783442   0.09247687  56.72            0    1.695    0.410
       158  -9.2006    118.2702     18.6451   1.9252657264e+01   5.2681154147e+01    0.1270811   0.09605906 -69.33   0.00029049    1.636    0.389
       159  -9.0342    229.6999     17.7239   4.2930929185e+00   2.6725945553e+01     0.105375   0.08867864  58.87 0.0001717741    1.537    0.349
       160  -9.2388    142.5336     13.5599   1.3218890528e+01   4.7457003422e+01    0.1311513    0.1104949  74.05 4.263129e-05    1.023    0.022
       161  -9.8153    147.0345    243.7185   6.6053360140e+01   2.6772981963e+00    0.2228564    0.1670257 -27.88  0.001282783    1.657    0.397
       162  -9.5216     74.2653    244.6115   8.1405074902e+01   1.3714401144e+01    0.1332403    0.0791922  68.11 0.0006981957    1.702    0.412
       163 -10.1284     14.8365    243.8616   9.3008568165e+01   2.1262264877e+01    0.1689558   0.09923725  65.75  0.001055901    1.322    0.243
       164 -11.3575      6.4971    243.0218   9.4493124214e+01   2.2296101163e+01    0.1967698    0.1372442  86.51 0.0008546534    1.209    0.173
       165 -10.9095      3.4888    242.5480   9.5014877263e+01   2.2692135890e+01    0.1734994    0.1205827 -65.91 0.0005958205    1.712    0.416
       166  -9.4188     37.0030    240.6106   8.8580736537e+01   1.9409764338e+01    0.2934995    0.1000914  65.75   0.00109068    3.885    0.743
       167 -10.6240     17.9764    235.2743   9.1933307532e+01   2.2670192036e+01    0.1641124    0.1212127  58.71 0.0004760329    1.134    0.118
       168  -9.5705      7.4869    235.4969   9.3933304734e+01   2.3714217419e+01    0.1174052   0.08440471  70.73 0.0002303073    1.022    0.022
       169 -10.6141      7.3944    229.7506   9.3648071995e+01   2.4908693661e+01    0.2189622    0.1450779 -82.35 0.0009571566    1.355    0.262
       170  -9.2216     57.2949    229.3447   8.3534196995e+01   1.9197405136e+01     0.114627   0.09807113 -39.44 0.0007031593    1.666    0.400
       171  -9.4722    139.4921    227.4504   6.5340338056e+01   6.9077341807e+00    0.1372075    0.1194595  43.38 0.0004441487    1.035    0.034
       172  -9.3275     12.2692    226.6707   9.2534364144e+01   2.5063855752e+01    0.1242455    0.0656924  67.35 0.0006977032    1.581    0.367
       173 -10.5903      1.8737    219.7719   9.4179975395e+01   2.7543151557e+01    0.2726133    0.1173461  84.62   0.00140291    2.087    0.521
       174  -9.6757    249.4296    216.2351   4.1703911629e+01  -8.3549438891e+00    0.1603883    0.1034183 -41.77 0.0009485023    1.669    0.401
       175  -9.5653    244.4657    215.0757   4.2348575042e+01  -7.5220037862e+00    0.1786577    0.1054106 -34.43 0.0006623486    1.553    0.356
       176  -9.3784    202.6770    195.6902   4.6538142446e+01   2.0424492655e+00    0.1406827    0.1008669  -1.65  0.000501466    1.650    0.394
       177  -9.6003    237.4799    186.5275   3.8332598966e+01  -2.0266074681e+00    0.2352375    0.1076624 -30.17  0.001025937    2.293    0.564
       178 -10.4182     16.6861    165.6382   8.6961966337e+01   3.8607636632e+01    0.2028501    0.1330756 -46.60  0.001091416    1.768    0.434
       179  -9.2608      1.2939    164.3297   9.0688300758e+01   4.0177600496e+01    0.1221473   0.07871524 -53.87 0.0003289989    1.631    0.387
       180  -9.5870    240.4800    163.4955   3.3354692413e+01   1.3958568083e+00    0.1317966    0.1149499 -30.17  0.000437544    1.026    0.025
       181  -9.1256     43.6902    154.3098   7.8419916089e+01   3.8662787308e+01    0.1429929   0.09534331  69.98 0.0007025134    1.621    0.383
