#   1 NUMBER                 Running object number                                     
#   2 MAG_AUTO               Kron-like elliptical aperture magnitude                    [mag]
#   3 X_IMAGE                Object position along x                                    [pixel]
#   4 Y_IMAGE                Object position along y                                    [pixel]
#   5 X_WORLD                Barycenter position along world x axis                     [deg]
#   6 Y_WORLD                Barycenter position along world y axis                     [deg]
#   7 A_WORLD                Profile RMS along major axis (world units)                 [deg]
#   8 B_WORLD                Profile RMS along minor axis (world units)                 [deg]
#   9 THETA_WORLD            Position angle (CCW/world-x)                               [deg]
#  10 FWHM_WORLD             FWHM assuming a gaussian core                              [deg]
#  11 ELONGATION             A_IMAGE/B_IMAGE                                           
#  12 ELLIPTICITY            1 - B_IMAGE/A_IMAGE                                       
         1 -12.5976    214.6682     30.9653   4.1798892225e+01   2.7981200489e+01     1.006969    0.7230909 -39.74  0.004509497    1.335    0.251
         2 -12.0263    221.3700     25.4780   3.9770479374e+01   2.7106833299e+01    0.5539373    0.4455644  21.39  0.001461503    1.784    0.439
         3 -11.1159      2.2995     22.4934   9.8867340996e+01   7.0873787968e+01    0.7502493   0.06793704 -54.12  0.002077918    7.574    0.868
         4 -12.5387    237.8172      9.5879   3.4730332076e+01   2.5274113071e+01     0.713609    0.5108362 -62.74  0.002677923    1.172    0.146
         5 -10.6049      2.0000      7.9942   9.2812112938e+01   7.3307534263e+01    0.5998565     0.103947 -47.48  0.002270831    4.400    0.773
         6  -9.4322      8.3270      6.3205   8.8315735042e+01   7.3060622665e+01    0.1191712   0.06509878 -16.95 0.0007047419    1.684    0.406
         7 -11.0529    114.4099    238.0235   1.0736029089e+02   9.7846858038e+00    0.2198095     0.204533  51.50  0.001169879    1.137    0.121
         8 -11.9968    121.8838    247.0158   1.0695149784e+02   7.1002643845e+00    0.5725445     0.394334  11.83  0.003165318    2.227    0.551
         9 -11.9205    114.2300    247.2467   1.0843929671e+02   8.2107491139e+00    0.4985374    0.2972772  32.90  0.002739254    1.640    0.390
        10  -9.8897     92.7623    250.4218   1.1280659491e+02   1.0784749881e+01    0.3927239    0.1500106  39.03  0.001899965    2.206    0.547
        11 -10.0435     51.5828    250.4179   1.2025586072e+02   1.6225304249e+01    0.4085398    0.1294259  43.06  0.001779956    2.386    0.581
        12 -10.4672     57.1136    249.6790   1.1922788227e+02   1.5674114779e+01    0.3937165     0.197916  42.90  0.002346559    1.659    0.397
        13 -10.4602     63.3187    245.5163   1.1779731382e+02   1.5640966830e+01    0.3446727    0.2153479 -56.68  0.001860663    2.006    0.502
        14 -10.3005     64.9727    249.5157   1.1781168607e+02   1.4704764766e+01     0.428056    0.2137763  34.27  0.002372485    2.089    0.521
        15 -12.1209     74.2439    249.4951   1.1613166132e+02   1.3491651137e+01    0.7473431    0.4527211  57.31   0.00471131    1.359    0.264
        16 -11.9363     81.6070    249.0811   1.1474680905e+02   1.2570052907e+01    0.5820979    0.5150187  35.73  0.004270105    1.369    0.269
        17 -13.1394     31.0382    246.6514   1.2357300823e+02   1.9310039062e+01     1.299447     1.057443   6.48  0.009173996    2.277    0.561
        18 -15.1941      8.6465    240.9604   1.2704403761e+02   2.2710937045e+01     13.13047     2.457543 -78.04    0.0522441    4.850    0.794
        19 -14.5770      9.3037    208.0135   1.2521110548e+02   2.9124096093e+01     3.569361     1.114869 -68.00   0.01556272    2.740    0.635
        20 -12.2545    126.3167    230.6489   1.0408653226e+02   9.2521778663e+00     0.724426    0.4701529  84.97  0.003660697    2.375    0.579
        21 -11.1205    142.3697    228.9085   1.0061690900e+02   6.9857341445e+00    0.3623078    0.1771198  36.24  0.001735699    1.836    0.455
        22 -12.7758    100.1558    228.2125   1.0906094205e+02   1.3745836506e+01     1.743234   0.09066465  42.06  0.004303546    7.315    0.863
        23  -9.4921     33.1280    227.3314   1.2199500428e+02   2.2751574952e+01    0.1886691    0.1300023 -78.54 0.0008078668    1.378    0.274
        24 -11.5781     49.3239    223.7707   1.1868024583e+02   2.1571104079e+01    0.6695618    0.2089456 -56.37  0.002807448    3.781    0.736
        25  -9.9847     62.8891    237.6452   1.1724093654e+02   1.7158683734e+01     0.219271    0.1468454  89.01 0.0007919362    1.440    0.305
        26  -9.6287     37.0246    223.1922   1.2098028300e+02   2.3136822821e+01    0.1919668    0.1383277  86.41  0.001305882    1.174    0.148
        27  -9.4087     94.8950    222.1983   1.0943895465e+02   1.5695849642e+01    0.2333148    0.1570655  77.32 0.0007592656    1.643    0.391
        28  -8.4183     54.4400    222.2724   1.1756357082e+02   2.1241392287e+01    0.1633991   0.09858438  87.98 0.0008190665    1.609    0.378
        29 -11.2093    133.6509    231.1455   1.0267709424e+02   7.9972455227e+00    0.3134966     0.252643 -54.50  0.001732202    1.438    0.304
        30  -9.1714    193.1870    192.9602   8.4248643078e+01   4.6090422206e+00    0.3433964    0.1677109 -28.69   0.00140197    2.530    0.605
        31 -10.9429     55.6429    182.0904   1.1331151840e+02   2.9815940499e+01    0.3886433    0.2815342 -37.10  0.002134283    1.942    0.485
        32 -10.9254     61.6985    176.0586   1.1116590212e+02   3.0446419514e+01    0.3064941    0.2807399 -44.17 0.0005420539    1.344    0.256
        33 -10.4822    103.1399    172.1269   1.0056816889e+02   2.5183271339e+01    0.4937852    0.1877637  44.49  0.001830085    2.575    0.612
        34 -10.4278     72.4725    165.8024   1.0712986388e+02   3.1420397486e+01    0.2741902    0.2322399 -69.59 0.0004655598    1.114    0.102
        35 -12.4556     58.9634    162.2452   1.0999733912e+02   3.4092462938e+01    0.5211772    0.2990542 -46.32  0.001711332    2.007    0.502
        36 -12.2257     79.5636    158.3760   1.0416871005e+02   3.2185111769e+01     1.095584    0.6969088  61.67  0.001904618    1.777    0.437
        37 -13.0349     66.1050    142.1753   1.0501066054e+02   3.8071218233e+01      1.88151    0.9736671  84.16  0.004731376    3.939    0.746
        38  -9.4338    134.0000    146.0202   8.7788589017e+01   2.5579728760e+01     0.428132   0.08646387 -48.84  0.001046461    4.890    0.796
        39 -10.3530     32.7908    156.5267   1.1581252193e+02   3.8459494904e+01    0.3642403    0.1349029 -76.36  0.001466667    2.611    0.617
        40 -10.0933     95.1791    144.4038   9.7518916459e+01   3.3119248699e+01    0.4029393    0.2879544 -35.79  0.001044098    1.634    0.388
        41 -10.9635     83.1448    143.0018   1.0049981812e+02   3.5398166278e+01    0.3026626      0.25867 -54.22 0.0004672872    1.138    0.121
        42  -9.9019     28.3038    142.9563   1.1533474721e+02   4.2176869405e+01    0.1935037    0.1423052 -73.63  0.001153779    1.120    0.107
        43  -8.4525     81.6619    137.7079   9.9887336340e+01   3.6928361311e+01    0.1451017    0.1119623 -25.37 0.0003179362    1.645    0.392
        44 -12.0911     26.0652    210.5512   1.2217449566e+02   2.6931432938e+01    0.4137647    0.3109382 -66.85 0.0008590778    1.464    0.317
        45 -10.3570     22.8422    156.8048   1.1828938012e+02   3.9345684915e+01    0.1875455    0.1538399 -67.30  0.001109876    1.198    0.165
        46  -9.8868    106.8603    131.7122   9.1647780265e+01   3.4142243646e+01    0.3779221    0.3726381 -89.35  0.001510537    1.043    0.042
        47  -9.8087     94.4932    128.6577   9.4394850318e+01   3.7064888549e+01    0.2864877    0.2457655 -22.76 0.0006770582    1.340    0.254
        48  -8.8544    114.4932    126.4974   8.8349716668e+01   3.3949517617e+01    0.1541289    0.1479416 -49.32 0.0002423543    1.018    0.018
        49  -8.8549    105.3082    120.3728   8.9407045385e+01   3.7131362150e+01    0.2432213    0.2204567 -16.10 0.0006397433    1.212    0.175
        50 -14.2043     36.3444    200.3370   1.1933171138e+02   2.7997434110e+01     2.013111     1.308895  64.67  0.008890275    1.339    0.253
        51  -8.2918    168.4919    113.4911   7.1595557705e+01   2.5277994363e+01    0.1569943    0.1506744 -52.32 0.0008101404    1.046    0.044
        52  -8.4113    205.5205    110.5082   6.3397529610e+01   1.7507418158e+01    0.1507504     0.139226 -41.11 5.885551e-05    1.026    0.025
        53 -11.5316     17.2499    217.2350   1.2427913587e+02   2.6460347469e+01    0.4185397    0.3669928 -83.33  0.001910247    1.351    0.260
        54 -12.4439    207.8245     36.0614   4.3861294748e+01   2.8943461209e+01    0.6941841     0.564509   7.38  0.003002213    1.679    0.404
        55  -9.9871    134.4262    247.1379   1.0456286526e+02   5.1690128213e+00    0.2450101    0.1204541 -66.05  0.001139539    3.212    0.689
        56 -12.2067     99.4605    248.5434   1.1137218625e+02   1.0154959445e+01    0.7035207    0.4021809  58.82  0.004021916    1.674    0.403
        57  -9.8677     52.8449    241.6377   1.1940314315e+02   1.7677474301e+01    0.1834427    0.1370754 -74.95 0.0006653342    1.421    0.296
        58 -12.4034     40.2179    235.1583   1.2123135958e+02   2.0418605351e+01    0.6738428     0.345743  49.76  0.002327146    1.578    0.366
        59 -11.9151    137.8448    239.5578   1.0294902006e+02   5.8883355223e+00    0.5094492    0.2265594  48.10  0.002399239    2.096    0.523
