#   1 NUMBER                 Running object number                                     
#   2 MAG_AUTO               Kron-like elliptical aperture magnitude                    [mag]
#   3 X_IMAGE                Object position along x                                    [pixel]
#   4 Y_IMAGE                Object position along y                                    [pixel]
#   5 X_WORLD                Barycenter position along world x axis                     [deg]
#   6 Y_WORLD                Barycenter position along world y axis                     [deg]
#   7 A_WORLD                Profile RMS along major axis (world units)                 [deg]
#   8 B_WORLD                Profile RMS along minor axis (world units)                 [deg]
#   9 THETA_WORLD            Position angle (CCW/world-x)                               [deg]
#  10 FWHM_WORLD             FWHM assuming a gaussian core                              [deg]
#  11 ELONGATION             A_IMAGE/B_IMAGE                                           
#  12 ELLIPTICITY            1 - B_IMAGE/A_IMAGE                                       
         1 -14.4466      5.8870     22.5201   2.9183336036e+02   7.4900395516e+00    0.2971173   0.03895917 -58.89   0.01647291    5.222    0.808
         2 -13.9267    189.8105     22.3767   2.8968631182e+02   6.4269613482e+00    0.1122166   0.04239053 -51.30  0.007917363    2.505    0.601
         3 -14.2757    196.7825     17.5990   2.8957637033e+02   6.4417769785e+00   0.09139849   0.07083455  -2.64   0.00865123    1.470    0.320
         4 -14.0065    202.4784      9.8144   2.8946319577e+02   6.4988369023e+00   0.07638338   0.04831338  -6.35  0.001412009    2.172    0.539
         5 -10.0256     93.0265    244.6894   2.9214437185e+02   4.4058805226e+00  0.009131204  0.008453524  31.31 0.0005124442    1.086    0.079
         6 -10.4540    204.9911    249.6944   2.9087259095e+02   3.7000511631e+00  0.009376499  0.008640106  24.50 0.0005099153    1.092    0.084
         7 -10.5365    152.7418    243.7261   2.9144414734e+02   4.0719021711e+00   0.01746051   0.01096514 -73.19  0.001523782    1.768    0.435
         8 -11.2453    143.5236    249.3239   2.9158471715e+02   4.0601823238e+00   0.03071096    0.0177475  77.91   0.00252421    2.886    0.653
         9 -11.4616    150.5613    248.1296   2.9149577237e+02   4.0333506131e+00   0.02373284   0.01424208  31.11  0.002060751    1.640    0.390
        10 -11.0577    133.9728    249.4971   2.9169679654e+02   4.1134028853e+00   0.02353412   0.01220458  40.72  0.002161283    1.954    0.488
        11 -11.9300    112.3312    248.5989   2.9194311408e+02   4.2489320004e+00   0.04393457    0.0228288  31.12  0.004095225    1.876    0.467
        12 -10.1749    122.8498    250.0890   2.9182966684e+02   4.1708265669e+00   0.01607741   0.01297799  12.10  0.001755462    1.309    0.236
        13 -10.0597    126.4996    249.0084   2.9178078229e+02   4.1622878470e+00    0.0183003  0.009935745  58.08  0.001549247    2.543    0.607
        14 -10.3316    121.7541    244.9871   2.9181199634e+02   4.2364555263e+00   0.01749641    0.0101028  48.27  0.001158312    1.921    0.479
        15 -12.0828    126.2616    240.9533   2.9173552167e+02   4.2572801795e+00    0.0265819   0.02179062 -60.08  0.001767182    1.206    0.171
        16 -11.6537    100.0108    247.5327   2.9208006360e+02   4.3324959729e+00   0.03068164     0.020925  40.62  0.003241053    1.485    0.326
        17  -9.9925    108.1155    242.3998   2.9195520586e+02   4.3453436262e+00   0.01849493   0.00878993 -67.04  0.001584819    2.247    0.555
        18 -10.5192    101.5937    242.1579   2.9202962831e+02   4.3858312125e+00   0.02011989  0.009406514 -71.30  0.001602071    2.549    0.608
        19 -11.2404     96.6527    239.1405   2.9206913057e+02   4.4494446946e+00   0.02305934   0.01707446 -83.25  0.001786207    1.545    0.353
        20 -12.0723    104.5986    238.1649   2.9197087729e+02   4.4148869403e+00   0.03292324   0.02531081   2.79  0.003631425    1.459    0.315
        21 -10.6946    117.3911    224.4362   2.9174019158e+02   4.5005367998e+00   0.01554435   0.01221633   4.14 0.0005471973    1.404    0.288
        22 -10.3964    110.4830    222.3600   2.9180818244e+02   4.5646009115e+00   0.01899208   0.01394521 -53.12  0.001803755    1.330    0.248
        23  -9.7285     93.6596    217.3803   2.9197425921e+02   4.7196920484e+00   0.01374592  0.009909637 -77.20   0.00145552    1.534    0.348
        24 -11.3891    105.0729    219.4771   2.9185393980e+02   4.6293779000e+00   0.02133053   0.01185019 -63.78 0.0004874028    1.807    0.447
        25 -10.4859     92.6031    226.0870   2.9203845895e+02   4.6245774672e+00   0.02702984   0.01150158  40.58  0.002250149    2.378    0.579
        26 -11.4812     98.8000    223.1949   2.9194910708e+02   4.6224034948e+00   0.02062901   0.01755203  38.62 0.0002442829    1.186    0.157
        27 -10.9903     98.3234    231.5821   2.9200464984e+02   4.5276582193e+00   0.02351109   0.01698018 -26.61 0.0007157856    1.586    0.369
        28 -11.9572    111.6990    230.0807   2.9184007994e+02   4.4678296770e+00   0.04360941   0.01898505  26.15  0.002686523    2.321    0.569
        29 -11.2411     81.6094    246.7346   2.9228937187e+02   4.4480135056e+00   0.03996465   0.01854877 -71.12  0.003277425    2.560    0.609
        30 -10.6772     87.7335    250.6130   2.9224121995e+02   4.3675786263e+00   0.02813783  0.009909796  19.77  0.001736292    3.690    0.729
        31 -10.5454     88.2037    247.1945   2.9221539637e+02   4.4046033018e+00   0.01794391   0.01281595  -4.53  0.001860433    1.694    0.410
        32 -10.8155     83.8142    242.1756   2.9223657521e+02   4.4882879105e+00   0.02195995   0.01380691 -16.10    0.0020363    2.181    0.541
        33 -11.0132     90.2999    236.2974   2.9212610351e+02   4.5191803472e+00   0.02655825   0.01187297  41.17  0.002259312    2.284    0.562
        34  -9.2944     83.5120    238.4252   2.9221775671e+02   4.5336325174e+00   0.01154042   0.00910057  35.33 4.651152e-05    1.268    0.211
        35  -9.5563     86.3071    237.2974   2.9217851699e+02   4.5306080632e+00   0.01212255   0.01018927 -65.62 0.0002493966    1.195    0.163
        36  -9.5809     74.6656    250.6046   2.9239318899e+02   4.4430905412e+00   0.01548838  0.006728977  20.93  0.001241562    2.597    0.615
        37 -13.7138     45.7984    246.2300   2.9270303629e+02   4.6604040999e+00   0.05505027   0.04309108   3.56  0.006154887    1.415    0.293
        38 -13.3985     47.4417    228.5175   2.9257855272e+02   4.8568875641e+00   0.06007732   0.03050049  12.48  0.001941692    2.575    0.612
        39 -15.0233     56.6494    217.1067   2.9240343953e+02   4.9364823761e+00    0.1614385    0.1346064 -63.04   0.01889878    1.195    0.163
        40 -10.7887    121.7635    232.7232   2.9173875743e+02   4.3789393639e+00   0.01868026   0.01331569 -38.57 0.0005140053    1.478    0.323
        41 -13.0238     42.2389    237.0598   2.9268992775e+02   4.7875429442e+00   0.03883317    0.0223147  28.35 0.0008956654    1.727    0.421
        42 -10.7063    156.7095    231.5731   2.9132547478e+02   4.1901540441e+00   0.01184008   0.01120682 -51.65 0.0003020882    1.043    0.042
        43  -9.6128     92.4931    231.7016   2.9207320122e+02   4.5599431373e+00   0.01418281  0.006390382 -61.73  0.001210835    2.170    0.539
        44 -11.9765    141.8342    230.5274   2.9149221144e+02   4.2883836205e+00   0.04097665   0.01431358 -53.48  0.003193844    2.622    0.619
        45 -10.6427    141.6905    212.9782   2.9138911071e+02   4.4931578879e+00   0.02873253   0.01712575 -76.63  0.002502112    2.000    0.500
        46 -10.9982    137.5569    214.7456   2.9144775005e+02   4.4965372917e+00   0.03642701   0.01311046 -67.43   0.00262815    3.218    0.689
        47 -11.6186    141.9966    221.9633   2.9143920127e+02   4.3869684630e+00   0.01216508   0.01116013  22.91 0.0003392518    1.098    0.089
        48 -11.5919    142.3155    218.6981   2.9141599625e+02   4.4230685911e+00   0.01841247   0.01246378  51.31 0.0003076987    1.632    0.387
        49 -11.2888    136.1659    228.5903   2.9154657585e+02   4.3436859348e+00    0.0220347   0.01124868 -53.88  0.002031156    1.869    0.465
        50 -10.6407    132.7350    224.2757   2.9156073310e+02   4.4136748432e+00   0.01289336   0.01073568 -11.95 0.0006702993    1.316    0.240
        51 -15.2067     12.1388    207.3282   2.9286353848e+02   5.3066099770e+00    0.1679166     0.101394 -57.73    0.0168354    1.601    0.375
        52 -11.5295    135.5755    241.1393   2.9162831508e+02   4.2012635330e+00   0.01763217   0.01516776  -2.63  0.002067243    1.244    0.196
        53  -9.9296    180.9768    229.6499   2.9103186994e+02   4.0719878005e+00   0.00921273  0.008602096  20.36 0.0006989486    1.079    0.073
        54 -10.9499    165.3676    227.4611   2.9120025081e+02   4.1878114968e+00   0.02038965   0.01228409 -88.33  0.001376912    2.344    0.573
        55  -9.8927     84.3344    230.0772   2.9215846029e+02   4.6259357575e+00   0.01148113  0.009231033   0.47 0.0007223719    1.372    0.271
        56 -10.9388     78.8032    229.2855   2.9221811145e+02   4.6670672943e+00   0.01592125    0.0112356   2.37  0.001646253    1.676    0.403
        57 -10.5441    190.9300    228.1699   2.9090734355e+02   4.0315200539e+00   0.01055204  0.009387698 -63.92 0.0002936158    1.123    0.110
        58 -10.1123    166.5769    241.3378   2.9126905896e+02   4.0195824179e+00   0.01474603   0.01018982  -5.11    0.0011466    1.803    0.445
        59  -9.4208    150.1346    229.6508   2.9139045166e+02   4.2505432459e+00   0.01327084  0.005146891  35.74  0.001065725    2.446    0.591
        60  -9.4748    184.9852    228.4982   2.9097839852e+02   4.0621474059e+00  0.009457403  0.005667685  -9.51 0.0004837631    2.473    0.596
        61  -9.1701    175.1651    228.0086   2.9108961884e+02   4.1247163001e+00   0.01153395  0.007597933  72.63  0.001094739    2.053    0.513
        62  -8.9739    219.9758    223.4970   2.9054191837e+02   3.9174355650e+00  0.009353242  0.006511249  26.77 -0.0003305784    1.442    0.307
        63  -9.3022    155.9164    223.4982   2.9128647762e+02   4.2885732772e+00  0.009692908  0.006478784  27.95  0.000372239    1.494    0.331
        64 -10.5242    150.0343    222.3605   2.9134808950e+02   4.3358401211e+00     0.012244   0.01002193 -49.89 0.0003384257    1.203    0.169
        65  -9.5757    149.5505    218.5409   2.9133090562e+02   4.3830259276e+00   0.01115121  0.009784333  73.59 0.0004416804    1.242    0.195
        66 -10.2742     89.0723    219.5041   2.9204031118e+02   4.7214962605e+00   0.02250614  0.009318008 -47.50  0.001719042    2.440    0.590
        67  -9.8454    164.3299    220.6329   2.9117152836e+02   4.2731554792e+00   0.01610063  0.008627108 -45.85 0.0008568769    1.904    0.475
        68  -9.2661    158.1355    241.8125   2.9137002145e+02   4.0629247543e+00  0.009323106  0.007515324 -30.38 0.0004539641    1.321    0.243
        69 -10.2210    176.9939    218.5609   2.9101190425e+02   4.2238835951e+00    0.0175661   0.01071296 -80.27  0.001644931    2.042    0.510
        70  -9.3649    134.0289    217.7019   2.9150644288e+02   4.4825906600e+00   0.01093463  0.007746307  44.52 0.0005780958    1.463    0.316
        71 -10.1245    182.9199    214.0958   2.9091632152e+02   4.2414240898e+00   0.01016071  0.008777029  62.10 0.0003879343    1.249    0.199
        72 -10.5816    102.4230    212.1517   2.9184108457e+02   4.7298438590e+00   0.01801601   0.01181725  53.94  0.001010965    1.749    0.428
        73 -10.7344     88.3172    213.0580   2.9201066981e+02   4.8007956527e+00   0.01401902   0.01198767 -56.46 0.0003633482    1.151    0.131
        74 -12.4372    131.9097    211.6341   2.9149487091e+02   4.5653706523e+00   0.01959795   0.01394055 -31.82 0.0004812123    1.563    0.360
        75  -9.4958    152.1497    211.9364   2.9126122448e+02   4.4447258447e+00   0.01016374  0.008781192  67.59 0.0005570377    1.263    0.208
        76 -11.6199    135.1721    236.3368   2.9160435623e+02   4.2594075861e+00   0.01849244   0.01587291 -63.90  0.001150099    1.164    0.141
        77  -9.1670    197.7268    208.0959   2.9070832086e+02   4.2253018043e+00  0.008883491  0.008257039 -51.82 0.0002751439    1.062    0.058
        78 -10.5778    174.7144    206.1299   2.9096409965e+02   4.3815104967e+00   0.01897718   0.01023434 -46.24  0.001305549    1.881    0.468
        79 -11.7681     93.1421    205.1559   2.9190737840e+02   4.8647903311e+00   0.03366225   0.01727684  35.71  0.001834929    1.900    0.474
        80 -11.5184    247.5635    205.2504   2.9011230429e+02   3.9692422673e+00   0.02440628   0.01605868  10.73  0.002451777    1.753    0.429
        81  -9.9380    149.5565    204.4577   2.9124670624e+02   4.5466435581e+00   0.01677123   0.01002962 -36.15  0.001038149    1.913    0.477
        82 -10.1017    126.0897    205.9350   2.9152856038e+02   4.6652741696e+00   0.01152664  0.009345145  28.29 0.0004657653    1.236    0.191
        83  -9.2533    114.1393    205.6872   2.9166615190e+02   4.7372643076e+00   0.01519364  0.007989114 -80.12  0.001243952    2.675    0.626
        84 -10.3786    103.5412    203.3452   2.9177552534e+02   4.8257508109e+00   0.01330777   0.01132183   5.92 0.0009205511    1.244    0.196
        85  -9.6584     75.4630    203.7124   2.9210458920e+02   4.9836649985e+00   0.02095857   0.01134531  14.43  0.001648793    2.220    0.550
        86  -9.4994    224.8854    202.6349   2.9036004504e+02   4.1312130803e+00  0.009142219   0.00798791  31.53 0.0003966663    1.148    0.129
        87 -10.4824    166.9342    203.2547   2.9103738649e+02   4.4599879207e+00  0.009800294  0.009645287 -46.49 0.0002891408    1.007    0.007
        88 -10.1559    169.8444    200.3899   2.9098641349e+02   4.4764134747e+00    0.0113308   0.01014138 -54.39 0.0003319769    1.101    0.092
        89  -9.8548    133.0525    202.9652   2.9142980515e+02   4.6595083258e+00  0.009816432  0.009472827 -75.97 0.0003409511    1.053    0.050
        90  -9.9154    192.0320    198.0106   2.9071418760e+02   4.3754633181e+00   0.01091462  0.009454226  45.30  0.001285721    1.184    0.155
        91 -10.7804    197.3426    200.8519   2.9066945058e+02   4.3116703107e+00   0.02060193   0.01276196  31.44  0.001575248    1.592    0.372
        92  -9.1710    108.4567    202.2094   2.9171153150e+02   4.8105421459e+00  0.009491554   0.00643683 -83.78 0.0009399476    1.783    0.439
        93  -9.4267    122.4267    200.9641   2.9154150504e+02   4.7442362125e+00  0.009974086  0.007680882  22.28 0.0007820347    1.324    0.245
        94  -9.3650    115.1495    200.6373   2.9162424797e+02   4.7901206701e+00   0.01027569  0.007709639  47.53 0.0006376279    1.400    0.286
        95  -8.8149    158.5508    199.4826   2.9111234632e+02   4.5523727871e+00  0.006512634  0.006459205 -63.62   8.2273e-05    1.017    0.016
        96 -11.0631    134.1219    197.6603   2.9138567284e+02   4.7149736037e+00   0.01554605   0.01205299 -82.60 0.0002762919    1.439    0.305
        97 -10.0028     86.0285    198.2363   2.9194891779e+02   4.9863220411e+00   0.02526375   0.00977305 -64.79 0.0009729143    2.688    0.628
        98 -10.2129     83.0536    193.5642   2.9195568382e+02   5.0578184730e+00    0.0214186   0.01190983  -5.34 0.0009908411    2.966    0.663
        99 -10.9062    173.3478    240.1912   2.9118350929e+02   3.9937052745e+00   0.01588425   0.01137229  88.75  0.001149137    1.716    0.417
       100 -10.0514    100.6593    198.2195   2.9177848369e+02   4.9019889322e+00   0.01337751   0.01049924 -38.18 0.0003445338    1.316    0.240
       101 -11.9566     76.2408    187.9035   2.9200124823e+02   5.1629670405e+00   0.01734561    0.0137799 -28.42 0.0006624621    1.360    0.265
       102 -11.9417     71.6152    194.7724   2.9209608619e+02   5.1098135948e+00   0.02512631   0.01289279 -40.56  0.002211599    2.190    0.543
       103 -10.5090     70.7043    190.2836   2.9207992474e+02   5.1672581412e+00   0.01079478  0.009673419  24.01 0.0001570679    1.124    0.110
       104  -9.5905    113.4766    195.9918   2.9161598358e+02   4.8537903525e+00   0.01589424  0.008886098  50.18  0.001452278    2.066    0.516
       105  -9.7606    113.0095    192.0666   2.9159798262e+02   4.9021146562e+00  0.009891397  0.009410148 -28.40  0.001220927    1.055    0.052
       106  -9.2014    107.5304    195.9971   2.9168523151e+02   4.8881071094e+00   0.01007444  0.006523211 -64.59 0.0006009291    1.556    0.357
       107 -10.2039    115.9238    240.1162   2.9185076919e+02   4.3267659192e+00   0.01104273  0.007494325 -31.77 0.0009781561    1.675    0.403
       108  -9.4956    177.3217    194.3604   2.9086339627e+02   4.5031350961e+00   0.01364853  0.009231765 -26.48  0.001367366    1.766    0.434
       109 -10.6067    159.4207    194.0898   2.9106998743e+02   4.6099959445e+00   0.01749581   0.01164221  42.54 0.0009747181    1.541    0.351
       110 -10.5400    120.7576    194.4852   2.9152223982e+02   4.8291928535e+00   0.01935841  0.009687157  39.47  0.001749464    1.998    0.499
       111 -10.6478     38.6050    192.8396   2.9246903088e+02   5.3226768680e+00   0.01800929   0.01091047 -48.21  0.001787092    1.636    0.389
       112 -10.3168     44.2467    188.5185   2.9237756718e+02   5.3404022664e+00   0.02483693   0.01361241   4.16  0.002075292    2.665    0.625
       113 -10.2435    172.9389    192.5793   2.9090371569e+02   4.5492268564e+00   0.01595651  0.009549432 -48.27    0.0009238    1.656    0.396
       114  -9.2212    101.3732    192.9052   2.9173845238e+02   4.9596382371e+00   0.01897335   0.01038097 -27.78   0.00159199    2.591    0.614
       115 -14.6411     27.3728    248.1799   2.9292903349e+02   4.7438648396e+00   0.07393531   0.05509869  13.89  0.006225267    1.438    0.304
       116  -9.6772     47.2340    192.9607   2.9236924161e+02   5.2715282258e+00   0.01018867  0.008125724 -37.12 0.0005005433    1.297    0.229
       117 -10.5522    191.4600    191.4710   2.9068170771e+02   4.4547421756e+00    0.0129326    0.0122395 -32.57 0.0006116032    1.058    0.054
       118 -11.6657    249.8285    187.5617   2.8998004371e+02   4.1614318850e+00   0.02457177   0.01081184 -58.22  0.002113706    2.149    0.535
       119  -9.7065    135.6020    189.8968   2.9132206163e+02   4.7966311661e+00    0.0146729  0.009622009 -29.65  0.001171005    1.803    0.445
       120  -9.1309    211.6868    239.6879   2.9073501710e+02   3.7774631764e+00  0.006980618  0.004915545 -28.06 0.0006176296    1.634    0.388
       121 -10.0761    175.7854    186.9924   2.9083718686e+02   4.5976361205e+00   0.01061416  0.009532484  26.52 0.0003529444    1.119    0.106
       122  -9.2052     67.6399    186.9270   2.9209559429e+02   5.2239693480e+00  0.008942777  0.008395528 -49.54 0.0004157965    1.051    0.049
       123  -9.1787    161.2775    185.3987   2.9099641465e+02   4.7002209715e+00   0.01058654  0.007220832 -30.77 0.0006873621    1.678    0.404
       124  -9.3052    154.6180    185.2001   2.9107270595e+02   4.7411059141e+00  0.009631184  0.005760655 -51.22 0.0005645921    1.627    0.385
       125  -9.7307    143.3113    184.7105   2.9120134580e+02   4.8122717952e+00   0.01026678  0.008454741  88.06 0.0004907701    1.362    0.266
       126 -10.1531    140.0682    183.3067   2.9123069489e+02   4.8473608707e+00   0.01313832   0.01092652  68.84 0.0003417326    1.343    0.256
       127  -9.9995     86.9581    183.5643   2.9185054327e+02   5.1515163317e+00   0.02188907   0.01100102  24.63  0.001967668    2.045    0.511
       128  -9.3962     38.1780    183.9801   2.9242121999e+02   5.4281512159e+00   0.01185197  0.009701096 -67.38  0.001177159    1.237    0.192
       129  -9.5543     36.7245    179.9306   2.9241402149e+02   5.4836128511e+00   0.01835684  0.008015077  49.90  0.001405573    2.960    0.662
       130  -9.7813    217.4224    183.2159   2.9033048989e+02   4.4000139189e+00   0.01118997  0.009040979  28.12 0.0003077734    1.240    0.194
       131 -15.6103      6.4649    246.3999   2.9316176852e+02   4.8848798435e+00    0.1320971   0.07097556 -51.03   0.01249724    1.805    0.446
       132 -11.6417    104.3064    180.8687   2.9163243122e+02   5.0825926871e+00   0.01121365   0.01102606  26.90 0.0002716911    1.026    0.026
       133  -9.5942     65.9698    182.0169   2.9208575932e+02   5.2906927394e+00  0.009638861  0.009280825 -13.42 0.0003234613    1.047    0.045
       134 -11.0267    135.0647    179.6385   2.9126699971e+02   4.9189533533e+00   0.01910642   0.01164742 -68.78  0.001874037    1.734    0.423
       135 -10.5706    128.9824    179.4760   2.9133682645e+02   4.9560452037e+00   0.01211336  0.009659056 -62.99 0.0003317607    1.250    0.200
       136  -9.6689     48.2145    179.9118   2.9228004263e+02   5.4175946426e+00   0.01071628  0.009016662  27.47 0.0004374991    1.193    0.162
       137 -10.9018    181.7799    177.2051   2.9070889710e+02   4.6765815045e+00   0.01693564   0.01327867  29.91  0.001914404    1.274    0.215
       138 -12.0186     85.2213    175.8733   2.9182485920e+02   5.2509538833e+00   0.02059835   0.01895077  63.17  0.001451428    1.143    0.125
       139  -9.7711    109.1088    176.1579   2.9154837179e+02   5.1095781648e+00   0.01148954   0.00971958 -87.63 0.0006726669    1.291    0.225
       140  -9.2599     95.4415    175.8605   2.9170575166e+02   5.1920481952e+00   0.01085003  0.008968472 -12.07 0.0006940044    1.331    0.249
       141 -10.5120     77.1334    175.5218   2.9191696683e+02   5.3017537874e+00   0.01139645   0.01003334 -71.24 0.0003761862    1.159    0.137
       142 -12.4627     71.4587    174.4413   2.9197662072e+02   5.3470800388e+00   0.01896933   0.01515852  -7.62 0.0006712252    1.406    0.289
       143 -11.4913      2.0165    168.2639   2.9274899090e+02   5.8191071088e+00   0.02843548  0.009502854 -67.07  0.001967187    3.477    0.712
       144 -12.2775    248.5291    171.7759   2.8990052618e+02   4.3522175608e+00   0.02787139   0.02195706  -4.36  0.003109267    1.435    0.303
       145 -10.0651    154.5476    172.8693   2.9099977184e+02   4.8847855594e+00   0.01549013   0.01028746 -24.44 0.0009656802    1.853    0.460
       146  -8.7808     42.2455    174.3381   2.9231635717e+02   5.5168140823e+00  0.006834483  0.004758222 -35.72 0.0004309545    1.558    0.358
       147 -12.7705     18.0617    170.2139   2.9257359607e+02   5.7040945063e+00   0.04695709   0.02193972 -78.67  0.003488479    3.310    0.698
       148 -10.9436     12.7754    161.5207   2.9258341362e+02   5.8356027120e+00   0.01323669    0.0109584  55.46  0.001522197    1.295    0.228
       149 -11.1043     80.6096    163.4767   2.9180455678e+02   5.4216941584e+00   0.01348674   0.01237597  40.86 0.0001447878    1.105    0.095
       150 -10.1353     91.1813    172.7557   2.9173682650e+02   5.2527581423e+00    0.0126391  0.009777469 -33.58 0.0006676676    1.375    0.273
       151 -12.6853     90.4630    166.8960   2.9171019457e+02   5.3250208409e+00   0.03469156   0.02864042   1.72  0.003452178    1.313    0.239
       152 -10.0855     85.0002    165.2699   2.9176411682e+02   5.3754867633e+00   0.01215529  0.009353195 -55.45 0.0001898762    1.271    0.213
       153  -8.8813     31.5160    171.5494   2.9242475962e+02   5.6110750305e+00  0.009958436  0.005939907  39.34 2.333183e-05    1.683    0.406
       154 -11.4279     28.4956    169.9891   2.9245065800e+02   5.6466178109e+00   0.02610959   0.01038148 -58.91  0.002144495    2.360    0.576
       155 -13.5146     14.1394    238.9547   2.9302823614e+02   4.9273090264e+00   0.03537848   0.01836381  21.43  0.001077143    2.067    0.516
       156  -9.9454    115.4279    180.7550   2.9150226279e+02   5.0196018885e+00   0.01348237  0.009193769  79.37 0.0007635731    1.935    0.483
       157  -9.6234    100.3233    170.4436   2.9161654175e+02   5.2267937643e+00  0.009494917  0.005981392  38.39 0.0009482793    1.586    0.370
       158 -11.1352     68.9704    167.8601   2.9196632983e+02   5.4379526087e+00   0.01881012   0.01093834 -54.33 0.0007505812    1.655    0.396
       159 -11.2439     44.8924    169.2390   2.9225510815e+02   5.5608382602e+00   0.02696638   0.01509071  18.24  0.001916126    1.983    0.496
       160 -10.0206    107.5573    168.2803   2.9151936791e+02   5.2101097213e+00   0.01355989  0.008697636  23.38 0.0009702928    1.599    0.375
       161 -10.3107    236.7290    145.8992   2.8988245145e+02   4.7211422831e+00   0.02475544   0.01208052   5.06  0.001779633    3.620    0.724
       162 -11.5390    249.1379    149.5406   2.8976011431e+02   4.6067606853e+00   0.03568029   0.02026474 -77.16  0.003227727    2.184    0.542
       163 -12.2296    248.3060    101.5618   2.8948176737e+02   5.1683182925e+00   0.04197923   0.02183965 -61.27  0.003891774    1.884    0.469
       164 -10.2306    250.2556    125.1284   2.8960063296e+02   4.8835576082e+00   0.01993723  0.008696575 -62.58  0.001677289    2.275    0.560
       165 -11.1392    245.0999    121.1717   2.8963678977e+02   4.9594541812e+00   0.02991633   0.01588287  44.26  0.002080484    1.996    0.499
       166 -12.3077    248.5096    114.0107   2.8955417035e+02   5.0227103527e+00   0.05001275    0.0264999 -51.45  0.004696602    1.824    0.452
       167 -13.2304    246.1943    159.1285   2.8985181709e+02   4.5125851574e+00   0.05626103   0.04111521 -78.30  0.006045951    1.522    0.343
       168 -12.0855    239.8724    151.7352   2.8988092794e+02   4.6351360841e+00   0.03056875   0.01823695 -34.75  0.002890882    1.961    0.490
       169 -12.3899    248.2980    134.3960   2.8967900515e+02   4.7874005093e+00   0.04478903    0.0405748  58.22  0.005220773    1.159    0.137
       170  -9.6162    175.9566    166.2798   2.9071123296e+02   4.8372564291e+00  0.009071739  0.008524587  33.63  0.000278961    1.072    0.067
       171  -9.0388    136.4553    165.9551   2.9116899152e+02   5.0699097411e+00  0.009191684  0.005705774  80.96 0.0006158228    2.376    0.579
       172  -8.8944    124.4758    165.4624   2.9130551530e+02   5.1449811698e+00  0.006528344  0.006454605 -32.85 -4.45255e-07    1.002    0.002
       173 -10.4432     47.1347    163.2975   2.9219353869e+02   5.6169832035e+00   0.01177201  0.009583805 -73.52 0.0006743557    1.282    0.220
       174  -9.2592     58.5358    167.5311   2.9208594266e+02   5.5020000351e+00   0.00655295  0.006422114 -34.18 3.623502e-05    1.010    0.010
       175 -10.1624     37.0303    162.7802   2.9230821195e+02   5.6812523409e+00   0.01008595  0.008621555  54.31 0.0006202661    1.237    0.192
       176  -9.8926    119.8473    159.1776   2.9132183078e+02   5.2448013592e+00  0.009078712    0.0082802  29.58            0    1.101    0.092
       177 -11.3788     32.7369    160.9744   2.9234748388e+02   5.7269903484e+00   0.02653995   0.01351912 -38.68  0.002295196    2.302    0.566
       178 -11.1159     23.9708    149.4877   2.9238116679e+02   5.9110363038e+00   0.01936225   0.01076748 -58.76  0.001403648    1.735    0.424
       179 -12.3231     31.4833    154.8819   2.9232576032e+02   5.8050441890e+00   0.03198228   0.01865023 -26.59  0.001424587    2.308    0.567
       180 -13.3587     23.6204    155.2519   2.9241962554e+02   5.8460422691e+00   0.05305789   0.02519672  29.75  0.004736718    2.053    0.513
       181 -11.3423     73.4462    158.0573   2.9185565260e+02   5.5260621161e+00   0.02364007   0.02003512  81.16     0.001537    1.314    0.239
       182  -9.7031     79.0521    159.0537   2.9179628600e+02   5.4821027948e+00   0.01027219  0.007653094  61.47 0.0004337566    1.548    0.354
       183  -9.4753     52.6452    158.4478   2.9210038100e+02   5.6415796969e+00   0.01130604  0.006265394  30.63 0.0007108965    1.770    0.435
       184 -10.0056     89.2198    156.9759   2.9166541271e+02   5.4475084528e+00  0.009247912  0.008597161 -44.25 0.0003998328    1.065    0.061
       185  -9.6468    134.4062    155.7716   2.9113192873e+02   5.2001042042e+00   0.01179074  0.007851604 -53.41 0.0006199537    1.459    0.315
       186 -11.3526    248.4844    141.2428   2.8971792495e+02   4.7068612353e+00   0.04505289   0.01795358  14.61  0.003019234    3.989    0.749
       187 -11.4562     96.3614    159.0405   2.9159455332e+02   5.3822338805e+00    0.0168425   0.01501404 -45.38  0.002029293    1.112    0.101
       188 -10.3652     13.8297    154.5243   2.9252942577e+02   5.9108782320e+00   0.01132747  0.008722879 -38.85 0.0005909283    1.341    0.254
       189  -9.4868     62.2147    152.9280   2.9195590557e+02   5.6505275955e+00   0.01678033  0.008300095 -69.23 0.0009730975    2.243    0.554
       190 -10.7145    112.8275    152.3845   2.9136296272e+02   5.3643609540e+00   0.01622549   0.01379234  36.48 0.0008939191    1.183    0.154
       191  -9.0720    148.6869    152.6708   2.9094711318e+02   5.1534132582e+00  0.007078795  0.004884413 -29.15 -6.247917e-05    1.672    0.402
       192  -9.5382    132.0450    152.4830   2.9113974633e+02   5.2519871714e+00  0.009624181  0.006503059  26.93 0.0003305113    1.484    0.326
       193 -11.0954    102.6463    151.1557   2.9147420932e+02   5.4375327422e+00    0.0169184   0.01470408 -45.33  0.001300096    1.142    0.125
       194  -9.9481    105.4303    146.2002   2.9141214620e+02   5.4790197957e+00   0.01371297   0.00974096 -30.76   0.00143471    1.579    0.367
       195  -9.4884     91.1923    150.4887   2.9160366449e+02   5.5115064029e+00   0.01143387  0.009068479 -64.37 0.0004492977    1.263    0.208
       196 -11.0588     56.3180    150.1229   2.9200788270e+02   5.7171633146e+00   0.01919835   0.01779562  66.76  0.001184381    1.136    0.119
       197  -9.6875     53.0040    146.4713   2.9202470846e+02   5.7787308932e+00   0.01059852  0.008976681 -31.93 0.0003301973    1.226    0.185
       198  -9.3805     45.8694    150.8197   2.9213383059e+02   5.7693376960e+00  0.009488493  0.007710299  58.16 0.0006924264    1.342    0.255
       199 -12.3312     74.8643    139.3419   2.9172731739e+02   5.7354014673e+00   0.04434673   0.02861163  68.75  0.003672028    2.092    0.522
       200 -13.2553     67.3571    144.0319   2.9184283967e+02   5.7242458577e+00   0.04137028   0.03020188  69.19  0.004363549    1.665    0.399
       201 -10.7093     64.9995    134.0522   2.9181069323e+02   5.8538478837e+00   0.01331781   0.01140413  53.50 0.0007627511    1.231    0.188
       202  -9.8346    133.7244    135.4203   2.9101806467e+02   5.4405038952e+00   0.01013517  0.007499129 -26.49  0.000521283    1.528    0.346
       203 -10.8080    134.0000    144.9914   2.9107214965e+02   5.3277102445e+00   0.03218196   0.01022106 -65.91  0.002198928    3.541    0.718
       204 -10.9382    133.0508    140.4480   2.9105600807e+02   5.3859940982e+00   0.01817598   0.01387291 -50.03  0.001247594    1.289    0.224
       205 -10.3628     35.1496    148.9198   2.9224745423e+02   5.8532269858e+00   0.01667217  0.009499836  43.44   0.00110666    1.830    0.454
       206 -12.7295     32.7681    142.2225   2.9223525554e+02   5.9448065883e+00   0.03749355   0.01789538 -52.72  0.003027332    1.995    0.499
       207  -9.3001    141.7296    147.9858   2.9100006812e+02   5.2481502598e+00   0.01468573  0.008414378 -11.67   0.00120569    2.792    0.642
       208 -12.5960      1.9557    109.9407   2.9240198392e+02   6.4974516418e+00   0.06870487   0.01071504 -63.23  0.003415167    6.602    0.849
       209 -13.1264      2.7630    140.8710   2.9257707283e+02   6.1332946271e+00   0.04288593   0.03051243 -59.01  0.003288279    1.376    0.273
       210 -11.0491     47.5160    143.7055   2.9207216930e+02   5.8425384071e+00   0.01868758    0.0116131   9.92  0.001264373    1.924    0.480
       211 -11.5620     60.4269    136.1275   2.9187639838e+02   5.8561242078e+00   0.02758986   0.01663663  89.56  0.001613451    2.396    0.583
       212 -11.1807     27.4888    142.4719   2.9229829816e+02   5.9723282975e+00   0.01240514   0.01016184  25.69  0.000863159    1.229    0.186
       213 -10.9965     26.4770    139.4718   2.9229219524e+02   6.0130325133e+00   0.01235055   0.01111958   1.08  0.001049218    1.155    0.134
       214 -10.5410    164.1787    139.5324   2.9068810479e+02   5.2162408280e+00   0.01135135   0.01061834 -64.99 0.0003052575    1.071    0.066
       215 -12.9574     46.2266    131.2871   2.9201304476e+02   5.9943183727e+00   0.03843669   0.02678975  62.10  0.002920605    1.726    0.421
       216 -10.6454     53.1172    139.6518   2.9198266611e+02   5.8573454737e+00   0.01827406   0.01120499  62.61  0.001208861    2.172    0.540
       217 -10.6238     47.1044    138.5938   2.9204644608e+02   5.9043294961e+00   0.01657047   0.01134271  -0.54  0.001667877    1.795    0.443
       218 -10.3038    119.8932    137.5776   2.9119207964e+02   5.4955259901e+00   0.02056481   0.01127782 -31.17  0.001751891    2.405    0.584
       219 -11.1398    112.9719    136.3300   2.9126524397e+02   5.5500800066e+00   0.02235539   0.01422392  30.91  0.001544035    1.553    0.356
       220  -9.1595    184.4356    136.2676   2.9043279532e+02   5.1366499565e+00  0.008725094   0.00648009 -79.48 0.0005728526    1.501    0.334
       221  -9.3401     87.7937    133.1971   2.9153989016e+02   5.7321037645e+00   0.00875667  0.007329328 -29.50 0.0002390992    1.257    0.204
       222  -9.3525    106.5123    129.9750   2.9130247796e+02   5.6612965549e+00   0.01524634  0.006661359  43.74  0.001248214    2.462    0.594
       223 -11.3544     65.9924    127.8323   2.9176194432e+02   5.9203997713e+00   0.02475463    0.0167782 -79.53  0.001418711    1.711    0.416
       224  -8.8045    141.5989    129.4855   2.9089081772e+02   5.4638282233e+00  0.006571313  0.006305814 -43.87 3.715325e-05    1.030    0.029
       225 -11.8939     32.6263    126.8495   2.9214514048e+02   6.1243128553e+00   0.01678772   0.01300718  61.55  0.001090519    1.460    0.315
       226 -11.8654     10.1667    124.6737   2.9239411438e+02   6.2789694837e+00   0.01758341  0.009069743  33.68 0.0009083422    1.884    0.469
       227 -10.3637    209.8526    125.7762   2.9007420328e+02   5.1108876405e+00   0.01134445   0.01033037 -66.59 0.0005324283    1.104    0.094
       228  -9.6708    160.2024    126.4049   2.9065573735e+02   5.3917699983e+00  0.009564488  0.005881862  38.34 0.0007858449    1.623    0.384
       229  -9.5577     61.1230    125.1576   2.9180272983e+02   5.9795974326e+00  0.009346714  0.007711244  60.96 0.0004222492    1.329    0.248
       230  -9.7210     86.3197    126.4895   2.9151695312e+02   5.8185684317e+00   0.01633725   0.01020558 -16.02  0.000985851    2.213    0.548
       231  -9.4137     50.6037    122.8499   2.9191159851e+02   6.0671258489e+00  0.009464057  0.006404849 -79.77 0.0009457185    1.719    0.418
       232  -8.8589    114.6234    122.8570   2.9116536390e+02   5.6970570803e+00  0.008771142  0.006330575 -80.04 0.0002758425    1.569    0.363
       233 -10.8254     15.4238    122.8577   2.9232195438e+02   6.2698102581e+00   0.01322672   0.00794171 -25.25  0.001194255    2.215    0.549
       234  -9.6126    238.9211    121.7823   2.8971226439e+02   4.9882990445e+00   0.01446276  0.006632681 -40.09  0.001161657    2.597    0.615
       235 -12.2074      2.5736    131.0161   2.9252051965e+02   6.2489444279e+00   0.02870093   0.01341505 -55.16  0.002549404    2.018    0.504
       236 -10.5450     21.0039    120.4948   2.9224275773e+02   6.2651360964e+00    0.0143627  0.006542592 -33.16  0.001035928    3.372    0.703
       237 -11.3358     30.7548    117.6252   2.9211188155e+02   6.2423045137e+00   0.01545306   0.01123247  40.51  0.001117602    1.394    0.282
       238 -10.3334     33.2421    114.9972   2.9206716925e+02   6.2585081317e+00   0.01019333  0.009284474 -17.78 0.0006288729    1.136    0.120
       239  -9.9465     28.0179    114.7035   2.9212635576e+02   6.2920312381e+00  0.009755267  0.008786615  61.02 0.0003102071    1.175    0.149
       240 -12.6777    249.0767    239.5048   2.9029976025e+02   3.5628178703e+00   0.04137838   0.02351871 -54.78  0.004027146    1.690    0.408
       241 -10.8021    168.1270    113.3105   2.9048498108e+02   5.4978672779e+00    0.0161428   0.01235917  65.61 0.0008984462    1.516    0.340
       242 -10.3018     72.8702    115.0667   2.9160542337e+02   6.0290163118e+00   0.01053566   0.00953365  -4.60 -0.0009232552    1.152    0.132
       243  -8.9398     82.1704    114.3656   2.9149279602e+02   5.9834225798e+00  0.009183059  0.005820494  38.07 0.0001667221    1.575    0.365
       244 -11.5614     57.5807    110.6774   2.9175746934e+02   6.1683093675e+00   0.02871572   0.01533144  23.35  0.002658912    1.949    0.487
       245 -10.2740     62.5827    106.7796   2.9167582159e+02   6.1847195020e+00   0.01342568  0.005890035 -57.43  0.001143856    2.144    0.534
       246 -10.2797     70.1351    111.1925   2.9161414193e+02   6.0898308443e+00  0.009893993  0.008927448 -19.86 0.0003831112    1.151    0.131
       247 -10.3062     31.4047    110.7672   2.9206333166e+02   6.3182554723e+00   0.01298312  0.007649434  38.87  0.000733779    1.698    0.411
       248 -10.1150    134.5479    105.2092   2.9082750095e+02   5.7866543844e+00   0.01677995  0.006000135 -59.57  0.001300514    2.618    0.618
       249  -9.2265    112.3063    104.3239   2.9108138042e+02   5.9257573957e+00   0.00701945  0.004889538 -29.33 0.0007034362    1.645    0.392
       250  -9.2288     35.9893    102.4925   2.9196039690e+02   6.3879770212e+00  0.009458387  0.006560856  23.78 0.0003175116    1.468    0.319
       251 -10.0705     62.9348     99.6279   2.9162893214e+02   6.2657750145e+00   0.01343713  0.008494142 -45.73 0.0008299014    1.596    0.373
       252 -11.5778    128.5803    233.2425   2.9166256339e+02   4.3334900995e+00   0.02903897   0.01715686 -81.24  0.002650066    2.187    0.543
       253  -8.9787    136.7060     94.3069   2.9073700076e+02   5.9007506649e+00  0.006768446  0.005012436  63.61 0.0004670151    1.583    0.368
       254  -9.5128     44.8291     90.1930   2.9178371116e+02   6.4798880409e+00  0.009187183  0.007564364 -22.67 0.0003356104    1.315    0.240
       255  -9.2135    102.0918     88.1056   2.9110329068e+02   6.1732443206e+00  0.008614501  0.007523148  62.55            0    1.231    0.188
       256  -8.7391     64.3284     76.7187   2.9147554859e+02   6.5238281544e+00  0.006851756  0.004929203  58.67 0.0004637112    1.602    0.376
       257 -10.9192    222.7915    244.9865   2.9063771590e+02   3.6515747767e+00   0.01324721  0.009072919  -8.99  0.001316515    1.850    0.459
       258 -11.5487    146.0217    240.8931   2.9150537590e+02   4.1437009033e+00   0.02046612   0.01567979  13.85 0.0007250592    1.388    0.280
