#   1 NUMBER                 Running object number                                     
#   2 MAG_AUTO               Kron-like elliptical aperture magnitude                    [mag]
#   3 X_IMAGE                Object position along x                                    [pixel]
#   4 Y_IMAGE                Object position along y                                    [pixel]
#   5 X_WORLD                Barycenter position along world x axis                     [deg]
#   6 Y_WORLD                Barycenter position along world y axis                     [deg]
#   7 A_WORLD                Profile RMS along major axis (world units)                 [deg]
#   8 B_WORLD                Profile RMS along minor axis (world units)                 [deg]
#   9 THETA_WORLD            Position angle (CCW/world-x)                               [deg]
#  10 FWHM_WORLD             FWHM assuming a gaussian core                              [deg]
#  11 ELONGATION             A_IMAGE/B_IMAGE                                           
#  12 ELLIPTICITY            1 - B_IMAGE/A_IMAGE                                       
         1 -14.5615    204.3985     45.0113   6.7752681696e+01   2.7864499294e+01     1.187618     1.069796 -28.45  0.006989769    1.143    0.125
         2 -13.7326    247.3734     34.2722   6.0967616626e+01   1.9713864083e+01    0.9250386     0.443873 -69.42  0.004291079    2.643    0.622
         3 -15.1159    216.2674     34.2469   6.3595355105e+01   2.6422497027e+01     3.026292    0.9327832 -49.83  0.006580859    3.370    0.703
         4 -16.6454    242.9074     88.7233   7.4030668992e+01   1.3698493245e+01     12.40637     2.582828 -30.74   0.03860307    4.249    0.765
         5 -15.1314    179.6172     74.1417   7.9705122495e+01   2.9614979478e+01      6.61812     1.576726 -46.00  0.002630279    5.846    0.829
         6 -15.4800    167.3795     56.8162   7.6722138275e+01   3.5496866894e+01     4.582552     2.400469 -81.37  0.003002714    4.666    0.786
         7 -14.4461    248.2324      2.7144   5.3742630475e+01   2.2869959109e+01    0.5988462     0.448378 -67.67  0.003121356    1.179    0.152
         8 -16.0146    185.6587      5.4732   5.8347414218e+01   3.7086339638e+01     11.70877          nan  65.29    0.0283175    6.750    0.852
         9 -15.0416    236.6370      2.8430   5.4331276572e+01   2.5267828301e+01    0.9009656    0.5878725 -87.52   0.00522753    1.508    0.337
        10 -10.2698    105.0234      2.0020   6.7759021385e+01   5.9500961936e+01     0.253619    0.1481878  40.22   0.00113811    1.724    0.420
        11 -11.1215     70.1905      2.3296   7.7899679655e+01   6.8426673698e+01    0.3053016   0.09311683  51.60  0.001096003    2.650    0.623
        12 -10.7593     57.7903      2.4014   8.3283437952e+01   7.1234020522e+01    0.2104591    0.1085644  42.29 0.0009589777    1.752    0.429
        13 -12.2434    185.5262    135.7698   9.4399449382e+01   1.7569535388e+01    0.4527335    0.2305232  55.40  0.001763225    2.676    0.626
        14 -13.6638    205.4717    122.6569   8.7563660639e+01   1.5845760347e+01    0.6873978    0.5438287 -40.00  0.003798221    1.296    0.229
        15 -12.3830    219.1495    130.9410   8.7065755934e+01   1.1981693002e+01    0.4263097     0.251946  25.17  0.001988206    1.984    0.496
        16 -12.9642    210.4438    133.9101   8.9224651437e+01   1.3113928008e+01     0.623781    0.3392404  47.53  0.002089513    2.007    0.502
        17 -13.3048    212.9378    128.9164   8.7675561241e+01   1.3430221368e+01    0.7981074    0.2874175  42.99  0.001698993    2.872    0.652
        18 -10.1857    136.0000    128.9612   1.0444049467e+02   2.9059119648e+01    0.2512089   0.08968537 -46.80 0.0008029697    2.946    0.661
        19 -11.1439    135.0972    120.6261   1.0270040918e+02   3.1056575748e+01    0.3876573    0.1915336 -48.43  0.001103846    2.145    0.534
        20 -11.5064    160.4608    128.0798   9.8115333021e+01   2.4115529970e+01    0.3826733    0.3073195 -45.36  0.001815293    1.323    0.244
        21  -9.4015    166.0052    134.4919   9.8325343655e+01   2.1727287544e+01    0.2133453    0.1415396  40.61  1.06849e-05    1.451    0.311
        22 -11.7056    167.3890    113.2029   9.2873443519e+01   2.5493863083e+01    0.4085227    0.3180304  84.99  0.001116749    1.851    0.460
        23 -11.6483    140.9658    101.9095   9.6264033944e+01   3.3757745122e+01    0.5593299    0.3490616  15.47  0.001951344    2.817    0.645
        24 -11.8169    134.6414    106.2065   9.9126007837e+01   3.4286506077e+01    0.9407442    0.3204923 -48.45  0.002834341    3.231    0.690
        25 -11.6479    214.7887    105.4317   8.1916460151e+01   1.6718471058e+01    0.2783263    0.2014598  16.78  0.001430466    1.637    0.389
        26 -12.0290    156.3853    101.3988   9.2287137896e+01   3.0278861269e+01    0.4705756    0.3126499 -57.90  0.001975072    1.860    0.462
        27 -11.7393    215.1134     99.4284   8.0416628399e+01   1.7575515084e+01    0.4216396    0.1680577 -41.25  0.001656329    2.380    0.580
        28 -10.1302    123.9978    100.4851   1.0056458918e+02   3.7932570822e+01    0.2396207    0.1399131  22.91 0.0008101498    2.672    0.626
        29 -11.4559    146.5047     96.4624   9.3318858892e+01   3.3583470753e+01    0.3958019    0.3043699  30.71 0.0005773663    1.404    0.288
        30 -14.8506     18.2061    212.2113   1.4594622315e+02   2.7715068993e+01     1.715454     1.303726 -29.88  0.006314514    2.126    0.530
        31 -10.7969    133.2491     93.9948   9.6092702951e+01   3.7221071582e+01    0.2986334    0.2633584 -82.95 0.0005625079    1.301    0.231
        32  -9.2809    113.4965     95.3725   1.0229542845e+02   4.1415273469e+01    0.1605068    0.1514304  45.78 -0.0001820448    1.035    0.034
        33 -12.9752    153.5402     76.6217   8.5748871680e+01   3.5697039154e+01    0.4338008    0.3351671 -37.53 0.0009976866    1.300    0.231
        34 -12.9787    155.5649     88.3681   8.8803136718e+01   3.2997429647e+01    0.8559477    0.5900663   8.46  0.002330002    2.224    0.550
        35 -12.3775    162.5971     82.7990   8.5601264184e+01   3.2310881689e+01    0.8596218    0.4571837 -54.46  0.003136621    2.424    0.587
        36 -14.8746     57.6835    177.2229   1.3425135180e+02   3.0939130605e+01      1.61216     1.221862   1.85  0.007243847    1.785    0.440
        37 -12.0091      6.1695    170.4083   1.4739644139e+02   3.7539173642e+01    0.3345861    0.1917531  21.07  0.001477722    1.887    0.470
        38 -11.7174    139.9178     85.3352   9.1734528075e+01   3.7410859130e+01    0.3742328    0.3316905 -55.23 0.0009501072    1.181    0.153
        39 -11.5355    216.5020     81.9073   7.5876709500e+01   1.9923614172e+01    0.5916163    0.2388212 -46.07  0.002261073    2.613    0.617
        40 -10.4213    219.6407     77.8963   7.4435713836e+01   1.9841740047e+01    0.3394988    0.2381393  61.89  0.001444117    1.611    0.379
        41 -10.4832    204.4880     80.8222   7.7377495873e+01   2.2710161549e+01    0.3536586    0.2907362 -84.38  0.001857232    1.459    0.315
        42  -9.9816    211.1635     79.8277   7.6117633186e+01   2.1384290883e+01      0.18978    0.1637275   8.29 0.0006273186    1.294    0.227
        43 -11.1364    216.4819     69.5739   7.2751127090e+01   2.1715739313e+01    0.6613342    0.3570123 -57.07  0.002838112    2.299    0.565
        44  -9.4338     92.3231    218.6429   1.2967169134e+02   1.7965286668e+01    0.1344498   0.07672873  55.75 0.0007045126    1.768    0.434
        45 -10.1594    130.8285     66.1212   8.7926247191e+01   4.3435526759e+01    0.2478288    0.2234893 -71.12 0.0008554041    1.194    0.162
        46 -10.2691    217.6005     63.7936   7.1125832954e+01   2.2281949566e+01    0.2470572    0.2059608  26.66 0.0006430481    1.432    0.302
        47  -9.3519    220.2433     58.3941   6.9422625819e+01   2.2437939587e+01    0.1654986    0.1274115 -87.74 0.0009066714    1.478    0.323
        48 -10.1640    180.2755     50.7405   7.2681939583e+01   3.3069715918e+01    0.2718322    0.1740044 -35.96 0.0007057178    1.496    0.331
        49 -12.9689     14.3705    193.6839   1.4618001915e+02   3.1809320466e+01    0.4018024    0.1619269  61.58   0.00203032    2.057    0.514
        50 -12.4466     67.9145    144.3800   1.2751467629e+02   3.7437375649e+01    0.7444267    0.3711565  54.10  0.002973648    2.140    0.533
        51  -9.4045    132.2716    138.6211   1.0758799283e+02   2.7721757809e+01    0.1525873    0.1212877  83.68 0.0006996829    1.693    0.409
        52 -10.3892    191.2353    192.0344   1.0436751118e+02   7.4598212302e+00    0.4023523    0.2551406 -64.97  0.001536179    5.159    0.806
        53 -14.8491     48.7275    185.9320   1.3732211597e+02   3.0056402095e+01     1.186917     1.081163   2.76  0.001529785    1.405    0.288
        54  -9.8427    189.8946     36.1261   6.6988125621e+01   3.2590449606e+01    0.2145834    0.1719143 -57.54 0.0006433601    1.179    0.151
        55 -11.0236     81.6575     22.9185   8.5394119255e+01   6.3116675341e+01    0.2057705    0.1895637 -10.97 0.0006016307    1.111    0.100
        56 -11.5168    218.2768    181.7484   9.7458202311e+01   4.7932224091e+00    0.2560579    0.1473409  25.87  0.001410068    1.588    0.370
        57  -9.8646     39.6350     18.6892   1.0473949675e+02   7.2092842599e+01    0.1452653   0.09711702  -6.92 0.0007038919    1.756    0.431
        58 -13.5119    187.9568     59.0422   7.3946374933e+01   2.9918591749e+01     1.006091    0.5245663  28.79  0.003342807    3.726    0.732
        59 -11.8398    246.7066    163.4043   8.9293638473e+01   3.0447524244e+00    0.4682926    0.2276449  -5.50  0.002002416    3.181    0.686
        60  -9.0892    214.3081    160.2641   9.4070372398e+01   8.4400754172e+00    0.1311491   0.08831555   6.88 0.0002452745    1.531    0.347
        61 -13.1412    170.4551     75.0287   8.1692405674e+01   3.1731430344e+01    0.7350085    0.6029971  32.76  0.002257428    1.339    0.253
        62  -9.7632    202.0742    248.2947   1.1082821980e+02  -1.1647008959e+00    0.1557326    0.1012725  21.16 0.0002810161    1.093    0.085
