#   1 NUMBER                 Running object number                                     
#   2 MAG_AUTO               Kron-like elliptical aperture magnitude                    [mag]
#   3 X_IMAGE                Object position along x                                    [pixel]
#   4 Y_IMAGE                Object position along y                                    [pixel]
#   5 X_WORLD                Barycenter position along world x axis                     [deg]
#   6 Y_WORLD                Barycenter position along world y axis                     [deg]
#   7 A_WORLD                Profile RMS along major axis (world units)                 [deg]
#   8 B_WORLD                Profile RMS along minor axis (world units)                 [deg]
#   9 THETA_WORLD            Position angle (CCW/world-x)                               [deg]
#  10 FWHM_WORLD             FWHM assuming a gaussian core                              [deg]
#  11 ELONGATION             A_IMAGE/B_IMAGE                                           
#  12 ELLIPTICITY            1 - B_IMAGE/A_IMAGE                                       
         1 -13.2049     65.8309    142.0117   1.3255589600e+02   3.8428737656e+01     2.628126     1.184613 -86.26  0.003344169    5.500    0.818
         2 -14.0696      7.6069     16.4821   1.2157363758e+02   7.0457941079e+01     3.121997    0.7550249 -45.91   0.01410636    2.760    0.638
         3 -14.4111    197.4484     15.3065   6.8405213244e+01   3.3300190518e+01     2.808479     1.584568  28.58    0.0119415    2.481    0.597
         4 -11.5150     98.4986    249.9918   1.3862171300e+02   1.3430287369e+01    0.3296915    0.1900395  59.44  0.002018378    1.454    0.312
         5 -12.0130    138.7491    249.2736   1.3189072535e+02   7.6302658648e+00    0.4659384    0.2101593  47.37  0.002623006    1.722    0.419
         6 -12.6294    139.4900    245.4958   1.3134724309e+02   8.0406158891e+00    0.9453627    0.3325845  55.12   0.00385199    3.659    0.727
         7 -11.6493    124.4209    249.8633   1.3434242115e+02   9.7066853591e+00    0.5233334     0.137543  44.07  0.002307261    2.878    0.652
         8 -11.8997    109.5819    249.4924   1.3676090739e+02   1.1932614477e+01     0.468077    0.2475551  70.45  0.002607982    2.450    0.592
         9 -11.8962    102.3663    247.4440   1.3775990893e+02   1.3268047755e+01    0.3502831    0.2167078  58.30   0.00121221    1.315    0.240
        10 -11.8514     81.4216    248.5278   1.4126286956e+02   1.5978183344e+01    0.3525134    0.2289719  69.18  0.001597028    1.321    0.243
        11 -12.1896     82.6438    243.7486   1.4067885754e+02   1.6559102054e+01     0.532581    0.2569866  70.38  0.002942996    2.440    0.590
        12 -10.9595     74.6909    249.2239   1.4239228651e+02   1.6752314590e+01    0.2353397    0.2064813 -54.74  0.001709908    1.738    0.425
        13 -11.1991     67.0681    250.3429   1.4367688072e+02   1.7550949209e+01    0.2502376    0.1930439 -85.87  0.001324138    1.354    0.261
        14 -10.9171     63.4824    250.5365   1.4425056091e+02   1.7968271092e+01     0.214817    0.1687834  46.22 0.0008233906    1.424    0.298
        15 -14.7460     33.2319    246.1623   1.4861805493e+02   2.2185279570e+01      9.18706     2.746069  32.46   0.03197604    8.407    0.881
        16 -11.3522     66.3340    242.8332   1.4325275825e+02   1.8826925434e+01    0.2352186    0.1439018  49.44  0.001016667    1.330    0.248
        17 -15.8006      5.5649    239.5824   1.5240118644e+02   2.6065643224e+01     11.54645    0.7704924 -74.25   0.04141986    7.949    0.874
        18 -10.2265    185.9997    239.9339   1.2272683415e+02   1.4174466892e+00    0.1696984    0.1321721  65.03  0.001129448    1.678    0.404
        19 -11.0129    120.2460    239.5838   1.3397947396e+02   1.1837009428e+01    0.1893336    0.1339255 -82.47  0.001269086    1.718    0.418
        20 -11.4715    129.1995    245.3592   1.3307218728e+02   9.6330583052e+00    0.2183397    0.1650157  68.34  0.001558368    1.323    0.244
        21 -11.5267     35.1955    229.4396   1.4735090916e+02   2.4733223443e+01    0.2997332    0.2167169 -79.64   0.00135124    1.399    0.285
        22 -10.1262    228.6749    228.3089   1.1379174243e+02  -4.0133840253e+00    0.2791297    0.1892587 -55.20  0.001328695    2.940    0.660
        23 -11.4038    173.9058    222.0831   1.2230591530e+02   5.7704466662e+00    0.3427621    0.2451322  54.23  0.001351337    1.406    0.289
        24 -10.2103    198.8116    246.9523   1.2154029554e+02  -1.4387489195e+00    0.1612934    0.1330686  81.93  0.001100397    2.034    0.508
        25  -8.8982    152.6285    212.8315   1.2484828474e+02   1.0769221748e+01    0.1458668    0.1172994 -69.72 0.0002523792    1.541    0.351
        26 -13.0587     46.4930    231.5099   1.4566094367e+02   2.3103505759e+01    0.4233428    0.2740956  64.06 0.0008238921    1.161    0.139
        27 -11.5214     70.2155    197.2678   1.3859549742e+02   2.6344504497e+01    0.3206093    0.2840674 -60.20  0.002098351    1.429    0.300
        28 -10.4048    192.7681    194.4549   1.1438724621e+02   6.4765475226e+00    0.5807557     0.298273 -61.06  0.001882205    5.913    0.831
        29 -11.6369     75.2256    189.9139   1.3682612583e+02   2.7096097836e+01    0.2490037     0.214196 -60.52 0.0004564546    1.379    0.275
        30 -11.0307     83.8856    177.5074   1.3355292546e+02   2.8356006199e+01    0.2200223    0.1966617  84.26 0.0003486225    1.080    0.074
        31 -13.2853     71.4918    175.1848   1.3585240316e+02   3.0566178295e+01    0.4416295     0.264063 -45.10  0.001981029    2.254    0.556
        32 -14.0986     11.1831    207.0086   1.4996218460e+02   3.1152549215e+01     1.652768     1.310451  22.90   0.01269571    2.037    0.509
        33 -12.1230     89.9475    168.0834   1.3095688590e+02   2.9396789672e+01    0.8559905    0.4916144  57.74  0.004357575    1.792    0.442
        34 -11.0430    248.4570    248.9384   1.1381331808e+02  -9.0425596648e+00    0.3748402    0.1850287  24.09  0.002243588    1.795    0.443
        35 -12.1099     90.9452    151.2912   1.2811629462e+02   3.2804757766e+01    0.2582098    0.2437257 -31.32 0.0005444312    1.297    0.229
        36 -10.0366    101.8635    151.8222   1.2568033103e+02   3.0945408782e+01    0.2631973    0.2406951  74.89 0.0006744063    1.034    0.033
        37  -9.4068    104.4305    147.7793   1.2436146081e+02   3.1382432733e+01    0.2907453    0.1854207 -29.96  0.001296947    2.439    0.590
        38 -10.9840     46.1236    146.7126   1.3786239472e+02   3.9774692176e+01    0.3005827    0.1456385 -77.32  0.001483447    2.015    0.504
        39  -8.4933    192.2396    143.9999   1.0434453241e+02   1.4793878564e+01    0.1773738     0.120965 -35.53 0.0003535935    1.491    0.329
        40  -9.8321    112.0367    136.8659   1.2045034288e+02   3.2409511792e+01    0.3306183     0.239263 -13.18  0.001189013    2.244    0.554
        41 -10.5992     99.6897    134.2926   1.2293423582e+02   3.5100652695e+01    0.2664986    0.2226841 -31.85 0.0007822512    1.414    0.293
        42 -14.8942     53.0998    221.8943   1.4387607693e+02   2.3980465765e+01     2.039505     1.507994  56.34  0.009967896    1.192    0.161
        43 -11.1950     43.8649    127.9506   1.3583099413e+02   4.4175431713e+01    0.3256086    0.1532808 -77.13   0.00150775    2.230    0.552
        44  -9.2156    108.6638    123.9645   1.1853918076e+02   3.5804269384e+01    0.1919362    0.1699954 -56.82 0.0003504461    1.084    0.078
        45 -10.9938    168.2999    113.3713   1.0188429371e+02   2.5655751007e+01    0.4035132    0.3275004 -81.50   0.00106031    1.599    0.375
        46 -10.4323    163.0285    249.2885   1.2782236526e+02   3.8758197169e+00    0.1732265    0.1202501  43.08  0.000581577    1.105    0.095
