#   1 NUMBER                 Running object number                                     
#   2 MAG_AUTO               Kron-like elliptical aperture magnitude                    [mag]
#   3 X_IMAGE                Object position along x                                    [pixel]
#   4 Y_IMAGE                Object position along y                                    [pixel]
#   5 X_WORLD                Barycenter position along world x axis                     [deg]
#   6 Y_WORLD                Barycenter position along world y axis                     [deg]
#   7 A_WORLD                Profile RMS along major axis (world units)                 [deg]
#   8 B_WORLD                Profile RMS along minor axis (world units)                 [deg]
#   9 THETA_WORLD            Position angle (CCW/world-x)                               [deg]
#  10 FWHM_WORLD             FWHM assuming a gaussian core                              [deg]
#  11 ELONGATION             A_IMAGE/B_IMAGE                                           
#  12 ELLIPTICITY            1 - B_IMAGE/A_IMAGE                                       
         1 -13.5801    247.6432    104.4436   2.0267495816e+01   1.0315160937e+01     1.478058    0.8252593 -55.88  0.007321735    1.782    0.439
         2 -12.5729    249.2682     53.9302   9.8137253723e+00   1.7912378331e+01    0.9489408    0.2597316 -42.82  0.003841913    2.860    0.650
         3 -11.7304    248.2035     43.1797   7.7861004172e+00   1.9630274802e+01    0.5155556    0.1837676 -53.56  0.002270035    2.524    0.604
         4 -10.4549      4.8047     40.6031   6.9641387102e+01   6.7833981218e+01    0.3728158    0.1639874 -69.16  0.001590836    3.860    0.741
         5  -8.9067    224.6617     23.8176   5.9758159932e+00   2.7077038866e+01    0.1789576   0.09062804 -48.47  0.000845306    1.732    0.423
         6 -10.8205     40.9905     13.8782   4.1377803420e+01   6.8253950452e+01    0.2129906    0.1576807  11.61 0.0002714687    1.144    0.126
         7  -9.7379     97.6357     12.3111   2.1689447063e+01   5.7934041311e+01    0.2436074    0.1577789  -7.29  0.001342294    1.896    0.473
         8  -9.0299     67.3164      1.3205   2.5674286894e+01   6.5085402697e+01    0.1511906   0.09589143  53.73 0.0009010023    1.460    0.315
         9  -8.5176    250.5286    241.5240   4.5803203104e+01  -1.1976746743e+01    0.1156834   0.08798501  -2.11 9.677705e-05    1.018    0.018
        10 -10.5922     53.8492    249.0542   8.5893458213e+01   1.5603869571e+01    0.3909631    0.2937717  10.77  0.002201333    2.195    0.544
        11 -10.8482     20.0944    248.9256   9.2315914219e+01   1.9688125620e+01    0.3255073    0.1900051  71.23  0.002067606    1.383    0.277
        12 -10.2162     13.2148    250.1419   9.3632239433e+01   2.0194883800e+01     0.246625    0.1185244  46.55  0.001481738    1.644    0.392
        13 -10.5840    108.3662    239.4101   7.3682206483e+01   9.6439184139e+00    0.2997291    0.2717569  35.53  0.001929208    1.173    0.148
        14  -8.7473    238.2948    239.2908   4.7554976906e+01  -1.0154939863e+01    0.1184883   0.07574631  -1.14 0.0001972055    1.553    0.356
        15  -9.6459     73.7012    244.0101   8.1464490662e+01   1.3913853142e+01    0.2012612    0.1787024  13.10  0.001107137    1.547    0.354
        16  -9.4773     16.2143    237.8146   9.2416496132e+01   2.2337102250e+01    0.3156371    0.1106377  57.83  0.001507669    2.423    0.587
        17 -11.0381     88.1414    227.4000   7.6657412226e+01   1.5210811785e+01    0.4566217    0.2164131  40.43  0.002040875    1.827    0.453
        18 -10.4311     90.1206    235.1965   7.7107114065e+01   1.3294982912e+01    0.2630239    0.2110827 -66.10  0.001279167    1.389    0.280
        19 -10.5887     90.5960    231.2173   7.6556912451e+01   1.4040454132e+01    0.3040155    0.1923266 -50.55  0.001465217    1.912    0.477
        20 -10.2115    230.9864    234.1729   4.8009138203e+01  -8.4788928793e+00    0.2712186    0.2252553 -10.69 0.0009234422    1.116    0.104
        21 -10.7957    166.1711    234.0080   6.0637785703e+01   1.2929210279e+00    0.4459909    0.2117141  39.91  0.002067191    1.860    0.462
        22 -10.5439    237.8486    230.0290   4.6087942128e+01  -8.8063083830e+00    0.2838502    0.2204171   8.22  0.001514921    1.101    0.091
        23 -10.8541     89.0092    222.2089   7.5856718828e+01   1.6183557145e+01    0.4485075    0.2625202 -37.46  0.001986187    2.787    0.641
        24 -11.5869     98.5436    225.3767   7.4113077368e+01   1.4029504633e+01    0.4597266    0.3718023  66.17  0.001838348    1.161    0.138
        25 -11.3560     95.8923    217.8215   7.3759975501e+01   1.6059565489e+01    0.5731695    0.3694882  57.86  0.002081889    1.505    0.335
        26  -9.8752     99.8919    217.1509   7.2761246724e+01   1.5568455223e+01    0.3100758    0.2301519  67.93 0.0005241267    1.364    0.267
        27 -11.1996    162.3856    225.4914   6.0104074475e+01   3.4372945472e+00    0.4203626     0.309706  16.88  0.002219601    1.446    0.309
        28  -8.7858    144.9599    227.4914   6.4157405166e+01   5.9842205925e+00    0.2112776    0.1207367  36.96 0.0005949654    1.551    0.355
        29 -10.4686    117.4418    227.2718   7.0162920668e+01   1.0601242735e+01     0.352784    0.1566371  45.10   0.00144024    1.991    0.498
        30  -9.5961    169.4607    224.7856   5.8494627377e+01   2.3861247468e+00    0.4177457     0.245596  60.18  0.001790024    2.744    0.636
        31 -11.3200    126.3019    220.9646   6.7308433292e+01   1.0410376609e+01    0.4218102    0.2952527  85.97 0.0008186006    1.964    0.491
        32  -9.9596    121.6130    222.1968   6.8534662806e+01   1.0944505000e+01    0.2264186    0.1823609  56.92  0.001281533    1.183    0.155
        33  -9.0728    242.6961    223.6669   4.4151689224e+01  -8.5389851683e+00    0.1252743   0.07928164  -5.14 0.0004077375    1.660    0.398
        34 -10.1885    108.6527    222.6447   7.1502636643e+01   1.2986090394e+01    0.2510443    0.2047409  -8.79  0.001373143    1.729    0.422
        35  -9.0500    157.7830    221.2581   6.0415425859e+01   4.9993116449e+00    0.1874765    0.1513255  11.03 0.0007008025    1.337    0.252
        36  -9.9579    114.9572    220.8564   6.9842276010e+01   1.2326502640e+01    0.2043126    0.1837801   9.32 0.0006769313    1.322    0.244
        37  -9.5933     74.7780    219.1032   7.8689261722e+01   1.8985157903e+01    0.2574626    0.1537982  57.86   0.00116618    1.569    0.363
        38  -9.0645    143.5134    216.9848   6.2862977544e+01   8.2742432898e+00    0.1963255    0.1395848 -51.81 0.0008688964    1.558    0.358
        39  -9.9632    190.1432    215.4910   5.2647346310e+01   6.1188580230e-01    0.2789696    0.1685178 -24.71  0.001339774    1.988    0.497
        40 -10.3092    170.4645    215.3082   5.6714754251e+01   3.9515410215e+00    0.2676663    0.2308464  16.33 0.0008530784    1.111    0.100
        41  -9.2995    152.2289    216.0170   6.0781431753e+01   6.9582536119e+00    0.2883459    0.1707513  14.37   0.00117079    2.655    0.623
        42  -9.3759    131.0448    214.5165   6.5279105362e+01   1.0926514012e+01    0.2097803    0.1892417 -58.62 0.0006200208    1.219    0.179
        43  -9.4620    228.3165    213.6795   4.4961963422e+01  -5.0377523943e+00    0.1104885    0.1031488 -87.94 0.0003821279    1.660    0.397
        44 -10.3930     77.4668    210.8457   7.7127362384e+01   2.0431057561e+01    0.3192767    0.2416086  61.23  0.001799521    1.189    0.159
        45  -9.6165    230.3061    210.3338   4.4003938448e+01  -4.8033907271e+00    0.1315201   0.08715661  -5.25 0.0007039715    1.667    0.400
        46 -10.3216    212.9487    207.6564   4.6748157606e+01  -1.7262735917e+00    0.4350187    0.2433069  42.13  0.002174319    1.872    0.466
        47 -10.2183    212.5810    203.0294   4.5974395349e+01  -8.8384329017e-01    0.3457657    0.2921689  60.87   0.00203666    1.623    0.384
        48 -10.2758    124.0314    205.9826   6.5571298939e+01   1.3946796128e+01    0.2036697    0.1852703  53.89            0    1.018    0.017
        49 -10.7510    179.5479    191.2172   5.0451015199e+01   6.9664196818e+00    0.4739668     0.240394 -56.86  0.001865687    2.654    0.623
        50 -11.5527    172.7899    195.5376   5.2714608573e+01   7.3436679311e+00    0.6579272    0.3530597 -48.77  0.001653636    1.984    0.496
        51 -10.0140    180.8147    199.8188   5.1785055788e+01   5.0736617342e+00     0.234665    0.2229954 -42.04 0.0002660298    1.155    0.134
        52 -11.2744    177.8678    196.8492   5.1864372301e+01   6.1700526329e+00    0.3930221    0.3071889 -22.28  0.001135807    1.389    0.280
        53  -9.2574    130.2348    202.1918   6.3517663772e+01   1.3675648754e+01    0.2234894    0.1211144 -67.96 0.0008857899    2.537    0.606
        54 -10.9813    166.7346    198.2498   5.4533245619e+01   7.9026728867e+00    0.5150609    0.2272251 -52.71  0.001965411    2.625    0.619
        55  -9.0581    144.1726    198.0542   5.9582432424e+01   1.2053431217e+01    0.2234984    0.1968287 -12.17  0.001217896    1.297    0.229
        56 -10.3871    126.1907    196.9350   6.3605694880e+01   1.5546578695e+01    0.3757334    0.2469841  24.52 0.0009928684    1.792    0.442
        57  -9.2508    112.7474    198.0162   6.6995347418e+01   1.7668442469e+01    0.3686461    0.1891989  64.09  0.001300658    3.114    0.679
        58  -9.1323    113.0357    194.2836   6.6334178670e+01   1.8466857335e+01    0.2225727    0.2027393 -29.11 0.0003521772    1.293    0.227
        59  -9.6231    105.1839    197.5909   6.8753581047e+01   1.9057145617e+01     0.268548    0.2015755 -50.41 0.0009581458    1.460    0.315
        60 -10.7921    249.1404    194.3033   3.7807792176e+01  -5.0052014413e+00    0.3513892    0.1705104 -37.47  0.001781374    1.826    0.452
        61  -9.3499     66.6475    194.7043   7.7733829462e+01   2.5743330405e+01    0.2937372    0.1649303  68.07  0.001119135    2.048    0.512
        62 -10.2344     14.8945    193.4421   8.9771262674e+01   3.2170482768e+01    0.3657104    0.2390002 -27.30  0.001184748    2.711    0.631
        63  -9.9144     22.5115    190.5359   8.7804964048e+01   3.2096200860e+01    0.3451065    0.1509589  27.82  0.001612552    2.615    0.618
        64  -9.8217    154.9798    191.2437   5.5884173683e+01   1.1501856572e+01     0.226534    0.2083473 -54.36 0.0007490342    1.156    0.135
        65 -10.8229    204.3882    187.7884   4.4693822049e+01   3.1871334271e+00    0.3890757    0.3037825 -69.84  0.002031872    1.842    0.457
        66 -11.0520     97.9496    188.1087   6.9073071849e+01   2.2481845829e+01    0.4996349    0.3283855  58.28 0.0008771307    1.573    0.364
        67 -10.9910     94.5257    182.3166   6.9025090485e+01   2.4434591888e+01    0.5192064    0.3951939 -69.27   0.00207204    1.325    0.245
        68  -9.0257    138.7194    189.1654   5.9287487656e+01   1.4979500132e+01    0.2335564    0.1882796 -83.16  0.001163304    1.484    0.326
        69 -11.1853     19.6829    181.7650   8.7710055640e+01   3.4450924755e+01    0.4154869      0.29529 -64.49  0.002180007    1.375    0.273
        70 -11.2972      3.6596    177.7768   9.1158344565e+01   3.6819356670e+01     0.381764    0.3090918  33.37  0.002581769    1.472    0.321
        71 -10.4977     10.0549    180.0278   8.9838472938e+01   3.5749886681e+01    0.2885484    0.1796237  80.20 0.0004175624    1.411    0.291
        72 -10.6432     13.9889    178.5353   8.8787483701e+01   3.5752493908e+01    0.3208899    0.1969247 -86.70   0.00106655    1.389    0.280
        73 -11.0596    250.1314    184.6165   3.5841021398e+01  -3.6145992810e+00    0.4909854    0.1572314 -36.93  0.001965523    2.818    0.645
        74 -10.3567    228.1623    184.3270   3.9553374308e+01  -1.8629806542e-01    0.2475703    0.2259924  -8.21  0.001413335    1.063    0.060
        75  -8.6634    165.3163    186.6289   5.2686325090e+01   1.0530068039e+01    0.1494559    0.1166267  82.82 0.0007034595    1.788    0.441
        76 -10.2838    109.6285    184.9657   6.5647061160e+01   2.1222539376e+01    0.4120612    0.3078392  49.72   0.00206464    1.275    0.215
        77  -9.9656    175.7801    184.6212   4.9996854741e+01   8.9764734766e+00    0.2520843    0.1763108  56.14  0.000713844    1.675    0.403
        78 -10.0836    174.0000    180.9884   4.9674757567e+01   1.0050828472e+01    0.3954707   0.08267011 -46.54  0.001044101    4.869    0.795
        79  -8.5804    217.3406    183.2666   4.1330223785e+01   1.7860195522e+00    0.1360012   0.09919117   1.71 0.0003266409    1.599    0.375
        80 -10.2171     44.6890    180.4351   8.1455854259e+01   3.2064133956e+01    0.5731933    0.1520971 -70.39  0.001893262    3.676    0.728
        81  -9.7927    104.1753    188.8600   6.7641504652e+01   2.1252815120e+01    0.3423231    0.2500298  16.43  0.001014462    1.800    0.444
        82  -9.6051    147.9328    180.0052   5.5408417898e+01   1.5256544442e+01    0.2443968    0.1835668  75.61  0.001128023    1.744    0.427
        83  -9.2152    139.0178    180.1683   5.7562709808e+01   1.6925746241e+01    0.2678944    0.1697256  65.04  0.001093586    2.141    0.533
        84  -8.5199    100.6598    177.7093   6.6700987716e+01   2.4509356347e+01    0.1448449    0.1189717 -13.33  0.000702472    1.647    0.393
        85  -9.6547     88.9553    176.9523   6.9601583130e+01   2.6649976100e+01    0.2421104    0.1659399  71.10 0.0007209369    1.663    0.399
        86 -10.4310    204.7867    175.3640   4.2170073641e+01   5.4300893786e+00    0.2670547    0.2547697  35.56  0.001599593    1.136    0.120
        87  -9.5085     77.5885    175.6647   7.2363325208e+01   2.8755642643e+01    0.2965233    0.1801447  69.29  0.000913919    2.001    0.500
        88 -10.3396    148.5497    174.4987   5.4192761860e+01   1.6354463071e+01    0.3088584    0.2696082 -86.91  0.001598687    1.301    0.231
        89  -9.7329    105.5426    175.0228   6.4982727625e+01   2.4307514412e+01    0.3176198     0.164309  66.04  0.001033653    3.398    0.706
        90  -9.9106     24.3208    174.8152   8.5939354242e+01   3.5664850451e+01    0.2172148    0.1551441  54.81 0.0007649095    1.349    0.259
        91  -8.9384    152.9980    173.3385   5.2914353765e+01   1.5740503920e+01    0.2140268    0.1946388  39.94 0.0005792732    1.074    0.069
        92 -11.4206      9.9179    186.5239   9.0371899665e+01   3.4239044465e+01    0.6919872     0.263387  52.58  0.003190488    2.487    0.598
        93 -10.0206    177.4664    169.3396   4.6574678268e+01   1.1782420440e+01    0.4216331    0.3333128 -48.96  0.002154419    1.289    0.224
        94  -9.2591    135.2049    171.4255   5.6815104017e+01   1.9646145253e+01    0.2207471    0.1380112  51.02 0.0009445299    1.643    0.391
        95 -11.1568    206.8044    168.2017   4.0327936178e+01   6.4178732326e+00    0.4988438    0.2353743 -36.29  0.002051175    2.150    0.535
        96 -10.1380    121.8290    169.4817   5.9790296196e+01   2.2658813830e+01    0.3888333    0.2798204  76.60  0.001260451    1.774    0.436
        97  -9.0001     55.0378    169.5086   7.7421332027e+01   3.3467618156e+01    0.2923708    0.1409626  72.64  0.001023466    3.353    0.702
        98  -9.5302     28.7900    169.7705   8.4299585675e+01   3.6442507561e+01    0.1873347     0.133783  72.84 0.0007243044    1.318    0.241
        99  -9.1802     19.1693    166.8107   8.6446134322e+01   3.8098306174e+01     0.167004    0.1376658 -58.77 0.0004375776    1.289    0.224
       100 -11.1796    219.0901    165.6534   3.7502118604e+01   4.6712684597e+00    0.5005903    0.3396217  40.19  0.002426938    1.573    0.364
       101 -10.5564    213.6200    163.7938   3.8131489444e+01   6.0005663436e+00     0.319488    0.1551482 -44.89 0.0009572086    1.974    0.493
       102  -8.6636    199.9888    166.5459   4.1321199838e+01   8.0047871151e+00    0.1995068    0.1397531  39.93 0.0003384388    1.474    0.322
       103  -9.9642    139.2595    165.0612   5.4548216044e+01   2.0315232441e+01    0.3954182    0.2608948 -86.72  0.001524606    2.507    0.601
       104 -10.0801     98.0924    165.1768   6.5187317958e+01   2.8006899857e+01    0.4959093    0.2838905  75.58  0.001646569    3.062    0.673
       105  -9.6772     92.7675    159.9193   6.5669982261e+01   3.0218483426e+01    0.3506047     0.225953  61.56  0.001108309    1.790    0.441
       106 -12.6779    243.5080     86.0231   1.6985942989e+01   1.4146258612e+01     1.092843    0.2335104 -39.10  0.003461151    4.133    0.758
       107 -11.7661    249.7271     84.9524   1.6017462690e+01   1.3111393796e+01     0.920709     0.334713 -42.20  0.003944828    2.289    0.563
       108  -9.9783    107.4812    247.3414   7.4797689977e+01   8.2612656487e+00    0.3374898    0.2032174 -85.62  0.001676116    2.375    0.579
       109 -12.1142    247.7406    160.5056   3.1591203472e+01   7.2850302190e-01      0.66322    0.4621915 -46.99  0.003785768    1.390    0.281
       110 -13.1468    247.9491    149.0580   2.9292463126e+01   2.6420111063e+00     1.678738    0.5583596 -49.32  0.005890298    3.562    0.719
       111  -9.1992     80.4703    164.4692   6.9815547532e+01   3.1089270742e+01    0.3396809    0.1919569  83.83  0.001245294    2.848    0.649
       112  -9.3026     36.9792    164.8402   8.1610182625e+01   3.6789724416e+01    0.2164717    0.1516941 -27.81  0.001106918    2.046    0.511
       113  -9.1993    177.7983    160.7467   4.4705734301e+01   1.3504444274e+01    0.2744863    0.1971716 -74.18 0.0009345138    1.969    0.492
       114 -10.3624     22.5031    160.4683   8.4932699877e+01   3.9338329325e+01    0.2951083    0.1992464 -59.92  0.001603292    1.398    0.285
       115 -10.2145      8.8869    160.4917   8.8461608969e+01   4.0511135861e+01    0.3880875    0.1457279  75.29  0.001352812    4.087    0.755
       116  -8.9365     99.5095    160.4525   6.3937643883e+01   2.8923315225e+01    0.1518333    0.1425396  78.58 6.962306e-05    1.016    0.016
       117 -10.2511    188.6848    156.6417   4.1526757528e+01   1.2168845957e+01    0.4239491    0.2173754 -51.50  0.001435627    2.100    0.524
       118 -11.4538    189.1087    148.7655   3.9733287480e+01   1.3685350000e+01    0.7599396    0.4304575 -64.21  0.002816162    2.791    0.642
       119  -9.1760    182.7279    142.1445   3.9585639889e+01   1.6367195309e+01    0.2408119    0.1845148 -82.39  0.001112432    1.731    0.422
       120  -9.4909    167.8871    157.5766   4.6215404822e+01   1.6188134597e+01    0.2877211    0.2022541 -87.35  0.001178358    2.289    0.563
       121  -9.8456    105.1860    157.2979   6.1800972735e+01   2.8685775494e+01    0.3355322    0.2423004 -76.74 0.0009723113    1.575    0.365
       122 -11.9552    208.8154    156.8285   3.7587227558e+01   8.2110172514e+00    0.7210724    0.3055457  39.30  0.002787672    2.648    0.622
       123 -11.5351    205.1756    153.8550   3.7651215956e+01   9.4795111516e+00    0.5595558     0.269953 -45.34  0.002221153    1.988    0.497
       124  -9.2028    157.8319    156.0479   4.8191771290e+01   1.8588606728e+01    0.2576609    0.1810677 -79.78   0.00106939    2.084    0.520
       125 -10.4402    133.6629    153.1838   5.3471619489e+01   2.4191149553e+01     0.535499    0.3468126  81.98  0.001978725    2.660    0.624
       126  -9.3154    119.6814    154.7557   5.7421199828e+01   2.6584104385e+01    0.3063671    0.1898219 -78.01  0.001156438    2.411    0.585
       127  -9.9219     82.0149    154.3761   6.7638869143e+01   3.3372094744e+01    0.3503317    0.2287823  87.98  0.001151486    1.984    0.496
       128 -10.5774     68.2317    153.6044   7.1391915636e+01   3.5658602222e+01    0.5018099    0.3216396  87.71   0.00187169    1.917    0.478
       129  -9.5503     49.4844    154.5254   7.6828422649e+01   3.7920707984e+01    0.3262803    0.1782788  69.02 0.0009696357    2.405    0.584
       130  -9.2020    152.2367    152.5916   4.8763319005e+01   2.0516310923e+01    0.2894304    0.1826223 -59.02 0.0007439639    1.779    0.438
       131  -9.3743     99.5388    152.1287   6.2328409642e+01   3.0973324745e+01    0.4633075    0.2594447 -85.85  0.001487532    3.564    0.719
       132 -11.0256    145.6852    159.2246   5.1766905395e+01   2.0361513260e+01    0.6354472    0.2580265  48.12  0.002170583    2.582    0.613
       133  -9.6015    183.3633    150.9769   4.1410345619e+01   1.4406824526e+01    0.3253715    0.2400427 -74.67  0.001151509    1.834    0.455
       134  -8.7076    162.5152    150.4982   4.5894543377e+01   1.8837161960e+01    0.1548242    0.1469075  89.53 0.0002112386    1.098    0.089
       135  -9.6885     28.1152    148.8155   8.2052075206e+01   4.1684359327e+01    0.4093914    0.1874923  84.81  0.001552099    3.114    0.679
       136  -9.1446    142.7507    148.3996   5.0149646370e+01   2.3438497190e+01    0.2893057    0.1970868 -63.13 0.0008539789    1.669    0.401
       137  -9.6918    224.2147    147.9202   3.2933043632e+01   7.0025798640e+00    0.2933235    0.2005084  39.79  0.001199913    1.623    0.384
       138  -9.5730    199.9766    148.0779   3.7414295389e+01   1.1629818188e+01    0.2752946    0.1885626 -42.66  0.001331538    1.387    0.279
       139  -9.3005    120.5742    147.6892   5.5695302915e+01   2.8105509289e+01    0.2839578    0.1897189  61.31  0.001200305    1.759    0.431
       140  -9.6638     39.4787    147.2581   7.8619975563e+01   4.0904616953e+01    0.4008938    0.1860911  62.47  0.001512025    3.128    0.680
       141 -11.0325    149.2987    144.7293   4.7725256729e+01   2.2902094275e+01    0.6566398     0.439242 -85.86  0.002074292    2.490    0.598
       142 -10.1826    107.1225    144.8113   5.8731651255e+01   3.1388020831e+01    0.6237183    0.3834548  80.16  0.002210281    2.917    0.657
       143 -10.3213     56.6571    145.8305   7.3425166510e+01   3.9208266437e+01     0.570354    0.2794679  60.09  0.002146546    2.892    0.654
       144  -8.7068    175.7825    146.1979   4.1974425847e+01   1.6978833925e+01    0.2531574    0.1684247 -87.84 0.0009448869    2.757    0.637
       145  -9.2351    134.5016    146.5208   5.1808526998e+01   2.5577602347e+01    0.1550173    0.1523797  77.24 6.699625e-05    1.014    0.014
       146  -9.1843     13.9356    146.1661   8.5685787088e+01   4.3588168608e+01    0.2168845    0.1164063  57.16  0.001075445    2.043    0.511
       147  -9.7949    206.7565    141.9737   3.4796752161e+01   1.1472090858e+01    0.2270354     0.163388 -63.60  0.001090971    1.653    0.395
       148  -9.1241    165.9585    144.0364   4.3665457877e+01   1.9518026048e+01    0.2519628    0.1920534 -88.04  0.001127726    1.760    0.432
       149  -8.8992    138.2859    144.6382   5.0428683452e+01   2.5232893989e+01    0.1618009    0.1236115 -89.87 0.0006386827    1.686    0.407
       150 -10.4569    125.0389    142.5604   5.3387368674e+01   2.8437879869e+01    0.5782902    0.3569098 -78.57  0.002093267    2.669    0.625
       151  -9.7722     88.0571    143.6690   6.3885735694e+01   3.5062742654e+01    0.3328627     0.223479  85.47  0.001407156    2.031    0.508
       152  -9.2291      3.3287    142.6813   8.8235868701e+01   4.5219219832e+01     0.129806   0.07975663  67.90 0.0005333056    1.684    0.406
       153 -10.3287     68.9525    139.2872   6.8640083884e+01   3.9162178961e+01    0.6057078    0.3052154 -87.46  0.001806868    4.450    0.775
       154  -9.4235    172.7287    138.3777   4.0870291412e+01   1.9283616059e+01    0.3419741    0.2271979 -72.07  0.001386552    2.173    0.540
       155  -9.1998     81.6769    139.1838   6.4846064428e+01   3.7233244545e+01    0.2391752    0.1836987 -83.07 0.0008250303    1.430    0.301
       156  -9.8765     23.4511    137.9162   8.1985428062e+01   4.4815842396e+01    0.4699075    0.2247537  70.56  0.001872419    3.075    0.675
       157 -10.2287    202.9708    136.6606   3.4338387767e+01   1.3268072353e+01    0.3363781     0.258702  45.84 0.0008236989    1.383    0.277
       158 -11.1003    197.6107    136.4119   3.5304001567e+01   1.4419259321e+01    0.4138358    0.3664096   8.62  0.002235913    1.303    0.233
       159 -10.3573    188.2960    135.4171   3.6919361568e+01   1.6571382113e+01    0.4796038    0.2428323 -48.03  0.001673517    1.950    0.487
       160  -9.5150    186.8349    128.8659   3.5711855921e+01   1.8212774991e+01    0.3993101    0.2004485 -49.53  0.001323858    2.010    0.502
       161 -10.0533    188.3365    123.2472   3.4105830070e+01   1.9017210349e+01    0.3502947    0.2391011 -47.12  0.001163263    1.409    0.290
       162 -11.1714     41.4520    132.9393   7.5853542200e+01   4.4272441588e+01    0.6878402    0.4004033 -80.98  0.002372555    1.865    0.464
       163  -9.2554    162.8514    136.1589   4.2565611691e+01   2.1894517900e+01    0.2446009    0.2112264 -88.37 0.0007693508    1.302    0.232
       164 -10.3232    150.3313    163.5527   5.1553920031e+01   1.8445001222e+01     0.431365    0.3321553  13.40  0.001616015    1.645    0.392
       165  -9.3790    179.7955    133.3553   3.8198353851e+01   1.8813990536e+01    0.3693842      0.19673 -57.43  0.001208656    2.302    0.566
       166 -10.8263    132.2184    130.2939   4.8667325548e+01   2.9821393099e+01      0.78504    0.3990619 -62.53  0.002453781    2.740    0.635
       167 -11.6325    111.7982    128.6754   5.3817989174e+01   3.4386260497e+01    0.7198815    0.4782774 -39.82  0.002385776    1.626    0.385
       168 -11.1204    116.5757    122.4009   5.0972975657e+01   3.4905138371e+01     1.017676    0.4426669 -49.33  0.003646475    2.286    0.563
       169 -10.2811     83.5293    131.5851   6.2723555227e+01   3.8818818083e+01     0.434179    0.2927967  82.64    0.0013905    2.104    0.525
       170  -9.8580    226.4784    132.4670   2.9288445607e+01   9.4100135406e+00    0.1387571    0.1248501 -42.21 0.0001700649    1.011    0.011
       171  -9.3968    143.0219    131.4653   4.6193320211e+01   2.7241532414e+01    0.3123969    0.2201022 -66.40  0.001117857    1.673    0.402
       172  -9.5366    192.7262    130.0005   3.4803927665e+01   1.6720909431e+01    0.2171266    0.1901533 -47.33 0.0005810632    1.089    0.082
       173  -9.9223    168.8158    129.2676   3.9607164509e+01   2.2068123203e+01    0.3673739    0.2726381 -80.55  0.001238633    1.775    0.437
       174 -10.0705    152.9904    128.6471   4.3089609103e+01   2.5693234150e+01    0.5209976      0.28293 -59.96  0.001691353    2.336    0.572
       175 -11.1768     98.6451    125.5084   5.6861755023e+01   3.7657071332e+01     1.058439    0.4495554 -58.12  0.003669637    2.588    0.614
       176 -10.3538    103.1281    118.7974   5.3937179859e+01   3.8410471213e+01    0.2718307    0.2454383  57.63 0.0006967832    1.134    0.118
       177  -9.6449     12.8592    129.2474   8.4002430314e+01   4.7799855302e+01     0.348782    0.1756598  70.41  0.001548487    2.635    0.620
       178  -9.8757     73.1100    128.7508   6.5296829994e+01   4.1173964097e+01    0.3363567    0.2232841  83.75  0.001440889    2.126    0.530
       179 -10.6102     59.6796    124.1079   6.8550490049e+01   4.4248238650e+01    0.6110521    0.3400956  76.55  0.002135701    3.568    0.720
       180  -9.6171    180.0000    124.0529   3.5980269045e+01   2.0685106121e+01    0.3604053    0.2101362 -48.93  0.001384859    1.696    0.410
       181 -10.3604    181.1762    119.9869   3.4772933919e+01   2.1251041834e+01    0.5099446    0.3415095 -48.66  0.002338183    1.457    0.314
       182 -10.8637     43.8099    122.0863   7.3239221154e+01   4.6703111936e+01    0.7881116    0.4064538  85.35  0.002731285    3.810    0.738
       183 -10.1933     29.3588    123.6638   7.8122648284e+01   4.7794654871e+01    0.3826406    0.1895238  57.31  0.001614604    2.766    0.639
       184  -9.7952     26.9986    120.9777   7.8445826862e+01   4.8667254371e+01    0.2464498    0.2020682 -45.44 0.0008615514    1.206    0.171
       185 -10.7680    106.4454    122.8172   5.3948342351e+01   3.6822594346e+01    0.5361989    0.3544149   9.99  0.002062068    2.543    0.607
       186  -9.6353     83.4084    123.3353   6.0950149218e+01   4.0862705395e+01    0.3063379     0.109159 -43.49 0.0009542736    3.270    0.694
       187  -9.7271    158.5977    120.8437   3.9878904284e+01   2.6136266685e+01    0.4300025     0.252247 -63.27  0.001342256    2.271    0.560
       188  -9.2488    172.7535    120.9057   3.6752192467e+01   2.2943905762e+01    0.2946462    0.2075575 -62.58   0.00117062    1.602    0.376
       189 -10.7837    141.7751    118.4036   4.3308885203e+01   3.0426650490e+01    0.7546459    0.3405271 -55.58   0.00254101    2.696    0.629
       190 -10.0945     70.8034    118.7728   6.3879504126e+01   4.3973465764e+01    0.4214506    0.2112651 -76.03  0.001379359    3.577    0.720
       191 -10.3468    130.6620    117.8923   4.6030841652e+01   3.2974780549e+01    0.4640717    0.3016551 -71.98  0.001698876    2.185    0.542
       192  -9.8432      3.3789    117.4795   8.5416475595e+01   5.1262856789e+01    0.3212876    0.1695416  74.70  0.001545692    2.386    0.581
       193 -10.2365     12.1020    116.6908   8.2561596146e+01   5.0888102111e+01    0.2555625    0.1717547 -41.51 0.0007639878    1.504    0.335
       194 -11.3045     15.0193    111.7444   8.0889748425e+01   5.1865194149e+01    0.7295226    0.3342075  84.02  0.002679927    3.889    0.743
       195 -10.5299     16.6548    106.6812   7.9541630967e+01   5.2950294275e+01    0.3105061    0.2442365   4.86  0.001621626    1.508    0.337
       196 -10.3903     18.3577    103.1037   7.8355778047e+01   5.3668330174e+01    0.4428177    0.2300337  -5.17   0.00202756    2.835    0.647
       197 -10.8691    185.3865    114.7257   3.2672658278e+01   2.1364376186e+01    0.4169853    0.3632837  74.04  0.002199077    1.198    0.165
       198 -11.2595    108.7847    112.5841   5.0727761687e+01   3.8744640590e+01    0.8803104    0.3789413 -55.70  0.002923073    2.649    0.623
       199 -10.5734     79.3881    112.7595   5.9749409612e+01   4.4071734836e+01    0.5656038    0.3569467 -89.91  0.001976372    2.847    0.649
       200  -9.3010     77.4095    106.7567   5.8922441053e+01   4.5808094581e+01    0.2373643    0.1411259 -53.03 0.0008180094    1.615    0.381
       201  -9.3810    193.0701    113.6999   3.0951691232e+01   1.9857874137e+01    0.2756788    0.1945054 -52.39  0.001319815    1.384    0.277
       202 -10.3444     92.5231    111.9141   5.5420811006e+01   4.2003866418e+01    0.5502071    0.3394919 -72.50  0.001810413    2.311    0.567
       203  -9.4989     92.0466    104.9591   5.3790001042e+01   4.3695268350e+01    0.3768096    0.2293825 -29.64  0.001534955    2.146    0.534
       204 -11.3452    249.1449     95.7076   1.8283341966e+01   1.1481309670e+01    0.8999615    0.2348901 -42.50  0.003256074    3.105    0.678
       205 -10.5600    122.0381    110.9547   4.6568744458e+01   3.6375315355e+01    0.6339204     0.252776 -44.28  0.002162013    2.553    0.608
       206  -9.7275    174.8743    110.8610   3.3856903788e+01   2.4509694531e+01    0.4292155    0.1993764 -48.40   0.00160848    2.169    0.539
       207  -9.6611    159.2228    111.0792   3.7301662860e+01   2.8049705357e+01    0.4097927    0.1959008 -45.66  0.001385624    2.079    0.519
       208 -11.0262     66.3137    109.3359   6.3195415035e+01   4.6908238294e+01    0.6177222    0.3016669 -65.70  0.002395049    2.439    0.590
       209 -10.1070    133.4235    108.5402   4.2902478737e+01   3.4430321023e+01    0.4622231    0.2602288 -55.77   0.00181354    1.997    0.499
       210  -9.6490    182.5953    108.3533   3.1683988637e+01   2.3247257839e+01    0.2975573    0.1370153 -46.26  0.001128713    2.115    0.527
       211  -9.0516     59.6260    109.3074   6.5420129244e+01   4.7855212650e+01    0.1467287    0.1073548  69.21 0.0007031241    1.771    0.435
       212  -9.8268    189.2362    107.0281   3.0084737508e+01   2.2000836052e+01    0.3562555    0.1557596 -52.69  0.001262918    2.592    0.614
       213  -9.4500     32.2729    105.4215   7.3957076334e+01   5.1935833367e+01    0.2898377     0.153017  59.48  0.001202618    2.984    0.665
       214 -10.0653    139.6655    103.2136   3.9907754656e+01   3.4162450571e+01    0.5746859    0.3046672 -50.09  0.002254385    1.965    0.491
       215  -9.2405     22.6799    110.5568   7.8154337371e+01   5.1558622566e+01    0.2214066    0.1445321  89.40 0.0009094886    1.760    0.432
       216 -10.9098     45.5799    101.9920   6.8603674800e+01   5.1350083958e+01    0.7076233     0.381206  68.60  0.002427343    4.321    0.769
       217  -9.5564    166.6647    102.6912   3.3534941458e+01   2.8031865423e+01     0.420257    0.1431938 -40.16  0.001336623    3.018    0.669
       218  -9.6221    175.4606    100.9172   3.1264997251e+01   2.6334356916e+01    0.3391646    0.1847451 -46.41  0.001401214    1.801    0.445
       219 -10.5673    128.6378     99.9378   4.1855921275e+01   3.7326451232e+01    0.5892237     0.311738 -40.04   0.00232158    1.989    0.497
       220 -10.9130     23.4060    101.8949   7.6380501012e+01   5.3555304659e+01    0.6563087    0.3400824  67.22  0.002606519    3.567    0.720
       221  -9.4561    159.6119     99.5425   3.4252903868e+01   3.0301677669e+01    0.4427799    0.1462657 -42.02  0.001400359    3.028    0.670
       222 -10.8620    108.7020     98.2554   4.6940120784e+01   4.1949875572e+01    0.6376432    0.4924018 -78.13  0.002586429    1.662    0.398
       223  -9.5062    107.3374     92.3317   4.5681793360e+01   4.3489973033e+01    0.4477826    0.2745585  16.58  0.001642864    2.851    0.649
       224  -9.6150     81.9812     99.4396   5.5551490100e+01   4.6727058855e+01    0.3675671    0.2390979 -76.73  0.001518684    2.366    0.577
       225 -10.6726     63.8343     95.8158   6.0729875865e+01   5.0411209185e+01    0.4899893    0.3232868 -89.78  0.001678518    2.649    0.622
       226 -10.2054     95.2830     94.3720   4.9915617614e+01   4.5443168156e+01    0.7573376    0.2723599 -41.50   0.00250628    3.010    0.668
       227  -9.0024    183.6580     96.3058   2.8519237293e+01   2.5310711706e+01    0.1564091    0.1127992 -79.22 0.0007041833    1.685    0.407
       228 -10.4398    150.0079    100.8318   3.6775171971e+01   3.2279453492e+01    0.7706694    0.2671014 -48.32  0.002421359    3.091    0.676
       229 -10.0151     20.4758     93.5092   7.5840414627e+01   5.5738950477e+01     0.241445    0.1226312 -45.79  0.001205069    1.728    0.421
       230  -9.5948    176.8447     92.6730   2.8911931802e+01   2.7578837321e+01    0.3044072    0.1626684 -49.19  0.001248691    1.883    0.469
       231  -9.9089    138.6707     90.2205   3.6620218861e+01   3.7029449404e+01     0.579152    0.2760853 -45.05  0.002215946    2.137    0.532
       232 -10.0784     43.8552     92.0697   6.6942809357e+01   5.3841306192e+01    0.3210706    0.2171983  -2.84  0.001147806    1.848    0.459
       233 -10.8165    124.8069     88.6960   3.9740013308e+01   4.0483891972e+01    0.8482842    0.3938909 -40.09  0.003201986    2.258    0.557
       234  -9.9571      5.0103     91.4953   8.1106236569e+01   5.7229382852e+01    0.2414271    0.1231713  69.74  0.001032319    3.404    0.706
       235  -8.8884    158.0000     90.4817   3.2217687539e+01   3.2444680527e+01    0.3385283   0.08630321 -40.56  0.000939435    3.973    0.748
       236 -10.1466     34.5174     89.0736   6.9696500872e+01   5.5512849930e+01    0.4596363    0.2529884 -78.23  0.001987658    2.654    0.623
       237  -9.8523     35.5532     82.1108   6.7638712052e+01   5.6959585689e+01     0.381651    0.1337635 -33.94  0.001162062    4.894    0.796
       238 -10.5528     86.4830     86.2525   5.0412547733e+01   4.8808451640e+01    0.4582639    0.3112023 -77.34  0.001420406    2.432    0.589
       239  -9.6829     64.2536     87.3158   5.8325762278e+01   5.2241334273e+01    0.3353596    0.1808213 -18.04  0.001130935    3.864    0.741
       240  -8.7297    179.4620     84.9613   2.6457364867e+01   2.8373427415e+01    0.2205935    0.1137621 -59.90 0.0008092421    2.541    0.606
       241 -10.2024     48.5866     84.0787   6.3182191074e+01   5.5065339366e+01    0.3481104    0.2469304  78.62  0.001681535    2.305    0.566
       242  -9.2171    116.7071     83.3740   4.0403705000e+01   4.3322483787e+01    0.2472745    0.1809149 -19.98 0.0006391305    1.716    0.417
       243 -10.5366    104.5228     81.7600   4.3433828013e+01   4.6224516572e+01    0.6912765    0.3144869 -51.09  0.002581147    2.511    0.602
       244  -9.7596      7.8241     84.1868   7.8769847344e+01   5.8713972561e+01    0.1823756    0.1164804 -42.40 0.0008016699    1.367    0.269
       245  -9.8507    140.6937     81.6263   3.3718931298e+01   3.8204746795e+01    0.4075842    0.1722845 -43.11  0.001489031    2.413    0.586
       246  -9.2901    158.5377     81.7607   2.9757600927e+01   3.3941306166e+01    0.2894771     0.150671 -35.34  0.001151262    2.111    0.526
       247  -9.1252     74.7024     80.5299   5.2704660068e+01   5.2046459425e+01    0.2432384    0.1761421 -69.38  0.001174557    1.851    0.460
       248  -9.9098     24.6646     80.3855   7.1461129409e+01   5.8352043835e+01     0.308933    0.2133685  76.99  0.001558826    2.213    0.548
       249 -10.2069    248.9814     74.4172   1.3961527670e+01   1.4912226461e+01    0.3958443    0.1740715 -45.39  0.001878956    1.887    0.470
       250  -9.2829    150.3461     79.1381   3.0806511515e+01   3.6375469916e+01    0.4323441    0.1372996 -40.79  0.001386107    3.176    0.685
       251  -9.6002    119.1958     78.5368   3.8287403693e+01   4.3706074733e+01     0.423492    0.2129011 -42.25   0.00170864    2.049    0.512
       252  -9.7550      8.7725     80.6089   7.7718452633e+01   5.9450963707e+01    0.1553529    0.1091653  30.78 0.0009502195    1.686    0.407
       253  -9.6157    236.0000     78.9491   1.6427636321e+01   1.6792209231e+01    0.2161793   0.06733353 -39.20  0.000751672    2.887    0.654
       254  -8.9071    174.8188     77.4236   2.5382257533e+01   3.0807995588e+01    0.2876988    0.1046099 -41.38   0.00100937    2.684    0.627
       255  -8.7597    184.1621     76.9894   2.3594996228e+01   2.8657124161e+01    0.2497795    0.1484096 -62.41  0.001066232    1.974    0.493
       256  -9.9514     49.4682     76.8293   6.0870383687e+01   5.6511803277e+01    0.2620933    0.1725372   0.97 0.0008964717    1.894    0.472
       257 -12.8260    248.8685    124.0113   2.4104563493e+01   6.7767989446e+00     1.626127    0.3409531 -42.98  0.005149676    3.946    0.747
       258  -9.7122    127.7229     74.7565   3.4917137585e+01   4.2482177589e+01    0.4043636    0.2078385 -52.27  0.001576011    2.319    0.569
       259  -9.6823    128.3202     70.3347   3.3445657858e+01   4.3134056519e+01    0.3018986    0.2151043   5.53  0.001316851    2.167    0.539
       260  -8.8622    157.5638     75.2406   2.8183426234e+01   3.5337840483e+01    0.2060335    0.1474256 -26.54 0.0009287427    1.681    0.405
       261 -10.1309     10.4056     74.2005   7.5750540869e+01   6.0748295101e+01    0.2587862    0.1809912   8.46  0.001310323    1.605    0.377
       262 -10.2717     82.3572     72.3851   4.7587902528e+01   5.2349934621e+01    0.3636453    0.2570205 -66.45    0.0011652    1.984    0.496
       263 -11.0876    243.8874     70.5847   1.3747355270e+01   1.6510493727e+01    0.4594891    0.1275218 -50.34  0.001609905    3.511    0.715
       264 -10.2837    244.5774     65.7581   1.2680864273e+01   1.7108168996e+01    0.1977607    0.1095492 -43.62  0.001033135    1.568    0.362
       265  -9.9227    238.8240     72.3026   1.4684635620e+01   1.7266974433e+01     0.193377    0.1414541 -57.51  0.001127605    1.166    0.142
       266  -9.2536    115.8184     72.0136   3.7236220903e+01   4.5660324649e+01    0.2415176    0.1685572 -67.72  0.001008384    1.976    0.494
       267  -9.8156    105.5286     71.0566   3.9858818605e+01   4.8054594662e+01    0.2859971     0.184856 -59.15   0.00126338    2.012    0.503
       268  -9.8075     95.0231     70.6897   4.2928893576e+01   5.0271316844e+01    0.3916076    0.2020974 -53.69  0.001548579    2.459    0.593
       269  -8.9993    151.0000     88.0227   3.3107383505e+01   3.4569672753e+01    0.2539381    0.0866855 -40.73 0.0008088336    2.987    0.665
       270 -10.3999     28.6157     70.4741   6.7415343019e+01   6.0129071362e+01    0.5975034    0.2485935 -18.90  0.001646044    7.189    0.861
       271  -9.2121    229.6796     70.0541   1.5302073026e+01   1.9517064533e+01    0.2387071   0.06764366 -52.87 0.0007030225    4.534    0.779
       272 -11.3566    249.1125    136.7451   2.6648299602e+01   4.5545147533e+00    0.6026616    0.2385318 -44.11  0.002579846    2.186    0.542
       273  -9.7655    140.5849     74.1173   3.1597594252e+01   3.9596566689e+01    0.3331082    0.1451434 -39.82  0.001249745    2.375    0.579
       274  -9.2088     16.4935     69.5657   7.2196126950e+01   6.1323722550e+01    0.2120851    0.1141081 -72.77  0.001031523    2.302    0.566
       275  -9.0130    247.5988    247.7245   4.7309436028e+01  -1.2423457529e+01    0.1618755    0.1316758  36.09 0.0007571045    1.648    0.393
       276 -10.5732    250.2073     64.1951   1.1768771468e+01   1.6225813699e+01    0.2851042    0.2025728 -68.75  0.001731164    1.257    0.204
       277  -9.3235    239.0000     67.9540   1.3754243062e+01   1.7903650934e+01    0.2123236   0.06559601 -38.75 0.0007994895    2.922    0.658
       278  -9.1638    147.3415     68.1482   2.8363498213e+01   3.9016896932e+01    0.2988235    0.1900706 -56.33 0.0007591832    1.793    0.442
       279 -10.3675     82.7957     65.3913   4.5193317901e+01   5.3585383394e+01    0.4660937       0.2695  -5.89  0.001589804    3.965    0.748
       280  -9.6644    234.5368     66.4749   1.3956328448e+01   1.9051920728e+01    0.1334228     0.109046 -66.25  0.000142424    1.026    0.026
       281  -8.7824    203.4859     66.0042   1.7856021249e+01   2.5944140662e+01    0.2141451    0.1280325 -42.52  0.001034513    1.602    0.376
       282  -9.8150    138.6309     65.0820   2.9410952933e+01   4.1613223309e+01    0.4613505    0.1750399 -40.10  0.001669368    2.713    0.631
       283  -9.6159    121.5811     64.5792   3.3405271384e+01   4.5671471431e+01    0.4097679    0.1435177 -38.01   0.00141623    3.020    0.669
       284  -9.5082    110.0262     63.0285   3.6026141646e+01   4.8508982864e+01     0.336607    0.1894436 -54.71  0.001149718    2.339    0.572
       285 -10.3102     51.2944     69.1037   5.7901041555e+01   5.7864716587e+01    0.3985154    0.2340782 -67.10  0.001760662    2.626    0.619
       286 -10.4930    237.5460     63.0809   1.2899373429e+01   1.8943326622e+01    0.1946319    0.1117715 -43.18 0.0006184872    1.553    0.356
       287  -9.8323    232.3161     63.3129   1.3541565317e+01   1.9999150446e+01    0.1168734    0.1048577  21.58 0.0007034614    1.642    0.391
       288  -9.9325     17.9487     61.7516   6.9591254078e+01   6.2831852749e+01      0.29162    0.1230308 -44.23  0.001117528    1.949    0.487
       289 -11.1830    248.3432     68.1584   1.2763169565e+01   1.5996401013e+01    0.3702143    0.2394086 -49.32  0.002135274    1.295    0.228
       290 -10.0511    100.0558     59.5660   3.7781651611e+01   5.1218420284e+01    0.3711498    0.2230526 -53.46  0.001658148    2.108    0.526
       291  -9.6005    130.5602     56.2523   2.8617373264e+01   4.4944796041e+01    0.3470129    0.1465104 -33.27  0.001317036    2.669    0.625
       292  -9.8874      7.4298     57.2161   7.3033914232e+01   6.4471794007e+01    0.1599351    0.1050215 -71.09 0.0009447402    1.740    0.425
       293  -9.2392    139.5809     55.3069   2.6294288719e+01   4.2947589321e+01    0.2678265    0.1343415 -41.01  0.001130202    2.091    0.522
       294  -9.8226    119.1660     55.3477   3.1120959587e+01   4.7725641807e+01    0.2779404    0.1794375 -63.03  0.001208486    2.194    0.544
       295  -9.0821      1.5013     55.9786   7.5378135058e+01   6.5052849767e+01    0.1832356   0.05286087 -44.29 0.0008101676    2.552    0.608
       296  -9.8083     62.8866     54.3383   4.8580075042e+01   5.8964206903e+01    0.2226098     0.178829 -47.50 0.0008034252    1.391    0.281
       297 -11.6850     45.4329     49.1612   5.3751909340e+01   6.2388595581e+01    0.3853566    0.2186765 -34.75 0.0006571776    1.675    0.403
       298  -9.8823     53.8967     53.2642   5.1714118789e+01   6.0506019683e+01    0.3088234    0.1735552 -60.88  0.001328394    3.002    0.667
       299  -9.3701     25.9837     55.0000   6.4130966098e+01   6.3485502108e+01    0.1844926   0.06706182  23.97 0.0006437271    2.916    0.657
       300 -10.0875     73.1257     58.1388   4.6119410485e+01   5.6608072308e+01    0.5914336    0.2300193 -48.96  0.002232427    3.072    0.674
       301  -9.0393     20.3406     52.6565   6.5946763426e+01   6.4436298222e+01    0.1113369   0.09427612  67.97 0.0007048235    1.779    0.438
       302  -9.7319     92.4914     50.2125   3.6908205771e+01   5.4286150709e+01    0.3555067    0.2118961 -53.73  0.001606423    2.292    0.564
       303  -9.4857     31.1760     51.0682   6.0580690537e+01   6.3716955346e+01    0.1832976    0.1443934 -78.99  0.000894184    2.007    0.502
       304  -9.8798    231.8642     50.0004   1.0769209685e+01   2.2052770305e+01    0.2315328    0.1136992 -60.49  0.001084434    2.042    0.510
       305  -8.3371    193.3555     67.6732   1.9767057262e+01   2.8032565039e+01    0.1542582    0.1003104 -73.76  0.000704574    1.774    0.436
       306  -9.8748    240.2994     49.3253   9.7652449779e+00   2.0383091861e+01    0.1088483    0.1008988  23.39 0.0003723067    1.633    0.387
       307 -11.4256    167.1320    247.6416   6.2473515197e+01  -1.1595995947e+00    0.4738834    0.2186305  27.62  0.002120622    2.263    0.558
       308  -9.3959     81.8739     46.0832   3.8847410107e+01   5.7007939919e+01    0.2544958    0.1567131 -35.32  0.000870998    1.693    0.409
       309  -9.1033     23.1956     46.6195   6.2737487730e+01   6.5318718082e+01    0.1671391    0.1027897   3.75 0.0009502209    1.732    0.423
       310  -8.6795      1.4722     46.0045   7.2823406124e+01   6.7011269495e+01    0.1661777   0.09275752 -54.12 0.0004253248    1.494    0.330
       311  -9.4262    122.4825     45.0214   2.6988843825e+01   4.8498035475e+01    0.3006829    0.1396732 -33.71  0.001141894    2.350    0.574
       312  -9.3295    123.4908     40.4786   2.5288290801e+01   4.8887569165e+01    0.2709833    0.1789221  25.13 0.0008110058    1.983    0.496
       313 -10.2387    237.4595     43.9092   8.9362495728e+00   2.1727989921e+01    0.1895589    0.1073824 -43.58  0.001027087    1.587    0.370
       314  -8.6234    225.2987     44.6790   1.0332714753e+01   2.4212840504e+01    0.1371937   0.08169466 -67.17 0.0004891072    1.622    0.383
       315  -9.0347     16.3862     44.6977   6.5307504842e+01   6.6258082762e+01    0.1076714   0.09042393  55.81 0.0007017734    1.790    0.441
       316  -9.9968     58.5724     43.0193   4.6150757581e+01   6.1531946191e+01    0.2422951    0.1644414 -55.95   0.00126987    2.108    0.526
       317  -9.2296    150.0000     44.8485   2.1098733093e+01   4.1951854731e+01    0.3688196   0.08091392 -33.03  0.001056681    4.983    0.799
       318 -10.6941     29.1403    243.9331   9.0324876362e+01   1.9661380122e+01     0.405995    0.1954468  77.40  0.002159164    2.026    0.507
       319  -9.7126    105.6810     41.0005   2.9896943475e+01   5.2852771543e+01    0.2773314    0.1197247 -45.28  0.001097622    2.844    0.648
       320  -9.2338     69.0167     41.0462   4.1456873859e+01   6.0113089318e+01    0.1876303    0.1650541  88.77 0.0007096458    1.703    0.413
       321  -8.6338    225.6699     40.3578   9.3695484002e+00   2.4724730597e+01    0.1424563   0.07896923 -66.86  0.000681398    1.790    0.441
       322  -9.1555     83.9797     39.9774   3.5928965199e+01   5.7505163663e+01    0.2216121    0.1491405  16.83  0.001125587    1.754    0.430
       323  -8.7697     36.9841     40.5150   5.4290749215e+01   6.4930042589e+01    0.1548355    0.1005586  50.60 0.0008080943    2.428    0.588
       324  -9.3725     95.5005     37.5037   3.1506633596e+01   5.5512753386e+01    0.2301686    0.1180523 -44.70  0.001028054    2.352    0.575
       325  -8.6925    228.5042     36.9893   8.3733982356e+00   2.4563718273e+01    0.1835556     0.110618 -43.56 0.0006750731    1.545    0.353
       326  -8.7577     80.5128     36.0116   3.5575384243e+01   5.8731326866e+01    0.1764426    0.1100299 -56.45 0.0008105387    2.596    0.615
       327  -9.0005     26.3845     36.2387   5.7598882486e+01   6.6830132101e+01    0.1581365    0.1061096 -50.94 0.0009507781    1.680    0.405
       328 -10.4162    217.0905     34.6843   9.0296768563e+00   2.7368526476e+01    0.2523901    0.1541423  81.93   0.00137191    1.536    0.349
       329  -9.5631    249.6809     34.6799   6.0005954983e+00   2.0472964893e+01    0.1030703   0.09473761  42.11 0.0003181391    1.665    0.399
       330  -9.3727    113.8630     41.4280   2.7915265139e+01   5.0971561139e+01    0.2126914    0.1760267  22.55  0.000289748    1.305    0.234
       331  -9.8812      6.5340     33.9369   6.6635030310e+01   6.8922446646e+01    0.1720526    0.1324688  -9.34 0.0006602861    1.172    0.147
       332  -8.3681    225.6309     33.2870   7.8732844744e+00   2.5671561137e+01    0.1368935   0.07809488 -71.12 0.0007020982    1.706    0.414
       333  -9.3759    119.4525     32.9894   2.3767481208e+01   5.0788933753e+01     0.191939    0.1348498 -31.51  0.000638154    1.586    0.369
       334  -9.6018    221.2117     30.7422   7.7616986556e+00   2.6965317678e+01    0.3885018    0.1269884 -55.18  0.001480617    3.279    0.695
       335  -8.7281     60.4915     32.0072   4.1125960377e+01   6.2870938321e+01    0.1624837    0.1086484 -57.48 0.0008102555    2.554    0.608
       336  -9.1933     12.6239     30.7756   6.2392678747e+01   6.9013678680e+01     0.148927   0.09981187 -53.24 0.0005965205    1.657    0.396
       337  -9.3899    111.8148     34.0182   2.5923415591e+01   5.2406650765e+01    0.2166116    0.1475766 -60.95  0.001072931    2.001    0.500
       338 -12.2681    244.4262     56.4500   1.0800407368e+01   1.8518738694e+01    0.5019338    0.3094399  75.35  0.002841444    1.667    0.400
       339  -9.7048    230.6340     26.8551   6.0731442921e+00   2.5414968998e+01     0.181063   0.08902331 -49.56 0.0009447563    1.748    0.428
       340  -8.9765     81.4982     27.0206   3.1813843356e+01   5.9704304687e+01     0.169494    0.1057226 -54.34 0.0008099026    2.525    0.604
       341  -8.2540    231.0000     40.9667   8.9610083464e+00   2.3494138519e+01    0.2002377   0.06512196 -36.87 0.0008019547    2.939    0.660
       342  -9.2307    101.4431     27.9866   2.6446550850e+01   5.5442863364e+01    0.1885788    0.1297573 -29.11 0.0005718556    1.612    0.379
       343  -9.1002    110.4120     24.6908   2.3056336343e+01   5.3830502004e+01    0.1686023    0.1270609  -4.31 0.0009442283    1.601    0.375
       344  -9.4591     44.3235     25.1840   4.4914260893e+01   6.6310975560e+01    0.1908062    0.1378522  16.45 0.0003899093    1.239    0.193
       345 -11.7508    166.5232    242.2046   6.1802039899e+01  -1.6512101332e-01    0.4738143    0.2555281  30.90  0.002123947    1.687    0.407
       346 -10.0908     13.1317     21.0475   5.8335839491e+01   7.0538162146e+01    0.2314733    0.1604672  14.33  0.000752454    1.372    0.271
       347  -8.4743     84.6910     21.3104   2.8617842315e+01   5.9732170933e+01    0.1172166    0.1004092 -82.50  0.000376032    1.621    0.383
       348  -8.4101     48.3072     21.6469   4.1695103992e+01   6.6196697358e+01    0.1050308   0.09876404 -79.88 0.0004278768    1.716    0.417
       349  -8.7458    118.5095     24.5175   2.1163299089e+01   5.1999238265e+01    0.1340774    0.1162628  53.39 0.0002344926    1.018    0.017
       350  -9.1143     50.7433     15.3981   3.7939114062e+01   6.6586394775e+01    0.1706029   0.09334331  31.23 0.0004936365    1.659    0.397
       351  -9.9083      4.2048    249.4016   9.5203080008e+01   2.1272837956e+01    0.2129668    0.1265722  68.88 0.0006468607    1.256    0.204
       352  -9.9380     98.0492    241.6300   7.6133563764e+01   1.0804965300e+01    0.2502466    0.1558181  26.15  0.001278629    1.870    0.465
