#   1 NUMBER                 Running object number                                     
#   2 MAG_AUTO               Kron-like elliptical aperture magnitude                    [mag]
#   3 X_IMAGE                Object position along x                                    [pixel]
#   4 Y_IMAGE                Object position along y                                    [pixel]
#   5 X_WORLD                Barycenter position along world x axis                     [deg]
#   6 Y_WORLD                Barycenter position along world y axis                     [deg]
#   7 A_WORLD                Profile RMS along major axis (world units)                 [deg]
#   8 B_WORLD                Profile RMS along minor axis (world units)                 [deg]
#   9 THETA_WORLD            Position angle (CCW/world-x)                               [deg]
#  10 FWHM_WORLD             FWHM assuming a gaussian core                              [deg]
#  11 ELONGATION             A_IMAGE/B_IMAGE                                           
#  12 ELLIPTICITY            1 - B_IMAGE/A_IMAGE                                       
         1 -13.6659    210.3683     29.6999   8.5968040894e+00   2.9622524557e+01    0.8842699    0.7479838 -71.05  0.003779677    1.078    0.073
         2 -11.2235    227.2207      9.5511   2.7557962807e+00   2.8309412179e+01    0.2390141    0.1829368 -86.36 0.0007301468    1.101    0.092
         3 -10.5192     49.3312      9.6756   3.5585790125e+01   6.7544063387e+01    0.1014339   0.09555184 -84.31 0.0007050471    1.704    0.413
         4 -11.8309     93.2782    235.5309   7.6485302471e+01   1.2553073143e+01    0.2627763    0.2164908 -73.13 0.0006215736    1.316    0.240
         5 -14.0108    246.1499    239.0278   4.6475858552e+01  -1.1279165724e+01     1.798959      0.69513 -33.50  0.008992391    2.460    0.593
         6 -10.5094     11.2856    189.3699   9.0100346314e+01   3.3321663972e+01    0.1179527   0.09062146 -78.46 0.0007490845    1.186    0.157
         7 -12.2427     63.6125    178.1295   7.6313576863e+01   3.0022613424e+01    0.5723039    0.3668399 -34.86  0.002601253    2.321    0.569
         8 -11.8728     51.9881    186.4897   8.0268315957e+01   2.9526731203e+01    0.3976942    0.3155852 -41.04  0.001694176    1.623    0.384
         9 -10.2060     57.2692    182.6984   7.8507821903e+01   2.9761058117e+01    0.1996614    0.1673086  66.10 0.0002093507    1.099    0.090
        10  -9.5587     71.0431    186.7313   7.5603887548e+01   2.6855211225e+01    0.1830568    0.1537457  50.56            0    1.168    0.144
        11 -15.6380    120.8619    235.3921   7.0585918987e+01   8.2463687245e+00     7.426308     4.470868 -71.48   0.03703846    2.147    0.534
        12  -9.6725     77.8339    184.4053   7.3588889711e+01   2.6410527848e+01    0.1821901    0.1380748  19.01 0.0004978881    1.704    0.413
        13 -11.6379     54.6761    228.9367   8.3972771333e+01   1.9442433356e+01    0.2629366    0.1329389 -68.48  0.001348287    1.972    0.493
        14 -11.0393     73.7898    180.9954   7.4123135162e+01   2.7851878130e+01    0.4501579    0.3036639 -56.11  0.001091055    1.511    0.338
        15 -10.4816    175.0386    179.5041   4.9389796367e+01   1.0003975344e+01    0.2768274    0.2510121  34.18 0.0008336589    1.090    0.082
        16 -12.5779    172.5772    174.0610   4.8835891217e+01   1.1607263149e+01    0.8232276     0.572264  -2.49  0.001371156    2.198    0.545
        17 -11.5044    180.8702    168.7596   4.5960913753e+01   1.1095956399e+01    0.7043017    0.3927472 -63.46  0.002628507    2.806    0.644
        18 -11.9898     89.3615    212.1643   7.4559693561e+01   1.8136594189e+01    0.3023742     0.234336 -66.58 0.0007073432    1.344    0.256
        19  -9.7084     67.6482    212.9141   7.9578830246e+01   2.1196692915e+01    0.1600325    0.1329692  68.45 0.0003305539    1.019    0.018
        20 -11.2364      3.1625    176.3777   9.0977098176e+01   3.7079011686e+01    0.1463586    0.1366033 -83.82 0.0007748947    1.273    0.214
        21 -10.7606      9.1401    166.1801   8.8726285935e+01   3.9020107771e+01     0.204818    0.1514413 -70.65 0.0004414788    1.211    0.174
        22 -11.5053      2.3547    164.1631   9.0218523653e+01   4.0045208180e+01    0.1973428    0.1611928 -68.34 0.0005521662    1.224    0.183
        23 -11.4498    106.5844    139.1013   5.7743621780e+01   3.2775186576e+01     0.435982    0.2956757  84.94  0.001060784    2.133    0.531
        24 -11.5934    112.4944    151.0105   5.8669763370e+01   2.8738017870e+01    0.4832953    0.3219804  80.24  0.001286657    2.176    0.541
        25 -11.3310     59.4849    231.0111   8.3155315318e+01   1.8360239716e+01    0.2139676    0.1082838 -62.60  0.001082614    2.074    0.518
        26 -11.9877    133.5421    145.4642   5.1972954944e+01   2.5908554712e+01     1.056192    0.3380011 -54.80  0.003007992    3.663    0.727
        27 -11.8133    108.9148    145.2049   5.8418703867e+01   3.0837747496e+01     0.369587    0.3282538 -63.03 0.0006772035    1.099    0.090
        28  -9.7162    171.4494    142.4240   4.2282981812e+01   1.8596113519e+01    0.2997629    0.1390894 -55.55 0.0009094425    2.611    0.617
        29 -12.2334    106.6448    130.8870   5.5881069204e+01   3.4768342116e+01    0.5941643    0.4485207  57.42  0.002076143    1.417    0.294
        30 -11.2270    133.6538    128.3540   4.7973232373e+01   2.9883292624e+01    0.5557926    0.3933041  84.89   0.00194276    2.026    0.506
        31  -8.9596    149.3415    126.3103   4.3567416381e+01   2.6941395954e+01     0.159045    0.1278429   1.76 0.0007045092    1.695    0.410
        32 -10.6360    115.6689    125.1126   5.1992596683e+01   3.4379821767e+01    0.2908406    0.2319523  31.03 0.0008482105    1.377    0.274
        33  -8.9928    218.3257    124.7194   2.9181648369e+01   1.2356487774e+01    0.1411619    0.1071267 -75.03 0.0003331488    1.595    0.373
        34 -10.8747    158.7863    120.5935   3.9945002695e+01   2.6091028016e+01    0.2593813    0.2110231 -71.71 0.0006358416    1.349    0.259
        35  -9.4376    156.4948    117.5082   3.9704208664e+01   2.7271005882e+01    0.2327242    0.1463634 -56.25 0.0005918237    1.702    0.412
        36 -10.5365    103.5226    120.1448   5.4228435432e+01   3.7949644475e+01    0.2717485     0.240679   4.41 0.0006295496    1.324    0.245
        37 -12.0357     97.7286    130.2592   5.8288565102e+01   3.6586163906e+01    0.3051884    0.2855054  30.14 0.0002941349    1.149    0.130
        38 -18.8994     27.5214    131.5799   7.9759507602e+01   4.5944676119e+01     17.61471     3.039397 -69.90   0.04391637    6.278    0.841
        39 -10.5608    110.8565    114.9408   5.0821095396e+01   3.7734309412e+01    0.2792134    0.2394019  88.91 0.0008878234    1.310    0.236
        40 -12.2228    119.1574    104.9210   4.5867675424e+01   3.8289265581e+01    0.4327951     0.342759 -55.01  0.002092509    1.277    0.217
        41 -12.7295    112.1935     99.3163   4.6296569411e+01   4.0981426486e+01    0.7939976    0.5438564  78.66  0.002825363    2.257    0.557
        42 -10.7106    160.8913    200.3521   5.6409768175e+01   8.3661002980e+00    0.3705746    0.2085356 -52.77  0.001546428    1.955    0.488
        43 -11.9084     81.4057    104.8286   5.7152237443e+01   4.5556046512e+01    0.7483476    0.3683117  57.34  0.001777329    3.380    0.704
        44 -10.2030     77.7136    107.3227   5.8968603294e+01   4.5582177472e+01    0.2061481    0.1727897 -20.76 0.0003964327    1.338    0.253
        45 -15.8484     68.3474    143.9586   6.9665159369e+01   3.7961438786e+01     2.529331     1.889848  59.44   0.01286667    1.421    0.296
        46  -9.1174     64.6357     97.2741   6.0785095787e+01   4.9939192631e+01    0.1410199    0.1093948  69.10 0.0002382465    1.665    0.400
        47 -10.8346     71.1278    230.2670   8.0633023564e+01   1.6907942437e+01    0.1449702    0.1120945  84.31 0.0003162396    1.214    0.177
        48 -10.1059     98.0332     88.0238   4.7285790309e+01   4.6259155557e+01    0.3382196    0.2013842  64.36  0.001299043    2.610    0.617
        49 -10.1802     64.4010     87.7521   5.8343497044e+01   5.2118694740e+01    0.3878504    0.1859447  51.46 0.0005313265    3.063    0.673
        50  -9.5250    154.5073     87.4918   3.2288225747e+01   3.3858620897e+01    0.1533622    0.1443244 -86.63 4.835092e-05    1.025    0.024
        51  -9.4725     93.1520     85.3951   4.8032341790e+01   4.7751287735e+01     0.216687     0.134624  53.89 0.0009438717    1.859    0.462
        52 -12.9916    170.2778     68.2425   2.3877795594e+01   3.3512734297e+01    0.6131556    0.4516051  58.88 0.0008732161    1.322    0.244
        53 -11.3814     49.6106    224.5009   8.4644446462e+01   2.1057587387e+01    0.1840537    0.1398659 -80.83  0.000281862    1.267    0.211
        54  99.0000     58.2374    227.7861   8.3121899982e+01   1.9215771550e+01    0.1701802    0.1237257  83.26  0.000218916    1.252    0.202
        55 -13.6500    186.7531     54.9771   1.7664455054e+01   3.1645603590e+01     1.157181    0.9161938  34.42  0.003789073    1.679    0.404
        56 -11.9911    192.6348     49.3957   1.5413996243e+01   3.1070539607e+01    0.3519717    0.3108812  60.18 0.0009417356    1.254    0.203
        57  -9.8842    210.9115    198.6678   4.5774726684e+01  -2.4046871206e-02    0.2104658    0.1684553 -19.33 0.0004328711    1.196    0.164
        58 -11.1087    165.7694     63.0048   2.3287278253e+01   3.5466067755e+01    0.2590374    0.2044594  64.22 0.0004712187    1.208    0.172
        59 -11.2763     57.8236    222.1008   8.2678048629e+01   2.0504373391e+01    0.1649877    0.1196867 -73.23 0.0005923544    1.378    0.274
        60  -8.8517     69.3805    195.3451   7.7123860347e+01   2.5025229788e+01    0.4295834    0.1653181 -72.71 0.0009034571    2.996    0.666
        61 -10.2844     60.6955     21.1684   3.6341592918e+01   6.4338331679e+01    0.2021761    0.1542608  45.03 0.0006326789    1.363    0.266
        62 -11.2742     56.0300    193.9000   8.0146411821e+01   2.7214459564e+01    0.2563182    0.1790598 -59.82 0.0009341551    1.482    0.325
