#   1 NUMBER                 Running object number                                     
#   2 MAG_AUTO               Kron-like elliptical aperture magnitude                    [mag]
#   3 X_IMAGE                Object position along x                                    [pixel]
#   4 Y_IMAGE                Object position along y                                    [pixel]
#   5 X_WORLD                Barycenter position along world x axis                     [deg]
#   6 Y_WORLD                Barycenter position along world y axis                     [deg]
#   7 A_WORLD                Profile RMS along major axis (world units)                 [deg]
#   8 B_WORLD                Profile RMS along minor axis (world units)                 [deg]
#   9 THETA_WORLD            Position angle (CCW/world-x)                               [deg]
#  10 FWHM_WORLD             FWHM assuming a gaussian core                              [deg]
#  11 ELONGATION             A_IMAGE/B_IMAGE                                           
#  12 ELLIPTICITY            1 - B_IMAGE/A_IMAGE                                       
         1 -14.1530    225.5573      4.5844   3.6733630680e+01   2.8146010668e+01     2.084161     1.127907  53.55  0.007818653    2.115    0.527
         2 -13.9463    182.5803     48.5829   5.3455158994e+01   3.3321243883e+01     1.860385     1.218903  28.41 0.0009057143    2.106    0.525
         3 -14.0526    193.7491     39.2631   4.9096899576e+01   3.1790617966e+01     1.312416     1.090887 -42.27  0.003356852    1.192    0.161
         4 -14.5883    202.1171     30.1929   4.5511369918e+01   3.0869439403e+01     1.513953      1.28453  27.55  0.001406479    1.466    0.318
         5 -13.0086     59.2866      3.3561   6.6080849960e+01   6.6956626459e+01    0.8383136    0.2082947  44.44  0.003252379    3.427    0.708
         6 -11.2906    153.1453     56.1702   6.1270144468e+01   3.9635945405e+01     0.384685    0.2790321 -77.03  0.001727767    1.826    0.452
         7 -13.9417     74.7268    155.4072   1.0759455684e+02   3.3812000982e+01    0.7307632    0.5765316 -43.22  0.001329418    1.470    0.320
         8 -15.9826     68.1565    144.0105   1.0746394236e+02   3.7482327762e+01     6.662506     3.374939  63.82   0.02608792    2.867    0.651
         9 -11.7521     56.5258    208.2920   1.1814088014e+02   2.4391048121e+01     1.055061    0.4659441  63.69  0.004907664    2.451    0.592
        10 -13.6859     52.2305    200.2488   1.1827279153e+02   2.6617633312e+01    0.4047143      0.39427  16.58  0.001169145    1.469    0.319
        11  -9.6120    102.7853    212.8098   1.0915089610e+02   1.6873069174e+01     0.258049    0.1521541  50.57  0.001057345    1.491    0.329
        12 -11.8700    107.2108    211.0067   1.0800475655e+02   1.6528996823e+01    0.5838328    0.3233276  53.36    0.0029407    1.684    0.406
        13 -12.4250    114.1474    208.1341   1.0617172141e+02   1.5974276985e+01    0.5215657    0.3164862  79.98    0.0019596    2.425    0.588
        14 -12.5268    108.7447    203.4695   1.0668770180e+02   1.7788317434e+01    0.4886248    0.3070782  48.70  0.001498602    1.419    0.295
        15 -10.8211     42.3420    209.1329   1.2102692915e+02   2.5950171686e+01    0.2485974    0.1660636  81.02 0.0007796219    1.264    0.209
        16 -12.0650     34.5816    208.6032   1.2249460736e+02   2.6946105781e+01     0.334391    0.1476064  50.77  0.001816189    1.908    0.476
        17  -9.1879    143.4171    209.4630   1.0022256144e+02   1.0763689529e+01    0.1321629    0.1181019  43.22 0.0001023894    1.020    0.020
        18 -18.3057     12.5140    241.1050   1.2832041609e+02   2.3024164281e+01     8.126151     6.062709  74.92   0.05664143    1.126    0.112
        19 -12.5733    196.1383    197.3552   8.7401568774e+01   3.4980277076e+00     1.195113    0.9881228  84.75  0.006576927    1.913    0.477
        20 -11.9609     35.0480    228.6821   1.2379549674e+02   2.2914446285e+01    0.1999282    0.1398762  65.00 0.0005477674    1.084    0.078
        21 -10.7105    183.8538    204.8505   9.1188675080e+01   4.4372797538e+00    0.2120072    0.1706216  12.41 0.0009293922    1.252    0.201
        22 -10.3755     26.2950    203.4666   1.2372713467e+02   2.8904187803e+01     0.428593    0.1196854  45.47  0.001981173    2.811    0.644
        23 -10.0386     96.4902    202.0141   1.0912187937e+02   2.0036934012e+01    0.2294375    0.1612711 -77.12  0.001280101    1.494    0.331
        24 -10.4942     50.2000    224.4740   1.2072706280e+02   2.1935195513e+01    0.2100811    0.1255315  83.52 0.0008818431    1.545    0.353
        25 -13.4087    112.8171    197.5160   1.0497485116e+02   1.8334702108e+01    0.5702493    0.4949575  48.73   0.00257071    1.091    0.083
        26  -9.2145    161.1755    199.7944   9.4950478945e+01   9.3862573189e+00    0.1770651    0.1520754   5.13  0.000381597    1.284    0.221
        27 -10.8972     38.9388    199.6690   1.2093543697e+02   2.8320000193e+01    0.2172231    0.1556411  85.30  0.000965622    1.151    0.131
        28 -10.7821     48.9540    218.3711   1.2048467883e+02   2.3288823186e+01    0.3066147    0.1798409  53.91  0.001755211    1.412    0.292
        29 -12.4804     24.7089    195.0038   1.2343171127e+02   3.0848731703e+01    0.2110071      0.16506  66.75 0.0005018984    1.130    0.115
        30 -10.3810    151.5178    195.5292   9.6266348234e+01   1.1936671410e+01    0.2928568    0.1257526  41.50  0.001194308    2.116    0.527
        31 -10.0294     81.8602    194.8242   1.1138712776e+02   2.3771459718e+01    0.2251815    0.1751884  83.61 0.0007083284    1.203    0.169
        32 -13.4917     61.6149    188.2057   1.1504968710e+02   2.8035331236e+01    0.7368195     0.611783 -68.75  0.001783396    1.264    0.209
        33  -9.3659     97.2164    191.0208   1.0750017563e+02   2.2245054550e+01    0.1813169     0.143598  73.50            0    1.214    0.176
        34 -10.2527     94.8839    187.7707   1.0757099942e+02   2.3318372610e+01    0.2534061    0.2059403 -81.02 0.0004724897    1.207    0.172
        35  -9.8439     56.1850    217.7074   1.1903923706e+02   2.2520988433e+01    0.2151258    0.1248063  79.55  0.001074148    1.676    0.403
        36 -10.9880     67.8517    182.0925   1.1294839431e+02   2.8566073953e+01     0.394812    0.2465043  68.98  0.001191249    1.638    0.390
        37 -11.1101     98.9758    181.3685   1.0571040938e+02   2.4071745033e+01    0.3995928    0.2855562 -37.16  0.001704895    1.859    0.462
        38 -11.5172    145.5947    181.1253   9.5028173280e+01   1.5876125181e+01    0.3556167    0.2776992 -38.45  0.001039736    1.413    0.292
        39 -11.8838    140.9554    173.9739   9.4756766728e+01   1.8234653921e+01    0.6789254    0.4643875  84.74  0.002114726    2.285    0.562
        40  -9.7459     41.1389    225.4879   1.2247830138e+02   2.2826117459e+01    0.1127269   0.05963749  83.41 0.0004736243    1.785    0.440
        41 -10.6094    188.4502    175.4981   8.4715060268e+01   8.7209952581e+00    0.5630697    0.2250414 -50.67  0.001954636    3.347    0.701
        42 -10.4128    204.3653    175.7119   8.1563544337e+01   5.6486266446e+00    0.2942569    0.2613234 -39.52 0.0009012083    1.239    0.193
        43 -10.2908    196.4348    175.1062   8.3013437943e+01   7.2579359050e+00    0.3193731    0.2721203 -79.23  0.001714917    1.661    0.398
        44 -12.3054     74.7651    173.6270   1.1025699475e+02   2.9528350803e+01    0.4057156    0.2844333 -37.10  0.002084321    1.996    0.499
        45 -12.1803     78.5098    169.0331   1.0871767363e+02   3.0048214646e+01    0.3269538    0.2825367 -38.41  0.001068875    1.445    0.308
        46 -10.9208     47.6874    173.1821   1.1651587666e+02   3.3163853354e+01    0.3616519    0.2196787 -52.66  0.001817692    1.838    0.456
        47 -10.8419     53.8322    173.3276   1.1511615375e+02   3.2388257492e+01    0.2778255    0.2084132  68.94 0.0005216621    1.216    0.178
        48 -10.8801     56.6029    166.2181   1.1360264257e+02   3.3693070163e+01    0.3644321    0.1729705 -47.52  0.001582547    2.625    0.619
        49 -10.2086    187.1257    165.9704   8.3017239719e+01   1.0746045474e+01    0.3256762    0.1929985 -48.28  0.001119246    1.851    0.460
        50 -10.6673    229.9786    165.9816   7.4720729350e+01   2.5448334798e+00    0.2023489    0.1741297 -70.62 0.0007088541    1.707    0.414
        51 -10.6518    159.3777    162.6422   8.8326668033e+01   1.6986296132e+01    0.3056239     0.255987 -74.59 0.0008666748    1.431    0.301
        52 -11.9397     66.1728    204.2212   1.1577835878e+02   2.3977395807e+01    0.6507981    0.3109622 -49.12 0.0008914966    2.889    0.654
        53 -12.2492     92.7410    153.4298   1.0266722177e+02   3.1518200789e+01    0.6685678    0.4897579 -25.37  0.003202235    1.972    0.493
        54 -11.4258    133.8202    145.2399   9.0637880548e+01   2.5916122616e+01     1.261286    0.3146778 -54.27  0.002975077    5.738    0.826
        55  -9.8434    187.3443    151.6677   7.9854915015e+01   1.3430618245e+01    0.1504911    0.1213722 -86.15 -0.000100991    1.759    0.431
        56 -10.9516    174.3878    148.4520   8.1897938304e+01   1.6784981485e+01    0.3722807    0.2925669 -59.17  0.001415569    1.456    0.313
        57 -10.8393     86.9187    145.8504   1.0281257117e+02   3.4264136263e+01    0.3194148    0.2299696  69.15 0.0008378248    1.557    0.358
        58  -9.5218     55.9526    223.6764   1.1958166055e+02   2.1372832455e+01    0.1491311    0.1062911  62.80 0.0002463911    1.116    0.104
        59 -11.2118    105.2418    138.7041   9.6557041714e+01   3.2883601865e+01    0.5889418     0.367282 -32.84  0.002463529    2.147    0.534
        60 -12.2453     92.9486    138.9291   9.9887539644e+01   3.4952396965e+01    0.2851734    0.2576832 -45.73  0.000367352    1.168    0.144
        61 -10.9030    105.8931    130.7929   9.4674603867e+01   3.4643776021e+01    0.3731681    0.3160232 -69.56  0.001210937    1.182    0.154
        62 -11.0530    135.6708    128.0436   8.6208332660e+01   2.9413566257e+01    0.7101597    0.2016028 -50.22  0.001974872    3.789    0.736
        63 -10.4580    135.2037    120.4342   8.4438894007e+01   3.1217746654e+01    0.4213715    0.1601966 -47.02  0.001339993    2.596    0.615
        64 -10.7645    113.5327    129.6488   9.2358333143e+01   3.3489378271e+01    0.3143415    0.2797529   6.36 0.0006521163    1.324    0.244
        65  -8.9632     98.6105    130.2111   9.6534458013e+01   3.6081635426e+01    0.1490938    0.1079743  64.48 0.0004456005    1.610    0.379
        66 -10.1718    160.2021    128.0553   8.0259174530e+01   2.4095712846e+01    0.3667758     0.210068 -49.75  0.001472264    1.815    0.449
        67 -11.1145    100.8363    125.7459   9.4928751917e+01   3.6755304708e+01    0.3023537    0.2547329 -11.13 0.0008273694    1.483    0.326
        68 -11.2728    119.7648    123.3410   8.9200699017e+01   3.3744142189e+01    0.5631243    0.3838372  -8.11  0.002180752    2.575    0.612
        69 -10.1249    109.0698    118.9351   9.1039738922e+01   3.6848847541e+01    0.2200382    0.2123682 -60.05 0.0003028239    1.010    0.010
        70  -9.8853    167.5514    112.3936   7.4568012978e+01   2.5687433850e+01    0.3471856    0.2458942 -73.68  0.001429013    2.024    0.506
        71 -11.7654    118.3804    109.9793   8.6191789534e+01   3.7082662588e+01    0.6205876    0.4534148  67.43  0.002734477    1.724    0.420
        72 -10.2338    205.5027    110.1674   6.6263640362e+01   1.7353313029e+01    0.3118029    0.2176245  41.28 0.0008969653    1.543    0.352
        73 -10.2936    134.7196    104.4071   8.0319039579e+01   3.4849879140e+01     0.585715     0.198522 -41.66  0.001809617    2.955    0.662
        74  -9.8688     63.5750     99.1775   9.9894750112e+01   4.8959356156e+01    0.2378719    0.1993033  32.46 0.0006364945    1.341    0.254
        75 -10.5539     44.6061    198.0797   1.1964519468e+02   2.8001977806e+01    0.2831429    0.2036043  83.06 0.0009722619    1.164    0.141
        76  -9.4708    156.4774     81.4938   6.8378247683e+01   3.4415630948e+01    0.1546066    0.1529056 -16.35 6.515587e-05    1.016    0.016
        77  -9.4580    184.4727     77.1100   6.1335289456e+01   2.8299266011e+01    0.2315541    0.1485864 -35.01 0.0005559514    1.534    0.348
        78 -10.0105     63.7488     69.9416   9.1846196785e+01   5.5511186958e+01    0.2127341    0.1971277   2.43 0.0005123347    1.135    0.119
        79 -10.5583    158.4377    237.7339   1.0131223286e+02   3.4550749752e+00     0.202779     0.124626 -54.85  0.001133168    2.095    0.523
        80 -10.3659    169.0494    236.0283   9.9045773496e+01   1.9941293326e+00    0.1839323    0.1723624 -19.88 0.0004006018    1.251    0.201
        81 -17.9424      1.4825     99.4279   1.1985592587e+02   5.4573957816e+01     14.84439          nan -71.69   0.02172018   21.901    0.954
        82 -11.5717     60.1866    232.4141   1.1949566341e+02   1.9159254914e+01    0.2063299    0.1470499  71.91  0.000282866    1.152    0.132
        83 -11.1964    155.9048     50.4792   5.8879853919e+01   3.9822259087e+01    0.3341647    0.2627352  84.67   0.00102611    1.450    0.310
        84 -10.2270    189.7323     14.9944   4.2852101346e+01   3.5721835274e+01     0.240145    0.1851072  77.23 0.0006489875    1.190    0.160
        85  -9.4406     74.3288     12.7180   6.5360037165e+01   6.3235742083e+01     0.112662    0.1033095 -70.40 0.0002665351    1.604    0.377
        86  -9.4288    220.4583    228.4072   8.8273640570e+01  -5.1084044626e+00    0.1944835    0.1117857 -46.36  0.001027961    2.448    0.592
