#   1 NUMBER                 Running object number                                     
#   2 MAG_AUTO               Kron-like elliptical aperture magnitude                    [mag]
#   3 X_IMAGE                Object position along x                                    [pixel]
#   4 Y_IMAGE                Object position along y                                    [pixel]
#   5 X_WORLD                Barycenter position along world x axis                     [deg]
#   6 Y_WORLD                Barycenter position along world y axis                     [deg]
#   7 A_WORLD                Profile RMS along major axis (world units)                 [deg]
#   8 B_WORLD                Profile RMS along minor axis (world units)                 [deg]
#   9 THETA_WORLD            Position angle (CCW/world-x)                               [deg]
#  10 FWHM_WORLD             FWHM assuming a gaussian core                              [deg]
#  11 ELONGATION             A_IMAGE/B_IMAGE                                           
#  12 ELLIPTICITY            1 - B_IMAGE/A_IMAGE                                       
         1 -15.2779    245.2114    134.9536   5.0821233252e+01   7.3063191735e+00     3.954894     1.057017 -39.11   0.01485179    3.014    0.668
         2 -15.7884    242.8191     37.0384   3.0994739950e+01   2.2129002890e+01     6.609038     1.206835 -36.36   0.02440399    3.953    0.747
         3 -10.6329     24.5261     78.1729   9.5821394354e+01   5.9228018383e+01    0.8251997    0.2110975 -57.54  0.002903405    3.023    0.669
         4 -11.3913     84.5291     21.9368   5.0502477469e+01   5.9811445469e+01    0.2175557    0.1652439  49.36 0.0007914141    1.175    0.149
         5 -11.1858     49.5970     17.4830   6.0923730458e+01   6.7347492288e+01    0.5168469      0.24988  -9.21  0.001995201    3.679    0.728
         6  -9.5848      8.9987    160.5030   1.1352841215e+02   3.9523703552e+01    0.3220436    0.1033773  73.91 0.0008106549    6.877    0.855
         7 -11.2264    162.5052    225.5416   8.3316011072e+01   4.4073075219e+00    0.4045667    0.2927554  -3.37  0.002055539    1.447    0.309
         8 -10.2950    191.6871    226.1136   7.7431752995e+01   1.9970799613e-01    0.1786257    0.1413868 -12.24 0.0007539684    1.126    0.112
         9 -10.6898     99.0259    225.4294   9.7496428138e+01   1.3695864975e+01    0.3581703    0.2148253  35.39  0.001737838    1.456    0.313
        10  -9.3858    171.2464    225.6009   8.1488616930e+01   3.1381255294e+00    0.1687821    0.1090852  20.03  0.000168884    1.432    0.302
        11 -11.3384    125.9302    220.5640   9.0646734197e+01   1.0747969042e+01    0.2898262    0.2175259  39.42 0.0007252771    1.236    0.191
        12 -10.2845    183.0128    222.7646   7.8613686503e+01   1.9404338692e+00    0.2112671    0.1703925 -51.42  0.001277118    1.645    0.392
        13 -10.1908    148.8176    222.4388   8.5789598974e+01   6.9721799171e+00    0.3035026    0.1829762 -52.75  0.001537598    1.959    0.490
        14 -10.1309    114.5483    222.7957   9.3573498435e+01   1.1991527144e+01    0.2478087    0.1265572 -50.58  0.001156247    2.149    0.535
        15 -10.0379     60.2644    223.1382   1.0621886551e+02   1.9335398794e+01     0.283107    0.1248396  51.96  0.001258473    2.228    0.551
        16  -9.4436    174.0197    222.2195   8.0367667119e+01   3.3125682296e+00    0.1676777    0.1482428 -65.37 0.0008234023    1.642    0.391
        17 -10.4807    193.0407    220.7797   7.6280896843e+01   8.6363207323e-01    0.2115484    0.1650578 -49.01  0.001229015    1.679    0.404
        18 -11.5596    204.6715    217.6434   7.3497127041e+01  -2.2753702315e-01    0.2312316    0.1904569 -42.15 0.0009225261    1.520    0.342
        19 -10.1490    211.2692    217.4041   7.2214895596e+01  -1.0706668703e+00    0.1602323     0.108643  34.28  0.000943232    1.589    0.371
        20 -10.1861    143.6926    216.5511   8.6013371624e+01   8.8412382251e+00    0.2411853    0.2087002 -23.25  0.001322048    1.193    0.162
        21 -11.0428    199.0783    214.9671   7.4111966387e+01   9.6247753692e-01    0.2478913    0.1780837 -40.18 0.0009104003    1.505    0.336
        22 -10.2507    153.7132    215.1399   8.3560354299e+01   7.5815201239e+00    0.3434935    0.2275954   1.31  0.001700686    1.838    0.456
        23  -9.7831    111.6745    216.3680   9.3361503991e+01   1.3716753135e+01    0.2121632    0.1499934  60.11 0.0009104984    1.669    0.401
        24 -11.7535    186.2934    192.9633   7.2711607264e+01   6.6082869532e+00    0.5699228    0.2031818 -39.97  0.002201288    2.726    0.633
        25 -11.7557    185.9606    213.8296   7.6515882822e+01   3.0092284809e+00    0.4463258    0.2175706 -42.12  0.001737025    2.087    0.521
        26 -12.9092    186.1569    203.9541   7.4747311020e+01   4.6763925394e+00    0.7459214     0.382784 -48.40  0.003086006    2.242    0.554
        27 -10.2232    131.5104    213.5449   8.8320859086e+01   1.1288357245e+01    0.2627928    0.1359445 -51.47  0.001002683    2.113    0.527
        28 -10.3217     76.4944    211.9979   1.0121799932e+02   1.9669978652e+01    0.2971576    0.1369499 -73.52  0.001227905    2.704    0.630
        29 -11.8895    217.9433    210.3124   6.9755176462e+01  -8.6275133412e-01    0.3811804    0.1737431 -43.80  0.001825525    2.358    0.576
        30 -11.0631    177.2418    209.5360   7.7567287835e+01   5.0345394847e+00    0.3327013    0.2385211 -60.70  0.001736045    2.071    0.517
        31 -10.9998    116.3793    209.2299   9.1222623423e+01   1.4490045988e+01    0.4385739     0.218074 -58.96  0.001905412    2.318    0.569
        32 -10.8116    193.1562    210.1464   7.4436048766e+01   2.5898752194e+00    0.2054984    0.1577291  -7.44 0.0008974146    1.179    0.152
        33 -12.2214    226.1213    207.2018   6.7743015298e+01  -1.4584416584e+00    0.3421425    0.2002716 -45.69  0.001852873    2.033    0.508
        34  -9.8687    148.1321    209.1916   8.3832879750e+01   9.5678218328e+00    0.1830036    0.1655235  60.63 0.0007823685    1.361    0.265
        35 -11.5209    205.9386    207.6587   7.1516445834e+01   1.1869464705e+00    0.2405425     0.177542 -38.33  0.001357649    1.422    0.297
        36 -10.0220    139.4741    207.0082   8.5449597239e+01   1.1352791448e+01    0.2045186     0.137208 -48.82  0.001036942    1.606    0.378
        37 -10.8130    124.4232    206.2277   8.8850594827e+01   1.3873492905e+01    0.3316389    0.1993875  51.13  0.001526545    1.900    0.474
        38 -12.0899    198.7659    203.7391   7.2196077468e+01   2.8521779374e+00    0.3852797    0.2557969 -46.59  0.001623162    1.733    0.423
        39 -11.3072    182.9678    182.7840   7.1458262317e+01   9.0150383184e+00    0.5021301    0.2184122 -44.74  0.001913762    2.286    0.563
        40 -11.6719    185.2861    166.3869   6.7694943713e+01   1.1736680149e+01    0.4951042    0.2800118 -44.17  0.001374822    1.718    0.418
        41 -12.4262    183.3341    174.8080   6.9809330278e+01   1.0461354645e+01    0.5985181     0.411796 -26.39   0.00217965    1.443    0.307
        42 -11.8126    177.1303    197.3372   7.5422312284e+01   7.2489306611e+00    0.3021177    0.2847132 -27.36   0.00108383    1.215    0.177
        43 -11.4367    165.4010    186.0197   7.5847679954e+01   1.1307701848e+01    0.6057818     0.372951 -61.42  0.002635686    2.392    0.582
        44 -12.9762    172.5293    192.5819   7.5526076869e+01   8.8685317063e+00    0.8800389    0.4323697 -44.00  0.003704594    2.042    0.510
        45 -13.1521    173.6745    181.2896   7.3131619850e+01   1.0844331588e+01    0.9663482    0.6397794 -55.11  0.004651395    1.847    0.459
        46 -12.4647    177.2991    169.9809   7.0099514679e+01   1.2429736453e+01    0.8719393     0.403355 -40.94  0.003599106    2.072    0.517
        47 -12.7030    164.8058    200.3841   7.8617480654e+01   8.6277629643e+00    0.8618076    0.4560759 -36.97  0.003644897    1.952    0.488
        48 -11.5852    162.3561    193.2331   7.7867584002e+01   1.0396830464e+01    0.4976906    0.3279842 -39.92  0.001549912    1.521    0.342
        49  -9.7221     99.2923    205.6583   9.4844259111e+01   1.7836005374e+01    0.1427129    0.1019035  65.30 0.0003323953    1.654    0.395
        50 -11.7162    211.6827    201.8206   6.9390665526e+01   1.3278636066e+00    0.2822824    0.2301037 -49.90 0.0009998565    1.643    0.391
        51 -10.7373    130.8294    201.6410   8.6596497424e+01   1.3816282725e+01    0.3864149    0.1640988 -43.74  0.001522988    2.554    0.608
        52 -13.2504    248.0397    193.8771   6.1681700865e+01  -2.2496630883e+00    0.9669631    0.3464135 -43.22  0.004261858    2.880    0.653
        53 -12.7966    243.7835    181.2451   6.0041375128e+01   1.9098267057e-01    0.5080654    0.3018457 -53.73  0.002539821    2.645    0.622
        54 -10.0302    139.9929    199.8133   8.4133320200e+01   1.2722466154e+01    0.3108949    0.2060895 -72.44  0.001375191    2.373    0.579
        55 -11.1475    148.6652    197.0764   8.1650966321e+01   1.1871131357e+01    0.4940084    0.2418617 -54.98  0.002035088    2.467    0.595
        56  -9.5835     88.5287    199.0359   9.6604757646e+01   2.0902121178e+01    0.2009011    0.1192305  84.15 0.0008098874    2.657    0.624
        57 -11.7529    124.7629    196.4832   8.7205761103e+01   1.5879600766e+01    0.4187399    0.3568518 -60.79   0.00232611    1.307    0.235
        58  -9.1761    105.4628    198.5233   9.2282617886e+01   1.8480351839e+01    0.1408347    0.1315809  39.17 0.0001960744    1.012    0.012
        59 -11.1529    193.3773    195.5976   7.1772143196e+01   5.0470746844e+00    0.3231674    0.1683078 -40.69  0.001424175    1.856    0.461
        60  -9.8103    112.2213    197.2193   9.0402968165e+01   1.7717486273e+01    0.2130314    0.1195562 -70.00 0.0007670891    2.463    0.594
        61 -11.5359    224.8438    183.7116   6.3657384045e+01   2.4057102730e+00     0.394588    0.2484655 -49.87  0.001465729    1.974    0.494
        62 -13.2676    225.5381    190.5840   6.4827442499e+01   1.2028124470e+00    0.6382332    0.3295485 -37.68  0.003301955    1.725    0.420
        63 -13.1503    229.5263    186.8597   6.3443354247e+01   1.2436422605e+00    0.9718363    0.3731137 -48.43  0.003701303    3.698    0.730
        64 -15.0368    205.3755    187.0254   6.7827024073e+01   4.7142816955e+00     1.726777     1.128345 -31.55  0.009408051    1.384    0.277
        65 -12.2816    192.1620    176.9424   6.8438853458e+01   8.5922880809e+00    0.6343442    0.3238747 -36.57   0.00287111    1.851    0.460
        66 -11.1792    197.8876    135.4737   5.8570754961e+01   1.5332710015e+01    0.7457727    0.2377876 -38.23  0.002541838    2.963    0.662
        67 -12.7903    207.7520    146.8584   5.9261391113e+01   1.1462109463e+01     1.656174    0.4336515 -42.90  0.005384875    3.482    0.713
        68 -11.6740    206.2594    169.1953   6.4166883575e+01   7.6992696657e+00    0.5998747    0.2802318 -45.18   0.00195012    2.125    0.530
        69 -12.3353    192.3694    163.3560   6.5641105934e+01   1.1086684740e+01    0.7736078    0.3240468 -43.32  0.003108283    2.257    0.557
        70 -11.1228    188.3336    156.6373   6.5033096135e+01   1.3070819384e+01    0.3768127    0.2645801 -30.92  0.001178302    1.349    0.259
        71 -12.7926    191.1170    145.1754   6.2003107074e+01   1.4760303289e+01     1.505868     0.632917 -34.45  0.005671212    2.477    0.596
        72 -11.8137    196.5884    156.5660   6.3396053699e+01   1.1626686932e+01    0.6692858    0.3980348 -51.55  0.003001084    1.905    0.475
        73 -12.1336    200.2635    147.7928   6.0829011777e+01   1.2609941474e+01     1.017358    0.3631968 -35.95  0.003651837    2.790    0.642
        74 -14.4506    212.4508    163.4566   6.1873077080e+01   7.7138200945e+00     1.554243    0.8682655 -29.40  0.007496306    1.721    0.419
        75 -11.0399    215.1614    193.7635   6.7272350541e+01   2.1467573263e+00    0.2744481    0.1702789 -48.58  0.001395615    1.955    0.489
        76 -10.4719    132.1895    195.1463   8.5187688355e+01   1.4959724251e+01    0.2208094     0.192051  -5.65  0.001225588    1.189    0.159
        77 -10.9293    179.1500    190.2156   7.3677083531e+01   8.2458909088e+00    0.3318764    0.1900284 -38.86  0.001073975    1.696    0.410
        78 -11.8091    139.1691    187.4801   8.2166861085e+01   1.5428517362e+01    0.5968053    0.2482757 -46.88  0.002298378    2.446    0.591
        79 -11.1866    192.5455    187.3257   7.0382587089e+01   6.6423805353e+00     0.341657    0.2320163 -47.39  0.001312968    1.622    0.384
        80 -11.1979    217.4790    187.1853   6.5619420690e+01   2.8948635826e+00    0.2932541    0.1898245 -34.10  0.001061532    1.372    0.271
        81 -10.8373    129.0987    186.9464   8.4514394008e+01   1.7234587871e+01    0.4377118    0.2096354 -47.87  0.001789456    2.139    0.532
        82 -10.6477    155.9659    185.1407   7.7802286243e+01   1.3073232882e+01     0.496846    0.2087629 -47.78  0.001929542    2.446    0.591
        83 -11.0046    148.6113    186.7750   7.9805967616e+01   1.3982787880e+01     0.281019     0.204923 -42.56  0.001027378    1.392    0.282
        84 -12.6877    147.7842    178.0939   7.8358471201e+01   1.5944212243e+01    0.8295113    0.3893087 -44.16  0.003338844    2.140    0.533
        85 -11.1558    120.0624    183.5324   8.6164367895e+01   1.9502230354e+01    0.7692917    0.2228116 -56.66  0.002274894    4.133    0.758
        86 -10.7205     95.4111    187.0212   9.3085132972e+01   2.2657454006e+01    0.4213129     0.242382  71.62   0.00156811    3.012    0.668
        87 -10.4352     92.7112    182.8401   9.3142144981e+01   2.4059968214e+01    0.2584862    0.1939536 -45.90 0.0008774148    1.413    0.292
        88  -9.7357    110.0343    185.1598   8.8998968139e+01   2.0780746126e+01    0.2484568    0.1717313  -0.38  0.001090298    2.028    0.507
        89  -9.3162     44.3613    182.6918   1.0605880534e+02   3.0601605736e+01    0.1502035    0.0898234  60.57 0.0004903658    1.739    0.425
        90 -11.2468    137.9546    178.1421   8.0728869377e+01   1.7646507383e+01    0.4968022    0.2645046 -45.52  0.001576033    1.899    0.474
        91 -11.2759    218.5851    175.3866   6.3154031579e+01   4.7017087048e+00     0.402932     0.112301 -39.32  0.001445412    3.188    0.686
        92  -9.3959     13.5305    177.0543   1.1364787891e+02   3.5043211732e+01    0.1968017   0.08672811  73.91 0.0008093567    2.579    0.612
        93 -10.7889    159.2132    173.6869   7.4835316808e+01   1.4860448045e+01    0.4353119    0.1978185 -44.64  0.001728243    2.174    0.540
        94  -9.6243      3.3352    173.9990   1.1605619577e+02   3.6598051283e+01    0.2228813   0.07258949  76.47 0.0007051954    4.420    0.774
        95 -10.7805    142.1245    171.6311   7.8450741199e+01   1.8332661764e+01    0.2968141    0.2107835 -37.65 0.0008799055    1.430    0.301
        96 -10.2032    154.6617    240.5563   8.7218566470e+01   2.9717855624e+00       0.1972    0.1181333 -46.46 0.0009971206    1.912    0.477
        97 -10.1198    118.8996    153.4697   8.0685710783e+01   2.6687821665e+01    0.4697034    0.2262005 -53.47  0.001776338    2.130    0.531
        98 -10.8356    144.5465    153.0734   7.3999832792e+01   2.1970585864e+01    0.3876065    0.2354079 -33.95  0.001635877    1.795    0.443
        99  -9.6606     68.6396    154.3236   9.5273553840e+01   3.4726906310e+01    0.1604782    0.1081027  65.34 0.0007042856    1.779    0.438
       100 -11.8541    222.6615    146.8021   5.6687951987e+01   8.9458405411e+00    0.4489751    0.2057723 -35.93  0.002015863    1.917    0.478
       101 -10.6442    132.7933    150.4701   7.6381413013e+01   2.4793799723e+01    0.5675389    0.2755182 -48.07  0.002179861    2.040    0.510
       102 -10.9552    159.9036    238.7986   8.5868953512e+01   2.5342660731e+00    0.2497262    0.1759185 -59.81  0.001409376    2.052    0.513
       103  -9.7966    151.6001    151.7478   7.2007847263e+01   2.0913558664e+01    0.2110734    0.1432356 -54.07 0.0008302446    1.590    0.371
       104 -10.6767    182.0869    149.6351   6.4789030269e+01   1.5569022146e+01    0.4255937    0.2039076 -39.57  0.001347591    1.968    0.492
       105 -11.4513    151.6646    159.7142   7.3713659036e+01   1.9179775313e+01     0.471992    0.2844079 -47.52  0.001519071    1.661    0.398
       106  -9.8426     29.4906    150.9728   1.0661833252e+02   4.0225903434e+01     0.203417    0.1044415  77.89 0.0008097698    2.500    0.600
       107 -10.3103    162.2128    149.0611   6.8950640076e+01   1.9449196648e+01    0.3667739    0.2061745 -43.82    0.0015621    1.718    0.418
       108 -10.4021     50.6808    155.7249   1.0087635787e+02   3.6706886136e+01    0.4315251    0.1472553  51.14  0.001295374    4.172    0.760
       109  -9.9364    142.5525    147.7843   7.3323691492e+01   2.3527226768e+01    0.3746499    0.1494683 -49.22  0.001288145    2.542    0.607
       110 -10.2814    215.7036    147.4196   5.7987423322e+01   9.9983716870e+00    0.3245099    0.1640314 -47.17  0.001209329    1.985    0.496
       111 -10.1834    127.8804    157.4656   7.9147054766e+01   2.4103903138e+01    0.3202298    0.1904648 -35.36  0.001186541    1.897    0.473
       112 -10.8214     57.1120    146.4778   9.7480044113e+01   3.8313192533e+01    0.5318037     0.261353  59.04  0.001908308    2.951    0.661
       113 -10.3655     39.7107    147.7959   1.0308329056e+02   4.0019527635e+01    0.3652202    0.2010155  58.98  0.001565751    2.164    0.538
       114 -10.5436    175.6188    144.7972   6.5064440394e+01   1.7750692809e+01    0.3797819    0.2093996 -35.34  0.001414553    1.805    0.446
       115  -9.5414     13.4853    146.4856   1.1093641373e+02   4.2755866510e+01    0.1349824    0.1155651  89.44 9.331664e-05    1.050    0.048
       116 -11.7043    148.5961    140.8795   7.0277237611e+01   2.3864779327e+01    0.9216323    0.3194771 -42.10  0.002973434    2.898    0.655
       117 -12.1370    206.0430    160.9412   6.2525759233e+01   9.2118863395e+00    0.6536239     0.399957 -27.28  0.002776923    1.609    0.378
       118 -10.6606    165.6107    141.9665   6.6590194107e+01   2.0268903041e+01     0.518539    0.2487945 -35.68  0.001976031    2.207    0.547
       119 -10.1020    230.5129    142.4933   5.4536352693e+01   8.3971991088e+00     0.269947    0.1790709 -43.35 0.0008970539    1.363    0.266
       120 -10.6302    229.7586    138.7215   5.3874454406e+01   9.1538404030e+00    0.2930478    0.1361746 -43.71  0.001022027    1.913    0.477
       121 -10.7735    182.1459    140.3211   6.2706246061e+01   1.7388966995e+01     0.425283    0.2545319 -33.61  0.001444549    1.649    0.394
       122  -9.8630    124.5116    142.0328   7.6679222480e+01   2.8329539818e+01    0.2244308    0.1407092 -74.47 0.0008101749    2.643    0.622
       123 -10.8655    224.8858    139.3889   5.4781024060e+01   9.8479404285e+00     0.377183     0.162745 -35.51  0.001633458    2.059    0.514
       124 -10.7207    219.6550    135.8992   5.4888092807e+01   1.1338194490e+01    0.3538395    0.1664575 -30.62  0.001374379    2.186    0.542
       125  -9.4702    216.5050    138.4897   5.5960621642e+01   1.1431059822e+01     0.180178    0.1294602  29.82 0.0002977964    1.618    0.382
       126  -9.8771    215.4510    135.0321   5.5395057588e+01   1.2222963866e+01    0.5601681    0.2346435 -27.50  0.001956422    3.367    0.703
       127 -10.5475    172.0648    136.4567   6.3920113022e+01   2.0125422767e+01    0.4465975    0.2122749 -42.33  0.001768091    1.991    0.498
       128 -10.1983    187.8545    134.3818   6.0225377602e+01   1.7444953949e+01    0.3704914     0.182168 -38.60  0.001282155    1.897    0.473
       129 -10.0669     39.4206    136.3097   1.0148485272e+02   4.3058134304e+01    0.2488532    0.1570559  50.61 0.0009839205    1.737    0.424
       130 -10.1026    162.6275    134.3046   6.5478878028e+01   2.2454604062e+01    0.3324119     0.180346 -36.36  0.001300005    1.875    0.467
       131 -11.2832    167.9491    155.0824   6.8990604965e+01   1.7111779310e+01    0.6346603    0.3132296 -36.79  0.002537617    2.064    0.516
       132 -11.3323    225.7411    132.9451   5.3290574578e+01   1.0802723855e+01    0.3679565      0.21412 -13.80  0.001571851    2.720    0.632
       133 -10.6305    179.4490    132.1064   6.1374365834e+01   1.9531388856e+01    0.4256724    0.2436379 -36.77  0.001509789    1.678    0.404
       134 -10.4679    212.1226    129.4375   5.4734795021e+01   1.3806022623e+01    0.5497493    0.1555242 -38.81  0.001857409    3.149    0.682
       135 -10.7031    204.5576    129.4122   5.6021854556e+01   1.5202046132e+01    0.3432099    0.2484442 -49.66  0.001805382    1.369    0.270
       136 -10.6947    142.8686    128.5357   6.8745539896e+01   2.7727368479e+01    0.5367484    0.2065463 -40.33  0.001772455    2.699    0.630
       137 -10.5884    131.1173    127.9112   7.1589858077e+01   3.0275256145e+01    0.6050049    0.1977258 -45.83  0.001870413    2.998    0.666
       138 -10.1319     12.6217    128.9455   1.0926848894e+02   4.7350743989e+01    0.3571537    0.1727519  77.32  0.001444855    2.682    0.627
       139 -10.8276    204.3774    154.1735   6.1423921973e+01   1.0718895798e+01    0.5069243    0.2558656 -33.21   0.00182163    1.901    0.474
       140  -9.7949    186.5309    128.6496   5.9166963845e+01   1.8804073604e+01    0.2705138    0.1340539 -36.30 0.0009715561    1.951    0.487
       141 -10.4747    168.4483    127.4120   6.2565838830e+01   2.2687085646e+01    0.4636842    0.2434489 -33.52  0.001839972    2.045    0.511
       142 -10.5930    152.6759    126.5182   6.5889377456e+01   2.6131710117e+01    0.5757971    0.1907618 -41.81  0.001814938    2.978    0.664
       143 -11.9667    228.3797    124.4474   5.1087489502e+01   1.1786895789e+01    0.4541207    0.1539953 -35.29  0.001718639    2.743    0.635
       144 -10.5357    193.0722    128.8014   5.7957929591e+01   1.7497613178e+01    0.3586446    0.2169139 -28.27  0.001255062    1.770    0.435
       145 -10.5487     23.6037    138.4302   1.0688589066e+02   4.4024909568e+01    0.4046558    0.1870194  62.20  0.001549363    2.949    0.661
       146 -10.5623     60.1112    124.9909   9.2556194969e+01   4.3509113219e+01    0.5307378    0.2846868  67.36  0.001754171    3.607    0.723
       147 -11.1227     44.3818    123.3945   9.7637538834e+01   4.5891445670e+01    0.6688101    0.3658136  73.56  0.002438938    3.125    0.680
       148 -11.0805     28.5934    122.3751   1.0294801924e+02   4.7774053552e+01     0.767746     0.349751  71.82  0.002354996    4.676    0.786
       149  -8.8862    200.2851    124.3471   5.5632456807e+01   1.6933095720e+01    0.1425167    0.1067228  -8.86 0.0005055735    1.650    0.394
       150 -10.6649    180.2158    122.5144   5.8965306109e+01   2.1253357922e+01     0.426132    0.2707392 -22.12  0.001845213    1.970    0.492
       151 -10.1516     84.2572    132.6898   8.6306759309e+01   3.7890844483e+01    0.3763496    0.2146504  59.67  0.001390593    2.549    0.608
       152 -10.1505    188.4804    122.4875   5.7359303286e+01   1.9591456167e+01    0.3057901    0.1335073 -40.06  0.001193553    2.109    0.526
       153  -9.9739    194.5761    120.7760   5.5833554540e+01   1.8701399590e+01    0.3453478    0.1258892 -42.35   0.00125791    2.485    0.598
       154  -9.8800    202.9855    120.8668   5.4370545857e+01   1.7046713093e+01    0.2599089    0.1851805 -37.84 0.0009791423    1.257    0.205
       155 -10.0801    158.3595    118.8852   6.2696646097e+01   2.6533059393e+01    0.3811028    0.2317114 -24.85  0.001525472    2.124    0.529
       156 -11.7803    221.2048    128.6403   5.3085703859e+01   1.2323622919e+01    0.4274749    0.2228471 -23.29  0.001782561    2.536    0.606
       157  -9.4328     72.0073    120.6786   8.7616159235e+01   4.2887067920e+01    0.2549639   0.09590194  50.29  0.000704852    4.282    0.766
       158  -9.4813    209.0000    117.9660   5.2703524081e+01   1.6415597110e+01     0.230296   0.07101142 -39.26 0.0006676383    2.861    0.651
       159 -10.0289      2.9160    116.7340   1.1109368797e+02   5.1101400903e+01    0.4222991     0.151387  83.64  0.001262916    5.001    0.800
       160 -10.2861    134.3831    170.0326   8.0040995003e+01   2.0066265655e+01    0.3730251    0.1788444 -49.61  0.001463019    2.112    0.527
       161 -10.8936    199.1163    169.3002   6.5542048894e+01   8.8475041229e+00    0.3721901     0.182301 -37.63  0.001176512    1.880    0.468
       162 -10.0972    172.3376    119.4025   5.9811346684e+01   2.3486099041e+01    0.3108341    0.2215259 -30.63  0.001401754    1.435    0.303
       163 -10.2717    192.9600    113.6903   5.4466590768e+01   2.0330354019e+01    0.3879713    0.2027876 -34.11  0.001394078    1.891    0.471
       164 -10.1166    185.8582    114.0063   5.5842219072e+01   2.1720684156e+01    0.3526801    0.1920343 -31.05   0.00129029    1.977    0.494
       165 -10.3133     80.2504    113.8797   8.3247910349e+01   4.3261213776e+01    0.3440747    0.2256976  80.52  0.001294124    2.701    0.630
       166  -9.9454     93.4245    113.2794   7.8805381294e+01   4.1089404371e+01     0.276765    0.1906302  58.66  0.001087263    1.802    0.445
       167 -10.5212     14.2561    110.1753   1.0618582900e+02   5.2077774374e+01    0.4094115    0.2210958 -87.26  0.001844038    2.076    0.518
       168 -10.2923     67.2311    111.4099   8.7101038303e+01   4.5946990764e+01    0.2144362    0.1364666  43.81 0.0006169316    1.698    0.411
       169  -9.5941    159.1883    109.2241   6.0062993606e+01   2.8313686228e+01    0.3456326    0.1145351 -35.93  0.001014998    3.533    0.717
       170 -11.1951    168.1284    167.4261   7.1561460306e+01   1.4558219805e+01    0.5682685    0.2572756 -43.82  0.002264713    2.147    0.534
       171  -9.6253    182.5736    107.7507   5.4941210426e+01   2.3573834179e+01    0.2755518     0.135925 -36.42  0.001115232    1.972    0.493
       172  -9.7845    189.3539    106.2561   5.3336187760e+01   2.2428727737e+01    0.2883351    0.1290988 -35.80  0.001125175    2.187    0.543
       173 -11.8182     45.0223    101.8351   9.2996272539e+01   5.1339318089e+01    0.7033958    0.4057879  76.99  0.002504885    3.517    0.716
       174 -11.3731     22.8400    102.0009   1.0159161725e+02   5.3515254440e+01    0.7699898    0.3934485  73.83  0.002790066    3.621    0.724
       175  -9.1705    167.4887    111.4986   5.8863545898e+01   2.6069022904e+01    0.1500584    0.1418168 -23.26 -1.376392e-05    1.065    0.061
       176 -11.5804    149.6463    167.7029   7.5854128294e+01   1.7831347089e+01    0.4988733    0.2742623 -46.20  0.001815479    1.812    0.448
       177  -9.6073    108.4859     98.5235   7.0143231220e+01   4.1535308224e+01    0.1534639    0.1509327 -81.64 0.0008090255    1.072    0.067
       178 -11.5346     64.3488     96.5863   8.4394384119e+01   5.0015349138e+01    0.5003591    0.3188342  72.52  0.001896551    2.958    0.662
       179  -9.6800     43.4734     92.4834   9.1383739680e+01   5.3833000943e+01    0.1447845    0.1287109 -37.64 -6.596469e-05    1.028    0.027
       180 -10.8057     34.9135     89.5709   9.4147582134e+01   5.5494001155e+01    0.4628824    0.2510931 -76.07  0.001905901    2.458    0.593
       181  -9.9539    174.6166    109.7157   5.6963837956e+01   2.4890042195e+01    0.4009229    0.1753645 -36.04  0.001487976    2.326    0.570
       182 -10.5434     86.9459     86.9804   7.3575268955e+01   4.8346651689e+01    0.2423865    0.1928953  82.19  0.001133352    1.766    0.434
       183 -11.4912     49.1782     84.5808   8.7008916990e+01   5.5010336134e+01    0.5887885    0.3827857  74.27  0.002375299    2.930    0.659
       184  -9.9902     75.3335     81.6533   7.6012905932e+01   5.1634171354e+01    0.1495652    0.1204873  81.96 0.0007049142    1.768    0.434
       185  -9.7146    144.8333    232.7130   8.8188997751e+01   5.7062929832e+00    0.2220154    0.1734312  80.45  0.001223475    2.082    0.520
       186 -10.3304    121.3158    168.9822   8.3165705117e+01   2.2616438116e+01    0.3679295    0.2574181  87.60  0.001538076    2.287    0.563
       187 -11.1652     83.0468     73.2630   7.0555226503e+01   5.1972360923e+01    0.3554348    0.2488691  84.04   0.00141958    2.789    0.641
       188 -10.8548    121.4989    164.9849   8.2338997592e+01   2.3512683995e+01    0.4512383    0.3143706 -26.59  0.002023059    1.735    0.424
       189 -11.3674     51.6322     69.3689   8.1407674766e+01   5.8089850281e+01    0.5108709    0.2841581 -68.08  0.001949662    3.110    0.678
       190  -9.9489     16.5356     69.2778   9.7255495322e+01   6.1957269973e+01    0.3293713    0.1083133 -59.89  0.001300293    2.548    0.608
       191 -10.4124     37.0569     63.5830   8.5982298532e+01   6.1241708150e+01    0.2599742    0.1956069 -68.65  0.001385347    1.677    0.404
       192 -11.4659     73.6317     59.9968   6.9341367090e+01   5.6332356946e+01    0.3295587    0.2467989 -57.52   0.00165438    1.669    0.401
       193  -9.3159      8.5116     80.5214   1.0341039751e+02   5.9840049998e+01    0.1316236    0.1118695 -52.07 0.0001680255    1.024    0.023
       194  -9.5340      7.3268     56.8203   9.8562651788e+01   6.5397803467e+01    0.2490064    0.1149363 -72.00   0.00108099    2.638    0.621
       195 -10.8150     63.0035     54.8001   7.1538738729e+01   5.9206303299e+01    0.2476387    0.1798704 -53.06 0.0008493735    1.643    0.391
       196 -11.0016     54.4868     53.9960   7.4786335225e+01   6.0766852820e+01    0.3079319    0.1333719 -50.73  0.001209085    2.676    0.626
       197 -10.1660     44.1440     54.9010   7.9725469847e+01   6.2125548508e+01     0.324708    0.1736606 -50.96  0.001501429    1.947    0.486
       198 -10.8575     45.2523     49.3643   7.7133848440e+01   6.3037441933e+01    0.2732785    0.2173685 -28.03 0.0002710772    1.162    0.140
       199 -10.0555     31.1335     51.2873   8.4648394380e+01   6.4488227952e+01    0.2303907    0.1780405 -82.80  0.001093449    2.108    0.526
       200 -11.1475     82.0080     47.2538   6.1561325523e+01   5.6899119535e+01    0.2038139    0.1815696  31.97 0.0009615571    1.055    0.052
       201 -10.4192     64.5498     46.9565   6.7872424976e+01   6.0325111928e+01    0.3110051    0.1616033  24.73  0.001266952    2.458    0.593
       202 -10.9272    157.4783    154.6183   7.1257122177e+01   1.9178915086e+01    0.4171177    0.2457103 -40.23  0.001541445    1.664    0.399
       203 -11.8299    138.9672    162.2447   7.7325586014e+01   2.0976471632e+01    0.6947927    0.3688101 -44.56  0.002854407    1.876    0.467
       204  -9.8004     16.7581     42.7196   8.9116315515e+01   6.7661739177e+01    0.3853453   0.07844037 -52.51  0.001323906    3.839    0.740
       205 -11.1184     58.0227     42.0439   6.8537418776e+01   6.2303739269e+01      0.28917    0.1916934 -61.43  0.001321757    2.586    0.613
       206 -11.7629     69.3133     41.3484   6.3752060558e+01   6.0354820108e+01    0.2817473    0.2421013 -78.49  0.001571551    1.706    0.414
       207 -10.4986    113.8435     41.1931   5.0125965613e+01   5.0705886950e+01    0.2047215    0.1871045 -86.80 0.0004546618    1.192    0.161
       208  -9.7151      5.0000     41.0191   9.5183770245e+01   6.8903243319e+01    0.2027112   0.06120825 -59.14 0.0008072886    2.976    0.664
       209 -11.3815     84.3220     39.8772   5.7905015600e+01   5.7542412588e+01     0.278308    0.1877047  40.52 0.0007292801    1.375    0.273
       210  -9.9280     36.5303     40.5111   7.7786851481e+01   6.5876550460e+01    0.1310884    0.1130899  -8.34 0.0004506729    1.037    0.036
       211 -11.2118    159.5896    162.4758   7.2450906966e+01   1.7126601583e+01     0.453267    0.2792524 -43.42  0.002011065    1.586    0.370
       212 -10.7655     60.4009     32.2561   6.3352199115e+01   6.3402072545e+01    0.1793325    0.1226294 -41.27  0.000953954    1.662    0.398
       213 -12.5179     72.1937     29.2823   5.7600746508e+01   6.1528935037e+01    0.5037431    0.2268471 -24.81  0.002119514    2.621    0.618
       214 -10.3671     27.4953     30.0366   7.7995390772e+01   6.8864905365e+01    0.3185698   0.08359176 -36.49  0.001040976    4.417    0.774
       215 -11.6976    177.5880    158.6888   6.7683246233e+01   1.4606526289e+01    0.5841514    0.2736597 -43.00  0.002010776    2.033    0.508
       216 -10.1268    110.5007     24.4896   4.4913878127e+01   5.3565174534e+01    0.1355214    0.1216598  55.76 0.0003196792    1.005    0.005
       217 -10.1276    236.7030    229.4535   6.9713887280e+01  -5.9317969342e+00    0.2154337     0.115371 -16.20  0.001212558    1.806    0.446
       218  -9.4435     40.9741     21.2994   6.6802458877e+01   6.8302189803e+01    0.1753029    0.1392186  15.76 0.0002516462    1.077    0.072
       219 -10.9991     63.4808     20.4979   5.6799942749e+01   6.4376542270e+01    0.2233135    0.1122228 -40.51  0.001037668    2.392    0.582
       220 -10.2213     40.8452     14.1111   6.3181387754e+01   6.9271720740e+01    0.2117814    0.1525764  22.14  0.000255358    1.203    0.169
       221 -11.2309    229.7081    228.8474   7.0820018266e+01  -5.0386746191e+00    0.1915971    0.1532649  46.03 0.0009406814    2.089    0.521
