#   1 NUMBER                 Running object number                                     
#   2 MAG_AUTO               Kron-like elliptical aperture magnitude                    [mag]
#   3 X_IMAGE                Object position along x                                    [pixel]
#   4 Y_IMAGE                Object position along y                                    [pixel]
#   5 X_WORLD                Barycenter position along world x axis                     [deg]
#   6 Y_WORLD                Barycenter position along world y axis                     [deg]
#   7 A_WORLD                Profile RMS along major axis (world units)                 [deg]
#   8 B_WORLD                Profile RMS along minor axis (world units)                 [deg]
#   9 THETA_WORLD            Position angle (CCW/world-x)                               [deg]
#  10 FWHM_WORLD             FWHM assuming a gaussian core                              [deg]
#  11 ELONGATION             A_IMAGE/B_IMAGE                                           
#  12 ELLIPTICITY            1 - B_IMAGE/A_IMAGE                                       
         1 -14.7220    154.3292     47.5957   8.6996943341e+01   4.0644059870e+01     1.304118     1.110224 -16.21  0.003517573    1.128    0.113
         2 -14.7237    164.4704     16.4228   7.4080325746e+01   4.1940259552e+01     1.068185    0.9825589 -63.00  0.003648096    1.159    0.137
         3 -13.1175    189.1753     13.6103   6.9984357561e+01   3.5898353903e+01    0.5095995    0.2951579 -46.23  0.001808579    1.760    0.432
         4 -10.8968    181.4908    148.0037   1.0883676983e+02   1.8122966999e+01    0.1952387    0.1284307 -34.78 0.0009826261    1.553    0.356
         5 -20.5180     89.0811    184.1517   1.3489224300e+02   2.6262062616e+01     12.80159     6.627326 -65.09   0.06900385    2.176    0.540
         6 -12.9052    175.8079    142.1978   1.0877444364e+02   2.0081122934e+01    0.3102286    0.2484615  10.50   0.00115808    1.181    0.153
         7 -12.4894      8.3328    137.0599   1.4989198437e+02   4.4177852996e+01    0.6574947    0.3059137 -17.87  0.002637099    5.300    0.811
         8 -10.9221     13.3309    239.9306   1.5304606942e+02   2.4626371557e+01    0.1204514    0.1019746  64.36 0.0008484861    1.256    0.204
         9 -10.9354    218.0104    219.0112   1.1465540917e+02   3.2250203896e+00     0.198371    0.1246282 -32.06 0.0009413461    1.904    0.475
        10 -10.8483     24.5407    215.2099   1.5025600406e+02   2.7609653987e+01    0.1266791   0.09949946  54.73 0.0003933842    1.086    0.079
        11 -13.7924    160.7063    128.3203   1.0894716488e+02   2.5282208148e+01    0.4869058    0.4835122   8.06  0.001979462    1.195    0.163
        12 -13.2305     11.6605    205.8129   1.5227607264e+02   3.0298012082e+01     0.404687    0.2621454  19.31  0.002558968    1.942    0.485
        13 -12.5386     25.8170    201.0514   1.4939022566e+02   2.9951364385e+01    0.2444298    0.1665515 -64.19 0.0008313242    1.716    0.417
        14 -12.5993    142.3820    121.6687   1.1165387048e+02   3.0020776918e+01    0.5191169    0.2969073  62.81  0.001612704    3.180    0.686
        15 -11.0827     23.8192    191.1416   1.4930844104e+02   3.1930742366e+01    0.1697569    0.1435114 -58.93  0.001074526    1.502    0.334
        16 -11.7404    163.6463    242.7262   1.2707266971e+02   7.6887120530e+00    0.3916317    0.2155309  11.19  0.002258156    2.442    0.591
        17 -10.7337     15.9159    187.2979   1.5072772230e+02   3.3307989839e+01    0.2559647    0.1661158 -15.48  0.001545488    2.949    0.661
        18 -11.2105    242.0677    184.5153   1.0503043038e+02   3.6362064973e+00    0.1647095   0.09716204  31.72 0.0005398866    1.525    0.344
        19 -11.1062    218.3358    179.2989   1.0803618484e+02   7.6806398934e+00     0.129236   0.07764966   9.64 0.0004507976    1.655    0.396
        20 -12.7047    230.4162    167.5120   1.0377416775e+02   7.2800821624e+00    0.3631448    0.1949114 -39.72  0.001878655    2.369    0.578
        21 -10.9236    205.5068    110.0526   9.5517999165e+01   1.9455158574e+01    0.2637026    0.2037846  34.47 0.0006592361    1.301    0.232
        22 -11.5922    196.5527    232.3395   1.2014744168e+02   4.6160541270e+00    0.1632926    0.1026858 -36.65 0.0008276465    2.037    0.509
        23 -10.2907     21.8385    231.8777   1.5136821574e+02   2.5143266144e+01   0.09806526    0.0725174  49.40 0.0002676186    1.109    0.098
        24 -11.1746     38.3979    102.2293   1.3773574700e+02   4.9989298946e+01    0.2164298    0.1830977  16.41  0.001258222    1.402    0.287
        25 -12.4658    199.1482    225.8558   1.1882173672e+02   4.9775169907e+00    0.2549012    0.1463307 -31.80  0.001618399    2.015    0.504
        26  -9.9092    214.4423    155.2245   1.0409059625e+02   1.1387288853e+01    0.1722817    0.1134351 -37.55 0.0009425882    1.731    0.422
        27 -11.6002     18.5028    153.9929   1.4842015456e+02   3.9773786995e+01    0.2625153    0.1546382 -52.08  0.001348443    2.001    0.500
        28 -13.6998    174.3442    149.5646   1.1061551543e+02   1.9140751985e+01    0.5958348    0.3653943 -49.87  0.002879963    2.116    0.527
        29 -13.1285     28.6486    145.3406   1.4531802633e+02   4.0819366234e+01    0.4623479    0.3044593 -59.58  0.002854844    1.559    0.358
        30 -12.0800    140.8013     82.3135   1.0154167755e+02   3.7946847308e+01    0.4966301    0.2390239 -26.96  0.001467114    2.516    0.602
        31 -10.7417    108.9799     83.0111   1.1045849860e+02   4.4407377632e+01    0.2215267    0.2105673 -22.77  0.000330465    1.011    0.011
        32 -11.9334     60.5711     82.9858   1.2643484702e+02   5.2247800106e+01    0.2501998    0.2119826  27.20 0.0004819871    1.310    0.237
        33 -14.7130    144.3483     62.0733   9.4191416070e+01   4.0768839025e+01     1.237072     1.067226 -21.72   0.00108394    1.103    0.094
        34 -12.3627    189.5966    249.0868   1.2343136443e+02   3.7515212020e+00    0.4371895    0.1170575  38.07  0.002108315    2.866    0.651
        35 -13.4429    158.1120     38.3311   8.2985041599e+01   4.0995875425e+01     0.534962    0.4961692  52.09 0.0008774635    1.122    0.109
        36 -11.1138     19.5881    148.3019   1.4779129900e+02   4.0909614010e+01    0.3460141     0.191194 -27.27  0.001706627    3.321    0.699
        37 -11.3513     13.3333     59.7603   1.4013828005e+02   6.2256027507e+01    0.2072276    0.1700628  89.80  0.000456579    1.230    0.187
        38 -11.7718      2.0010     26.9586   1.3878142990e+02   7.0616740083e+01    0.2526798     0.160125 -45.95 0.0007332193    1.292    0.226
        39 -12.7977    182.2327    245.9033   1.2427686103e+02   4.9951624902e+00    0.2364984    0.2035396  43.17 0.0006761408    1.575    0.365
