#   1 NUMBER                 Running object number                                     
#   2 MAG_AUTO               Kron-like elliptical aperture magnitude                    [mag]
#   3 X_IMAGE                Object position along x                                    [pixel]
#   4 Y_IMAGE                Object position along y                                    [pixel]
#   5 X_WORLD                Barycenter position along world x axis                     [deg]
#   6 Y_WORLD                Barycenter position along world y axis                     [deg]
#   7 A_WORLD                Profile RMS along major axis (world units)                 [deg]
#   8 B_WORLD                Profile RMS along minor axis (world units)                 [deg]
#   9 THETA_WORLD            Position angle (CCW/world-x)                               [deg]
#  10 FWHM_WORLD             FWHM assuming a gaussian core                              [deg]
#  11 ELONGATION             A_IMAGE/B_IMAGE                                           
#  12 ELLIPTICITY            1 - B_IMAGE/A_IMAGE                                       
         1 -13.5992     60.2802    131.4671   8.7047622883e+01   4.1004038681e+01     2.380506      1.07777 -74.54   0.01061989    2.322    0.569
         2 -12.8220    202.6845     45.8592   3.1554303645e+01   2.8330227271e+01     1.042301     1.018798 -30.76  0.003173258    1.065    0.061
         3 -13.3213    213.1886     36.8968   2.7429783555e+01   2.6826631449e+01     1.041933    0.8307543  34.95  0.001531295    1.439    0.305
         4 -12.9458    239.7734     11.6792   1.7610594012e+01   2.3181281234e+01    0.9578515    0.8637606 -69.01  0.004298318    1.030    0.029
         5 -11.0545     11.3597     13.2622   7.5248201089e+01   7.0096690641e+01    0.3347498   0.09042157 -38.52  0.001489072    3.071    0.674
         6 -10.5612     55.2736      4.9024   5.2514833246e+01   6.6720911010e+01    0.1862213     0.158698  27.77  0.000608973    1.353    0.261
         7 -15.1950      9.0789    209.0255   1.0418017328e+02   3.0690895335e+01    0.9674218    0.9016787 -87.65  0.008813467    1.705    0.413
         8 -11.1515    140.0082    249.2780   8.6133946903e+01   6.6321174844e+00    0.3390088    0.1969477  60.80  0.002115049    1.584    0.369
         9 -11.1138    125.9132    249.6304   8.8457006341e+01   8.7940617157e+00    0.3415512    0.1427472  46.07  0.001686035    1.812    0.448
        10 -10.0818    124.8310    244.3645   8.8111953164e+01   9.7226489718e+00    0.2450885    0.0973761 -63.73  0.001222635    3.456    0.711
        11 -11.1786    106.1996    248.7881   9.1538983532e+01   1.1903454382e+01    0.3096829    0.1805264  61.52  0.001524786    1.373    0.272
        12 -11.7971    112.4827    242.4062   8.9943199294e+01   1.1919228360e+01    0.3388194    0.3276538 -50.69  0.002740297    1.601    0.376
        13 -14.7381     35.9570    188.1707   9.8359192838e+01   3.1847382265e+01     6.360252     1.959822  67.77   0.02046319    6.482    0.846
        14 -15.4717      6.9527    149.3184   1.0084444648e+02   4.2454230952e+01     8.191811     1.126875 -75.73   0.02575252    6.130    0.837
        15 -13.5628     53.5558    229.3850   9.8389409094e+01   2.2230784359e+01    0.5860903    0.3768447  74.70  0.001037967    1.172    0.147
        16 -17.0372      9.7248    239.4790   1.0546968457e+02   2.5436050842e+01     4.334923     1.793432  34.08   0.01240678    3.728    0.732
        17  -8.4562     89.9780    201.9685   8.9768369714e+01   2.2174526918e+01    0.1436757    0.1137219  73.94 0.0003674211    1.027    0.027
        18 -10.8887    192.6735    194.4516   6.9284304813e+01   5.4011848359e+00    0.7566757    0.4009542 -64.07  0.002646197    5.002    0.800
        19 -10.8260    142.2644    221.7819   8.2595816105e+01   1.0306307850e+01      0.26278    0.1484058  39.99  0.001452025    1.639    0.390
        20  -9.1646     83.2188    194.9770   9.0273679691e+01   2.4492190444e+01    0.2171383    0.1504352  54.64  0.001077239    1.261    0.207
        21  -8.7323     54.6677    190.9618   9.5190499661e+01   2.9115865919e+01    0.1564506    0.1139771 -89.90 0.0002816244    1.135    0.119
        22 -11.4566     35.5350    170.7464   9.6995790640e+01   3.5378292784e+01    0.6757433    0.3450867  72.31  0.003854424    1.870    0.465
        23 -10.7184     44.0453    174.8185   9.5719353956e+01   3.3607011530e+01    0.3755006    0.2477271  74.62  0.001549889    1.263    0.208
        24 -12.5681     51.5344    181.8323   9.4938563454e+01   3.1307730769e+01    0.6508571    0.4805268  83.26  0.002864775    1.054    0.051
        25 -11.0622     60.2239    177.4350   9.2827989708e+01   3.1118306842e+01    0.3005607    0.2200473 -76.10 0.0006037393    1.251    0.200
        26 -10.6643     99.1750    181.1612   8.5518477989e+01   2.4774915380e+01    0.2901506    0.2395175 -70.25  0.001289031    1.263    0.208
        27 -10.6046    106.8552    236.9151   9.0348198468e+01   1.3621005123e+01    0.1595863    0.1311415  55.28 0.0004522212    1.232    0.188
        28 -10.2892    120.6740    180.2161   8.1043143231e+01   2.1373040476e+01     0.233793    0.1794359  77.32 0.0008092015    1.278    0.217
        29  -9.9567     72.5780    177.5007   9.0393925147e+01   2.9465716675e+01    0.2598886    0.1644829  80.28 0.0006462557    1.513    0.339
        30 -13.0504     98.9962    169.6582   8.3979073146e+01   2.7139304486e+01     2.535256    0.6279026  53.58   0.00651615    6.858    0.854
        31  -9.4756     75.3596    247.6154   9.6270490000e+01   1.6439058573e+01     0.328559    0.0859385 -59.48  0.001541707    4.549    0.780
        32 -12.1247     65.1740    167.8886   9.0785278011e+01   3.2451704096e+01    0.5843669    0.3425266  52.23  0.003373942    1.593    0.372
        33 -11.3830     71.0625    164.1096   8.9106613162e+01   3.2459610532e+01    0.2783467    0.2549133 -69.49  0.001913536    1.324    0.245
        34 -10.2336     85.9697    171.4154   8.6932364462e+01   2.8795411975e+01     0.374042    0.3280199 -87.08  0.001710185    1.141    0.124
        35 -11.4621     79.3861    156.4840   8.6312666038e+01   3.2921684644e+01    0.4041656    0.3486513 -72.99  0.002617327    1.179    0.152
        36 -10.6971    241.9651    169.4916   5.5650014101e+01  -3.9558820759e-01     0.207498    0.1211659  43.47  0.001043138    1.621    0.383
        37  -9.2141    110.4806    167.1356   8.1181084129e+01   2.5757203042e+01    0.2205659    0.1627481  73.24  0.001227997    1.333    0.250
        38  -9.0836     53.4321    161.9084   9.2529411216e+01   3.5190570172e+01    0.1934283    0.1537853  44.08 0.0009411607    1.463    0.316
        39  -8.5384    100.4659    161.5107   8.2463086267e+01   2.8603004839e+01     0.135821     0.113532  79.79 0.0001469768    1.061    0.057
        40  -9.5907     39.7638    160.8322   9.5226883120e+01   3.6980735422e+01    0.1934909    0.1651625 -80.44 0.0006570948    1.243    0.195
        41 -11.1447    133.7525    145.6213   7.2308963566e+01   2.5978929963e+01     1.166101    0.2941017 -55.99  0.002902879    6.089    0.836
        42 -11.7343     86.8543    150.2165   8.3733746347e+01   3.3175649101e+01    0.5350711    0.4328591 -19.48  0.001752485    2.005    0.501
        43  -9.3583    174.8092    149.1133   6.4130103658e+01   1.6774287313e+01     0.224584    0.2010733  84.29 0.0007511357    1.233    0.189
        44  -9.7524     47.6131    145.0337   9.1817362444e+01   3.9499704099e+01    0.2733013    0.1493837  74.65  0.001421598    2.026    0.506
        45 -10.5037     31.9967    144.0538   9.5135265184e+01   4.1356948718e+01    0.4131637    0.1784255  44.70  0.002226549    2.334    0.571
        46 -10.5846    101.3692    136.9541   7.8133780235e+01   3.3770596193e+01    0.4935951    0.3452418 -23.90  0.002276557    2.470    0.595
        47  -9.7441    105.5444    130.6292   7.5928068375e+01   3.4456635299e+01    0.3297635    0.2587982 -63.46  0.001391581    1.208    0.172
        48 -11.5985     88.5622    135.9800   8.1004572469e+01   3.6054921683e+01    0.2782184    0.2330581 -74.02 0.0004160269    1.078    0.073
        49 -10.4902     22.9581    136.8609   9.6359950562e+01   4.3748525359e+01     0.218432     0.194299  31.43  0.001046638    1.551    0.355
        50 -10.4243    135.7418    129.4452   6.8485589217e+01   2.9000244787e+01     0.418248    0.1665199 -46.06  0.001514036    2.562    0.610
        51 -11.1181     43.4215    129.5691   9.0804423834e+01   4.3362552506e+01    0.2922737    0.2457733  59.80  0.001475092    1.280    0.219
        52 -11.0152     22.2721    129.6638   9.5748918952e+01   4.5363688068e+01    0.2314251    0.1859038 -57.00  0.001670033    1.391    0.281
        53  -9.5193    110.6472    128.3548   7.4235324364e+01   3.4057802866e+01    0.2535166    0.2391896 -26.72  0.001001487    1.268    0.212
        54  -8.6701    142.4938    125.0020   6.5912240081e+01   2.8541694761e+01    0.2150183    0.1462854 -50.56 0.0003985154    1.481    0.325
        55 -10.3505     97.8905    123.8534   7.6458383547e+01   3.7268999871e+01    0.2812281    0.2475411 -17.95 0.0009717461    1.488    0.328
        56 -10.6004     45.3528    124.2009   8.9594701271e+01   4.4351318549e+01    0.2432741    0.1894303 -70.89   0.00108581    1.089    0.082
        57  -9.3473    116.5177    123.4731   7.1776929952e+01   3.4056508323e+01    0.1440351     0.135194 -82.09 0.0001642395    1.013    0.013
        58 -10.6626     27.5324    121.5051   9.3561003458e+01   4.6687775144e+01    0.4325413    0.1313248  49.19  0.001805478    3.894    0.743
        59 -10.4523    161.2054    118.1146   5.9993340190e+01   2.5864763622e+01    0.5514987    0.3338212 -69.63  0.002016812    2.734    0.634
        60  -8.9122     73.7058    120.0148   8.1818765935e+01   4.1824119896e+01    0.1892807     0.150136 -70.66 0.0003896851    1.105    0.095
        61  -8.9323    107.2153    117.7565   7.2842765210e+01   3.7021461680e+01    0.1790605    0.1657756 -20.34 0.0003650527    1.294    0.227
        62 -10.1811    134.8307    112.7693   6.4835044624e+01   3.2745774486e+01    0.3941148     0.108564 -48.57  0.001140854    3.697    0.730
        63  -9.1766    156.2900    111.5348   5.9464954695e+01   2.8313182079e+01    0.2576516    0.1824297 -57.14 0.0002896438    1.542    0.351
        64  -9.4201    205.5201    110.3071   4.8812249589e+01   1.6935020801e+01    0.2619534     0.239431  59.30 0.0006376674    1.134    0.118
        65 -11.5287     33.4085    109.5196   9.0462853139e+01   4.8808944131e+01    0.6824347     0.283094 -83.54  0.002738471    3.343    0.701
        66 -10.1854    115.1189    108.5653   6.8728323029e+01   3.7595586246e+01    0.3048142    0.1879841 -35.62  0.001329452    1.921    0.479
        67  -9.8421     39.9136    113.0374   8.9311976239e+01   4.7404865695e+01    0.1862736    0.1481334 -80.25 0.0003844907    1.059    0.056
        68  -9.0616     44.8369    104.9146   8.6708273402e+01   4.8722495159e+01     0.227796    0.1378283  63.92 0.0009198668    2.043    0.511
        69 -10.1814     39.5374    102.3550   8.7707407394e+01   4.9825547044e+01    0.2781604    0.1575375  58.71  0.001474102    2.199    0.545
        70  -9.1439    100.4619     93.4892   6.8870001404e+01   4.3573536625e+01     0.343733    0.2241813  86.51  0.001398757    2.692    0.629
        71 -12.6084     39.4649    240.4381   1.0123241413e+02   2.2077834758e+01    0.5248991    0.2147288  88.98  0.001128149    2.449    0.592
        72 -13.7063     68.3132    147.5479   8.7516742622e+01   3.6403905326e+01     1.258911    0.7380968 -71.67  0.006825343    1.539    0.350
        73 -10.8484     13.4040     59.9980   8.7693273227e+01   6.1050024468e+01     0.245045    0.1550462 -57.69 0.0004789185    1.171    0.146
        74 -12.2965    192.1918     53.5073   3.5550234263e+01   2.9951770005e+01    0.8674938    0.6106638  50.99  0.001545215    1.411    0.291
        75 -10.9635     48.4073    245.1734   1.0017959599e+02   2.0258031205e+01    0.2882827    0.1742549  48.76 0.0007757721    1.496    0.332
        76 -10.6909    119.2489    245.4864   8.9134503922e+01   1.0423111587e+01    0.1810014    0.1452296  89.35 0.0009299836    1.339    0.253
        77 -12.9673     28.5249    247.5139   1.0318486735e+02   2.2176242927e+01    0.3971127    0.2087397 -82.57  0.001703901    1.697    0.411
        78  -9.9656     71.7857    244.5477   9.6600449729e+01   1.7397518155e+01    0.2334313    0.1284905 -78.18  0.001025017    1.859    0.462
        79  -8.9974     60.3404     20.9654   5.7847159491e+01   6.3736386447e+01     0.177618    0.1342178 -25.02  0.000462591    1.120    0.107
        80  -8.9874     72.4230    203.8580   9.3153293695e+01   2.4330526856e+01    0.2064074    0.1000061 -76.39  0.001122986    2.083    0.520
