#   1 NUMBER                 Running object number                                     
#   2 MAG_AUTO               Kron-like elliptical aperture magnitude                    [mag]
#   3 X_IMAGE                Object position along x                                    [pixel]
#   4 Y_IMAGE                Object position along y                                    [pixel]
#   5 X_WORLD                Barycenter position along world x axis                     [deg]
#   6 Y_WORLD                Barycenter position along world y axis                     [deg]
#   7 A_WORLD                Profile RMS along major axis (world units)                 [deg]
#   8 B_WORLD                Profile RMS along minor axis (world units)                 [deg]
#   9 THETA_WORLD            Position angle (CCW/world-x)                               [deg]
#  10 FWHM_WORLD             FWHM assuming a gaussian core                              [deg]
#  11 ELONGATION             A_IMAGE/B_IMAGE                                           
#  12 ELLIPTICITY            1 - B_IMAGE/A_IMAGE                                       
         1 -12.0210     12.5514     48.5076   9.4879407637e+01   6.8034265066e+01     1.141801    0.5268621  84.97  0.004418187    3.035    0.671
         2 -11.6817     26.7117     50.4412   8.6740238737e+01   6.6442539720e+01     1.188276    0.4804695 -71.17  0.004459762    2.752    0.637
         3 -10.5394    111.9894     25.9238   3.9562887861e+01   5.4273622496e+01    0.3939834    0.2109794 -20.57  0.001557888    2.175    0.540
         4 -10.4622     31.0118     12.6759   6.6855495382e+01   7.4339413276e+01    0.2177703     0.185048 -42.84  0.000483018    1.219    0.179
         5 -10.8349     29.8464     19.0487   7.1634719336e+01   7.3269052957e+01    0.4607612    0.2248866 -39.22  0.001113124    2.037    0.509
         6 -10.6239     33.9697     16.0050   6.6832624096e+01   7.3264763632e+01    0.4219452    0.2667444 -30.20  0.002121148    1.641    0.391
         7 -12.6865    159.6059     23.1386   3.0134861700e+01   4.1982565850e+01    0.3814332    0.3160593   4.74 0.0003941141    1.440    0.306
         8 -12.3197    165.7345     22.4096   2.9128266322e+01   4.0482545607e+01    0.4922455    0.2709217  54.00 0.0009898901    1.886    0.470
         9 -10.6673     74.0505      1.9190   3.7517923494e+01   6.6871194888e+01    0.3293084    0.2393565 -89.64  0.001252079    1.676    0.403
        10 -10.5859     70.6534     13.4762   4.5666915991e+01   6.6346218212e+01    0.4166448    0.2410494 -32.40  0.001615782    1.769    0.435
        11 -11.4670     75.9793     10.8176   4.2191666295e+01   6.5407421056e+01    0.6907075     0.301618  61.48  0.002718878    2.267    0.559
        12 -10.7125     73.9121      6.8494   4.0557629320e+01   6.6380340037e+01     0.286098    0.2136991  -5.98 0.0005334262    1.476    0.322
        13 -11.2645     59.1996     20.8439   5.4933425503e+01   6.7794608888e+01    0.4524837     0.305973  21.05  0.002132114    1.804    0.446
        14 -12.8854    237.8249     17.2573   2.1636658417e+01   2.4525047532e+01    0.4596443    0.2201147 -48.51 0.0006322063    1.735    0.424
        15 -12.2340    235.2198      4.1930   1.8693275397e+01   2.6269504462e+01    0.5520633    0.3362377   4.59  0.002936138    2.485    0.598
        16 -11.7830     66.8141     20.0665   5.1024483929e+01   6.6277054655e+01    0.6338574    0.4148767   9.38  0.001534353    2.206    0.547
        17  -9.8871     15.0671     13.6753   8.0737140372e+01   7.6107259676e+01    0.2055676     0.185311 -12.76 0.0008471308    1.073    0.068
        18 -12.1886      4.1394     16.8164   9.2297989474e+01   7.6190926702e+01     0.541876    0.3361489  54.07  0.001886121    2.133    0.531
        19 -10.9490     18.9082     16.6809   7.8988582147e+01   7.5083140885e+01    0.4887276    0.2940567 -15.08  0.002380564    2.028    0.507
        20  -9.7116     22.7128     12.6203   7.3417410763e+01   7.5490797295e+01     0.201407    0.1115899 -44.20  0.000614732    1.666    0.400
        21 -11.2495    154.7843     14.9555   2.7943077112e+01   4.4126916845e+01    0.4589294    0.2199424 -19.40 0.0006048921    2.295    0.564
        22 -10.7316    155.6659     11.6913   2.6707500060e+01   4.4223396508e+01    0.3142944    0.2315644 -32.55 0.0009991289    1.343    0.255
        23 -10.3603     49.8486     14.6291   5.5987673629e+01   7.0703215265e+01     0.351885    0.2323505  46.67  0.001388115    1.515    0.340
        24 -10.4305     50.0074     11.4749   5.3848103418e+01   7.1166618384e+01    0.4298983    0.2383703  -5.58  0.001555314    3.514    0.715
        25 -10.5650     43.7876     13.6343   5.8849572392e+01   7.2022607217e+01     0.382214    0.2676337  63.17  0.001877847    2.010    0.502
        26 -11.3071     39.9476     10.9133   5.9432250127e+01   7.3174055426e+01    0.6348596    0.5460376 -43.97  0.002543163    1.283    0.221
        27 -11.1699     41.8110     18.5502   6.3171089938e+01   7.1512326940e+01    0.5287279     0.340268  36.34  0.002677056    1.553    0.356
        28 -10.5065    169.5098     13.2204   2.5735677477e+01   4.0482895052e+01    0.3434432    0.1826659  -6.32  0.001321894    2.562    0.610
        29 -10.0514    127.0845      2.0687   2.6617859562e+01   5.2780592377e+01    0.3797787    0.1821673  57.16  0.001611915    1.927    0.481
        30 -10.3227    131.4977     13.9726   3.0797109106e+01   5.0455776185e+01    0.3914361    0.2184062  11.30   0.00146289    2.837    0.647
        31 -12.1929    127.8706      9.9505   2.9742835003e+01   5.1845733467e+01    0.5076329    0.2821695 -40.62 0.0009358758    1.794    0.442
        32 -10.6162    117.8108      3.1159   2.8415989830e+01   5.5213222157e+01    0.3962111    0.2046445 -86.27 0.0009588769    2.308    0.567
        33 -10.6265    118.1872      7.8089   3.0409383631e+01   5.4681046554e+01    0.2367674    0.2100172  -5.85 0.0005656517    1.248    0.199
        34 -10.8154     60.4396     13.4978   4.9956593850e+01   6.8667759809e+01    0.4298483    0.2795874  63.22   0.00204612    1.793    0.442
        35 -11.1976    164.7400      7.4334   2.4321324830e+01   4.2263836208e+01    0.6516666    0.1895809 -19.38  0.002140328    3.809    0.737
        36  -9.9957     96.2555     11.9722   3.6894342401e+01   6.0121597851e+01    0.2369677    0.2096024  71.05 0.0009755482    1.097    0.089
        37 -11.3051      4.9914     10.5271   8.8860949138e+01   7.7573155612e+01    0.2631516    0.2316887  74.76  0.001709245    1.406    0.289
        38 -11.1936      9.9478      9.1173   8.3112446138e+01   7.7532631466e+01    0.4286112    0.2366081  27.40   0.00207128    1.896    0.473
        39 -10.4368    176.0002     10.9864   2.4410401208e+01   3.9060052609e+01    0.2144684     0.192664 -68.44   0.00057695    1.017    0.017
        40 -10.7538    148.5917      1.9365   2.4028084621e+01   4.6992030895e+01    0.2490411    0.1904742  68.08 0.0004563924    1.259    0.205
        41 -12.6253    145.4549      8.1106   2.6626498718e+01   4.7278005630e+01    0.3790025    0.3257738   7.09 0.0004033767    1.358    0.264
        42  -9.8713    107.5495     10.6896   3.3706464661e+01   5.7264037722e+01    0.1823953    0.1366801 -37.79 0.0002916395    1.384    0.277
        43 -10.0316    150.5645      5.5658   2.5121735554e+01   4.6149772522e+01    0.2364399    0.1638144 -87.43 7.312098e-05    1.408    0.290
        44 -11.0829    240.9382      9.1237   1.9571215827e+01   2.4686446589e+01    0.1913887    0.1243333 -51.67 0.0005162074    1.271    0.213
        45 -12.6569    213.7655      5.4211   2.0103749968e+01   3.0671334905e+01    0.7811903    0.4015982 -56.36  0.004044394    1.751    0.429
        46 -10.0053    202.4937      2.8264   2.0075267642e+01   3.3440084209e+01    0.4082716    0.1743911  40.05  0.001531342    4.099    0.756
        47 -11.0423    190.4845      6.2323   2.1816957170e+01   3.5952524922e+01    0.4179976    0.3154286 -49.98  0.002448045    1.164    0.141
        48 -10.7190     24.0186      7.6437   6.9001962702e+01   7.6281123876e+01    0.4009336    0.1866384  44.00  0.001608752    2.594    0.614
        49 -11.5618     18.8592      3.6882   7.0750744632e+01   7.7696079691e+01    0.7609429    0.3784676  25.74  0.003651425    2.119    0.528
        50 -10.0744     11.0867      3.1530   7.8217183318e+01   7.8668122741e+01    0.2823531    0.1872142 -14.95  0.001415181    1.577    0.366
        51 -10.1557    100.4430      6.8139   3.3352931657e+01   5.9556815935e+01    0.2607229    0.1898361  22.90 0.0006579484    1.573    0.364
        52  -9.4534     92.0493      7.1387   3.5466208821e+01   6.1740750486e+01    0.2012731    0.1635501 -76.36  0.001028277    1.373    0.272
        53 -10.3537     68.4701      4.5823   4.1058850836e+01   6.7957348755e+01    0.3116234    0.1920779 -41.27  0.001488016    1.794    0.443
        54  -9.1678    131.2672      5.3601   2.7389213648e+01   5.1356766577e+01    0.1460862    0.1024834  34.23 0.0005498866    1.642    0.391
        55  -9.5336    109.4804      5.5074   3.0917248125e+01   5.7256249392e+01    0.1439932    0.1338388  69.18 0.0001096393    1.011    0.010
        56  -9.0713     58.3154      5.2957   4.5591869890e+01   7.0242283438e+01     0.144266   0.09793694  25.46 0.0004061185    1.604    0.376
        57 -10.7508    178.6422      3.6511   2.1929429325e+01   3.9079980761e+01    0.2655427    0.2029783 -65.92 0.0006916346    1.194    0.163
        58 -10.8026     27.4278      2.6772   6.2395364477e+01   7.6650655171e+01    0.2911796    0.2573088  79.44  0.001759317    1.674    0.403
        59 -10.6977     32.2518      1.1188   5.7383408010e+01   7.6091046023e+01    0.4505335    0.1209178  43.10  0.001564624    3.628    0.724
        60 -11.1207    243.0628      2.7413   1.8007660412e+01   2.4852083998e+01    0.2452037     0.139183 -44.09 0.0007004171    1.352    0.260
        61  -9.7297     98.3134      3.1283   3.1965340457e+01   6.0473798837e+01    0.2182595    0.1682111  22.69 0.0006109783    1.437    0.304
        62 -10.3346    194.7607      1.5835   2.0205196273e+01   3.5351458294e+01    0.2394331    0.1155466  74.85   0.00113772    2.058    0.514
        63 -10.5526    118.3242     12.2932   3.2332961244e+01   5.4194537133e+01    0.3573758    0.2611356  17.00  0.001670301    1.666    0.400
        64  -9.3812    113.3596      7.2336   3.0999045619e+01   5.6044298622e+01    0.1954017    0.1259108 -36.38 0.0003172551    1.587    0.370
        65 -11.2534      9.5689    152.1550   1.0660286474e+02   4.1786089617e+01    0.4575991    0.1745646  44.11  0.002056392    2.111    0.526
        66 -10.4987    247.6570    250.0774   6.5675371607e+01  -3.0573151445e+00    0.1620132    0.1004146  22.30  0.001326256    1.384    0.277
        67 -12.5589    226.4613    245.1534   6.8215574919e+01  -5.1792965425e-01    0.5470573    0.2628355   2.87  0.003324354    2.275    0.560
        68 -12.6022    232.3683    245.5039   6.7350500400e+01  -1.1547346069e+00    0.3878544    0.2107053 -15.28    0.0028364    1.676    0.403
        69 -11.7821     89.0659    249.3659   9.3741470170e+01   1.4718050048e+01    0.3113421    0.1865402  30.78  0.000958171    1.238    0.192
        70 -10.2751     72.3544    250.1427   9.7138165287e+01   1.6443206711e+01    0.1957567    0.1259955  18.68 0.0008330615    1.566    0.361
        71 -12.6306     19.2971    237.1121   1.0727699580e+02   2.3777082438e+01    0.5113298    0.2579232  38.78  0.003365576    1.376    0.273
        72 -12.0522     28.8249    247.0874   1.0567995050e+02   2.1279174325e+01    0.4649246    0.2357311  60.60  0.003084686    1.723    0.420
        73 -12.8109      6.1588    245.5767   1.1007426516e+02   2.3483342868e+01    0.6090832    0.3846685  70.35  0.003587582    1.460    0.315
        74 -12.7713     15.6892    245.8844   1.0822870950e+02   2.2637686056e+01    0.6602434    0.2425083  50.32  0.002902271    1.863    0.463
        75  -9.4002    222.7222    152.3186   5.3822581561e+01   1.0512330233e+01    0.1070539   0.09212925 -44.08 0.0002823246    1.575    0.365
        76  -9.3989    169.9627    152.0000   6.3315649922e+01   1.9119960308e+01    0.2181477   0.07171971  40.75 0.0007974637    2.908    0.656
        77  -9.9332    176.9016    150.1211   6.1534461806e+01   1.8234564600e+01    0.1913848    0.1830946  46.41 0.0008051785    1.297    0.229
        78 -10.4675    207.0353    146.6739   5.5279754477e+01   1.3721926276e+01    0.1796736    0.1481196  13.77 0.0008127477    1.118    0.106
        79  -9.3034    216.3186    154.7202   5.5315011665e+01   1.1156529296e+01    0.1036781   0.09853524 -55.03 0.0002451212    1.579    0.367
        80 -10.5302    219.3456    144.3342   5.2786954483e+01   1.2091976611e+01    0.2793083    0.1376547  28.80  0.001353628    2.314    0.568
        81 -10.1842     10.8345    143.7242   1.0582372265e+02   4.3700360726e+01    0.2081643    0.1052277 -42.05 0.0007615675    2.707    0.631
        82  -9.2007    204.5286    141.5271   5.4661909722e+01   1.4872396684e+01    0.1278473    0.1107969  -6.11 9.085949e-05    1.038    0.037
        83  -9.4133    240.2979    140.3322   4.8862158796e+01   9.4464428306e+00    0.1222093   0.07775052  -0.18 0.0003496087    1.645    0.392
        84  -9.5295     13.6596    139.7422   1.0473349837e+02   4.4461157235e+01    0.1203936    0.0942201 -37.93  0.000258281    1.583    0.368
        85 -11.4607      9.2362    136.3069   1.0593779335e+02   4.5612283066e+01    0.2366874    0.1933693  87.52 0.0002432188    1.122    0.109
        86 -10.6939      2.7080    136.0810   1.0798683788e+02   4.6083046053e+01    0.4065215    0.1297111 -79.60  0.001650549    2.804    0.643
        87 -10.4399     43.9497    136.8311   9.4797390545e+01   4.2414232528e+01    0.2187635    0.1848957 -89.80 0.0003842851    1.141    0.124
        88 -10.2640     17.6165    137.0896   1.0331542381e+02   4.4813087917e+01    0.2085847    0.1541605  44.22 0.0003918363    1.241    0.194
        89  -9.7890     20.9579    134.9548   1.0208726506e+02   4.5076089628e+01    0.2213026    0.1275406  61.40 0.0007031908    1.627    0.385
        90  -9.8854    249.0855    133.6877   4.6360561683e+01   8.9873515433e+00    0.1571144    0.1292568   0.38 0.0004661869    1.123    0.109
        91 -10.2875    240.9140    134.1396   4.7549722434e+01   1.0125810564e+01      0.17136    0.1437411 -25.35 0.0005768038    1.219    0.180
        92 -11.2796     54.2888    132.2891   9.0855886087e+01   4.2336106302e+01     0.410976    0.2487029  30.16    0.0011242    1.613    0.380
        93 -10.2072     47.6018    133.2604   9.3179380651e+01   4.2891478792e+01     0.238474    0.1797998  35.80 0.0005229323    1.274    0.215
        94  -9.2342     79.5446    132.5049   8.2796773050e+01   3.8778369735e+01    0.1439268    0.1360693  55.21 0.0001329573    1.012    0.012
        95 -11.3301     36.9674    129.9972   9.6330564821e+01   4.4860237747e+01    0.3847979    0.2680701 -49.66  0.001155937    1.594    0.372
        96 -11.1339     74.0448    128.9957   8.3922147194e+01   4.0454835115e+01    0.3282855    0.2952918  54.26 0.0008227047    1.050    0.047
        97 -10.5898     23.7522    126.3812   1.0045666642e+02   4.6996564622e+01    0.4269895    0.1518213  35.90  0.001757074    2.417    0.586
        98 -10.8207     15.8807    125.5152   1.0307825355e+02   4.7831201143e+01    0.3867655    0.1920529  26.33   0.00185276    1.975    0.494
        99 -11.4150     10.8613    122.8662   1.0461753599e+02   4.8848106662e+01    0.3193224    0.2469716  64.28   0.00161934    1.155    0.134
       100 -10.3929      2.3122    123.6448   1.0757749539e+02   4.9169063822e+01    0.3679235    0.1378083 -50.90  0.001487218    3.118    0.679
       101  -9.8303    220.0913    123.8721   4.8432079100e+01   1.4767886496e+01      0.18303    0.1585329 -32.58 0.0004396235    1.222    0.182
       102  -9.8404    243.6231    122.2892   4.4785278979e+01   1.1194002306e+01    0.1665292   0.09491799 -21.01 0.0005375478    1.544    0.352
       103 -10.7195     19.9984    121.6778   1.0134856963e+02   4.8494851166e+01    0.1814854    0.1685084  55.69 0.0008574094    1.095    0.087
       104  -9.8599      1.3235    118.7475   1.0768855937e+02   5.0448215636e+01    0.1729006    0.1024915 -76.53 0.0003750693    1.537    0.349
       105  -9.8456     32.7565    117.6929   9.6393213616e+01   4.8413602418e+01    0.2180992    0.1060308  88.73 0.0008718439    2.319    0.569
       106 -11.8496     15.6274    115.4029   1.0238410484e+02   5.0425316649e+01    0.3176609    0.2272509 -81.95 0.0002611345    1.278    0.218
       107 -10.7447      9.7018    111.5401   1.0426014638e+02   5.1807502586e+01    0.2550422    0.2124261 -42.00  0.001539486    1.364    0.267
       108 -11.9492     15.3512    108.3872   1.0188643158e+02   5.2255721771e+01    0.5057153    0.3490644  15.70  0.002253445    1.615    0.381
       109  -9.9804     72.5954    116.3593   8.2075446459e+01   4.3777614433e+01    0.2898503    0.1463921 -69.36 0.0008440478    2.283    0.562
       110 -10.1456     23.5208    117.5098   9.9712308930e+01   4.9281373360e+01    0.1345149      0.12231  83.87 6.912677e-05    1.034    0.033
       111  -9.5561    179.4759    115.9653   5.3568610676e+01   2.3399932888e+01    0.2116782    0.1308427 -35.12 0.0008558552    1.553    0.356
       112 -10.0444     85.9537    116.0088   7.7567359745e+01   4.1705741556e+01    0.2259274    0.2132934  61.94 0.0004552146    1.030    0.029
       113 -10.2942    213.9879    115.0989   4.7444375634e+01   1.7049144566e+01    0.1975279     0.169305 -10.18 0.0004804336    1.040    0.038
       114 -10.9332    249.4356    112.2982   4.1989386230e+01   1.1532457656e+01    0.2136569    0.1702063 -28.43 0.0005676385    1.138    0.122
       115 -10.4779     94.4443    112.3490   7.4038259993e+01   4.1086166781e+01    0.3021585    0.2892252   3.42  0.001124943    1.118    0.105
       116 -12.6807     54.6338    109.6528   8.7180718759e+01   4.8023698151e+01     0.391624     0.301713 -48.74 0.0002941563    1.366    0.268
       117 -10.7240     51.9290    103.8101   8.7133363311e+01   4.9876898762e+01    0.2992076    0.2097277  41.85 0.0007940622    1.404    0.288
       118 -11.3866     35.4312    108.5038   9.4220606611e+01   5.0535360022e+01    0.4218735    0.3401557 -80.27  0.001833256    1.172    0.147
       119 -10.1344     38.0335    103.0179   9.2403830487e+01   5.1701471369e+01    0.2788815    0.2240656  79.03  0.001512659    1.231    0.188
       120 -10.9451      2.3838    106.8262   1.0668759547e+02   5.3420380584e+01    0.4531448    0.2884339 -73.75  0.002474518    1.426    0.299
       121  -9.9130     82.0112    105.5274   7.6550643229e+01   4.4912182818e+01    0.4054051    0.2044867 -76.09  0.001197811    3.711    0.731
       122 -10.7876     23.3088    106.7771   9.8668872627e+01   5.2081565394e+01    0.2626779    0.1915873   1.68  0.001016161    1.654    0.396
       123  -9.4129    103.3026    105.2903   6.9577604681e+01   4.1053246879e+01    0.1499536    0.1213998  -5.32 0.0002770565    1.567    0.362
       124  -9.9730     27.6813    104.7340   9.6721523595e+01   5.2247975906e+01    0.2011574    0.1673453 -89.07 0.0001994527    1.115    0.103
       125  -9.9866     25.9891    102.2290   9.7075399674e+01   5.3050182267e+01    0.2172517    0.1678085  60.89 0.0003415637    1.266    0.210
       126 -10.5439    119.1081    102.8497   6.4305124998e+01   3.8401775158e+01    0.4651832    0.2847976 -35.65  0.001970649    1.823    0.452
       127 -10.4999     20.2774    100.4927   9.9159877941e+01   5.3962043453e+01     0.437867    0.1955086  -4.66  0.001589181    3.705    0.730
       128 -11.2377    143.8164     98.3447   5.6709592955e+01   3.4011666626e+01    0.4536464    0.3798486 -80.77  0.001897886    1.486    0.327
       129 -11.4232     66.4572     98.0192   8.0405530734e+01   4.9308846699e+01    0.2990921    0.2481054  22.68  0.000384735    1.301    0.231
       130  -9.6503     47.7343    100.3169   8.8116453260e+01   5.1305739029e+01    0.1889966     0.164715 -24.16 0.0002054624    1.316    0.240
       131 -10.9259     51.7551     97.7427   8.6032755591e+01   5.1466795149e+01    0.3714933    0.2150281 -45.99 0.0007436939    1.849    0.459
       132 -10.1334     90.6701     99.3283   7.2110233126e+01   4.4847502389e+01    0.1597658    0.1190421  75.49 0.0007051319    1.710    0.415
       133 -10.5627      9.9951     99.0553   1.0316774824e+02   5.5022343965e+01    0.2037737    0.1727973  82.73 0.0007792453    1.056    0.053
       134 -11.4730     14.5906     96.3839   1.0103869096e+02   5.5437927054e+01    0.4114478    0.2044696 -62.97   0.00190662    1.819    0.450
       135  -9.8931      4.9826     98.0000   1.0510577816e+02   5.5567488358e+01    0.2841752    0.1809629  22.50  0.001222279    1.684    0.406
       136 -11.0359      1.4786     95.8869   1.0637973563e+02   5.6279111775e+01    0.5842832    0.1761709 -61.16  0.002249484    2.889    0.654
       137 -12.2095    166.5013     83.5104   4.7740676498e+01   3.1593237213e+01    0.7679777    0.5460471  63.01  0.003370156    1.567    0.362
       138 -12.5780    156.8615     84.8968   5.0067136887e+01   3.3551520388e+01     1.342477    0.7194081 -50.89  0.005389036    2.153    0.536
       139 -11.4041     62.0199     98.6936   8.2238054897e+01   4.9804722285e+01    0.3388049    0.2958445 -42.28  0.001012082    1.214    0.176
       140  -9.7924     31.3419     92.8085   9.3532722806e+01   5.5048847874e+01    0.2048638    0.1139316 -61.64 0.0003898237    1.650    0.394
       141 -10.9649     66.0633     93.1430   7.9414947918e+01   5.0595448534e+01    0.4461707    0.2121583  29.54  0.001713031    2.265    0.559
       142 -12.6569     10.5273     90.4155   1.0215025872e+02   5.7250476509e+01    0.3544647    0.2631766  89.97  0.001997847    1.224    0.183
       143 -10.2467     37.5510     90.5202   9.0496303558e+01   5.5027638130e+01    0.3796987    0.1825986 -36.60  0.001431209    2.816    0.645
       144  -9.9762     25.5746     90.2429   9.5613652983e+01   5.6238855504e+01     0.206663    0.1907059  31.94 0.0007092373    1.160    0.138
       145 -11.5301     22.0769     87.5373   9.6754648222e+01   5.7234254478e+01    0.4884056    0.2988698 -52.35  0.001789443    1.592    0.372
       146  -9.1720    250.3364     95.6721   3.8381651212e+01   1.3411230231e+01    0.1197918   0.08035231 -50.48 0.0007051855    1.726    0.421
       147 -10.3995     96.9103     89.0919   6.7266819619e+01   4.6009323666e+01    0.2893203    0.2113631  36.79 0.0008340075    1.392    0.282
       148 -10.1517     83.0630     88.5040   7.1865259857e+01   4.8827469105e+01    0.2466964    0.2075774 -39.80 0.0005671181    1.244    0.196
       149 -10.7447     78.3264     87.8110   7.3401634084e+01   4.9854839514e+01    0.3821679    0.3189915  33.37  0.001718016    1.225    0.183
       150 -11.3242      4.8768     85.9166   1.0419716441e+02   5.8718713296e+01    0.4614699    0.1994698 -47.03  0.001757718    2.392    0.582
       151 -11.0606     66.0531     86.4138   7.7736939522e+01   5.2278828868e+01     0.542426    0.2934296 -36.49  0.002082648    2.410    0.585
       152 -10.2516     47.8945     88.0476   8.5597292975e+01   5.4469114113e+01    0.2140864    0.1986598 -84.38  0.000320212    1.042    0.040
       153  -9.7954    120.9705     86.4722   5.9208706805e+01   4.1439326018e+01    0.2290985    0.2099135 -42.01 0.0004369058    1.102    0.092
       154 -11.0564    114.9975     86.8653   6.1019348691e+01   4.2679043473e+01    0.3160748    0.2135405  46.08  0.001412267    1.464    0.317
       155 -11.4474     30.5673     80.9060   9.1822618466e+01   5.8251598028e+01    0.4247558    0.2599593 -59.06  0.002055453    1.501    0.334
       156 -11.4201      6.4810     50.8007   9.9075153106e+01   6.7765874349e+01    0.5397679    0.3475414  73.59  0.002292587    1.716    0.417
       157 -13.1034      4.5660     62.2104   1.0186765376e+02   6.4910649092e+01    0.8683169    0.7160142 -85.88  0.003104916    1.116    0.104
       158 -11.0446     12.1059     57.2768   9.6902074759e+01   6.5820354642e+01    0.2744606    0.1972279  87.59 0.0003347129    1.416    0.294
       159 -12.0713     36.9752    243.0973   1.0390301033e+02   2.1163000140e+01    0.5260912    0.2466505  71.64  0.002275459    2.342    0.573
       160 -14.2342     16.5627     67.4253   9.6264077749e+01   6.2913497022e+01    0.7515034    0.4994699  86.48  0.001244778    1.557    0.358
       161 -12.3030     13.1896     77.9424   9.9523769442e+01   6.0371158408e+01    0.7771904    0.3691089 -84.60  0.003390962    2.052    0.513
       162 -12.3226      6.6633     74.0308   1.0219828773e+02   6.1743103463e+01    0.6805621     0.419168 -16.42  0.003036139    1.935    0.483
       163  -9.9606     74.2821     82.0110   7.3307277659e+01   5.1971153353e+01    0.2234897    0.1947024 -52.91  0.001154167    1.140    0.123
       164  -9.8771     62.4910     82.5720   7.8166011628e+01   5.3798921556e+01    0.2275778    0.1450074  34.45 0.0006261925    1.591    0.372
       165  -9.5529     42.1641     82.1045   8.6793226786e+01   5.6708271277e+01    0.2014827    0.1614801  70.15 0.0004702937    1.340    0.254
       166  -9.7619    183.3870     80.8309   4.3972563370e+01   2.8248285729e+01     0.197619    0.1295703 -18.95 0.0004120928    1.685    0.407
       167  -9.6344    101.2279     80.9823   6.3448801707e+01   4.6921163711e+01    0.2025564    0.1282941 -46.86 0.0003589268    1.594    0.373
       168 -10.0574    113.9045     79.4669   5.9087783828e+01   4.4463690842e+01    0.4508805    0.1889866  45.44  0.001583892    2.371    0.578
       169  -9.9383     58.4928     79.4689   7.9008991664e+01   5.5187778183e+01    0.2567588      0.14955  17.53 0.0007165319    2.250    0.556
       170 -10.1879     61.0477     77.5664   7.7402586677e+01   5.5268189681e+01    0.2638352    0.2013015  84.89 0.0009969283    1.603    0.376
       171 -12.8965     45.0417     75.0189   8.3820844010e+01   5.8181906538e+01    0.5273414    0.3114636  54.49  0.000897849    2.013    0.503
       172 -10.6992     35.6047     68.0637   8.6626631783e+01   6.1075153617e+01    0.4367453     0.192357  37.47  0.001113095    2.297    0.565
       173  -9.7743    169.7009     77.0988   4.5339278975e+01   3.1914837023e+01    0.2047422    0.1800628 -34.26 0.0004392717    1.089    0.082
       174  -9.1887     70.2822     76.3342   7.3223199099e+01   5.4038599863e+01    0.1531169    0.1169707 -22.45 0.0001870868    1.616    0.381
       175 -10.3393    145.4935     74.5887   4.9486305375e+01   3.8019707867e+01    0.3151085    0.1483216 -35.74  0.001172448    2.119    0.528
       176 -10.5784     75.5339     74.4757   7.0563700272e+01   5.3537040555e+01    0.4396494    0.2644484  22.45  0.001749113    2.221    0.550
       177 -10.9410     78.1478     70.0432   6.8115314638e+01   5.4070548108e+01    0.2723953     0.229101  23.38 0.0004618347    1.292    0.226
       178 -10.4600     52.1951     62.1729   7.6764644710e+01   6.0397874999e+01    0.3697154    0.2411865 -37.99  0.001583322    1.650    0.394
       179 -10.7368     47.4519     60.2262   7.8459443882e+01   6.1559540062e+01    0.6460836    0.3497804 -56.31  0.002081838    1.754    0.430
       180 -10.7346     54.1541     74.0924   7.9430822555e+01   5.7175348484e+01    0.3405346    0.2018231  39.76  0.001515388    1.711    0.416
       181 -11.7755     50.5074     68.1278   7.9398358787e+01   5.9184798175e+01    0.5545473    0.4370607  -0.34  0.001073589    1.518    0.341
       182 -10.6875    207.5255     73.0692   3.8336611912e+01   2.4209449882e+01     0.216383    0.1956616  57.57 0.0003475281    1.237    0.192
       183 -10.9399    100.7469     71.6966   6.0622764672e+01   4.9017609040e+01    0.4233221    0.2708781  73.07  0.001000346    2.449    0.592
       184 -10.7702     93.9754     72.3820   6.3107239113e+01   5.0337295981e+01    0.3858747    0.2521112 -23.23  0.001557416    2.143    0.533
       185  -9.9693    152.0490     71.9576   4.7276543187e+01   3.6910006283e+01     0.216196    0.2137801  28.08 0.0003997459    1.035    0.034
       186  -9.2988    138.6700     71.7322   5.0152962790e+01   4.0160835778e+01    0.1527689    0.1182364  21.96 0.0002550612    1.580    0.367
       187  -9.8888     68.6649     70.5143   7.2086870226e+01   5.5709491380e+01    0.2743952    0.1731061 -34.16  0.001162337    1.886    0.470
       188 -10.2655    167.8794     69.7446   4.3556997920e+01   3.3509827564e+01    0.2047662    0.1919931  12.85 0.0003921111    1.139    0.122
       189  -9.1133    194.7427     69.6505   3.9212122397e+01   2.7407710149e+01     0.136341    0.1041359   5.15 0.0002380553    1.600    0.375
       190  -9.8943    130.7105     68.3316   5.0973559557e+01   4.2694776626e+01    0.2771211    0.1858402 -41.38  0.001044517    1.486    0.327
       191  -9.7257    127.7094     66.3626   5.1074270409e+01   4.3780437248e+01    0.2275806    0.2102313 -83.67  0.001186628    1.141    0.123
       192  -9.3413    230.4518     68.5289   3.4467727138e+01   2.0245079613e+01    0.1276098    0.1063638 -34.41 0.0001511382    1.027    0.026
       193 -10.8990     43.0928     67.6797   8.2822291962e+01   6.0291354933e+01    0.2811633    0.2542815 -22.20 0.0009484305    1.171    0.146
       194 -10.5220     93.5734     66.5248   6.1253350730e+01   5.1678423158e+01    0.2712488    0.2558546 -18.08 0.0002147611    1.115    0.103
       195 -10.5155     99.2666     64.6117   5.8669303537e+01   5.0816732476e+01    0.4434889    0.1868341  40.13  0.001504443    2.634    0.620
       196 -11.8680     44.8457     38.3829   7.1631030487e+01   6.7014087594e+01    0.4488094    0.3093175  47.72   0.00222202    1.633    0.388
       197 -11.2990     30.4889    234.4128   1.0489057331e+02   2.3223573692e+01    0.3760515    0.1354467  75.07  0.001815805    3.455    0.711
       198 -11.0621     28.5254     60.4571   8.8419266963e+01   6.3745976025e+01    0.6364323    0.2668185  36.60  0.002594188    2.435    0.589
       199 -13.0955     37.9831     49.6028   7.9944795630e+01   6.5393778661e+01    0.8971272    0.6730471 -42.90  0.003368876    1.280    0.219
       200 -11.5785     34.8094     42.5091   7.9230841427e+01   6.7473589458e+01    0.6902905    0.3919713  -7.38  0.002407764    2.905    0.656
       201 -10.8373     32.4992     63.9226   8.7178781828e+01   6.2464999763e+01    0.2301461    0.1972479  19.02 0.0003432648    1.250    0.200
       202 -10.2529    119.2698     65.3158   5.2935531016e+01   4.6010812145e+01    0.2387788    0.2308563  71.33 0.0002456864    1.033    0.032
       203 -12.2680    122.9690     63.8294   5.1439134218e+01   4.5394218163e+01    0.4481826    0.3242565 -63.79 0.0002893323    1.666    0.400
       204 -10.3351     78.0338     63.3932   6.5878943545e+01   5.5589166387e+01    0.4785618    0.3030666  73.53  0.001773345    2.797    0.642
       205 -10.7016    202.1742     61.9968   3.6167683680e+01   2.6841870766e+01    0.2723807    0.1915593 -19.51  0.001417664    1.449    0.310
       206 -10.0189    152.1599     63.5854   4.4667716088e+01   3.8273802233e+01    0.3670021    0.1124975  48.93   0.00114044    3.329    0.700
       207 -10.2079    113.2115     60.9036   5.3084049170e+01   4.8294001927e+01    0.2314122    0.2044835 -74.96 0.0005552972    1.239    0.193
       208 -10.9264     92.4700     60.8063   5.9587474141e+01   5.3111493297e+01    0.3364476    0.2317528  31.64  0.001074296    1.649    0.394
       209 -11.8222     87.7650     54.8358   5.9000528063e+01   5.5363348896e+01     1.037619     0.449974 -32.63   0.00341837    3.065    0.674
       210 -10.2844     80.1054     59.3163   6.3584673440e+01   5.6060600525e+01    0.5123815    0.1821451 -51.90  0.001046725    3.256    0.693
       211 -11.3541     58.9614     59.0398   7.2509216526e+01   6.0071310141e+01    0.4478765     0.363745 -32.91  0.001548454    1.289    0.224
       212  -9.7701     62.0405     53.5211   6.9054418763e+01   6.0801688717e+01    0.3936779    0.1784385 -43.45  0.001005713    2.243    0.554
       213 -10.3577    169.0235     60.0512   4.0490734036e+01   3.4723509919e+01    0.2119655    0.2030912 -40.63   0.00121031    1.020    0.020
       214 -10.6046     98.2750     59.7051   5.7221352730e+01   5.2030075130e+01     0.287669    0.2392808 -23.60 0.0007310971    1.324    0.245
       215 -10.0472     99.7826     55.4040   5.5120097412e+01   5.2521516569e+01    0.2483823    0.2070581  26.20 0.0005792147    1.328    0.247
       216  -9.9264     69.3597     57.8173   6.7419395739e+01   5.8502944904e+01    0.3780665    0.1961553 -62.56   0.00137014    2.674    0.626
       217 -11.1597    147.2974     56.7320   4.3442651495e+01   4.0577884987e+01     0.318423    0.2444195 -51.56 0.0009734562    1.330    0.248
       218 -11.8207    132.1741     56.0780   4.6490974565e+01   4.4480051926e+01    0.5337737    0.4096262 -10.54 0.0009220916    1.588    0.370
       219 -11.9712    129.3204     49.4199   4.4794464338e+01   4.6295832825e+01      0.49561    0.4158769  23.61  0.001166806    1.370    0.270
       220 -12.9747    105.4340     52.4243   5.2224212347e+01   5.1736972767e+01     0.458473    0.3982285  55.86 0.0005390588    1.138    0.121
       221 -10.7743    104.6239     46.9523   5.0323201413e+01   5.2911679490e+01    0.4204363    0.2466285  31.21  0.001505452    2.309    0.567
       222 -11.3356     75.2990     55.6699   6.4120987212e+01   5.7816940290e+01    0.3021971    0.2483176 -47.67 0.0002100819    1.219    0.180
       223  -9.7158     73.1787     51.2216   6.3245699127e+01   5.9185467679e+01    0.3031831    0.2064591 -12.15  0.001254469    2.227    0.551
       224 -10.1267    230.7479     54.4716   3.1079457040e+01   2.1893710489e+01    0.2352071    0.1483371 -29.42 0.0005659418    1.349    0.259
       225  -9.4373     82.4525     53.9345   6.0622073607e+01   5.6698607959e+01    0.2229187    0.1487375 -43.01 0.0005486472    1.507    0.336
       226 -10.7268    119.8409     52.7979   4.8343805288e+01   4.8127995630e+01    0.2402617    0.2310386  36.47 0.0003367949    1.067    0.063
       227 -11.8092     58.9476     48.2743   6.8442899429e+01   6.2511786231e+01    0.6396714    0.4085508 -34.81  0.001045801    1.706    0.414
       228  -8.9550     96.2735     52.2841   5.5057479618e+01   5.3934883378e+01    0.1480653    0.1204023  10.56            0    1.503    0.335
       229 -10.2283     45.4037     49.9261   7.5982144835e+01   6.4313807253e+01    0.3712479    0.2562728 -25.27  0.001763012    1.722    0.419
       230  -9.6823    181.5468     49.5358   3.5456552257e+01   3.3210417355e+01    0.1421887    0.1283955 -52.20 2.442111e-05    1.042    0.040
       231 -10.7047     78.2574     47.5979   5.9684518196e+01   5.8873815300e+01    0.3463431    0.2253612 -34.74 0.0003776995    1.624    0.384
       232  -9.9713    151.3172     46.2072   3.9188143092e+01   4.1156031667e+01    0.2558241    0.1778724 -28.18   0.00112811    1.467    0.318
       233 -10.1758    120.1722     46.7678   4.6009700515e+01   4.9055116706e+01    0.2468591    0.1954871  70.13 0.0006221524    1.311    0.237
       234 -10.4652    143.0365     45.1687   4.0381080698e+01   4.3430539071e+01    0.2496521    0.2106785 -38.44 0.0005512884    1.175    0.149
       235 -11.4160     99.5206     36.3493   4.7425077384e+01   5.5950333606e+01    0.5745083    0.4339011  47.44  0.001741554    1.295    0.228
       236 -10.8829     91.7843     43.2241   5.2856788761e+01   5.6659354948e+01    0.4879899    0.2973984 -45.83  0.001686255    1.716    0.417
       237 -10.5477     95.5291     42.9458   5.1498636424e+01   5.5818558825e+01    0.3393875    0.2327766 -18.20   0.00104891    1.811    0.448
       238 -11.3497     51.7559     42.5265   6.9658322559e+01   6.5001781331e+01    0.5330639    0.2689164 -41.74  0.002219683    2.006    0.501
       239 -10.0959    113.1226     44.9821   4.7145127287e+01   5.1133160995e+01    0.4194028    0.2068685  33.10  0.001362414    3.266    0.694
       240  -9.7826    187.0466     43.0317   3.2842521450e+01   3.2752144076e+01    0.2218817    0.1481335 -60.43   0.00049242    1.583    0.368
       241 -11.6260    158.1981     42.6524   3.6833038642e+01   3.9903073986e+01    0.2664033    0.2420972 -87.08 0.0003066999    1.095    0.087
       242 -11.3923    131.3274     41.5835   4.1480987795e+01   4.6992104885e+01    0.3699913    0.2860569 -50.34 0.0008147894    1.323    0.244
       243  -9.0951     73.3105     43.6148   5.9994759081e+01   6.0706739603e+01    0.1544841    0.1192372 -81.71 0.0001611619    1.811    0.448
       244 -10.6521     81.3196     41.8830   5.6034362175e+01   5.9306940156e+01    0.2842434    0.2121685  41.74 0.0006651134    1.332    0.249
       245 -10.3308     18.5240     42.2494   8.9452964976e+01   6.9186680388e+01    0.8400966          nan -57.02  0.002245203    5.209    0.808
       246 -10.4576     33.2786     32.4038   7.6023079691e+01   6.9975474341e+01     0.689122    0.2796333  22.69  0.002114879    3.088    0.676
       247 -11.1338     24.0822     41.3322   8.5535523848e+01   6.8928421225e+01    0.5139915    0.3386654  71.15  0.002446673    2.130    0.531
       248 -12.7603     27.5519     37.8457   8.2034176051e+01   6.9409227820e+01    0.3377693    0.3090737  32.11 0.0003537455    1.184    0.155
       249 -12.0147     24.5301     34.5047   8.2787984413e+01   7.0509248860e+01    0.2985055    0.2304747 -13.22  0.001070944    1.376    0.273
       250 -10.0739    148.6089     40.3101   3.7670157846e+01   4.2685700189e+01    0.3357332    0.1356685 -31.36  0.001233507    2.390    0.582
       251 -11.0344     79.8631     28.5352   5.0322370147e+01   6.1961421583e+01    0.5764224    0.3246821 -19.74   0.00216868    2.337    0.572
       252 -11.3234     69.9665     37.0759   5.8449710741e+01   6.2667999922e+01      0.38785     0.269388 -18.34 0.0004260297    1.798    0.444
       253 -11.7956     74.7022     35.7855   5.5853793741e+01   6.1890617284e+01    0.4134662    0.3151852  32.64  0.000420993    1.369    0.270
       254 -10.7029    226.0752     33.0319   2.6254640631e+01   2.5270874493e+01    0.1876342    0.1671264 -58.08 0.0003112874    1.101    0.092
       255 -11.4289    225.0016     37.7132   2.7503759653e+01   2.4976224831e+01    0.3345324    0.2393384 -68.80 0.0004880762    1.475    0.322
       256 -11.6220    221.7492     31.9303   2.6327697471e+01   2.6289019343e+01    0.2640826    0.1826552 -33.54  0.000294854    1.237    0.192
       257  -9.3609    121.3044     41.2943   4.3636821177e+01   4.9633095727e+01    0.1531874    0.1161086  26.80 0.0002396835    1.579    0.367
       258 -11.0132    110.6279     36.5964   4.4422460209e+01   5.3102636948e+01    0.3470555    0.2837111  79.89 0.0009335917    1.314    0.239
       259 -11.1061     82.4715     36.1129   5.2993975472e+01   6.0085855710e+01    0.4676429    0.3068186  26.12  0.002018779    1.949    0.487
       260 -11.2625      6.9885     40.8704   9.6828647302e+01   7.0251938032e+01     0.339076    0.1881744 -61.20   0.00118148    1.523    0.343
       261 -12.7748     57.7069     34.0981   6.2726331149e+01   6.5690258863e+01    0.3417082    0.3152818 -10.79  0.000650744    1.068    0.064
       262 -11.0259     29.1176     65.7916   8.9390424311e+01   6.2322624084e+01    0.2909663    0.2082575 -45.62 0.0004364813    1.363    0.266
       263  -9.5845    134.4826     34.9335   3.8362492124e+01   4.7116906997e+01    0.2263599     0.143459 -33.93  0.001016641    1.570    0.363
       264 -12.1486      8.5052     32.0121   9.3543871620e+01   7.2359706830e+01    0.4348311    0.2946779 -78.93  0.001129592    1.494    0.331
       265 -11.1618     16.8253     30.9690   8.6970607081e+01   7.2046389189e+01    0.4384919    0.2219372  17.29  0.002054808    2.126    0.530
       266 -10.0864    205.7123     32.0573   2.7757874017e+01   2.9755019330e+01     0.185247    0.1532852 -34.81 0.0003612712    1.107    0.097
       267 -10.1334    166.7801     31.9395   3.2080940222e+01   3.9106791216e+01    0.2136623    0.1921276   8.97  0.001198892    1.283    0.221
       268 -10.1704     49.6641     29.2772   6.4540937811e+01   6.8108454323e+01    0.4862747    0.2568125 -30.35  0.001990035    2.325    0.570
       269  -9.6371     44.0139     31.4648   6.8887335657e+01   6.8619133623e+01    0.1969522    0.1356965  36.69 -5.010464e-05    1.481    0.325
       270 -11.0887    102.1399     29.4668   4.3633075685e+01   5.6340866635e+01    0.5556764    0.2992455  55.31  0.002168765    1.751    0.429
       271  -9.6490    237.3704     29.3109   2.4513141748e+01   2.3398536427e+01    0.1167639   0.08896812  24.56  0.000703493    1.771    0.435
       272 -11.1474     65.6692     27.8198   5.5749025661e+01   6.5252838215e+01    0.4166516    0.2537102  30.80 0.0009431494    1.910    0.476
       273 -10.0289     70.3098     25.2859   5.2403802019e+01   6.4669991059e+01    0.2329646    0.1757206  55.60 0.0004649675    1.359    0.264
       274 -10.7115    197.9952     28.0273   2.7379155114e+01   3.1963851297e+01    0.2089565    0.1562495  31.80  0.001134595    1.703    0.413
       275 -10.5618    128.9779     18.7837   3.3134312254e+01   5.0611656079e+01     0.299559    0.2300238   7.67  0.000687854    1.587    0.370
       276 -10.4249    128.4547     26.4570   3.6280230595e+01   4.9832642701e+01    0.2743145    0.2195375  88.30 0.0005421035    1.291    0.225
       277 -10.6805    129.0000     23.0380   3.4825542427e+01   5.0108628441e+01    0.3612728    0.2088403 -30.41 0.0009395019    1.742    0.426
       278 -10.3510    250.0191    246.2849   6.4829249819e+01  -2.9575702172e+00    0.1410441   0.08888499   9.17 0.0009213074    1.062    0.058
       279 -10.7453    173.0589     25.4834   2.9245268897e+01   3.8278838665e+01     0.387976    0.2213162  35.04  0.001270577    2.425    0.588
       280  -9.6514    117.3382     26.3944   3.8545147855e+01   5.2798529705e+01    0.2028359    0.1408803  76.03 0.0006819135    1.506    0.336
       281 -13.3117     74.4029    238.2954   9.5935069269e+01   1.8058936160e+01    0.6761792    0.6124436  66.33  0.005433226    1.289    0.224
       282  -9.7497    109.8184    242.5944   8.9016481902e+01   1.3301328521e+01    0.1639893   0.07542679  38.41  0.000383802    1.638    0.390
       283 -10.0942    195.6264    238.2600   7.2352854720e+01   3.5531437908e+00    0.1786996     0.117101 -11.32   0.00128747    1.476    0.322
       284 -10.8757     22.5446     24.4509   7.9951717066e+01   7.3008283421e+01    0.2797135    0.2295366 -32.88 0.0007876646    1.120    0.107
       285 -10.5991     24.5271     21.5089   7.6986107184e+01   7.3429908670e+01     0.300054    0.2501102 -78.11  0.001507558    1.496    0.332
       286 -10.1605      1.5981     25.6549   9.7261075672e+01   7.4208749218e+01    0.2341063     0.141143 -72.56 0.0006377578    1.512    0.338
       287  -9.4808    219.2232     25.3815   2.4867511134e+01   2.7524164126e+01    0.1574005     0.112267 -79.80 0.0003167204    1.476    0.322
       288  -9.8596    214.1356     25.1415   2.5200894459e+01   2.8646513581e+01    0.1784267    0.1700628   5.46 0.0004648941    1.244    0.196
       289 -11.6405     13.6948     23.1997   8.6427617007e+01   7.4106816006e+01    0.4196583     0.230709  -8.47 0.0002386612    2.225    0.551
       290 -10.5079      7.1586     24.6847   9.2380076857e+01   7.4191613902e+01    0.2801157    0.1783409   5.39  0.001120292    1.693    0.409
       291 -10.8331    244.0424    236.7784   6.4409287061e+01  -1.5327262777e+00    0.1927601    0.1175147 -27.57  0.001406453    1.789    0.441
       292  -9.5385    134.6334    238.1719   8.3629693105e+01   1.0915250642e+01    0.1411475   0.09796918 -28.69 0.0009516833    1.792    0.442
       293  -9.9695     76.0313     15.4827   4.4825824264e+01   6.4798121167e+01    0.4234386    0.2066464  42.99  0.001320975    2.070    0.517
       294 -11.8097     22.4568    248.7489   1.0698271552e+02   2.1586480474e+01    0.3573032    0.1827846  40.86  0.001830777    1.312    0.238
       295  -9.7428    177.3742    234.8044   7.5125798920e+01   6.1030508219e+00    0.1415289   0.09032245 -19.38 0.0009481977    1.701    0.412
       296 -10.3516    159.9770    235.5209   7.8433235485e+01   8.1386261825e+00    0.1726092   0.08558807  28.67 0.0004796321    1.544    0.352
       297  -9.4807    221.3110    234.3430   6.7569322524e+01   1.0820268204e+00    0.1098436   0.06017671   3.37 0.0004767179    1.700    0.412
       298  -9.7416    186.1531     22.8392   2.7036633026e+01   3.5338829030e+01    0.2228433    0.1594272 -54.83  0.001076875    1.302    0.232
       299 -10.6940    102.5881     21.2860   3.9785451919e+01   5.7345202204e+01    0.5720919    0.3219173  50.96  0.002488044    1.686    0.407
       300  -9.8234     97.5025     23.5045   4.2179185339e+01   5.8367403426e+01    0.3080981    0.1827684  68.26 0.0007273731    1.786    0.440
       301 -10.2949     94.2216     22.9809   4.2863445087e+01   5.9275923212e+01    0.3301011    0.2291289 -35.08  0.001015524    1.481    0.325
       302 -10.6676     85.3581     21.3020   4.4756555749e+01   6.1728317765e+01    0.4657581    0.2471024  51.55  0.001989251    1.763    0.433
       303 -10.7874     86.7791    232.8935   9.2929888340e+01   1.7508659763e+01     0.238637   0.09929295  46.67  0.001231143    2.112    0.527
       304 -10.0662     38.4331    232.4319   1.0314835180e+02   2.2805474852e+01    0.1658626    0.1406676  55.51 0.0003364006    1.178    0.151
       305 -10.1219     24.2621    232.1284   1.0610186571e+02   2.4186682842e+01    0.1728561    0.1273827  26.94 0.0006112178    1.326    0.246
       306  -9.1899     58.5021    229.4909   9.8719665933e+01   2.1255739892e+01    0.1164063    0.0863606  42.10 4.754814e-05    1.014    0.013
       307  -9.6571    107.7152     27.5965   4.1332546293e+01   5.5166547818e+01    0.2015944    0.1421721  73.89 0.0008462501    1.505    0.335
       308 -11.2377      4.1611    226.7452   1.1012609228e+02   2.6834729322e+01    0.2556703    0.1348948  70.02  0.001687796    1.673    0.402
       309 -10.9703    121.2275    226.4847   8.5079865262e+01   1.4282285312e+01    0.2622258    0.1512346  62.63  0.001309089    3.061    0.673
       310 -10.3064      9.5956     15.8711   8.6846613998e+01   7.6077588364e+01    0.2895612    0.1746015 -23.61  0.001466024    1.720    0.419
       311  -9.4309    190.4905    226.4829   7.1672311209e+01   5.5001500979e+00    0.1136703   0.08188265  12.37 0.0008099431    1.046    0.044
       312  -9.2398     25.2510     14.3586   7.2400858827e+01   7.4822580199e+01    0.1927953    0.1291674  24.27 0.0002200485    1.526    0.345
       313 -11.2265     88.7428    241.1180   9.3177735448e+01   1.5991765424e+01    0.2047218    0.1446799 -50.52  0.001434853    1.882    0.469
       314 -10.8534     15.4686    221.7467   1.0763021202e+02   2.6796032141e+01    0.2965461   0.06118508  40.78  0.001388985    2.553    0.608
       315  -9.9319    124.3430    221.0593   8.3826214932e+01   1.4709989443e+01    0.2615227    0.1419375   0.36  0.001082013    3.872    0.742
       316  -9.6966    139.0634     19.5388   3.1767999925e+01   4.7816431763e+01    0.2272553    0.1378019  70.27  0.001028454    1.586    0.369
       317  -9.8647     50.9686     17.9404   5.7437151363e+01   6.9937835141e+01    0.2881827    0.1944481  50.84 0.0003443019    1.578    0.366
       318 -11.2246     21.3737    220.2476   1.0631044957e+02   2.6553513350e+01    0.1986068    0.1196661  70.47   0.00130774    1.542    0.351
       319  -9.7565    191.7739    217.7561   7.0219345152e+01   6.3871497912e+00    0.1491732   0.08897887 -45.95 0.0008892608    2.441    0.590
       320 -11.4175     10.4738    216.8039   1.0856986488e+02   2.8119230391e+01    0.3574906    0.2062045  18.68  0.002231008    1.845    0.458
       321 -10.0057     12.5199    212.0632   1.0799264463e+02   2.8834565145e+01    0.2430043   0.09994166  89.88  0.001299893    2.544    0.607
       322 -10.4993     11.0771    207.9227   1.0819667175e+02   2.9741596778e+01    0.1972615    0.1586343  80.05 0.0006118548    1.274    0.215
       323 -10.2380     39.6738     14.6836   6.2119773387e+01   7.2575358852e+01    0.2378252    0.1595406  23.44 0.0006298742    1.618    0.382
       324 -10.9119    177.9710     17.9872   2.6386533026e+01   3.7863965033e+01    0.2000219    0.1824778 -61.34            0    1.016    0.015
       325 -10.1280    108.3818     17.2431   3.6543823633e+01   5.6314853665e+01    0.2399053    0.2089998  26.63 0.0005545964    1.235    0.191
       326 -10.7061    194.9104     16.8154   2.4500038407e+01   3.3876113817e+01    0.2075405    0.1852941 -56.55 0.0003336283    1.023    0.022
       327  -9.7493     82.5519     17.1253   4.3493362603e+01   6.2989726281e+01    0.2012065    0.1431665 -26.89 0.0003860185    1.467    0.318
       328 -10.0658    143.7045     16.2300   2.9846476523e+01   4.6934847987e+01    0.1978481    0.1625506  34.78  0.001043934    1.376    0.273
       329 -11.2622    247.0145     15.0398   2.0619251388e+01   2.2961299899e+01    0.2057297    0.1015643 -51.40  0.001143399    1.713    0.416
       330  -9.8714    184.5593     14.8257   2.4810484964e+01   3.6562242163e+01    0.3322075    0.1430102  68.48  0.001431699    2.271    0.560
       331 -10.0622     38.2292    217.2189   1.0247209961e+02   2.5528378673e+01    0.1692286   0.09891758  49.79 0.0008008109    1.340    0.254
       332 -11.3040    235.8158    214.6951   6.2457011444e+01   1.4807864062e+00    0.2507247     0.125051 -22.17  0.001210211    1.832    0.454
       333 -11.7664    238.2883    210.3101   6.1411834921e+01   1.6558803080e+00    0.2716725    0.1948984  29.24  0.001745385    1.553    0.356
       334 -11.3561     29.4354    215.5418   1.0435587372e+02   2.6684587734e+01    0.2783722     0.188645  25.75  0.001456525    1.406    0.289
       335  -9.5133    136.5075    215.5177   8.0619787427e+01   1.3949793886e+01    0.1222566   0.09573953  21.61 0.0005296294    1.057    0.054
       336  -9.5738    169.6253    213.1666   7.3667592855e+01   9.8459698481e+00    0.1516079   0.09900777 -22.03 0.0007438995    1.675    0.403
       337 -10.2184     20.6641    212.1258   1.0618099320e+02   2.8123629055e+01    0.1848751    0.1082087  61.80  0.001171952    1.449    0.310
       338  -9.7369     83.7890     13.5888   4.1202674185e+01   6.3133357217e+01    0.1904144    0.1369495  74.34 0.0002451753    1.517    0.341
       339  -9.9561     55.2640     12.9254   5.2063233827e+01   6.9864196333e+01    0.1933935    0.1718211 -15.93  0.000514358    1.117    0.105
       340 -10.9898      1.4846    211.0112   1.1039545492e+02   2.9914350962e+01    0.2349314   0.09644257  70.82 0.0009193597    2.158    0.537
       341 -11.9834      5.5156    208.6681   1.0945839430e+02   3.0046020199e+01    0.3757164    0.2553754 -87.47  0.002030512    1.551    0.355
       342 -10.7130    247.6003    205.8199   5.9325883323e+01   1.0758517105e+00    0.1998203    0.1280261 -26.55   0.00146063    1.560    0.359
       343 -11.0412     20.0529    200.2183   1.0587468973e+02   3.0485312838e+01    0.4551457    0.1850379 -75.79  0.002345383    2.603    0.616
       344 -10.7377    175.3214    202.3179   7.0986556998e+01   1.0564278597e+01    0.2088475    0.1675226  21.74 0.0004314637    1.109    0.098
       345  -9.9291    117.0991    201.5004   8.3063461178e+01   1.8875726520e+01    0.1964955    0.1041222  32.87 0.0008143312    1.546    0.353
       346  -9.3264    188.2298    204.9819   6.8970134118e+01   8.4547667593e+00    0.1354897   0.09029146 -30.24 0.0005558464    1.588    0.370
       347 -11.5536     16.0251    193.0305   1.0655948193e+02   3.2280400526e+01    0.4574077    0.1997837  26.12   0.00239099    2.037    0.509
       348 -10.3482    244.9127    188.0352   5.6851753044e+01   3.2542757394e+00    0.1722291    0.1232253  -1.47 0.0005492384    1.035    0.034
       349  -9.5291      2.3286    187.3326   1.0969466175e+02   3.4532653512e+01    0.1056744   0.08448978 -42.98 0.0006664065    1.718    0.418
       350  -9.6118     61.6279    184.7886   9.4617850183e+01   2.9372142752e+01    0.1694303    0.1137674  84.76 0.0009435323    1.671    0.401
       351 -11.6619     15.7933    181.9573   1.0618561314e+02   3.4612940600e+01    0.4452824    0.1950565  62.10  0.002252736    2.020    0.505
       352 -10.3828    167.8423    183.1290   6.9414839614e+01   1.4453600852e+01     0.185823    0.1658344  29.12 0.0009495277    1.226    0.184
       353  -9.7693     58.8554    181.8333   9.5063469130e+01   3.0320128344e+01    0.1839465    0.1690417  18.67 0.0007364367    1.229    0.186
       354  -9.2471      1.6707    179.7349   1.0967020096e+02   3.6174837505e+01    0.1017225   0.08771545 -35.53 0.0003156064    1.574    0.365
       355 -10.0145    244.4979    177.9869   5.5207230724e+01   4.4157017708e+00    0.1710573   0.08934565 -24.25  0.001041078    1.638    0.389
       356 -10.4259     46.8308    177.4233   9.7840881835e+01   3.2626064599e+01    0.2497634    0.2032703  68.63  0.001267336    1.148    0.129
       357 -10.5928     18.5097    173.0490   1.0508839965e+02   3.6320324166e+01    0.2493995    0.1302282  43.13  0.001099237    1.545    0.353
       358 -12.3834     36.9036    165.5526   9.9612287100e+01   3.6309070888e+01    0.7246576    0.5545121   3.69  0.002184423    1.636    0.389
       359 -10.6684     35.4680    161.4799   9.9704750004e+01   3.7386677480e+01    0.2964925    0.1992111  10.94  0.001077463    1.790    0.441
       360 -11.7616     51.8101    162.5889   9.5153935634e+01   3.5379787024e+01     0.708982    0.4267829  70.15  0.003569333    1.782    0.439
       361 -10.4827      5.0294    168.4914   1.0848545340e+02   3.8379126302e+01    0.1760246    0.1076154  26.39  0.001028531    1.577    0.366
       362  -9.3439    177.2726    168.6527   6.5004062891e+01   1.5230444376e+01    0.1127863    0.1047691 -89.69 0.0002980585    1.625    0.385
       363  -9.7887     11.6421    166.3158   1.0663031061e+02   3.8374911574e+01    0.1403804   0.06632591  53.31 0.0007044218    1.750    0.429
       364 -10.1382    186.8104    165.1978   6.2521045191e+01   1.4246706197e+01    0.1938499    0.1505419  87.18 0.0009638701    2.931    0.659
       365 -10.5864     55.4098    161.2018   9.3989897589e+01   3.5276725451e+01    0.2960508    0.2000401  59.75 0.0008638904    1.421    0.296
       366  -9.4168    111.7682    164.0318   7.9026711691e+01   2.6703314729e+01    0.1673196     0.117228 -55.67 0.0005358009    1.605    0.377
       367 -11.2563     19.3683    157.8981   1.0406588356e+02   3.9684518450e+01    0.4402018    0.2922039 -65.44  0.000405487    1.609    0.378
       368 -11.4677     23.9932    156.9972   1.0268151009e+02   3.9500795717e+01    0.4317204    0.2542539  88.50  0.000779013    1.649    0.394
