#   1 NUMBER                 Running object number                                     
#   2 MAG_AUTO               Kron-like elliptical aperture magnitude                    [mag]
#   3 X_IMAGE                Object position along x                                    [pixel]
#   4 Y_IMAGE                Object position along y                                    [pixel]
#   5 X_WORLD                Barycenter position along world x axis                     [deg]
#   6 Y_WORLD                Barycenter position along world y axis                     [deg]
#   7 A_WORLD                Profile RMS along major axis (world units)                 [deg]
#   8 B_WORLD                Profile RMS along minor axis (world units)                 [deg]
#   9 THETA_WORLD            Position angle (CCW/world-x)                               [deg]
#  10 FWHM_WORLD             FWHM assuming a gaussian core                              [deg]
#  11 ELONGATION             A_IMAGE/B_IMAGE                                           
#  12 ELLIPTICITY            1 - B_IMAGE/A_IMAGE                                       
         1 -10.9369      2.0511     22.0661   1.0464750932e+02   7.0827000501e+01    0.3225231    0.1459706 -59.36  0.001052657    2.099    0.524
         2 -11.1488     13.7346     16.0904   9.6103393798e+01   7.1099387289e+01     0.242176    0.2190952 -19.54  0.001067285    1.339    0.253
         3 -10.4943     76.1644     15.4018   6.8193684518e+01   6.2714540282e+01    0.2977279    0.1967217 -41.06 0.0006272856    1.836    0.455
         4 -11.3659     86.0903     19.2045   6.6662992128e+01   6.0330946154e+01    0.3213581    0.2235767   4.16 0.0003478174    1.499    0.333
         5 -11.4899    234.5943     14.8912   3.9760526845e+01   2.4579645408e+01    0.2666819    0.2002641 -67.70 5.974572e-05    1.175    0.149
         6 -11.3295     20.7155      1.8609   8.5361707090e+01   7.2632142871e+01       0.2475    0.1514486  19.59 0.0006790879    1.598    0.374
         7 -10.5556     22.8646      8.9229   8.7902070694e+01   7.1404473182e+01    0.3500612    0.1965013  -6.11  0.001988248    1.962    0.490
         8 -10.5851     36.7537      6.1108   7.9483168080e+01   7.0176489540e+01    0.3510495    0.2047406 -44.41  0.001858952    2.284    0.562
         9 -12.0335     34.9136     12.7989   8.3783215967e+01   6.9491228635e+01    0.3560802    0.2817927 -15.51 0.0008739064    1.077    0.072
        10 -11.6803     30.3651      6.8101   8.2969668463e+01   7.0878470181e+01    0.3986604    0.3253514   8.48   0.00288442    1.228    0.186
        11 -10.3852     26.7959      2.0111   8.2218978167e+01   7.1940062505e+01    0.2799626    0.1317535   9.87  0.001267081    3.232    0.691
        12 -10.1912     88.6225      7.1660   6.0521102676e+01   6.1125940252e+01     0.417641    0.2167928 -22.75  0.001315656    1.964    0.491
        13 -11.0385     89.7531     13.4140   6.2986975710e+01   6.0248754570e+01    0.5194505     0.311272  64.38  0.002518246    2.119    0.528
        14 -10.3820     92.4229     10.1078   6.0755970937e+01   6.0034975534e+01    0.2556169    0.1576754  41.31 0.0005000317    1.435    0.303
        15 -11.0837     64.5625     11.8933   7.0665467959e+01   6.5227112090e+01    0.3749349    0.2865323 -69.36    0.0018786    2.746    0.636
        16 -11.1914    126.6038     10.6472   5.2816261484e+01   5.2140722790e+01     0.379362    0.1740379  44.03  0.001130064    2.040    0.510
        17 -10.0772     99.0293     11.2617   5.9452862394e+01   5.8493508921e+01    0.3157987    0.1698812  65.85  0.001424494    2.237    0.553
        18  -9.7742     15.2019      9.0075   9.2053963711e+01   7.2118317312e+01     0.175022    0.1101983 -22.22   0.00041439    1.281    0.220
        19 -10.4857    224.1458      7.8578   3.8984937254e+01   2.7818424793e+01    0.2109192    0.1519488 -64.26 0.0008155425    1.248    0.199
        20  -9.9867    156.0479      7.7516   4.6687570518e+01   4.5006437083e+01    0.1925822    0.1609689  65.52  0.000193344    1.070    0.065
        21  -9.7410    211.4058      6.4104   3.9766359859e+01   3.1054640601e+01    0.2336366    0.1270181  -2.67  0.000953472    3.320    0.699
        22 -10.9768     71.3454      6.0053   6.5373864947e+01   6.4661671279e+01    0.3138346    0.2870264   4.70  0.002127364    1.204    0.170
        23  -9.9058     65.3613      7.1581   6.8046945857e+01   6.5628301228e+01    0.1938957    0.1463564  42.96 0.0006802275    1.380    0.275
        24 -10.5626      8.9404      5.5836   9.3891509072e+01   7.3167055411e+01    0.3334368    0.2017045  37.03  0.001662607    2.437    0.590
        25 -10.8393    151.1364      5.6521   4.6736564846e+01   4.6454157942e+01     0.300686    0.1494772 -28.15 0.0008718289    2.139    0.533
        26  -9.7564    145.0123      5.9466   4.7797358712e+01   4.7984979341e+01    0.1621867    0.1481691  58.51 0.0003473469    1.025    0.025
        27 -11.7809     57.2242      3.1891   6.9091607831e+01   6.7459566339e+01    0.4079213    0.2684264   3.12  0.002427092    1.433    0.302
        28  -9.7728     41.3246      5.7974   7.7186332465e+01   6.9600013672e+01    0.2094107    0.1278761 -17.59  0.001247674    1.454    0.312
        29 -10.5074    107.7235      4.9214   5.4629511622e+01   5.7138317363e+01     0.228976    0.1652422  46.67 0.0001723007    1.203    0.168
        30 -11.1250    101.8257      2.3684   5.4945757013e+01   5.8696260615e+01    0.4228349    0.2976202  76.98  0.001106516    1.758    0.431
        31  -9.5767    120.9771      4.2433   5.1506571686e+01   5.4080702837e+01    0.1750397    0.1039129  62.02 0.0003639887    1.526    0.345
        32 -10.3434    130.0154      3.0829   4.9345986945e+01   5.1979270066e+01    0.2072516    0.1857519  54.98 0.0004997373    1.030    0.029
        33  -9.4404     16.3321      3.9464   8.8882204592e+01   7.2774542210e+01     0.158191    0.1135896 -20.43  0.001121672    1.045    0.043
        34  -9.7536      2.4367      6.5066   9.8101066535e+01   7.3486813401e+01    0.1954204   0.09785377  13.95  0.001105082    2.150    0.535
        35  -9.7837    176.1764      2.1466   4.2284905529e+01   4.0346125241e+01    0.2151609    0.1705235  48.66  0.001228599    1.300    0.231
        36  -9.4904    187.1903      1.2612   4.0802196016e+01   3.7616897389e+01    0.1889731    0.1053923  83.59 0.0002251843    1.724    0.420
        37 -11.6035     80.4580      1.6446   6.0357764680e+01   6.3314117899e+01    0.2909725    0.1545683  51.62 0.0006743352    1.730    0.422
        38  -9.0106     67.2438      1.3794   6.4487206786e+01   6.5882317949e+01    0.1296399   0.07937685  13.02 0.0006937963    1.638    0.390
        39  -9.5592      9.9790      1.4800   9.1206920589e+01   7.3701301935e+01     0.145923   0.09557822  14.47  0.001012079    1.535    0.349
        40  -9.0387    237.7254    149.6998   7.1664582589e+01   3.4555159007e+00    0.1385031    0.1001752   0.94 0.0002346358    1.534    0.348
        41 -12.6745      9.7468    227.9704   1.2948671279e+02   2.6027929009e+01    0.5041594    0.2767267  74.05  0.001776746    1.366    0.268
        42 -11.2050      1.6371    225.7632   1.3072709532e+02   2.7212623158e+01    0.2897262    0.1057537 -86.93  0.001258839    2.320    0.569
        43 -11.3191      3.0800    248.8772   1.3141488973e+02   2.2960073725e+01    0.4160928    0.1851917  54.05  0.002882459    1.578    0.366
        44 -11.4092     14.1247    238.7055   1.2926678715e+02   2.3635811158e+01    0.2386226    0.1154332  67.87  0.000585585    1.568    0.362
        45 -11.9060      9.2319    244.9639   1.3031573890e+02   2.3027382090e+01    0.3560903    0.2153745  27.94  0.002407008    2.522    0.604
        46 -12.9582      5.8673    240.2328   1.3064833320e+02   2.4189823497e+01    0.5349736    0.4355948  43.92  0.003902657    1.608    0.378
        47 -12.0895      4.1245    232.7017   1.3061468727e+02   2.5706265706e+01    0.2799727    0.1463288  65.60   0.00195943    1.378    0.275
        48  -9.2349     41.9874    138.9869   1.1537994734e+02   4.1878488778e+01    0.1547903    0.1318111 -84.43 0.0003860754    1.029    0.028
        49  -9.5045     24.5348    139.0047   1.1988788860e+02   4.3576293953e+01     0.190658   0.09966523 -70.82 0.0008322967    1.544    0.352
        50 -10.2031    212.5500    133.9585   7.2614762973e+01   1.1215378215e+01    0.2571984    0.2114477  68.86 0.0006416216    1.511    0.338
        51  -9.4036     96.0209    133.9497   9.9958773626e+01   3.5619272696e+01    0.1756273    0.1649157 -83.27 0.0004670114    1.011    0.011
        52 -10.4219      2.1935    133.1059   1.2489962538e+02   4.6657925417e+01    0.2413315    0.1543054  50.41  0.001419963    1.669    0.401
        53  -9.2794     35.3715    130.8191   1.1602424760e+02   4.4507819353e+01    0.1859821   0.09466753 -59.73  0.000522566    1.665    0.400
        54 -10.8512     11.7699    129.7805   1.2214997110e+02   4.6763428726e+01    0.2249572    0.1675117  68.57  0.001066871    1.334    0.250
        55  -9.4093     20.4378    125.4464   1.1936231011e+02   4.7114658066e+01    0.1251226   0.09891808 -82.08 -5.119154e-05    1.043    0.041
        56 -11.2514      8.1746    121.4550   1.2220212704e+02   4.8950369225e+01    0.2810834    0.1763019  76.46 0.0007351671    1.588    0.370
        57 -10.0610      1.6022    122.7825   1.2408104557e+02   4.9062928890e+01    0.1743761   0.08890466 -86.94 0.0009476331    1.683    0.406
        58  -8.8697     68.2558    122.7111   1.0546402545e+02   4.2614615902e+01    0.1350299    0.1017547  83.79 0.0001587207    1.484    0.326
        59 -11.7867     23.7041    120.9554   1.1789068897e+02   4.7910066569e+01     0.433039    0.2554664  77.50  0.001114776    1.896    0.473
        60  -9.3409     17.6673    121.7373   1.1965997088e+02   4.8205555953e+01    0.1185491   0.08013567 -46.60 0.0001324531    1.576    0.366
        61 -10.9639     65.8037    110.7884   1.0377147260e+02   4.5824114021e+01     0.320018    0.2421045  79.81  0.001065001    1.574    0.365
        62  -9.3078    102.9743    109.0690   9.2311913740e+01   4.0261202102e+01    0.1765459    0.1653165 -55.46 0.0003308279    1.018    0.018
        63  -9.2723     35.6678    109.3134   1.1265271082e+02   4.9624991054e+01     0.131374    0.0907927  74.64  0.000417188    1.680    0.405
        64 -11.7394      3.7771    108.6765   1.2197095518e+02   5.2185783519e+01    0.3426879    0.2415544 -12.64  0.002203495    1.979    0.495
        65 -11.5809     58.0773    107.1727   1.0537617596e+02   4.7692024777e+01    0.3560202    0.2393156 -32.77  0.001013241    1.766    0.434
        66  -9.0450    161.5296    102.4594   7.5197631815e+01   2.9021243308e+01    0.1573385    0.1553582 -61.69  0.000105575    1.022    0.022
        67  -9.6548     88.7003    105.8804   9.5708825332e+01   4.3528356027e+01    0.2477455    0.1752339 -38.30  0.001187147    1.466    0.318
        68 -10.0448    186.9349    103.0830   6.9863145614e+01   2.2796859639e+01    0.2308561    0.2275498 -70.01 0.0005077288    1.039    0.037
        69  -9.5407    245.6660     97.3282   5.8291519541e+01   1.0406038653e+01     0.146564    0.1021491 -62.08 0.0007051845    1.721    0.419
        70 -12.1042      9.9366     91.4300   1.1777605717e+02   5.5802794163e+01    0.4691575    0.3115876 -70.29  0.002190553    1.192    0.161
        71 -10.5467     11.3950     85.1762   1.1628536916e+02   5.7147069587e+01    0.2290297    0.1462027 -85.36 0.0007088956    1.597    0.374
        72 -10.2513      3.6707     95.1730   1.2029678171e+02   5.5299867927e+01    0.2518111    0.1495707  85.58  0.001440165    1.762    0.433
        73  -9.7468     19.1071     86.6967   1.1395769944e+02   5.6295000240e+01    0.3248054    0.1658927 -61.34   0.00137975    1.506    0.336
        74 -12.4408     20.8464     92.7820   1.1446419991e+02   5.4764196036e+01    0.3248611    0.2632722 -37.26 0.0004698023    1.307    0.235
        75 -10.4946     24.1339     88.5978   1.1261953682e+02   5.5486559588e+01    0.3245446    0.1948306 -72.94 0.0005647737    1.522    0.343
        76 -11.2560    125.1585     93.3005   8.1734489525e+01   3.9297907258e+01    0.2636858    0.2481991 -45.23 0.0002234507    1.047    0.045
        77 -10.0702     78.8548     93.9519   9.5704134726e+01   4.7895010708e+01    0.2144953      0.17826 -28.49 0.0003630336    1.259    0.206
        78 -10.3140     44.1737     91.0492   1.0638951414e+02   5.3097736894e+01     0.446161    0.2412349 -60.15  0.002206806    1.574    0.365
        79 -11.1484     57.9331     91.6664   1.0193971907e+02   5.1371116409e+01    0.3490551    0.2389486 -23.55  0.001679298    1.813    0.448
        80  -9.9321     76.3242     89.2133   9.5252274261e+01   4.9369539345e+01    0.2194605    0.1942112   5.76 0.0007242292    1.254    0.203
        81 -10.3410     55.1176     85.4915   1.0136406261e+02   5.3141682296e+01    0.2353871    0.1951921 -82.14 0.0006002137    1.382    0.276
        82  -9.6710    113.6028     85.5610   8.2678302063e+01   4.3397222281e+01    0.1538816      0.14161 -15.38 0.0007962298    1.106    0.096
        83 -10.8221      3.4800     82.7417   1.1854353141e+02   5.8138860004e+01    0.3044269    0.1981176 -71.03   0.00192767    1.218    0.179
        84 -10.9246      4.7542     77.3931   1.1723443184e+02   5.9276817605e+01    0.3252145    0.1179501 -46.32 0.0006676975    2.312    0.568
        85 -10.1999    124.5177     80.2013   7.7956413816e+01   4.2148784219e+01    0.5047858    0.1494327 -41.54  0.001498991    3.308    0.698
        86 -10.0450     29.3711     92.3801   1.1159398786e+02   5.4186036868e+01    0.2301276    0.1697989 -59.25 0.0007508075    1.100    0.091
        87  -9.4555    250.3292     81.2922   5.3849021323e+01   1.1942778350e+01    0.1330605    0.1063861  12.64  0.000456734    1.626    0.385
        88  -9.8500     88.7897     80.1209   8.8593028497e+01   4.9326900559e+01    0.3890776     0.253484  67.81   0.00159844    2.596    0.615
        89 -10.7143     64.6949     80.1000   9.6635292702e+01   5.3114423525e+01    0.2869976    0.2697787 -34.60   0.00140169    1.068    0.063
        90  -9.3607     47.8724     79.1227   1.0226891734e+02   5.5431868183e+01    0.1855162    0.1360106 -34.14 0.0004067268    1.333    0.250
        91  -9.6735     24.3993     78.7945   1.1056910328e+02   5.7709956733e+01     0.213234     0.121151 -38.03  0.001143407    1.739    0.425
        92 -10.5800     28.0829     77.0792   1.0887546475e+02   5.7805022353e+01    0.1855474    0.1516797 -52.28 0.0003550869    1.018    0.017
        93  -9.7053    176.6679     76.8150   6.4597770584e+01   3.0164740760e+01    0.2240131    0.1994127  45.52 0.0009971412    1.146    0.127
        94 -10.7453     55.1891     75.7119   9.8747754060e+01   5.5331218415e+01    0.2791874    0.2285834 -34.61 0.0007757635    1.129    0.115
        95  -9.8796     41.8621     75.8652   1.0359313963e+02   5.6806404436e+01    0.1712712    0.1474918 -78.40 0.0004107107    1.305    0.234
        96  -9.9886     37.2122     75.4062   1.0516902764e+02   5.7370341687e+01    0.2272856    0.1500677 -49.09 0.0007800849    1.249    0.199
        97 -10.7175     33.0019     73.2242   1.0617723296e+02   5.8246986892e+01    0.3759988    0.1999532  47.09  0.001823047    2.603    0.616
        98 -11.1952     20.4083     73.0548   1.1078274157e+02   5.9295203507e+01    0.3817301    0.1689838 -46.62  0.001211699    1.862    0.463
        99 -10.7005     14.6210     75.1708   1.1332848230e+02   5.9211102041e+01    0.2456839    0.1826892  63.52 0.0009086544    1.731    0.422
       100 -10.0136     70.2189     75.5584   9.3413664843e+01   5.3320677793e+01     0.180694    0.1346683  13.85 0.0009100987    1.573    0.364
       101 -11.1706     10.2952     79.1217   1.1560662636e+02   5.8585544834e+01     0.327141     0.184138 -70.31  0.001336362    1.476    0.323
       102  -9.9421    217.0729     72.3170   5.6281007570e+01   2.0886514260e+01    0.2267148    0.1930348 -26.46 0.0003622278    1.208    0.172
       103 -10.9236    106.1663     72.1068   8.0634237822e+01   4.7683483897e+01    0.2762954    0.2176433  50.42  0.001014584    1.366    0.268
       104  -9.4555     91.0249     69.5055   8.4510318163e+01   5.1137146030e+01    0.2248614    0.1814993 -89.02 0.0008435755    1.806    0.446
       105 -10.1183     99.9873     70.6824   8.2054375409e+01   4.9201781781e+01    0.2333499    0.1947604 -37.47 0.0006403148    1.147    0.128
       106 -11.0028     46.4217     69.2324   1.0013380686e+02   5.7779937909e+01    0.2893528    0.2186995   3.13 0.0004915516    1.534    0.348
       107 -12.2106      5.3172     68.6992   1.1546281409e+02   6.1178516683e+01    0.6766289    0.2106243 -69.65   0.00285807    2.799    0.643
       108 -10.6543      1.3769     66.6626   1.1654048114e+02   6.1814885027e+01    0.1975166    0.0913309 -70.35  0.001044905    1.788    0.441
       109 -12.1843     10.7227     67.8148   1.1327048580e+02   6.1079780929e+01    0.6024492    0.4308556 -32.02  0.003564066    1.403    0.287
       110 -11.8254     10.7221     59.9941   1.1156471307e+02   6.2779651649e+01    0.4683893    0.3356693  -7.86  0.001132504    1.626    0.385
       111 -10.2346     23.8687     53.3477   1.0449857414e+02   6.3291322368e+01    0.2313432    0.1647889 -34.10 0.0005921393    1.226    0.184
       112 -10.1515     79.9694     68.0373   8.7705188798e+01   5.3369793814e+01    0.2542037    0.2010504  20.46  0.001264053    1.364    0.267
       113 -10.5436     36.3212     72.3019   1.0471894634e+02   5.8146012680e+01    0.4288396    0.1956026 -34.11  0.001860879    2.574    0.612
       114 -11.0550     62.9709     63.6122   9.2280906876e+01   5.6888636453e+01    0.5181159    0.2932746 -40.71  0.002514204    1.584    0.369
       115  -9.4979    133.6376     65.6713   7.0864639818e+01   4.2810590564e+01    0.1650198    0.1186408  16.05 0.0007039959    1.799    0.444
       116 -10.2427     34.6865     64.6955   1.0333383230e+02   5.9961547227e+01    0.2518911    0.1450795 -52.93  0.001354525    1.423    0.297
       117  -9.4228     96.8330     64.3310   8.0909604047e+01   5.1060302511e+01     0.197229    0.1313077  32.26 0.0002402495    1.605    0.377
       118 -10.4638    101.3337     61.2290   7.8430563790e+01   5.0755693476e+01    0.2907813    0.2480404 -60.39  0.001196407    1.392    0.282
       119  -9.8997     39.2315     62.0574   1.0082153587e+02   6.0082641684e+01    0.2755432    0.1749318 -66.64  0.001448248    1.793    0.442
       120  -9.1396     55.7185     60.6923   9.4041190566e+01   5.8466588967e+01    0.1362258   0.09172831 -24.13 0.0006976645    1.561    0.359
       121 -10.4162     49.2114     59.5672   9.6175550405e+01   5.9505201475e+01    0.2755082    0.2123003 -78.10 0.0008795397    1.839    0.456
       122 -13.4578     20.2463     58.0520   1.0727188902e+02   6.2576769524e+01    0.4337447    0.2538562 -59.12   0.00113859    1.429    0.300
       123 -10.0276    193.6722     58.8607   5.6312141380e+01   2.8812479061e+01    0.2977546     0.210677  72.23  0.001398988    1.487    0.328
       124 -10.7176     83.8016     56.5293   8.2450118776e+01   5.4963835478e+01    0.2781984    0.2509442 -55.60  0.001188042    1.297    0.229
       125 -11.6625     87.8187     53.1217   7.9859584632e+01   5.4858762859e+01    0.5198085    0.3657826  40.02   0.00266818    1.465    0.318
       126  -9.4724     71.6366     56.8241   8.6823594711e+01   5.6950632665e+01    0.1887893     0.121743 -50.55 0.0009268642    1.621    0.383
       127 -10.1526     32.3356     56.1582   1.0183504538e+02   6.1986364740e+01    0.3873837    0.1641642 -29.92  0.001568645    3.144    0.682
       128 -10.2693      8.6832     56.4279   1.1155480793e+02   6.3656617586e+01    0.1757049    0.1100296  23.50  0.001006315    1.969    0.492
       129 -11.6028    114.3843     53.8467   7.1961528206e+01   4.9299285968e+01    0.3429136    0.2886609  26.62 0.0007120115    1.187    0.158
       130 -11.0040      4.6038     40.7017   1.0928708841e+02   6.7121551024e+01    0.4854864     0.179845 -38.31  0.002434179    2.272    0.560
       131 -11.5756      4.6817     35.1942   1.0765599632e+02   6.8206844892e+01    0.5700939    0.3272473   5.71  0.003564053    2.027    0.507
       132 -10.2420     20.0128     44.9080   1.0363934791e+02   6.5306969628e+01    0.2132575    0.1406909 -48.47 0.0007280527    1.203    0.169
       133 -11.3381     12.5790     40.4658   1.0559885706e+02   6.6707778500e+01    0.3742021    0.2764229 -76.02   0.00209241    1.736    0.424
       134 -11.1990      5.6279     50.8620   1.1148515577e+02   6.4990767885e+01    0.3341626    0.1934427 -30.66 0.0005799337    1.663    0.399
       135 -11.9077     13.6368     47.5365   1.0719554620e+02   6.5217350057e+01    0.7587067    0.5147705 -10.89  0.004880825    1.616    0.381
       136  -9.9354    106.1985     52.9765   7.4015390510e+01   5.1223372563e+01    0.2121547    0.1982016 -81.46 0.0006885465    1.306    0.234
       137 -12.0902     65.1119     52.4773   8.7677136100e+01   5.8784350882e+01    0.4674821    0.2437012  39.49  0.001558494    2.111    0.526
       138 -10.1291    149.6274     52.0028   6.2559879171e+01   4.1171974788e+01    0.3275594    0.2016246  65.86 0.0009125624    1.771    0.435
       139 -10.3687     76.4878     48.4980   8.2039340171e+01   5.7702543102e+01    0.2820406     0.219727 -28.72  0.001260116    1.178    0.151
       140 -11.0170     78.4147     45.6339   8.0261808285e+01   5.7873131207e+01    0.3715373    0.2268655  47.06  0.001445375    1.856    0.461
       141 -11.3135     57.2189     46.5050   8.8524123776e+01   6.1039404991e+01    0.3718745    0.2356602 -55.48 0.0008572588    1.916    0.478
       142  -9.0830     38.5207     48.5352   9.6865351330e+01   6.2924454823e+01    0.1283993    0.1042214 -32.41 0.0008092598    1.008    0.007
       143  -9.6324    154.7015     47.5748   6.0034330206e+01   4.0555870333e+01    0.1933827    0.1444287  72.33 0.0002757078    1.435    0.303
       144  -9.3541     90.1663     46.8006   7.6714744264e+01   5.5516942592e+01    0.1944835    0.1522979   0.73 0.0003761501    1.339    0.253
       145  -9.8503     66.8899     46.7354   8.4884927644e+01   5.9578478712e+01    0.3586484     0.157339  35.30  0.001540572    2.438    0.590
       146  -9.6484    135.7434     46.3853   6.3800563473e+01   4.5489177623e+01     0.198655     0.133472  46.23 0.0003329962    1.433    0.302
       147  -9.9898     31.1006     45.8982   9.9129187919e+01   6.4178931737e+01    0.2068035    0.1642265 -68.34 0.0007492702    1.581    0.367
       148 -10.8783     26.3791     44.1226   1.0059348623e+02   6.4951349884e+01    0.3610452    0.2156705 -47.35  0.001744683    1.346    0.257
       149  -9.3134     46.4326     44.4050   9.2110665664e+01   6.2828608058e+01    0.1235306     0.110075 -31.90 0.0001531609    1.155    0.134
       150 -11.1120     69.4305     42.1607   8.2162342484e+01   5.9982562765e+01    0.2483751    0.2240223  -5.74 0.0006118029    1.075    0.070
       151 -10.7884    140.4815     40.7966   6.0779817791e+01   4.5133402744e+01    0.2946306     0.237958 -67.77 0.0006926029    1.485    0.327
       152  -9.1445     95.2841     42.3470   7.3355063451e+01   5.5237269659e+01    0.1467631    0.1041162   5.19 0.0007017733    1.648    0.393
       153  -9.0074    159.6677     41.7026   5.7142867509e+01   4.0125654853e+01    0.1556239    0.1099102  31.13 0.0007029463    1.644    0.392
       154 -10.1229    116.2609     40.0601   6.6395756138e+01   5.1054847632e+01    0.2675529    0.1942201 -48.07  0.001047111    1.594    0.373
       155 -10.0016     42.7754     40.5857   9.2228429263e+01   6.3972846834e+01    0.2159671    0.1522555 -40.11 0.0006320258    1.229    0.187
       156 -10.2215     35.3557     41.4881   9.5759906528e+01   6.4615538016e+01    0.2680168    0.1793877   7.63  0.001576692    1.654    0.395
       157 -10.1303     38.8320     35.6560   9.2047124311e+01   6.5319958349e+01    0.3809377    0.2284718  -5.76  0.001994771    2.045    0.511
       158 -10.9788     38.7469     30.8436   9.0153866326e+01   6.6176447762e+01     0.264254    0.2011995 -15.32 0.0008597865    1.140    0.123
       159  -9.9238     43.5131     30.4967   8.7893918700e+01   6.5667426940e+01    0.2377842     0.182693  -4.16 0.0008631431    1.203    0.169
       160 -11.3284     44.6294     26.6994   8.5776221088e+01   6.6153778811e+01    0.5340135    0.3273428   5.87  0.002880437    1.894    0.472
       161 -10.3781    128.0594     38.8458   6.2955498042e+01   4.8456268477e+01    0.2108322    0.2017649  33.89 0.0003887453    1.030    0.029
       162 -11.8850    121.3950     37.2404   6.4011412586e+01   5.0267544015e+01     0.459971    0.3878222 -45.28  0.001037554    1.316    0.240
       163  -9.7564    119.6867     29.9731   6.1706328371e+01   5.1645568496e+01    0.2268165    0.1795347  51.04 0.0005854844    1.202    0.168
       164 -10.7316     19.0209     32.1087   9.9809986274e+01   6.7854738424e+01    0.6621789    0.2774604   1.13  0.002639993    4.434    0.774
       165 -10.1828     22.4412     38.2530   1.0038368284e+02   6.6421319855e+01    0.1585012    0.1458028  73.12 0.0004895645    1.602    0.376
       166 -11.0307     26.7658     34.8750   9.7194942285e+01   6.6685593008e+01    0.4312116     0.236982 -25.87  0.001399632    1.799    0.444
       167 -10.5486     96.9881     34.9311   6.9897070055e+01   5.6015124698e+01    0.2313694    0.1877356 -16.66  0.001285525    1.198    0.165
       168  -9.6891    133.9492     34.3574   5.9966749935e+01   4.7635198029e+01    0.2045796    0.1169382  44.69 0.0005105832    1.684    0.406
       169  -9.3887    144.7969     32.7973   5.7101283186e+01   4.5127049735e+01    0.1946269    0.1651443 -73.91 0.0004852481    1.346    0.257
       170  -9.7980     73.0412     32.3335   7.6808551393e+01   6.0974380713e+01    0.1854752    0.1526777  19.33 0.0003599316    1.147    0.128
       171  -8.9594    166.4745     31.4692   5.2647183514e+01   3.9716952953e+01    0.1453744    0.1362281  81.81 0.0002276533    1.033    0.032
       172  -9.7533    128.7055     30.6355   5.9807350619e+01   4.9402479047e+01    0.2493951    0.1607694 -47.05 0.0009769379    1.808    0.447
       173  -9.9979     77.9582     30.9483   7.4467367966e+01   6.0308706029e+01    0.2613158    0.1708333  41.23  0.001379104    1.534    0.348
       174 -10.7124      7.6565     28.4528   1.0404069163e+02   6.9326753914e+01    0.3273772    0.2625331  56.73  0.002250842    2.017    0.504
       175 -11.2782    113.9103     25.6402   6.1478734817e+01   5.3535874306e+01    0.3780011    0.3027295 -17.62  0.001854841    1.283    0.221
       176  -9.6761    146.9338     26.6033   5.4552397806e+01   4.5351023177e+01    0.1991738    0.1728021  61.19 0.0004738922    1.083    0.077
       177  -9.2801    106.6547     27.2610   6.4026886790e+01   5.4978818294e+01    0.1308098     0.111017 -82.09 0.0002958867    1.598    0.374
       178  -9.7302     77.1193     26.9170   7.3028662573e+01   6.1042254653e+01    0.1901726    0.1407801   0.17  0.001058797    1.335    0.251
       179 -11.6813     18.4473    248.5287   1.2902698335e+02   2.1462495298e+01    0.2735109    0.2011668  16.96  0.001898761    2.720    0.632
       180  -8.8335    140.0077     27.0000   5.6055396039e+01   4.7056306370e+01    0.2396797    0.0775381  61.03 0.0006946439    2.894    0.654
       181  -9.8247    101.6624     26.3221   6.5033292760e+01   5.6196114717e+01    0.1340362    0.1102351 -69.41 0.0007050583    1.714    0.417
       182 -10.8637     12.6930    249.2450   1.2995662696e+02   2.1937295516e+01    0.2126251    0.1095942  43.52 0.0007694511    1.717    0.418
       183  -8.8843     18.3252     26.3329   9.7974430824e+01   6.8962573384e+01    0.1910736   0.08888276 -42.68 0.0006368203    1.658    0.397
       184 -11.4356     14.0641     20.9740   9.7987379699e+01   7.0240931475e+01    0.4301356    0.2332028  39.07  0.001925932    2.751    0.636
       185 -10.3327     58.5306     24.0372   7.8725129137e+01   6.4597043554e+01    0.3162479    0.1888158   0.72  0.001549221    2.118    0.528
       186  -9.4958    219.5147     23.4882   4.3292732965e+01   2.7164412405e+01    0.1357929    0.1213524 -75.74 6.747407e-05    1.024    0.023
       187 -10.1272     69.6044     27.3698   7.5932618374e+01   6.2307097250e+01    0.3803592     0.149883 -38.40  0.001604272    2.512    0.602
       188  -9.2910     91.5059     22.5121   6.6421973713e+01   5.8825079042e+01    0.1348408    0.1211173  14.71 -0.0001460005    1.046    0.044
       189 -11.0218     75.7424     21.3954   7.1068634426e+01   6.2044174842e+01    0.3216078    0.2090999  19.43 0.0006976012    1.595    0.373
       190  -9.5369    229.6765    248.0207   9.1592421821e+01  -8.8638572317e+00     0.154484    0.1219562   9.13 0.0006749764    1.117    0.105
       191 -10.1886     35.1457     21.8887   8.7957226851e+01   6.8078574950e+01    0.1663764    0.1128312 -19.12 0.0003953621    1.276    0.217
       192 -10.7102     30.4775     21.0938   8.9825212900e+01   6.8722524035e+01    0.2559186    0.1867487 -16.13 0.0009105345    1.143    0.125
       193  -9.6449    164.9723     20.9750   4.9570866008e+01   4.1350801468e+01    0.1666567      0.16393 -78.41 0.0007010992    1.078    0.072
       194  -9.0640    100.6512     21.0230   6.3132206887e+01   5.7067979506e+01    0.2260959    0.1074672  -0.02 0.0007049214    4.463    0.776
       195  -9.6399     58.0303    248.2822   1.2251671858e+02   1.6906304689e+01    0.1545027    0.1095532  59.78 0.0005310024    1.057    0.054
       196  -9.1546    156.7516     19.9881   5.0579737795e+01   4.3587483123e+01    0.1633963    0.1232036 -24.05 0.0003720212    1.445    0.308
       197 -10.6855     41.8547     19.8889   8.3944438936e+01   6.7576111358e+01    0.3614484    0.1878156  19.74  0.001838684    2.211    0.548
       198  -9.6845     44.0000     16.0356   8.1150174427e+01   6.7860981676e+01     0.166174    0.0889774 -32.64 0.0008963891    1.664    0.399
       199  -8.9104     22.8129     19.9958   9.3117484230e+01   6.9667588708e+01    0.1570368   0.09682216 -50.52 0.0009274541    1.749    0.428
       200 -10.4114     20.3704     17.0622   9.3063053412e+01   7.0375929306e+01    0.2107611    0.1343062 -18.45  0.000651872    1.384    0.277
       201  -9.7077     65.4975     19.0210   7.3701090220e+01   6.4168881538e+01    0.1916786    0.1150925 -29.55  0.001026193    1.583    0.368
       202  -9.5661     58.2573     19.4410   7.6719183936e+01   6.5295722211e+01    0.1576773    0.1185503  45.20 0.0009364614    1.619    0.382
       203  -9.2108    141.0023     18.4784   5.2857944315e+01   4.7773897135e+01    0.2183232    0.0887706  43.67 0.0008095877    2.520    0.603
       204  -9.5492     71.4566     18.4968   7.1264516911e+01   6.3197613932e+01    0.1334594    0.1081366   7.54 0.0001246388    1.070    0.065
       205  -9.3070    199.5242     17.4839   4.3906489978e+01   3.2832451774e+01    0.1380868    0.1239961 -85.88 9.881704e-05    1.008    0.008
       206  -9.9557    114.9909     17.3206   5.7938012911e+01   5.4242628714e+01    0.1973602     0.154522  51.83 0.0003004537    1.184    0.155
       207  -9.9022    225.1476    246.8148   9.2190716380e+01  -8.0719830523e+00    0.1660727    0.1103179  13.11  0.001069621    1.357    0.263
       208  -9.8747    108.4927     16.1315   5.9045764208e+01   5.5870807342e+01    0.1847559    0.1323425 -17.27  0.000442141    1.454    0.312
       209  -9.5253    164.3186    247.6717   1.0326511893e+02   1.2368845431e+00    0.1176872   0.08361656  61.27 0.0006448487    1.683    0.406
       210  -9.1441    136.3466    245.7178   1.0820132421e+02   5.9897957766e+00    0.1233659   0.07775036  59.88 0.0007014653    1.643    0.391
       211  -9.6059    202.3584    240.4671   9.5271341901e+01  -3.8466728806e+00    0.1709082    0.1123838 -33.34 0.0009927893    1.785    0.440
       212 -10.4106     30.8303     16.1883   8.7402343208e+01   6.9460136812e+01    0.1966152    0.1497267   4.40 0.0007815741    1.215    0.177
       213  -9.2673     49.5298    240.5127   1.2344917347e+02   1.9331759612e+01    0.1101082   0.08370057  67.08 0.0008088272    1.070    0.065
       214  -9.1942    148.5186    238.5111   1.0503002202e+02   5.1497821565e+00    0.1248099    0.1004044  43.42 0.0001344725    1.003    0.003
       215  -9.7086     91.0169    237.0329   1.1571640794e+02   1.4379593957e+01    0.1547037    0.1443477 -17.21  0.001045226    1.645    0.392
       216 -10.0735    154.3286     15.1221   4.9375413358e+01   4.4728056485e+01     0.232951    0.1743183  55.03 0.0003787699    1.220    0.180
       217 -12.1847     25.7098    235.8164   1.2721874657e+02   2.2935560071e+01    0.3368928    0.2363386  38.50  0.001752982    1.666    0.400
       218  -9.4619     61.0497    241.1757   1.2148871301e+02   1.7763374062e+01    0.1481936   0.06965683  41.76 0.0008351273    1.829    0.453
       219  -9.9788    249.3360    234.0726   8.5995802986e+01  -1.0099577099e+01     0.189421     0.123221  20.20 0.0004151309    1.232    0.189
       220  -9.0330    243.0139    230.2129   8.6423802818e+01  -8.7581862763e+00    0.1532807   0.07922851  34.70 0.0006501137    1.658    0.397
       221  -9.4850    191.0011     14.0000   4.3936892184e+01   3.5381716326e+01    0.2283228   0.07268577  69.90 0.0004932255    2.897    0.655
       222 -10.2300     71.9682     12.9785   6.8507855792e+01   6.3779646942e+01    0.2404264    0.1621265  23.75  0.001059708    1.386    0.279
       223  -9.4961    135.2780     11.6735   5.1509353818e+01   4.9902561381e+01    0.1357099    0.1030351 -62.83 0.0002612502    1.592    0.372
       224  -9.5010    209.4988    229.5316   9.2258873666e+01  -3.5511505905e+00    0.1248678   0.09953492  22.30 2.422176e-05    1.002    0.002
       225  -9.7868    141.2110    228.0650   1.0506981370e+02   8.0395098888e+00    0.1508521    0.1038513 -52.20  0.000875832    1.745    0.427
       226  -9.7220    223.3871    226.7839   8.9290408061e+01  -5.3873215675e+00    0.1583802    0.1037728 -14.70 0.0004482337    1.621    0.383
       227 -10.9669      2.3234    219.9620   1.3036180638e+02   2.8234404526e+01    0.2430582    0.1098098  74.38  0.001497691    1.759    0.431
       228  -8.6628    126.6655    220.7038   1.0698035085e+02   1.1734631046e+01    0.1210278     0.097881  13.24 0.0007029229    1.646    0.392
       229 -10.9845      8.9991    218.3920   1.2915414220e+02   2.7903521608e+01    0.2095316      0.17842 -22.74  0.001572946    2.268    0.559
       230 -10.6834      4.3748    212.1137   1.2964744691e+02   2.9549107553e+01     0.294215   0.07895578  58.72    0.0013681    3.118    0.679
       231  -9.2452    249.4827    211.4877   8.2041626334e+01  -7.4484772115e+00    0.1238495   0.09646142   7.02 1.118633e-05    1.011    0.011
       232  -9.2101    209.6604    211.2885   8.9154647195e+01  -1.0492115635e+00    0.1183156    0.1002406  61.07 0.0007021349    1.641    0.391
       233 -10.1653     20.1595    209.8201   1.2670827398e+02   2.8470078488e+01     0.178057    0.1086287  67.06 0.0008941877    1.275    0.216
       234 -10.4285      3.1924    205.6113   1.2953664429e+02   3.0931776286e+01    0.1273125    0.1012905  28.81 0.0009625742    1.799    0.444
       235 -10.1077     10.0392    203.4707   1.2818899427e+02   3.0730038739e+01    0.1500295   0.09193737  45.88  0.000497046    1.556    0.358
       236  -9.0855    193.4913    201.5646   9.0537210858e+01   3.2555643073e+00     0.135331    0.1161744  23.92 7.190656e-05    1.011    0.011
       237 -10.0872     23.1719    197.1344   1.2532518190e+02   3.0740254758e+01    0.1660839    0.1361356 -80.83 0.0006349842    1.285    0.222
       238 -10.9312     13.9111    192.7507   1.2682572914e+02   3.2558406891e+01    0.2051136     0.132747  73.33 0.0005437899    1.207    0.171
       239 -10.4603      6.3565    191.5224   1.2819833947e+02   3.3502241710e+01    0.1939905    0.1292524  79.24 0.0007797662    1.116    0.104
       240  -9.5623     20.6422    189.2426   1.2527182488e+02   3.2647941165e+01    0.1523537   0.08660009 -72.41 0.0004188545    1.556    0.357
       241  -9.7144     22.5118    179.9994   1.2420568126e+02   3.4449113341e+01     0.172153   0.09478721 -78.02 0.0004279314    1.510    0.338
       242 -10.5028      5.3838    167.4738   1.2687374315e+02   3.8709439387e+01    0.2393122    0.1399463  78.49  0.001337435    1.414    0.293
       243  -9.6317    226.7922    164.1569   7.6750782637e+01   3.1737269223e+00    0.1952937    0.1506572   1.96 0.0006330113    1.318    0.241
       244  -9.3662     41.3526    158.1691   1.1792724920e+02   3.7421709610e+01    0.1782582    0.1017184 -83.94 0.0004988367    1.621    0.383
       245  -8.9696    247.4712    155.4798   7.1265708735e+01   7.5152663229e-01    0.1367318    0.1167878  -9.00 0.0002535348    1.013    0.013
       246 -10.4996      2.4838    153.5136   1.2650097340e+02   4.2020046012e+01    0.1994415    0.1127558  28.28  0.001215608    2.182    0.542
