#   1 NUMBER                 Running object number                                     
#   2 MAG_AUTO               Kron-like elliptical aperture magnitude                    [mag]
#   3 X_IMAGE                Object position along x                                    [pixel]
#   4 Y_IMAGE                Object position along y                                    [pixel]
#   5 X_WORLD                Barycenter position along world x axis                     [deg]
#   6 Y_WORLD                Barycenter position along world y axis                     [deg]
#   7 A_WORLD                Profile RMS along major axis (world units)                 [deg]
#   8 B_WORLD                Profile RMS along minor axis (world units)                 [deg]
#   9 THETA_WORLD            Position angle (CCW/world-x)                               [deg]
#  10 FWHM_WORLD             FWHM assuming a gaussian core                              [deg]
#  11 ELONGATION             A_IMAGE/B_IMAGE                                           
#  12 ELLIPTICITY            1 - B_IMAGE/A_IMAGE                                       
         1 -14.4088    220.8006      4.9288   3.8568669308e+01   2.7549300669e+01     2.971674     1.645663  48.93  0.007732416    1.989    0.497
         2 -14.0536    179.3680     49.0792   5.7280065696e+01   3.3525355106e+01     2.079513     1.407812  21.10  0.004795911    1.875    0.467
         3 -13.8994    192.4110     37.9041   5.1743955510e+01   3.1535800183e+01     1.161947     0.869795 -41.39  0.003474727    1.309    0.236
         4 -14.1465    198.8989     30.2457   4.8477113787e+01   3.0721953921e+01     1.297772     1.017817   1.81  0.001329922    1.402    0.287
         5 -11.6823     32.6710     30.7358   9.4800250738e+01   6.8102614123e+01    0.3883502    0.1287238 -56.64  0.001596894    2.481    0.597
         6 -10.1197    152.3928    211.2148   9.6920840444e+01   1.4648878923e+01    0.1222406    0.1047416 -83.00 0.0002957848    1.589    0.371
         7 -16.7706     67.3654    146.2088   1.0629687512e+02   3.8182961431e+01     12.44754     5.546789  66.85    0.0229818    2.923    0.658
         8  -9.3062    164.2993    210.3126   9.4780132052e+01   1.2931157311e+01    0.1075409   0.07367669  22.32 0.0002674513    1.605    0.377
         9 -11.9803     67.1768    206.3862   1.1178355711e+02   2.7366112555e+01    0.2939992     0.235328  19.44 0.0003372622    1.923    0.480
        10  -9.9849     72.8194    203.6818   1.1054241203e+02   2.7090236626e+01     0.322293    0.1879805  61.41  0.001314849    1.408    0.290
        11 -12.5776     32.6429    206.7888   1.1810745760e+02   3.1224034885e+01    0.3492125   0.09673581  52.00  0.001910964    2.360    0.576
        12 -12.1329    195.5494    197.4554   8.7825540799e+01   9.4853506376e+00    0.9773855    0.7669454  84.17   0.00625207    2.399    0.583
        13 -17.9307     22.9147    243.1240   1.2107707775e+02   2.6738355422e+01     5.975689     2.095645  37.13   0.03898067    2.264    0.558
        14  -9.6110    220.5366    228.7398   8.8243173078e+01   2.7499798558e+00    0.1846357   0.08957023 -41.42  0.001128381    3.362    0.703
        15  -9.4347     37.1563    224.8687   1.1811377662e+02   2.7934479617e+01    0.1133357   0.09789617  46.25 0.0004456874    1.505    0.335
        16 -10.3668     61.9897    220.3786   1.1362036056e+02   2.5835668894e+01    0.1625145    0.0975319  57.70  0.001207192    1.203    0.169
        17 -11.0751     97.9361    200.5216   1.0557803740e+02   2.4225900705e+01    0.2894407    0.2158756  26.07 0.0007160883    1.726    0.421
        18 -11.4611    152.2635    197.4047   9.5239142937e+01   1.6447971969e+01    0.2775387    0.2322224 -60.60  0.002036309    1.569    0.363
        19 -10.6466     53.9509    231.6207   1.1561034225e+02   2.5114046762e+01    0.1744384    0.1009986  69.89  0.001336523    1.480    0.324
        20  -9.1724     44.3238    198.1999   1.1551590457e+02   3.1384174244e+01   0.08673216   0.07064496  38.45 0.0006711737    1.484    0.326
        21 -12.2914     29.6686    197.3291   1.1821820743e+02   3.3093148439e+01    0.1787259    0.1187433  58.87 0.0005092016    1.056    0.053
        22 -10.4360     34.7198    197.2075   1.1726711799e+02   3.2589803825e+01    0.1528341   0.09046803  54.75  0.000477402    1.204    0.170
        23  -9.1630    159.6371    196.2967   9.3783988235e+01   1.5410846523e+01    0.1157203   0.07836975  61.62 0.0007032413    1.714    0.417
        24 -10.0779     82.1875    195.0125   1.0806326887e+02   2.7267243064e+01    0.1999727    0.1305143  47.84  0.001043707    1.200    0.167
        25 -10.1983     58.9812    193.3909   1.1241079786e+02   3.0495747198e+01    0.2286078   0.06758805  43.54  0.001143454    2.376    0.579
        26 -13.3309     65.3389    188.0371   1.1076513202e+02   3.0626925219e+01    0.6174143    0.5830026  41.70  0.003378453    1.471    0.320
        27  -8.7227     43.6394    220.7704   1.1682312730e+02   2.7859041858e+01   0.08395377   0.06774595  35.97 0.0006887955    1.579    0.367
        28 -11.2100     96.8336    190.5981   1.0481425353e+02   2.5954636159e+01    0.2569093    0.2098411  46.27 0.0006930472    1.193    0.162
        29  -9.4587     46.5841    191.1971   1.1466450357e+02   3.2318952756e+01    0.1138645   0.05172568  53.83 0.0004545047    1.644    0.392
        30  -9.9163     72.9360    217.8374   1.1153709691e+02   2.4891286456e+01    0.1547022    0.1046444  56.84 0.0004560451    1.063    0.059
        31 -10.5825     19.2865    188.2627   1.1978218457e+02   3.5673309450e+01    0.1535311    0.1463008  88.65 0.0008310392    1.561    0.359
        32  -9.4136     48.6209    217.7026   1.1580480982e+02   2.7778175985e+01    0.1788731   0.08355919  35.06 0.0007206307    2.051    0.512
        33 -11.5666    147.0849    183.5539   9.4331702983e+01   1.9211793882e+01     0.298948    0.1874082  51.13  0.001045097    1.380    0.275
        34 -10.4754    153.9877    185.4334   9.3315074794e+01   1.7797790737e+01    0.2009823     0.164618 -85.34 0.0008876931    1.649    0.394
        35 -11.1063     99.4021    180.8386   1.0326895034e+02   2.7193130452e+01    0.2296107    0.1740106  49.56 0.0005716225    1.100    0.091
        36 -10.6160    204.5292    176.2765   8.3042413090e+01   1.0379377899e+01    0.2950905    0.2561258 -50.36  0.001649653    1.632    0.387
        37 -11.9466    142.2009    175.4599   9.4114211111e+01   2.1230508277e+01    0.4449371     0.289483  69.03  0.002454785    1.999    0.500
        38 -10.6681     59.0228    176.6958   1.1112987433e+02   3.3415172211e+01    0.1794796    0.1408516  80.71 0.0003861648    1.168    0.144
        39 -10.4776     37.5187    176.5287   1.1555601022e+02   3.5922819721e+01    0.3100078    0.1175266  47.50  0.001740367    1.948    0.487
        40 -11.4151    207.4036    194.4792   8.5464488825e+01   7.9137047893e+00    0.4136482    0.1338419 -30.82  0.001888417    3.934    0.746
        41  99.0000     51.5808    215.4784   1.1516511477e+02   2.7787435299e+01     0.146584    0.1081479 -67.66  0.000519074    1.787    0.440
        42 -11.5837     44.0388    172.6003   1.1394151646e+02   3.5929621050e+01    0.5476102    0.1761657  49.15  0.001671052    2.322    0.569
        43  -9.5504    197.5404    177.0471   8.4336211766e+01   1.1481678292e+01    0.2020209    0.1327122  40.07  0.001245887    1.248    0.198
        44 -11.0699     44.1473    210.2379   1.1620713583e+02   2.9440297338e+01    0.2288944    0.1310086  83.06  0.001385008    1.647    0.393
        45 -10.6628    229.9848    166.0260   7.7201820351e+01   7.1870146421e+00    0.1604106    0.1504085 -89.35 0.0007967502    1.703    0.413
        46  -9.6760    161.4253    166.1996   8.9010762455e+01   1.9265054225e+01    0.1494061    0.1209976 -63.37 0.0005336874    1.595    0.373
        47 -10.4485     42.3813    206.3199   1.1632112881e+02   3.0262359006e+01    0.2091664    0.1853747 -53.13  0.001760219    1.826    0.452
        48  -9.8614    237.2999    158.3181   7.4684600807e+01   6.7505662155e+00    0.1241738    0.0761174  17.00 0.0002220373    1.618    0.382
        49  -9.2597    149.4849    155.9806   8.9633722245e+01   2.2988375349e+01      0.16849    0.1116049 -77.53 0.0008102484    2.541    0.606
        50 -12.3911     94.5094    153.4291   1.0094839538e+02   3.2837589955e+01    0.5262883    0.4322036 -16.06  0.002050953    1.994    0.498
        51 -11.5851    133.9613    145.5451   9.1047530720e+01   2.7580912335e+01     1.034919     0.283624 -55.03  0.003111878    5.755    0.826
        52 -10.4301     55.2731    210.3811   1.1421288015e+02   2.8159223063e+01    0.3838815    0.1621659  58.49  0.002334013    1.894    0.472
        53 -10.6210    174.3239    148.6930   8.3499314628e+01   1.9447634692e+01    0.2803581    0.2368856 -84.98  0.001015802    1.607    0.378
        54 -10.9592    143.7711    145.9995   8.9060583544e+01   2.5683925620e+01     0.319425    0.1749303 -58.47  0.001493679    2.396    0.583
        55 -13.4590     55.7711    201.1263   1.1354589611e+02   2.9589460605e+01     0.356301    0.2993467  89.26  0.001594301    1.356    0.262
        56 -11.3743    106.6016    138.9121   9.6021753163e+01   3.3657566214e+01    0.4605294    0.3425747 -33.50  0.002539732    1.913    0.477
        57  -9.4113    110.5316    140.5115   9.5378464836e+01   3.2678562884e+01    0.1941887    0.1400406  71.79 6.359096e-05    1.471    0.320
        58 -12.4613     94.4350    139.0376   9.8897836203e+01   3.5640575197e+01    0.2456052    0.2329547  84.22 0.0004564928    1.177    0.150
        59  -9.1489    102.2257    132.9762   9.6066133923e+01   3.5563048889e+01    0.1610143    0.1355481  58.71            0    1.062    0.058
        60 -11.0512    105.9805    130.8451   9.4801092784e+01   3.5343293739e+01    0.3294691    0.2730002 -86.59  0.001228262    1.225    0.184
        61 -11.2086    135.8037    128.0742   8.7381702855e+01   3.0356992045e+01    0.5141035    0.1830684 -51.11  0.001893252    3.251    0.692
        62 -11.0746    114.3797    129.8617   9.2631478614e+01   3.4051390142e+01    0.3291309    0.2683206  27.82 0.0007869076    1.460    0.315
        63 -10.2694    160.7717    128.1834   8.2084280373e+01   2.5332111797e+01    0.3022864    0.2536508 -77.35  0.001703736    1.480    0.324
        64 -11.1636    101.7088    125.7988   9.4942756132e+01   3.7091192467e+01    0.2485158    0.2239489  14.54 0.0007981858    1.444    0.307
        65 -11.2420    120.2350    123.1075   8.9960009822e+01   3.4283589966e+01    0.4920681     0.327552 -13.31  0.001990515    3.369    0.703
        66 -10.2111    109.7295    118.9653   9.1676432387e+01   3.7052037635e+01    0.2182304    0.1798522  52.38 0.0004024075    1.138    0.121
        67 -10.2935    167.8336    112.5789   7.7189029306e+01   2.6414132582e+01    0.3480708    0.2492034 -78.48  0.001604444    2.173    0.540
        68 -10.3946    134.7791    112.7663   8.4367151546e+01   3.3400126241e+01    0.3850957    0.1164472 -42.98   0.00125978    3.643    0.725
        69 -11.5140    118.5109    110.6175   8.7768670149e+01   3.7070540442e+01    0.5862149    0.3649829  61.21  0.002747693    1.756    0.431
        70 -10.2378    205.5183    110.2611   6.9702960007e+01   1.8585350694e+01    0.2948031    0.1990003  40.94 0.0009153947    1.408    0.290
        71  -9.6916    134.5809    106.1950   8.2899301858e+01   3.4681780464e+01    0.2674578    0.1377211 -49.63  0.001128933    2.073    0.518
        72 -10.7098     38.0700    211.8755   1.1737295012e+02   2.9838634207e+01     0.142797   0.09343358  57.44 0.0003220452    1.045    0.043
        73  -9.3603    182.3295     82.3109   6.6656674865e+01   2.7912004872e+01    0.1547755    0.1109631  22.03 0.0007042016    1.668    0.400
        74  -9.2835    155.4718     81.4314   7.1716301695e+01   3.4502388207e+01    0.1482199    0.1431985  40.72 0.0002642011    1.030    0.029
        75  -9.7333     66.9648     70.9564   9.3132805253e+01   5.4695867522e+01    0.2028488    0.1816722 -89.46 0.0005027388    1.080    0.074
        76 -11.8659    158.9971     60.6954   6.4722666042e+01   3.7081859564e+01    0.8408574    0.4808216 -81.14  0.002630805    3.908    0.744
        77 -11.7652    246.5586    244.4520   8.6563195344e+01  -1.8857546085e+00    0.1774014    0.1084659  33.86  0.001445545    1.202    0.168
        78 -11.0449    158.8432    238.3580   9.8840244723e+01   1.0572575592e+01    0.1646014    0.1474445 -66.91  0.001460312    1.639    0.390
        79 -10.5406    169.0437    236.0245   9.6981609866e+01   9.3735479464e+00    0.1481022    0.1274071  33.00 0.0003811367    1.239    0.193
        80 -19.1807      6.1380    107.1245   1.1851364539e+02   5.2912150188e+01     14.76184    0.6210721 -79.17   0.02586411   18.193    0.945
        81 -11.0416    160.5033     54.0222   6.2264646128e+01   3.7737471730e+01      0.30173    0.2684405 -33.83 0.0003913199    1.119    0.107
        82 -11.6184     61.1816    234.3733   1.1455229559e+02   2.3899104249e+01    0.1634004    0.1131004  62.93 0.0002836859    1.137    0.120
        83 -10.8640    189.8060     15.1348   4.4669435961e+01   3.4794404528e+01    0.2572649    0.2413227 -48.03 0.0006903139    1.034    0.033
