#   1 NUMBER                 Running object number                                     
#   2 MAG_AUTO               Kron-like elliptical aperture magnitude                    [mag]
#   3 X_IMAGE                Object position along x                                    [pixel]
#   4 Y_IMAGE                Object position along y                                    [pixel]
#   5 X_WORLD                Barycenter position along world x axis                     [deg]
#   6 Y_WORLD                Barycenter position along world y axis                     [deg]
#   7 A_WORLD                Profile RMS along major axis (world units)                 [deg]
#   8 B_WORLD                Profile RMS along minor axis (world units)                 [deg]
#   9 THETA_WORLD            Position angle (CCW/world-x)                               [deg]
#  10 FWHM_WORLD             FWHM assuming a gaussian core                              [deg]
#  11 ELONGATION             A_IMAGE/B_IMAGE                                           
#  12 ELLIPTICITY            1 - B_IMAGE/A_IMAGE                                       
         1 -11.1783     38.5785     22.7085   4.7985500120e+01   6.6679983012e+01    0.6198449    0.2828587 -34.69 0.0006252809    2.070    0.517
         2 -11.8858     32.1308     19.4688   4.9471068042e+01   6.7948574451e+01    0.5745997    0.3315752 -11.04   0.00240354    1.796    0.443
         3 -11.4491     15.8524     22.1237   5.8506501246e+01   6.9315305415e+01    0.2913292    0.1706996 -44.09  0.001790498    1.696    0.410
         4 -10.3809     14.1784     15.4200   5.6484708480e+01   7.0473169880e+01    0.2555798    0.2024841  43.41  0.001454871    2.126    0.530
         5  -9.6334    237.8647     11.7170   3.8864467846e+00   2.5487117150e+01    0.1752619    0.1120864  36.80   0.00094469    2.751    0.636
         6  -9.7209    148.3297     11.9729   1.3557139165e+01   4.5797965782e+01    0.1679124    0.1560469  47.57 0.0004757961    1.133    0.117
         7 -11.7182     91.1192     10.1409   2.4326927719e+01   5.8920489386e+01    0.2335219    0.1923813  50.40            0    1.154    0.133
         8 -10.4707     96.1529      9.5186   2.2821447817e+01   5.7915462129e+01    0.1992559    0.1850999  26.15 0.0003409878    1.131    0.116
         9 -10.7941     43.7625     11.2623   4.0589532082e+01   6.7394341342e+01    0.3417356    0.1903343  15.97  0.001873784    1.875    0.467
        10 -11.1528    125.9766     10.8151   1.6937321603e+01   5.1150200013e+01    0.2097828    0.1773162  41.47 0.0002386527    1.120    0.107
        11 -10.1806    100.9974     10.9887   2.2210330627e+01   5.6745635162e+01    0.1850761    0.1624423  42.04 0.0003765036    1.054    0.051
        12 -10.3879     54.9524      8.9911   3.5122352388e+01   6.5870282825e+01    0.2516835    0.1745417  53.33  0.001520886    1.801    0.445
        13  -9.7403    192.7275     10.0018   7.4813312237e+00   3.5536375196e+01    0.1677373    0.1452419 -75.86            0    1.077    0.071
        14 -10.6865    116.2641      9.1741   1.8249974810e+01   5.3516914573e+01    0.2388921    0.1961794  -9.78 0.0007565231    1.379    0.275
        15 -10.7079     80.6702      9.3432   2.6852577536e+01   6.1118430470e+01    0.3081155    0.1455533  26.45  0.001391587    2.509    0.601
        16 -10.2441     31.4116     10.2795   4.5572836009e+01   6.9230185329e+01    0.1470423   0.09870163 -32.36 0.0009469203    1.581    0.368
        17  -9.4602    168.4693      9.4237   1.0077535582e+01   4.1256812732e+01    0.1276222    0.1080725  82.37 -2.120686e-05    1.034    0.033
        18 -10.5932     35.7062      7.9485   4.2496402702e+01   6.8929994124e+01    0.2346103    0.1289099  26.75  0.001282153    1.620    0.383
        19 -11.5526     18.2844      4.2517   4.9064250318e+01   7.1547771257e+01    0.4913797    0.2036267 -19.03  0.001995136    3.089    0.676
        20 -11.3839     61.8483      6.2536   3.1420820131e+01   6.4949039316e+01    0.4254989    0.1696734  37.91  0.002032998    2.185    0.542
        21 -11.3583     39.2098      3.9997   3.9042033013e+01   6.8860727309e+01     0.243081    0.1640671  32.88 0.0004067269    1.346    0.257
        22 -11.5499     45.6907      4.8576   3.6770218310e+01   6.7788813034e+01    0.3583499    0.2050767  44.44  0.001464767    1.756    0.430
        23 -12.4647     29.6238      4.7387   4.3709228887e+01   7.0114488835e+01    0.2847214    0.2231942 -11.46 0.0004919408    1.213    0.175
        24 -11.1473    193.9974      4.7864   6.1220594272e+00   3.5750303258e+01    0.1999847     0.171026  72.82 0.0002909997    1.151    0.131
        25 -10.2477     86.0017     10.0793   2.5661128698e+01   5.9980039911e+01    0.1862125    0.1566358  37.74 0.0004448087    1.058    0.055
        26  -9.7671     70.4144      5.2276   2.8176562487e+01   6.3471827858e+01    0.1449743    0.1100642 -23.08 0.0004330076    1.470    0.320
        27 -12.1134    204.9854      2.6313   4.6263808543e+00   3.3477181155e+01    0.2222301    0.1744301 -81.60 0.0002060954    1.070    0.065
        28  -9.8061    120.1381      3.0934   1.5452244160e+01   5.3130873087e+01    0.1878166    0.1466508  42.35 0.0003991103    1.171    0.146
        29 -10.4836     57.8306      2.8669   3.1271634705e+01   6.5967725879e+01    0.1851189    0.1314755  20.81  0.000510995    1.176    0.149
        30 -10.1854    148.8259      2.2290   1.0652104580e+01   4.6522462854e+01    0.1864237    0.1495467  80.41 0.0006087588    1.134    0.118
        31  -9.6753     80.1822      1.7111   2.3845653234e+01   6.1864173093e+01    0.1650877    0.1129164  29.30 0.0005839841    1.286    0.222
        32  -9.8376    245.2962      1.3546   1.3599194682e+00   2.5075400407e+01    0.1391602   0.08704287 -86.75 0.0003477291    1.381    0.276
        33  -9.5585    100.7980      1.5168   1.8744311999e+01   5.7566364078e+01    0.1620644    0.1105357  73.68 0.0009191094    1.615    0.381
        34  -9.8958    238.5054      1.9936   1.9293010962e+00   2.6378112044e+01    0.1583862   0.09988851 -41.29 0.0005955302    1.528    0.345
        35  -9.2961     11.8153      1.6447   5.1184909880e+01   7.2559861483e+01    0.1340035   0.08793221  28.79 0.0005102562    1.659    0.397
        36  -9.4708      1.4460      1.5007   5.6982529085e+01   7.3534651992e+01    0.1111108    0.0756557 -13.18 0.0003173094    1.068    0.064
        37 -11.1443     27.1133    116.9444   7.9389365307e+01   4.8980288932e+01    0.2062205     0.172919 -60.53 0.0002877016    1.010    0.010
        38 -10.7959     30.7750    249.3406   9.2215902721e+01   1.8854248259e+01     0.253592    0.1631777 -58.24  0.001202579    1.935    0.483
        39 -11.2527     23.9535    249.7165   9.3454009656e+01   1.9524827458e+01    0.2778558    0.1804191  45.03   0.00192556    1.380    0.275
        40 -11.5953     17.5564    248.6014   9.4514400098e+01   2.0405180588e+01    0.4909584    0.2698518  11.00  0.002140465    5.398    0.815
        41 -11.5087      3.2146    248.2239   9.6957498667e+01   2.1896086888e+01    0.3400625    0.1958992  63.98   0.00176036    1.326    0.246
        42 -12.3369      2.9009    111.8489   8.6142609140e+01   5.1889029631e+01    0.2440244     0.231718  44.61 0.0003924796    1.286    0.223
        43  -9.7271     25.5889    111.2935   7.8907100268e+01   5.0448458890e+01     0.131463    0.0912382  64.68 0.0001076083    1.836    0.455
        44 -10.6057     37.6336    110.1841   7.4796197009e+01   4.9616514336e+01    0.2004784   0.09982897 -51.71 0.0004348364    1.694    0.410
        45  -9.0919    213.2775    109.3505   2.8565271530e+01   1.6690179418e+01    0.1415568    0.1106528  -3.33 0.0005410413    1.642    0.391
        46 -10.6403     16.0658    107.0225   8.1257830405e+01   5.2181732569e+01    0.1917743    0.1400786  74.35 0.0003761186    1.664    0.399
        47 -10.1333     38.6922    104.9208   7.3388881599e+01   5.0747211904e+01     0.188035    0.1491793 -57.64 0.0003247981    1.117    0.105
        48 -11.8766      1.4620    104.5980   8.5584059103e+01   5.3643505728e+01    0.2223543    0.1111482 -65.03 0.0001556598    1.544    0.352
        49 -10.3937    108.9237    103.2487   5.0547215223e+01   4.0599989762e+01    0.2501522    0.2103643 -39.25 0.0003978996    1.164    0.141
        50 -10.5729      5.5151    102.5198   8.3969858477e+01   5.3898281914e+01    0.2350642    0.0730132 -57.73  0.001029842    2.245    0.555
        51  -9.2102    100.3311    102.2724   5.2807780993e+01   4.2451840553e+01    0.1505925    0.1159717  -3.05 0.0006985973    1.590    0.371
        52 -10.8946     21.1388     98.1681   7.7995975998e+01   5.3861458888e+01    0.2628121    0.2282115  -9.34  0.001729079    1.280    0.219
        53 -11.5985     17.4554     96.2185   7.8894010082e+01   5.4580021448e+01    0.7018884    0.2168544 -42.81  0.002055732    3.060    0.673
        54  -9.4677    217.8166     98.3738   2.5271077846e+01   1.7636010167e+01     0.180382    0.1300434  44.93 0.0004596111    1.548    0.354
        55 -10.3592     37.4923     97.5205   7.2222076947e+01   5.2578757718e+01    0.2777591    0.2063974 -87.07  0.001404517    1.713    0.416
        56 -10.2527      4.4745     97.4640   8.3521194332e+01   5.5114067377e+01    0.1224064   0.09939041 -61.52 1.457699e-05    1.038    0.037
        57 -10.1723    247.4585    102.9754   2.1978875518e+01   1.0963486372e+01    0.1988899    0.1133862 -39.56 0.0003282508    1.510    0.338
        58  -9.5495     67.2430     95.3437   6.1478977368e+01   4.9463077213e+01    0.1950498    0.1841175  -2.11 0.0003293737    1.085    0.079
        59 -11.5600     66.6798     91.7021   6.0699794708e+01   5.0346276324e+01    0.2541951    0.2184329 -33.21   0.00028152    1.063    0.059
        60 -11.0646     93.5498     92.9039   5.2267724927e+01   4.5706299917e+01    0.4209177    0.2813885  10.36  0.001333293    2.052    0.513
        61 -11.8548     57.7944     91.7063   6.3757544392e+01   5.1564113628e+01    0.3209078    0.2364835  13.31  0.001719608    1.504    0.335
        62 -10.9785    145.7889     91.1094   3.7411271993e+01   3.5183186122e+01    0.2217875    0.2050971 -86.81  0.001171184    1.190    0.160
        63 -10.2936     74.7411     92.9671   5.8333830960e+01   4.8863960570e+01    0.2182184    0.1947329  17.62 0.0004346462    1.151    0.132
        64  -9.3291      7.5047     91.4057   8.1468223620e+01   5.6315831076e+01    0.1269582   0.09398813 -46.95 0.0002572162    1.137    0.120
        65 -11.0791     31.0900     87.2747   7.2190752084e+01   5.5499835476e+01    0.2054992    0.1605628 -54.31 0.0003463238    1.140    0.123
        66 -13.2551     65.4090     82.0346   5.8438021312e+01   5.2598212768e+01     0.423884    0.3096681 -31.96 0.0008691673    1.297    0.229
        67 -11.7118     91.9908     85.1675   5.0503355647e+01   4.7590432430e+01    0.2576061    0.2022846 -42.91 0.0003012657    1.258    0.205
        68  -9.5651     81.6902     84.7452   5.3694893473e+01   4.9482459505e+01    0.2025295    0.1267679 -51.09 0.0009340844    1.658    0.397
        69  -9.1904     34.3818     84.2868   7.0277164453e+01   5.5852699638e+01    0.1394941   0.08528118 -26.96 0.0007013643    1.737    0.424
        70 -10.1144     18.7194     81.1035   7.5364497559e+01   5.7875736000e+01    0.1715996    0.1306096 -47.90 0.0002846526    1.067    0.063
        71 -10.8369    180.8385     78.9152   2.6737653254e+01   2.9199216637e+01    0.3077906    0.2257228 -65.09  0.001097652    1.560    0.359
        72  -9.9062    176.1801     76.6371   2.6996188973e+01   3.0670275755e+01    0.2562823    0.1786304  55.32  0.001244078    1.421    0.296
        73  -9.9615    138.5542     78.8512   3.5631007514e+01   3.9089509346e+01    0.2456745    0.1773657  56.50 0.0003313506    1.422    0.297
        74 -10.7532     48.1387     78.7443   6.3736038317e+01   5.5570220573e+01    0.2616491    0.1750244 -34.54 0.0003680738    1.375    0.273
        75  -9.4796     54.5257     78.4712   6.1308373117e+01   5.4835232597e+01    0.1349827    0.1206995 -28.48 0.0002856315    1.041    0.039
        76 -12.0376     11.7888     74.8128   7.6607742561e+01   5.9715093871e+01    0.3799692    0.3135088 -60.38  0.001457748    1.181    0.154
        77  -9.1687    195.3440     76.2933   2.3552727964e+01   2.6267775927e+01    0.1411414    0.1107209  24.04 0.0007029464    1.661    0.398
        78 -10.0866    173.0574     85.5244   2.9962414861e+01   2.9886330003e+01    0.2169728    0.1968584 -40.83  0.000296487    1.100    0.091
        79 -11.9408      4.9494     73.1821   7.8899740430e+01   6.0468397003e+01    0.2697089    0.2095125 -48.39 0.0002480999    1.010    0.010
        80 -10.5074      1.8072     70.2080   7.9500246425e+01   6.1266269665e+01    0.2399356    0.1334814 -52.33 0.0007696167    1.357    0.263
        81  -9.8273     25.3415     73.8044   7.1104399552e+01   5.8929868865e+01    0.1881778   0.09013684 -47.91 0.0003827548    1.681    0.405
        82 -10.7064     37.3440     69.3779   6.5210590076e+01   5.8722100482e+01    0.2783483    0.2102254 -75.03  0.001558031    1.851    0.460
        83 -11.5817     11.4401     59.4958   7.3054066743e+01   6.2933116902e+01     0.377298    0.2113564  32.52  0.001839007    2.191    0.544
        84 -10.2680     12.1840     69.3812   7.5210358770e+01   6.0845168319e+01     0.191858    0.1344067 -42.52 0.0002488771    1.140    0.123
        85 -11.7292     16.5679     63.5957   7.1991597982e+01   6.1744718073e+01    0.4669115    0.2457804 -25.00  0.001676855    1.989    0.497
        86 -11.3959     10.1335     65.8608   7.5195820057e+01   6.1712333536e+01    0.2699694    0.1828068  -8.64 0.0004918779    1.567    0.362
        87 -11.7068      7.6189     63.2125   7.5585224137e+01   6.2413400229e+01    0.3245019    0.1638847 -52.51  0.001069381    1.527    0.345
        88 -10.9331     81.0621     66.8763   4.8336824629e+01   5.3078792416e+01    0.2350174    0.1886887 -24.31  0.001296497    1.193    0.162
        89  -9.2905     50.6759     67.3303   5.9428688892e+01   5.7590589671e+01      0.12261    0.1072165  80.75 0.0007050171    1.701    0.412
        90  -9.9241     59.4487     64.8400   5.5326024134e+01   5.6891102978e+01    0.1864473     0.162693   8.52  0.000307035    1.119    0.106
        91  -9.9211    167.1985     64.3788   2.5350230260e+01   3.4766921906e+01    0.1998737    0.1343749  69.57 0.0003793079    1.592    0.372
        92  -9.6990    128.4575     63.5901   3.3480177763e+01   4.3988612018e+01    0.1445637    0.1348834  33.78 1.696521e-05    1.021    0.021
        93 -10.0220     97.8362     60.6903   4.0920824001e+01   5.1024740725e+01    0.1919891    0.1714417  33.24 0.0004744585    1.099    0.090
        94  -9.3831     63.4237     61.4341   5.2730743938e+01   5.6946341407e+01    0.1345129    0.1173465 -11.64 0.0008019324    1.004    0.004
        95 -11.1390     42.0662     59.4560   6.0321270468e+01   6.0165195311e+01     0.289418    0.2036709 -26.74  0.001678898    1.277    0.217
        96 -10.8542     37.9314     59.3280   6.1954462527e+01   6.0655551689e+01    0.2783697    0.1734709 -39.47 0.0003312175    1.382    0.276
        97 -11.6269    120.9379     57.7648   3.3520702954e+01   4.6604477426e+01    0.2689618    0.2313362 -42.51            0    1.255    0.203
        98  -9.9423     77.9752     58.0079   4.6392848180e+01   5.5193540498e+01    0.1583876    0.1402489  -7.04 0.0009334933    1.030    0.029
        99 -10.1289     15.3022     55.6289   7.0351587793e+01   6.3436564065e+01    0.2942636    0.1222984 -54.71  0.001443295    2.044    0.511
       100 -10.0843      1.4720     57.4487   7.6759653795e+01   6.3928619529e+01     0.117124   0.09219607 -42.95 1.461918e-05    1.039    0.037
       101 -10.6912     85.1284     54.5964   4.2818767016e+01   5.4479423240e+01    0.3336421    0.2119871  44.04  0.001672684    1.581    0.368
       102 -10.2629     83.5623     51.4454   4.2218191687e+01   5.5278196331e+01    0.2869851    0.2161926  30.75  0.001060389    1.254    0.203
       103 -12.3811     62.0384     50.1756   4.9326366809e+01   5.9137224910e+01    0.4171064    0.2116873 -39.68 0.0004903225    1.907    0.476
       104 -10.3152    126.4887     53.8834   3.0895241382e+01   4.5944498503e+01      0.33109    0.1957772  29.94  0.001136116    2.085    0.520
       105 -10.1390     58.0070     59.0391   5.3947911721e+01   5.8179045610e+01    0.1932836    0.1685413  -7.15 0.0003507669    1.032    0.031
       106  -9.4442    115.4514     53.5097   3.3550504731e+01   4.8470876459e+01    0.1412542    0.1310561  26.81 0.0001821165    1.005    0.005
       107 -10.2844      3.0317     51.9249   7.4685105986e+01   6.4948761557e+01    0.2804069    0.0871558 -42.12 0.0008229036    2.402    0.584
       108  -9.2030    214.3717     52.7677   1.5102153651e+01   2.5483446126e+01    0.1346463   0.09137435 -77.56 0.0004300101    1.604    0.377
       109  -9.9184    143.0060     51.0411   2.6284854391e+01   4.2515460819e+01    0.2192684    0.1678943 -73.20 0.0005062584    1.636    0.389
       110 -10.7696    138.1623     50.2592   2.7079356184e+01   4.3767975988e+01    0.2415963    0.2182622  40.99 0.0002695596    1.063    0.059
       111 -11.5137     93.0594     50.0506   3.8714154296e+01   5.3679515152e+01    0.2123828    0.1891679  15.93            0    1.012    0.012
       112  -9.9584     78.4358     50.0037   4.3410050272e+01   5.6439014482e+01    0.2070335    0.1661738  29.91 0.0005242091    1.182    0.154
       113  -9.6001    102.1870     48.1129   3.5341292440e+01   5.2115967851e+01    0.1701476    0.1605571 -52.71 0.0002688009    1.263    0.208
       114 -10.1270     50.5065     48.2358   5.3092057502e+01   6.1136389779e+01    0.2171618    0.1411523  37.62 0.0005653293    1.696    0.411
       115 -11.0378     17.0273     46.1849   6.6743282016e+01   6.5113411832e+01    0.2464968    0.1502814 -35.33 0.0004951627    1.326    0.246
       116 -10.2441      9.9379     47.0908   7.0233723418e+01   6.5463616511e+01    0.1625711    0.1454624 -30.69 0.0005161214    1.213    0.176
       117 -12.2247     85.6585     42.7586   3.8393945935e+01   5.6204352398e+01    0.2627032    0.2218948   7.04 0.0002739744    1.099    0.090
       118 -11.2507     91.5849     41.3746   3.6049568396e+01   5.5243993220e+01    0.4157868     0.317829  82.43  0.001046545    2.164    0.538
       119 -10.8964    110.5615     41.8939   3.0907158436e+01   5.1202693673e+01    0.3977891    0.2758457  45.18    0.0012584    1.316    0.240
       120  -8.9304    107.1497     37.6676   3.0328550741e+01   5.2502258871e+01    0.3418562    0.1624801 -17.90  0.001352328    2.924    0.658
       121 -10.8761     70.2591     41.0468   4.2926797358e+01   5.9248910975e+01    0.2568899    0.2421231 -64.66 0.0009961028    1.501    0.334
       122 -11.2376     67.2866     35.8773   4.1991262704e+01   6.0507054923e+01     0.251159    0.2322105 -11.46 0.0003059538    1.225    0.184
       123 -11.4337     38.6485     41.5899   5.5564562135e+01   6.3777555235e+01    0.2642903     0.230841 -69.37  0.001682515    1.829    0.453
       124 -10.1721     27.3935     42.4871   6.0827743388e+01   6.4855462242e+01     0.269727    0.1102607  27.31  0.001300374    2.533    0.605
       125 -10.2766    184.6808     41.2832   1.6261759836e+01   3.3867787017e+01    0.3902293    0.1726405  72.38  0.001568953    2.516    0.603
       126 -10.3007    116.9487     40.9152   2.8958984029e+01   4.9920852818e+01    0.2180193    0.1991434 -50.18 0.0003470503    1.258    0.205
       127 -10.4967     62.0325     41.0025   4.5913393797e+01   6.0611962821e+01    0.1905279    0.1609261   2.95  0.001194737    1.011    0.011
       128  -9.8794     44.0959     40.2120   5.2736790460e+01   6.3326390236e+01    0.2113701    0.1680741 -65.26  0.001221872    2.122    0.529
       129  -9.8512     52.9378     39.6266   4.8900709220e+01   6.2205441157e+01    0.1736575    0.1444298  11.30 0.0004243961    1.105    0.095
       130  -9.6270     81.0225     38.7432   3.8388084270e+01   5.7652869884e+01    0.1827498    0.1513045  26.60 0.0001974679    1.088    0.081
       131 -10.6986    121.7283     37.0254   2.6514810312e+01   4.9341533322e+01    0.2554758    0.2328542  -8.02 0.0009279202    1.165    0.142
       132 -10.0893     75.6859     37.9365   3.9855234411e+01   5.8746662705e+01    0.1756388    0.1524248  -8.42 0.0003388576    1.108    0.098
       133  -9.6866    150.5878     35.8100   2.0226374724e+01   4.2715086849e+01    0.1758678    0.1243592 -45.69  0.000238674    1.533    0.348
       134 -10.0753     22.8160     34.5544   6.0031939425e+01   6.6663698961e+01    0.1922633    0.1333148 -35.16 0.0001100021    1.239    0.193
       135 -10.2642      5.8188     34.6878   6.8239181949e+01   6.8015198208e+01    0.2302403    0.1424827  26.29  0.001061977    1.895    0.472
       136  -9.6508    112.5485     34.5591   2.7870259063e+01   5.1711534262e+01    0.1358061    0.1208779  36.72 6.543122e-05    1.003    0.003
       137 -10.6670     98.9642     30.3067   2.9872044508e+01   5.5166499619e+01    0.4124525     0.183224  60.03  0.001676599    2.649    0.623
       138 -12.1265     91.2207     26.8528   3.0741222983e+01   5.7179512897e+01    0.3267275    0.2231117 -17.82 0.0003358537    1.557    0.358
       139 -11.2909     39.3736     29.7674   5.0620837210e+01   6.5563502933e+01    0.2336169     0.162954  13.83 0.0002053634    1.313    0.238
       140 -11.6798      9.4515     29.3016   6.4543790911e+01   6.8691104795e+01    0.3022877    0.1682433  30.55  0.001812762    2.146    0.534
       141  -9.6926    201.4169     28.2105   1.0874808618e+01   3.1570829041e+01    0.1816327    0.1055115 -47.27 0.0008620505    1.661    0.398
       142  -9.6706    117.4605     28.4710   2.4610439285e+01   5.1330649354e+01    0.1338125    0.1199046  44.52  0.000112774    1.021    0.020
       143 -10.7234     80.5182     27.4021   3.4171706506e+01   5.9230720780e+01     0.308074     0.199666 -17.72   0.00168527    1.618    0.382
       144 -10.3685     44.1720     18.2448   4.3605265733e+01   6.6495689904e+01    0.3321244    0.1442323  20.54  0.001361712    3.349    0.701
       145  -9.4810    229.5547    247.5350   5.3311378368e+01  -8.9697767029e+00     0.120029   0.09151521   5.87 9.893927e-05    1.019    0.019
       146 -11.1507     33.5915     24.5317   5.1004101917e+01   6.7056022768e+01    0.3299562    0.2439317 -54.92  0.001974205    2.237    0.553
       147  -9.7284    130.6887    247.3330   7.2562338932e+01   5.7057911966e+00    0.1270439   0.08882885  62.38 0.0005353128    1.677    0.404
       148 -11.8327    216.9815     25.7885   8.6610940673e+00   2.8354953614e+01    0.2106623    0.1828576 -72.10 0.0003188028    1.052    0.050
       149 -11.7465    213.0199     23.9282   8.6417299902e+00   2.9447466377e+01    0.2632056    0.1868593 -75.93 0.0002954643    1.313    0.238
       150 -10.8257    183.0056     25.6045   1.2456993989e+01   3.6155555207e+01    0.2156251    0.1869578 -41.82 0.0002527659    1.243    0.195
       151 -10.0205    126.5335     24.5106   2.1321782805e+01   4.9687762225e+01    0.2584931    0.1694047 -63.24 0.0007875483    2.151    0.535
       152  -9.4817    130.4617     22.4312   1.9860940112e+01   4.8993090177e+01    0.5367097    0.2911889  54.91  0.002648739    1.581    0.367
       153 -10.5230      3.4213     22.8016   6.5188665862e+01   7.0205208151e+01    0.3002168    0.1474454 -52.68  0.001463177    2.097    0.523
       154  -9.8940     52.9648     23.6733   4.2392113752e+01   6.4485496495e+01    0.1745686    0.1371461  18.24  0.000529798    1.104    0.094
       155 -12.4658      5.2725    242.6308   9.6337634158e+01   2.2752650331e+01    0.3854669    0.2212454  69.53  0.002609588    1.377    0.274
       156 -10.5962     14.8301    244.1763   9.4749476253e+01   2.1520210096e+01    0.1342498    0.1187632 -88.47  0.001066922    1.335    0.251
       157 -10.1925    163.1661     20.8928   1.3903655649e+01   4.1385236209e+01    0.3023053    0.1800383  28.79   0.00141541    2.413    0.586
       158 -10.2486    112.7921     21.2683   2.3184166748e+01   5.3160254052e+01    0.2159334    0.1735701 -41.95  0.001280936    1.457    0.314
       159 -10.4104    100.9406     21.4642   2.6099148094e+01   5.5740336614e+01    0.2869818    0.2126291 -32.16  0.001670942    1.516    0.340
       160 -10.3859     63.7996     21.8219   3.7521408038e+01   6.2943984755e+01    0.2425813    0.1446788  36.11 0.0006982357    1.494    0.331
       161  -9.0047    197.6912     19.3116   9.1739374940e+00   3.3429920027e+01    0.1328374   0.08360505 -68.19 0.0003020131    1.623    0.384
       162 -11.0890    212.4956     16.6698   7.0694245771e+00   3.0374586277e+01    0.3125557    0.1807462  73.45 0.0008193066    1.573    0.364
       163  -9.3415    147.7681     16.6781   1.5031295060e+01   4.5485304718e+01    0.1238113   0.09187684  32.59 0.0001662546    1.510    0.338
       164  -9.4299     25.2093     16.6963   5.1507517818e+01   6.9148654653e+01   0.09572613    0.0814493 -29.27 0.0006719342    1.455    0.313
       165  -9.4129     25.2790     13.6794   5.0094342852e+01   6.9549281688e+01    0.1516531   0.08215978 -32.85 0.0004153037    1.689    0.408
       166  -9.5839    233.3794     15.2067   4.9382888972e+00   2.6034670694e+01     0.158602   0.09090906 -48.82 0.0002524375    1.534    0.348
       167 -10.1827     36.8428    240.8975   9.0538662467e+01   1.9790393451e+01     0.289984    0.1273129  67.94  0.001431753    2.451    0.592
       168  -9.2319    117.6702    238.7225   7.4144148040e+01   9.2426232076e+00    0.1217411   0.09662592   7.16 0.0002805994    1.598    0.374
       169 -10.8289     17.9573    235.4586   9.3686453432e+01   2.2891746779e+01    0.1580828   0.09565825  40.95 0.0005947011    1.568    0.362
       170  -9.9345     28.5132    232.4996   9.1526263939e+01   2.2372864005e+01    0.1165624   0.08995212  70.87 -4.325161e-05    1.015    0.015
       171  -9.8912    147.6316    243.6155   6.8614106121e+01   3.7171342370e+00    0.1919169    0.1439757   4.72  0.001106191    1.595    0.373
       172 -10.6281     56.0970    230.8037   8.5985235355e+01   1.9497176040e+01    0.2974992    0.2131481  -5.54  0.001593447    2.698    0.629
       173 -11.5294      6.6878    227.7310   9.5305172087e+01   2.5527313910e+01    0.3678111    0.1455938  70.84  0.001835934    2.529    0.605
       174  -9.7810     52.4986     11.4686   3.7181009288e+01   6.6012772711e+01    0.1227597   0.09564099  13.90 0.0001595073    1.024    0.024
       175  -9.3446    139.3127    227.6466   6.8063705020e+01   7.8691425447e+00    0.1342124    0.0989356  67.21 0.0007045144    1.730    0.422
       176  -9.4479    223.6641    225.6607   5.0703066721e+01  -5.1280399359e+00    0.1341468   0.08382448   0.16 0.0007051255    1.755    0.430
       177 -11.0772      2.1270    220.4365   9.5744370477e+01   2.7417084031e+01    0.3505584    0.1345685  82.66  0.001694105    2.654    0.623
       178  -9.1314    210.2853    215.6799   5.1467294013e+01  -1.5965562819e+00    0.1125938    0.1066688  82.15 0.0003908118    1.593    0.372
       179  -9.3691    230.3341    207.3263   4.6172624874e+01  -3.3528850660e+00    0.1361073   0.08742075  -1.27 0.0007051475    1.716    0.417
       180  -9.6991    237.5204    186.9236   4.0996901373e+01  -1.2388832653e+00    0.1973274    0.1141724 -32.80 0.0008185987    1.557    0.358
       181  -9.4061      1.2898    164.3124   9.2135319437e+01   3.9740867688e+01    0.1171747   0.07612967 -53.45 0.0002219885    1.586    0.369
       182 -10.4122      7.1709    153.9747   8.9783936312e+01   4.1717840473e+01    0.1941529    0.1384175  81.29 0.0008691692    1.300    0.230
       183  -9.9643     23.2607    148.6724   8.5045339065e+01   4.1690831950e+01    0.2607389    0.1356586 -61.31 0.0009620019    1.615    0.381
       184 -11.6038      3.7265    147.1028   8.9984478890e+01   4.3571891166e+01    0.3414937    0.1952565 -74.83 0.0008583376    1.410    0.291
       185  -9.4614      3.3130    139.3080   8.9299624257e+01   4.5429456323e+01    0.1243551    0.0756926 -48.60 0.0002459325    1.624    0.384
       186  -9.3218     15.7665    138.2149   8.5798743359e+01   4.4809174311e+01    0.2159782   0.06483667 -59.65 0.0008819905    2.487    0.598
       187 -12.2360     69.2582    135.8931   7.0034328094e+01   3.9646665745e+01    0.2780949    0.2326525 -52.60 0.0003816844    1.119    0.106
       188  -9.7909     59.0114    131.3175   7.2187307163e+01   4.2123806760e+01    0.1799444    0.1744738 -52.46 0.0002987834    1.070    0.066
       189 -11.2600    246.7314    127.6016   2.7316611840e+01   7.0568157359e+00    0.2770256    0.2285504 -49.64  0.001056049    1.197    0.164
       190  -9.3840    126.6674    129.2522   5.2326277350e+01   3.1319532202e+01    0.1513791    0.1218524  74.52 0.0002052168    1.558    0.358
       191 -10.0698     39.8539    128.1391   7.7366667285e+01   4.5092198972e+01    0.2049376    0.1753421  77.10 0.0005792414    1.266    0.210
       192 -11.0177     74.9907    126.5107   6.6416141088e+01   4.1094398048e+01     0.257603    0.1960919 -54.53 5.573258e-06    1.227    0.185
       193  -9.1313      7.7490    126.6812   8.6628122768e+01   4.8118360470e+01    0.1258563   0.07431809 -50.59 0.0001983267    1.530    0.346
       194  -9.3384     54.9739    124.0220   7.2006884593e+01   4.4393917274e+01    0.1635909    0.1495545 -55.93 0.0003049933    1.013    0.013
       195 -10.9541     82.4431    120.4509   6.2812824988e+01   4.1396988718e+01    0.4455066    0.3334858 -71.27  0.001673422    1.526    0.345
       196 -10.4212      9.9950    121.4826   8.5300212963e+01   4.9198097458e+01    0.1622677    0.1255447  18.00  0.000476095    1.581    0.367
       197 -11.2832     17.3414    116.1641   8.2308545530e+01   4.9941993080e+01    0.2057087    0.1948206   4.83 0.0009515182    1.257    0.204
       198 -10.5418     69.2926    115.7625   6.5799258546e+01   4.4481434285e+01    0.3254729    0.2031034 -55.18 0.0008639886    1.492    0.330
