#   1 NUMBER                 Running object number                                     
#   2 MAG_AUTO               Kron-like elliptical aperture magnitude                    [mag]
#   3 X_IMAGE                Object position along x                                    [pixel]
#   4 Y_IMAGE                Object position along y                                    [pixel]
#   5 X_WORLD                Barycenter position along world x axis                     [deg]
#   6 Y_WORLD                Barycenter position along world y axis                     [deg]
#   7 A_WORLD                Profile RMS along major axis (world units)                 [deg]
#   8 B_WORLD                Profile RMS along minor axis (world units)                 [deg]
#   9 THETA_WORLD            Position angle (CCW/world-x)                               [deg]
#  10 FWHM_WORLD             FWHM assuming a gaussian core                              [deg]
#  11 ELONGATION             A_IMAGE/B_IMAGE                                           
#  12 ELLIPTICITY            1 - B_IMAGE/A_IMAGE                                       
         1 -16.9415    223.3756     93.8494   4.6730047168e+01   1.6989468566e+01     6.678843     4.522248 -31.96   0.03106071    1.336    0.251
         2 -12.1801    167.1644    140.2494   6.7746970586e+01   2.0868977875e+01    0.3199594    0.2501062  71.51  0.001154916    1.639    0.390
         3 -11.2701    249.5627    218.9241   6.7871824495e+01  -4.2437547314e+00    0.7142109    0.1673725 -33.39  0.003012819    4.240    0.764
         4 -13.1344    234.7753    247.8600   7.4528480738e+01  -5.3181730082e+00    0.9464315    0.7473338 -34.66  0.007464078    1.816    0.449
         5 -11.0744    243.0841    249.2294   7.3449051840e+01  -6.4699141049e+00    0.2959952     0.261463  40.02  0.002413305    1.843    0.457
         6 -10.3950    218.6824    249.3861   7.7272977318e+01  -3.4282372235e+00    0.1424665    0.1163811  44.39 0.0007475937    1.665    0.399
         7 -13.1626    248.3087    231.2683   7.0001450245e+01  -5.3602383803e+00     1.067921    0.8222798  17.06  0.008400947    1.164    0.141
         8 -11.3933    248.8348    241.4142   7.1447260823e+01  -6.4232734193e+00    0.4112869    0.3489814 -61.13  0.002906761    2.909    0.656
         9 -12.5968    247.5576    246.5648   7.2390997496e+01  -6.7582596910e+00     1.051446    0.8772806 -89.98  0.006085054    4.785    0.791
        10 -11.2118    158.0159    187.0317   7.8666334683e+01   1.4183694297e+01    0.2052166    0.1585992  71.22  0.001139242    1.731    0.422
        11 -11.6418    164.3195    178.8321   7.5983323406e+01   1.4487891871e+01    0.2395074    0.1719268  48.72  0.001122779    1.394    0.282
        12 -11.6619    153.2554    175.3909   7.7631854626e+01   1.7051154615e+01    0.2524406    0.1632455  48.61  0.001294937    1.518    0.341
        13 -11.1091    164.9532    173.7924   7.4946077699e+01   1.5244245441e+01    0.2176271    0.1500996  63.70  0.001078898    1.955    0.488
        14 -12.4680    165.6675    168.5240   7.3821930724e+01   1.6035552233e+01    0.4651516    0.2494485  61.77  0.001774437    3.283    0.695
        15 -12.8278    168.1487    158.7483   7.1419023611e+01   1.7308560744e+01    0.4940289    0.2740625 -59.51  0.002026741    2.772    0.639
        16 -11.9766    159.0665    170.8530   7.5607882447e+01   1.6822212994e+01    0.2803183    0.2303824  85.23  0.001250973    1.634    0.388
        17 -12.0702    152.1435    170.8441   7.7047646203e+01   1.8074201036e+01    0.2598167    0.2177839  69.76   0.00129382    1.401    0.286
        18 -12.0102    179.8114    167.6273   7.0836965369e+01   1.3611138549e+01    0.2503541    0.2053569  74.62  0.001127797    1.684    0.406
        19 -12.2095    153.7921    162.8572   7.5210654660e+01   1.9245110287e+01    0.3100916    0.2258841  59.30  0.001501403    1.564    0.361
        20 -12.2720    159.0911    160.4001   7.3618409451e+01   1.8711854035e+01     0.389593     0.260973  80.08  0.001634794    2.855    0.650
        21 -12.0793    158.5378    154.7359   7.2610178370e+01   1.9864092019e+01    0.3135735    0.2486054 -69.68  0.001654015    1.598    0.374
        22 -12.1845    176.3029    152.0491   6.8408946297e+01   1.6944051376e+01     0.259625    0.2428341  67.40  0.001014123    1.226    0.185
        23 -13.1562    169.4985    150.7420   6.9510509309e+01   1.8489586289e+01    0.5377119    0.3847365 -64.52  0.002632607    1.899    0.473
        24 -12.1253    163.7612    151.6901   7.0891809919e+01   1.9425693711e+01    0.3383658    0.2654044 -86.31  0.001322834    1.833    0.454
        25 -11.4849    162.0779    146.8443   7.0232640529e+01   2.0651382424e+01    0.2883231    0.1828094 -68.38  0.001191342    2.617    0.618
        26 -12.4593    156.3913    136.6789   6.9244580870e+01   2.3712020358e+01    0.4851546    0.3233275 -85.39   0.00190356    2.943    0.660
        27 -11.5592    158.3382    148.6689   7.1408303014e+01   2.1039489548e+01    0.2921081    0.1965989 -71.14  0.001285572    2.321    0.569
        28 -11.0046    224.2773    247.9333   7.6182204925e+01  -3.9991764502e+00    0.2140314     0.133579 -29.74  0.001036553    1.811    0.448
        29 -11.9670    148.7379    144.2337   7.2562585606e+01   2.3766448654e+01    0.3146451    0.2331499  65.77  0.001222742    1.633    0.387
        30 -11.6514    171.3305    145.6138   6.8053305936e+01   1.9059695391e+01    0.2899964    0.2365136 -89.50  0.001072061    1.691    0.409
        31 -10.7602    138.8716    144.3107   7.4799640933e+01   2.5668467513e+01    0.2361242    0.1793127  63.37  0.001188646    1.489    0.328
        32 -10.5881    157.8525    120.7626   6.5231307489e+01   2.6479055647e+01     0.285839    0.1916948 -66.49  0.001228559    2.083    0.520
        33 -13.1527    174.1361    139.6101   6.6178784852e+01   1.9588347444e+01     0.662013    0.4323203 -89.48  0.002404999    3.739    0.733
