#   1 NUMBER                 Running object number                                     
#   2 MAG_AUTO               Kron-like elliptical aperture magnitude                    [mag]
#   3 X_IMAGE                Object position along x                                    [pixel]
#   4 Y_IMAGE                Object position along y                                    [pixel]
#   5 X_WORLD                Barycenter position along world x axis                     [deg]
#   6 Y_WORLD                Barycenter position along world y axis                     [deg]
#   7 A_WORLD                Profile RMS along major axis (world units)                 [deg]
#   8 B_WORLD                Profile RMS along minor axis (world units)                 [deg]
#   9 THETA_WORLD            Position angle (CCW/world-x)                               [deg]
#  10 FWHM_WORLD             FWHM assuming a gaussian core                              [deg]
#  11 ELONGATION             A_IMAGE/B_IMAGE                                           
#  12 ELLIPTICITY            1 - B_IMAGE/A_IMAGE                                       
         1 -14.9133    163.5730     42.9329   7.7779174872e+01   3.9358234638e+01     1.405928      1.10865 -16.51  0.003912501    1.431    0.301
         2 -14.7527    177.7604     10.2152   6.5361232946e+01   3.9556341955e+01     1.139648     1.054208  79.65  0.004081904    1.045    0.043
         3 -10.5568    116.4747    212.1094   1.2815992564e+02   1.5980581032e+01    0.3438924    0.1732754 -67.90  0.001098561    2.502    0.600
         4 -19.9749     74.2514    170.7922   1.3194251694e+02   3.1154420265e+01     17.51725      7.03806 -67.47   0.07402811    2.477    0.596
         5  -9.9905    152.1492    210.0136   1.2066975900e+02   1.0214898429e+01    0.1920704    0.1414789  89.93  0.000447346    1.900    0.474
         6 -13.2120     11.3744    206.1010   1.4813380227e+02   3.1068356259e+01    0.3669758    0.2421938  34.53  0.002152728    1.833    0.454
         7 -10.3907     16.2314    201.7655   1.4699931575e+02   3.1455683116e+01    0.1043679   0.05972796  68.87  0.000285954    1.368    0.269
         8 -11.5356    153.7473    194.9936   1.1797931749e+02   1.2595438826e+01    0.3983311     0.241592 -54.57  0.001974332    1.919    0.479
         9 -13.3039    162.8527    201.6151   1.1719867227e+02   9.7364913282e+00    0.7586336    0.4375283 -72.61  0.002963667    3.746    0.733
        10 -11.4198    157.5244    199.5086   1.1793948673e+02   1.1084059535e+01    0.3069184    0.2201325  62.31 0.0006898248    1.546    0.353
        11 -10.3949    138.5597    243.8378   1.2776846635e+02   7.0008790081e+00    0.1415164    0.1186383 -67.48 0.0004423917    1.481    0.325
        12 -10.0560    153.4126    202.2459   1.1921825222e+02   1.1348955269e+01    0.1727953    0.1290921 -68.45 0.0009448758    1.676    0.403
        13 -10.5483    104.5924    201.6737   1.2927245338e+02   1.9930667563e+01    0.1994996    0.1558181  55.46 0.0008293313    1.095    0.087
        14 -10.3414    139.8574    200.4329   1.2172947185e+02   1.4126744488e+01    0.3070535    0.1992109  37.07  0.000881523    1.470    0.320
        15 -10.9610    113.2571    195.7109   1.2664642907e+02   1.9684321205e+01    0.4460729    0.3003491  -8.60  0.001756433    4.064    0.754
        16  -9.7890    151.0220    242.8738   1.2536722921e+02   5.1387420938e+00    0.1472191    0.1244889  24.04 0.0005007152    1.300    0.231
        17  99.0000     12.9033    242.7235   1.4961139013e+02   2.4142866127e+01    0.2415845    0.1014344 -60.07  0.001370793    3.375    0.704
        18 -14.0992    203.6236    174.8101   1.0416603987e+02   6.5696090034e+00     1.811356    0.8807729 -55.73  0.006448771    3.808    0.737
        19 -12.5843    202.4656    170.4688   1.0351382893e+02   7.5243774593e+00      1.07989    0.2973238 -40.47  0.003520656    3.773    0.735
        20 -11.5057    205.3460    169.2966   1.0271707110e+02   7.1556574336e+00    0.4291819    0.2511807 -40.66  0.001723514    1.790    0.441
        21 -10.1811     28.8462    240.4975   1.4692821329e+02   2.2833845625e+01    0.1324389    0.0805413  51.18 0.0009416442    1.330    0.248
        22 -12.1400    151.9763    182.9642   1.1630348235e+02   1.5184759425e+01    0.3248606    0.2394021 -77.70  0.001539306    1.791    0.442
        23 -10.9917     21.6685    239.3560   1.4804948826e+02   2.3816441051e+01    0.1174476   0.07761291 -84.63 0.0005620285    1.417    0.294
        24 -10.9903     30.3729    182.9251   1.4291531338e+02   3.3914702522e+01    0.1805726     0.155892  52.35 0.0002976196    1.337    0.252
        25 -12.4239    199.0682    178.7163   1.0582377442e+02   6.7990311712e+00    0.6220301    0.3759668 -65.54  0.002309715    3.506    0.715
        26 -13.2346    195.2940    168.7848   1.0457925823e+02   9.2370451410e+00    0.4458388    0.4140277  -8.16 0.0007063345    1.082    0.075
        27 -12.4777    192.9833    164.2677   1.0410904299e+02   1.0499804934e+01    0.4799514    0.3136831  39.02  0.001996064    1.467    0.318
        28 -12.5336      5.8186    177.5238   1.4756262097e+02   3.7391650830e+01    0.3423547    0.1871762  59.11  0.001450498    1.563    0.360
        29 -13.7419    138.3033    170.9063   1.1715063550e+02   2.0216323221e+01    0.8629092    0.6492819  69.51  0.004401579    1.476    0.323
        30 -14.2257    143.7795    168.2199   1.1542101993e+02   1.9704367459e+01     1.103006    0.6187513  69.37  0.003979975    3.170    0.685
        31 -11.9183    125.8731    171.8421   1.2013745897e+02   2.2369939114e+01    0.3181865    0.2645626 -81.08  0.001258961    1.269    0.212
        32 -10.8465    165.4324    172.2738   1.1144427865e+02   1.4598641204e+01    0.1909501    0.1395619 -59.16 0.0009457475    1.605    0.377
        33 -10.6064    131.2661    236.8447   1.2830220241e+02   9.2683880236e+00    0.1313698    0.1066304 -52.87 0.0002938223    1.551    0.355
        34 -12.5416    177.0347    170.2155   1.0858908689e+02   1.2653646155e+01     0.330913    0.2159404 -42.00  0.001597761    1.637    0.389
        35 -10.8631     34.3833    169.8201   1.4091842415e+02   3.6342425558e+01    0.1915224     0.171579  44.88 0.0007446753    1.379    0.275
        36 -12.0719    230.1892    166.8661   9.7619891981e+01   2.7849569610e+00    0.2891382    0.1780243 -44.14  0.001431905    1.820    0.451
        37 -11.1136     25.3234    165.0716   1.4250407655e+02   3.8316081690e+01    0.1779006    0.1610925  66.00 0.0005772354    1.276    0.216
        38 -10.4250      7.6385    237.1939   1.5021871775e+02   2.5638421698e+01    0.1034415   0.04740559  57.95  0.000515754    1.546    0.353
        39 -12.1615    129.1206    161.3695   1.1749798254e+02   2.3993294254e+01    0.4158827    0.2393211  31.33 0.0009697557    2.111    0.526
        40 -10.8308     30.4826    232.6124   1.4622775722e+02   2.4061348061e+01    0.1768542    0.1254809  55.87 0.0008349358    1.218    0.179
        41 -10.8209    190.6432    158.1417   1.0328914582e+02   1.2085060648e+01    0.3778408    0.1754355  33.69  0.001386097    2.625    0.619
        42 -11.8883    143.5424    156.2179   1.1313501344e+02   2.2248707456e+01    0.3241775    0.2244383  77.39  0.001422596    1.998    0.499
        43 -11.0369     22.9537    156.0528   1.4223166854e+02   4.0555296519e+01    0.1935361    0.1597385  53.72 0.0005177117    1.301    0.231
        44 -13.1775    161.6758    153.3320   1.0842115024e+02   1.9095954891e+01    0.4728068    0.3886313  87.81  0.001645475    1.489    0.328
        45 -11.7852    174.3706    148.6371   1.0462322957e+02   1.7327200400e+01    0.3439676    0.2890794 -82.85  0.001205046    1.468    0.319
        46 -10.0127     13.5272    233.5090   1.4910800260e+02   2.5704835155e+01    0.1020684    0.0753325  73.89 0.0001575902    1.128    0.113
        47 -10.1796     11.8859    173.9873   1.4609188988e+02   3.7617528675e+01    0.1479855    0.1100862 -64.54 0.0002895366    1.482    0.325
        48 -10.5628      1.7822    139.9238   1.4581475809e+02   4.5883365307e+01     0.163859      0.12277 -73.24 0.0004882273    1.187    0.158
        49 -11.5179      7.7524    138.3472   1.4424161034e+02   4.5812859045e+01    0.2876976    0.2271043  18.94   0.00149406    1.735    0.423
        50 -10.9407    171.7126    137.9973   1.0278818216e+02   2.0012176811e+01    0.2122835     0.201067 -48.05 0.0005577824    1.083    0.076
        51 -11.7221     27.0251    136.3578   1.3920364345e+02   4.4683992401e+01    0.3410669    0.2303407  -1.71  0.001550045    2.473    0.596
        52 -12.6496    160.6526    127.8682   1.0285560909e+02   2.4541853055e+01    0.4417844    0.3541653 -56.17  0.002016669    1.315    0.240
        53 -10.3135    149.6980    230.0792   1.2397852584e+02   7.3166631887e+00    0.1564562    0.1477897  72.43  0.001097488    1.205    0.170
        54 -11.1099    138.8124    250.4174   1.2847408686e+02   5.9736626681e+00    0.1938479    0.1239286  34.71  0.001189288    1.458    0.314
        55 -11.0105    167.6338    112.6544   9.7446485683e+01   2.6034938903e+01    0.3231418    0.2299017 -82.47  0.001289162    2.081    0.520
        56 -10.9429     26.0931    228.4404   1.4674739333e+02   2.5306935765e+01   0.09489685   0.04939808 -73.84 0.0002739914    1.853    0.460
        57 -10.8087    205.3319    110.2391   8.9166316849e+01   1.7605086828e+01    0.3110017    0.2101822  46.12 0.0009017872    1.523    0.344
        58 -12.0466    125.0894    243.1001   1.3015468685e+02   9.2521513278e+00    0.3228849     0.150697 -55.77  0.001594735    2.648    0.622
        59 -11.3778     22.4185    221.1931   1.4698605257e+02   2.7050249190e+01    0.1638646   0.09276537 -74.40 0.0007494246    1.693    0.409
        60 -10.9004     23.5041    215.4548   1.4646912398e+02   2.8028517144e+01    0.1352354   0.08652133 -74.13 0.0005170015    1.549    0.354
        61 -11.3337    112.0381    214.3037   1.2932655758e+02   1.6298246314e+01    0.1938127    0.1565909  81.65 0.0007762559    1.236    0.191
        62 -10.4502    144.4916     80.9443   9.3910479750e+01   3.7834231769e+01    0.2350008    0.1535718 -38.60  0.000553865    1.535    0.348
        63 -14.3908    152.1261     57.6159   8.4813622612e+01   4.0080566495e+01     1.238128      1.04408   8.35 0.0009374239    1.379    0.275
        64 -13.1757    108.4394    208.6030   1.2935129792e+02   1.7957675969e+01    0.5212604    0.3851101  67.35  0.003122953    1.260    0.206
        65 -13.0981    167.6044     34.8475   7.4488353740e+01   3.9398711564e+01    0.4378739    0.4122626 -25.47 0.0009058171    1.142    0.124
        66 -11.1111     13.3966     59.8868   1.3109440628e+02   6.3117311574e+01    0.1644606    0.1577342 -74.49 0.0004244938    1.242    0.195
        67 -10.4177    130.7179    213.5543   1.2547905158e+02   1.3325528504e+01    0.1884597    0.1364675  87.29 0.0006862961    1.704    0.413
        68 -10.4995    142.4250     33.0181   7.8591384695e+01   4.6138459817e+01    0.2556649    0.1965902  82.38  0.000605263    1.462    0.316
