#   1 NUMBER                 Running object number                                     
#   2 MAG_AUTO               Kron-like elliptical aperture magnitude                    [mag]
#   3 X_IMAGE                Object position along x                                    [pixel]
#   4 Y_IMAGE                Object position along y                                    [pixel]
#   5 X_WORLD                Barycenter position along world x axis                     [deg]
#   6 Y_WORLD                Barycenter position along world y axis                     [deg]
#   7 A_WORLD                Profile RMS along major axis (world units)                 [deg]
#   8 B_WORLD                Profile RMS along minor axis (world units)                 [deg]
#   9 THETA_WORLD            Position angle (CCW/world-x)                               [deg]
#  10 FWHM_WORLD             FWHM assuming a gaussian core                              [deg]
#  11 ELONGATION             A_IMAGE/B_IMAGE                                           
#  12 ELLIPTICITY            1 - B_IMAGE/A_IMAGE                                       
         1 -15.6827    241.6282     89.9124   2.6227879562e+01   1.2828785644e+01     2.519832     1.349795 -48.00   0.01140582    1.779    0.438
         2 -12.3825     25.4744     75.8050   7.8817138043e+01   5.8283381389e+01     1.076064     0.245773 -49.36  0.004084021    3.104    0.678
         3 -10.9083     40.9610     13.9710   5.1373343333e+01   6.8182156756e+01    0.1777163    0.1383872  -5.05 0.0003025772    1.015    0.014
         4 -10.5674    162.0972    225.1005   6.9659016214e+01   4.5710273163e+00    0.3551763    0.2236884  13.54  0.001667043    2.408    0.585
         5 -10.1931     99.1147    224.9934   8.2395400861e+01   1.5066393856e+01    0.1969821    0.1615778  61.48 0.0007388894    1.010    0.009
         6 -10.5398     59.7946    222.9673   8.9947698062e+01   2.1093991274e+01    0.2061802    0.1082799  73.77  0.001082494    1.962    0.490
         7 -11.0637    126.2080    220.4554   7.6315555976e+01   1.1546412514e+01    0.2392278    0.1911691  74.43 0.0006888623    1.317    0.241
         8 -10.0219     74.6667    219.3202   8.6693899040e+01   1.9799438490e+01    0.1344778   0.07681758  66.36 0.0007049301    1.699    0.411
         9 -10.2093    143.5969    216.7758   7.2199313541e+01   9.2446328540e+00    0.1704634    0.1287336 -71.38 0.0009479948    1.636    0.389
        10  -9.9051     23.5542    215.9003   9.6252230095e+01   2.6794721320e+01    0.1731871    0.1201466  55.37   0.00081905    1.258    0.205
        11 -10.4454     76.5147    211.9411   8.5566160437e+01   2.1034089265e+01    0.1856505    0.1159062 -72.09  0.001039816    1.612    0.379
        12  -9.9225    116.9803    210.5008   7.6903420147e+01   1.5013397636e+01     0.201563   0.09326677  57.26 0.0008100088    2.529    0.605
        13 -10.1136     99.4879    206.0039   8.0045074488e+01   1.8787919316e+01    0.1878092    0.1062974  86.37  0.000810254    2.568    0.611
        14 -10.8471    185.8768    204.3146   6.1438451227e+01   3.8728672495e+00    0.2194973    0.1618704  52.07 0.0009503546    1.462    0.316
        15 -12.0250    165.5618    202.7073   6.5360976009e+01   7.8737046810e+00     0.520961    0.3585283  74.47  0.002417776    2.309    0.567
        16  -9.8095    131.3361    203.6453   7.2837116604e+01   1.3900832393e+01    0.1459489   0.09943393  71.02 0.0007043229    1.798    0.444
        17 -12.9379    178.0375    196.8630   6.1719344696e+01   6.6200123265e+00    0.4457842    0.3781112 -22.65  0.001827959    1.281    0.219
        18 -11.3721    125.3622    197.3513   7.3183742754e+01   1.6225457684e+01    0.3348154    0.2317567  42.56  0.001706469    1.319    0.242
        19 -10.4207    112.8422    194.1568   7.5487094664e+01   1.9066636859e+01    0.2344671    0.1682856 -38.32 0.0006686393    1.821    0.451
        20  -9.9250     88.4613    197.9649   8.1416634308e+01   2.2205543743e+01    0.1912584    0.1046422  85.94 0.0008093552    2.579    0.612
        21 -12.6519    163.5136    194.2823   6.4330565643e+01   9.8237325754e+00    0.5314586    0.3402762  63.69   0.00239339    2.117    0.528
        22  -9.6289     66.3456    194.0226   8.5780631309e+01   2.6263306377e+01    0.2151625   0.09258175  87.85 0.0007050026    4.423    0.774
        23 -11.8921    172.8431    196.0528   6.2662136510e+01   7.7389020001e+00    0.2511405    0.2057871 -74.40  0.001357673    1.611    0.379
        24  -9.8706     43.5999    192.8064   9.0529050117e+01   2.9407475304e+01    0.1816635   0.09842492 -88.91 0.0009530076    1.768    0.434
        25 -11.0715    139.2858    189.0484   6.8737427100e+01   1.5408811602e+01    0.4005019    0.2490038 -72.49   0.00175657    2.270    0.559
        26 -10.1282    192.5022    187.9869   5.7071657429e+01   5.4882822760e+00    0.1835914    0.1258018 -68.27 0.0008094523    2.462    0.594
        27 -10.4072    129.6262    188.3134   7.0789781819e+01   1.7338899937e+01    0.2292506    0.1624373  73.83  0.001046459    1.722    0.419
        28 -10.5006    165.6444    186.6288   6.2481709250e+01   1.0884703372e+01     0.284008    0.2073317  78.00  0.001297796    2.023    0.506
        29 -10.2389    149.3206    187.6414   6.6253079132e+01   1.3810214487e+01    0.1485705    0.1101128  76.75  0.000704429    1.765    0.434
        30 -11.0074    120.4227    184.6015   7.2281242153e+01   1.9789006658e+01    0.3874106    0.1428931 -62.00  0.001296667    3.570    0.720
        31 -10.5729    109.3065    185.4382   7.4973847475e+01   2.1549106834e+01    0.3220361    0.1911485  78.77  0.001327305    2.546    0.607
        32 -10.8154    204.5983    184.7929   5.4009737707e+01   3.7734755102e+00    0.1896472    0.1309125 -48.84 0.0009487172    1.697    0.411
        33 -11.2379     94.5199    183.2452   7.8064459911e+01   2.4484806214e+01    0.4373715    0.2695571 -70.76  0.002154257    1.694    0.410
        34 -10.8854    149.3702    198.2783   6.8071696834e+01   1.1695790146e+01    0.3523713    0.2289652  83.41  0.001474035    2.765    0.638
        35  -9.9036    183.3241    184.6535   5.8330764712e+01   7.8443677931e+00    0.1413299    0.1144763  81.83 0.0006808416    1.742    0.426
        36 -10.9778    174.6021    183.7755   6.0011565176e+01   9.6982134687e+00    0.2713232    0.2226903  86.05  0.001113317    1.644    0.392
        37  -9.9705     74.3901    183.2470   8.2706141515e+01   2.7539034752e+01    0.1912583    0.1162372 -81.56 0.0008178225    1.704    0.413
        38 -11.6719      3.0470    182.6863   9.8082888202e+01   3.5644510375e+01    0.3683808    0.1727573  52.07  0.002160606    1.913    0.477
        39 -11.8766    148.0416    179.7072   6.5104999195e+01   1.5676917896e+01    0.3496978    0.2688563 -87.44  0.001572708    1.691    0.409
        40 -10.9672    138.2837    178.8341   6.7174617790e+01   1.7731347091e+01    0.2827072    0.2212539  84.75  0.001127682    1.546    0.353
        41 -10.1186    197.4686    182.5029   5.4989295533e+01   5.5194533305e+00    0.1403158    0.1301695  18.75 6.498794e-05    1.040    0.038
        42 -10.4071    192.3356    177.6910   5.5080442443e+01   7.3779957729e+00    0.1395953    0.1157826  80.67 0.0003810562    1.678    0.404
        43 -11.2129     77.5336    175.2650   8.0918221483e+01   2.8904873703e+01    0.4037022     0.215778  75.58  0.001649895    2.669    0.625
        44 -10.9128    183.7051    175.1869   5.6381791129e+01   9.5434501226e+00    0.2238059    0.1909621 -67.31  0.001186708    1.444    0.307
        45 -10.3994    159.3935    175.1624   6.1683001081e+01   1.4387042899e+01    0.2070765    0.1407784 -60.78 0.0009495944    1.764    0.433
        46  -9.8833    105.6780    174.3668   7.4071351494e+01   2.4636707954e+01     0.154043    0.1036403  75.29 0.0007037782    1.792    0.442
        47 -11.0396    134.8974    171.2651   6.6574340991e+01   2.0006999002e+01    0.3354325    0.2164419 -72.24  0.001455386    2.043    0.510
        48 -11.5045    177.4327    170.4751   5.6767771836e+01   1.1707924731e+01    0.3297821    0.2806542 -67.64   0.00173276    1.411    0.291
        49 -10.2909    206.7967    169.8079   5.0532090827e+01   5.9852040780e+00    0.1897308    0.1768579  88.52  0.001035277    1.361    0.265
        50 -10.9609    150.0963    169.2529   6.2642032919e+01   1.7464483561e+01    0.2830097    0.1995886 -82.94  0.001100425    2.089    0.521
        51 -11.7791    121.8042    167.9613   6.9087021629e+01   2.3209632943e+01    0.5995877    0.3315987 -64.22  0.002505072    2.101    0.524
        52 -10.8310    168.1605    168.9408   5.8487188877e+01   1.3890652672e+01    0.3143644    0.2242745  84.11  0.001344241    2.266    0.559
        53 -12.3447    139.4933    163.8915   6.4069536424e+01   2.0725295155e+01    0.6173323    0.3443809 -65.99  0.002386142    2.476    0.596
        54 -10.0878    192.5015    165.5002   5.2531166453e+01   9.6170631510e+00    0.1452878    0.1389262  16.44 0.0008104756    1.033    0.032
        55 -10.6474     79.6939    163.2393   7.8649540905e+01   3.1390375783e+01    0.5118981    0.2554876  89.43  0.001726232    3.822    0.738
        56 -10.6983     21.2922    162.4136   9.2622099550e+01   3.8556328417e+01    0.4668144    0.2142516 -47.05  0.002191442    2.899    0.655
        57 -11.0233    213.9762    163.9713   4.7894050103e+01   5.6247169405e+00     0.215225    0.1826954 -80.63  0.000822087    1.671    0.401
        58 -12.1458    145.0675    160.5111   6.2066531604e+01   2.0351852685e+01    0.6155198    0.3961501  88.62  0.001849023    2.923    0.658
        59 -10.4150     15.1174    163.8681   9.4150755769e+01   3.8772281171e+01    0.1816771    0.1598362  37.78  0.001087531    1.431    0.301
        60  -9.3461     47.3257    163.6459   8.6635217041e+01   3.5581599906e+01    0.1409909   0.08415328  71.72 0.0007046715    1.767    0.434
        61 -10.9076    206.0120    162.0551   4.9046757557e+01   7.5396630880e+00     0.224427    0.1859471 -83.36  0.001136411    1.727    0.421
        62 -11.3411    177.7638    160.1101   5.4523375283e+01   1.3693445087e+01    0.4231384    0.2392718 -55.63  0.001706154    2.201    0.546
        63 -11.0182    178.4828    155.4572   5.3357650283e+01   1.4476559936e+01    0.2753435    0.1959246 -28.96 0.0006657693    1.555    0.357
        64 -10.4888    151.7297    160.5695   6.0510508825e+01   1.8986680424e+01    0.2636625     0.191636 -73.88  0.001099275    1.797    0.444
        65 -10.5484     92.8106    159.4079   7.4744747492e+01   3.0251623610e+01    0.4358647    0.2350733 -71.46  0.001830011    2.131    0.531
        66 -10.5625     95.3222    154.0826   7.3178135505e+01   3.1099244350e+01    0.2323086    0.2022718  45.43 0.0003177999    1.181    0.153
        67 -10.3088    128.7094    158.3898   6.5586230962e+01   2.4061507172e+01    0.2809757    0.1867301 -65.66  0.001091108    1.710    0.415
        68 -11.8953    197.0389    156.9532   4.9754053476e+01   1.0309480871e+01    0.3746909    0.2682368 -60.06  0.001746174    1.791    0.442
        69 -11.7933    188.7621    156.8094   5.1445639765e+01   1.2053269264e+01     0.398817    0.3046541 -55.41  0.001455053    1.494    0.331
        70 -12.9757    189.2665    148.6670   4.9529666748e+01   1.3539818433e+01    0.6870828    0.3762784 -49.54  0.002642054    2.004    0.501
        71 -11.9617    167.9426    156.6915   5.5965553836e+01   1.6442599197e+01    0.4824482    0.3113067 -57.04  0.002021679    1.813    0.449
        72 -10.4838    105.4974    157.2293   7.1153550526e+01   2.8620533620e+01     0.354439    0.2336904 -87.06  0.001525733    1.999    0.500
        73 -11.2824    157.4558    155.5230   5.8113018406e+01   1.8884025363e+01    0.3433829     0.263879 -62.74  0.001643538    1.478    0.323
        74 -10.8439    119.5547    155.0332   6.7194637593e+01   2.6576038932e+01    0.3990048    0.2419438 -80.51  0.001524371    2.603    0.616
        75 -11.7875    204.7957    154.3065   4.7603176130e+01   9.2120980214e+00    0.2595491    0.2139438 -30.80  0.001008483    1.192    0.161
        76 -10.7691    144.8799    154.7399   6.0914192140e+01   2.1653811607e+01    0.2906097    0.2042231 -81.71  0.001099265    2.050    0.512
        77 -10.1383     49.0265    154.0433   8.5018450955e+01   3.7648819508e+01    0.3140324    0.1588338  85.13  0.001316519    2.618    0.618
        78 -11.5454    133.2960    152.3100   6.3222839190e+01   2.4535426240e+01    0.4684876    0.2887651 -70.19  0.001883691    2.203    0.546
        79 -10.6109     81.3120    153.4632   7.6681904748e+01   3.3470518570e+01    0.3585671     0.207344 -82.26  0.001535011    2.166    0.538
        80 -10.7635    162.6140    149.9059   5.5693957993e+01   1.8990473920e+01     0.304582    0.1964311 -59.57  0.001287352    1.863    0.463
        81 -12.0107    200.2070    148.2467   4.7173848887e+01   1.1303155036e+01    0.3314695    0.2423933 -48.62  0.001110853    1.451    0.311
        82 -10.6109    142.5223    148.5292   6.0155575861e+01   2.3512370973e+01    0.2753159    0.1475731 -60.03  0.001031085    2.302    0.566
        83 -11.9341    107.1954    143.8798   6.8145106753e+01   3.1464243027e+01    0.8055661    0.4476556 -73.91  0.003016495    2.622    0.619
        84 -10.4461     38.7939    146.5037   8.6641094249e+01   4.0568386028e+01    0.3251171     0.156902  89.19  0.001383614    2.574    0.612
        85 -11.2179    175.8743    145.5751   5.1721798603e+01   1.7042198430e+01    0.3135196    0.2052725 -59.63  0.001146326    1.897    0.473
        86 -12.8088    149.1599    143.0419   5.7329231447e+01   2.3337440629e+01    0.8837869    0.4627093 -55.82  0.003275752    2.197    0.545
        87 -10.7238     67.8221    152.9992   8.0086308689e+01   3.5523512861e+01    0.4132487    0.2496179  83.64  0.001672551    2.048    0.512
        88 -10.8253     55.4595    144.2216   8.1983817338e+01   3.9232890908e+01     0.490182    0.2551925 -84.28  0.002106261    2.327    0.570
        89 -11.8997    166.0283    143.0962   5.3371640001e+01   1.9695651445e+01     0.457267    0.2531353 -54.76   0.00178237    2.106    0.525
        90 -11.5511    124.9305    141.7102   6.3075328380e+01   2.8618794833e+01    0.6734489    0.3679775 -71.05  0.002317567    3.014    0.668
        91 -10.6373     87.8927    143.2628   7.3154376958e+01   3.4896420996e+01    0.3334698    0.2040052 -77.76  0.001452687    1.966    0.491
        92 -11.2677    182.3359    141.0110   4.9255880083e+01   1.6563118065e+01    0.3378559    0.2372722 -60.32  0.001496942    1.735    0.424
        93 -13.0037    192.6505    135.8246   4.5855790167e+01   1.5330141267e+01    0.8784031    0.4768624 -14.45   0.00252109    4.592    0.782
        94 -11.6527    172.2585    137.0381   5.0545800759e+01   1.9597222479e+01    0.4431967    0.2714404 -56.08  0.001812338    1.918    0.479
        95 -10.8203    138.5680    137.2677   5.8619306746e+01   2.6858035370e+01    0.3052543    0.1513383 -52.99  0.001139171    2.134    0.531
        96 -10.6240     22.9577    137.2509   8.9594787350e+01   4.4254740910e+01    0.3879311    0.1712695  78.91  0.001545748    3.321    0.699
        97 -11.3806    162.7825    135.6912   5.2393113528e+01   2.1977246854e+01    0.3297422    0.2191786 -54.56  0.001422368    1.640    0.390
        98 -11.8299    179.5141    132.5707   4.7873954996e+01   1.8899827961e+01    0.4578113    0.2682233 -51.62   0.00186313    1.874    0.466
        99 -11.7506    131.9837    129.6394   5.8516040246e+01   2.9959972115e+01      0.76726    0.3368652 -54.23  0.002667861    2.510    0.602
       100 -10.5291    112.6541    132.3633   6.4246201772e+01   3.3174813247e+01     0.361604    0.2376996 -74.25   0.00152215    1.965    0.491
       101 -11.7794    143.2432    129.9487   5.5730721874e+01   2.7504202584e+01    0.6510893    0.2692343 -48.12  0.002248268    2.450    0.592
       102 -11.0860     83.2458    131.0529   7.2074682652e+01   3.8573585259e+01    0.5287786    0.2880499 -72.80  0.002135397    2.277    0.561
       103 -10.3682     83.2538    123.7459   7.0571537093e+01   4.0332371013e+01    0.3946202    0.1721971 -43.02  0.001455008    2.607    0.616
       104 -12.1199    192.7246    129.3705   4.4301581857e+01   1.6579270714e+01    0.4006211    0.2720764 -41.77  0.001372442    1.450    0.310
       105 -12.3538    168.7686    128.1176   4.9188527450e+01   2.2238898340e+01    0.5247214    0.3083313 -43.34  0.002165858    1.704    0.413
       106 -11.7575    152.9744    127.7781   5.2813085829e+01   2.5852864137e+01    0.6936957    0.2822769 -51.19  0.002280264    2.746    0.636
       107 -10.5266     12.3924    128.5906   9.1372042972e+01   4.7109828446e+01    0.3678186     0.155869  77.96  0.001474573    3.472    0.712
       108 -10.8333     12.0000    123.9972   9.0952244370e+01   4.8206099667e+01    0.4808013   0.06695199 -59.45  0.001683316    3.861    0.741
       109 -11.9613    197.7849    137.0658   4.5095182100e+01   1.3964870096e+01    0.4760085    0.1975857 -43.17   0.00171713    2.389    0.581
       110 -12.0519     99.1925    124.8130   6.6261744273e+01   3.7423360017e+01    0.9487012    0.3897342 -55.66  0.003442079    2.413    0.586
       111 -10.5037     72.8283    127.9105   7.4407221654e+01   4.0887027690e+01    0.4279866    0.1827804 -65.86  0.001617514    2.507    0.601
       112 -11.6688    117.5302    123.6319   6.0914255817e+01   3.4272076060e+01     0.621425    0.3330088 -61.09  0.002363006    2.223    0.550
       113 -11.9132    180.1259    123.3419   4.5486774832e+01   2.0634596732e+01    0.5089135    0.2376642 -39.09  0.001871691    2.160    0.537
       114 -11.0642     58.7084    122.3048   7.7427373256e+01   4.4128082940e+01    0.6490122    0.3170404 -82.51  0.002314812    3.416    0.707
       115 -11.7654    188.8736    122.6197   4.3451960507e+01   1.8777402629e+01    0.4545506    0.2154178 -46.25  0.001595867    2.159    0.537
       116 -11.5782     42.9275    120.2851   8.1688257850e+01   4.6415540545e+01    0.9045863    0.3667063 -80.99  0.002927285    4.310    0.768
       117 -10.9012     29.1559    121.1129   8.5797616978e+01   4.7536556681e+01    0.6691769    0.2090592 -72.19  0.002486462    3.123    0.680
       118 -12.1515    158.6626    120.0926   4.9535227299e+01   2.6226980389e+01    0.5406445    0.2883135 -47.99  0.002092246    1.921    0.480
       119 -12.0698    189.0000    135.9814   4.6654624363e+01   1.6103748479e+01    0.5152849      0.19936 -45.40  0.001751021    2.653    0.623
       120 -11.5320    172.7166    120.0586   4.6293406073e+01   2.3007738202e+01     0.401984    0.2107877 -43.75  0.001557817    1.900    0.474
       121 -12.2712    141.8375    116.8652   5.2836669037e+01   3.0705273701e+01    0.9345328     0.345617 -49.05  0.002986657    2.839    0.648
       122 -11.6596    130.7976    117.1236   5.5757045748e+01   3.3039627109e+01    0.6048244    0.3203168 -57.44  0.002253802    2.224    0.550
       123 -10.7332     70.7734    118.3021   7.3085042859e+01   4.3494749857e+01    0.3634216    0.1669458 -65.03  0.001437018    2.285    0.562
       124 -10.9032      2.5217    115.0868   9.2530401950e+01   5.0867706333e+01    0.6191945    0.2021915 -86.42  0.002225211    4.108    0.757
       125 -11.9162    186.0539    114.6664   4.2048835437e+01   2.0995375926e+01    0.4847305    0.2350958 -38.31   0.00182559    2.058    0.514
       126 -11.5652    108.9845    111.8579   6.0399696681e+01   3.8654556495e+01    0.9168125    0.3463662 -54.37   0.00301309    2.877    0.652
       127 -12.5007    192.7363    113.3919   4.0357991867e+01   1.9688774372e+01    0.5985448    0.2873004 -56.25  0.001968507    3.064    0.674
       128 -11.9689    189.2665    106.1042   3.9197501534e+01   2.1904882563e+01    0.3625947    0.2314121 -38.01  0.001574797    1.547    0.354
       129 -11.5663     92.3453    109.1629   6.4575049972e+01   4.2301691340e+01    0.9655799     0.276082 -52.78  0.002975787    3.355    0.702
       130 -11.2086     78.3995    110.4013   6.9069515723e+01   4.4264348097e+01    0.7108728    0.3041851 -66.86  0.002350619    3.401    0.706
       131 -11.2687    200.4722    111.4940   3.8357897398e+01   1.8259689738e+01     0.294791    0.1305147 -48.29  0.001038103    2.446    0.591
       132 -11.6346    174.8603    110.0686   4.3256568160e+01   2.4535911862e+01    0.4579381    0.2311208 -38.40  0.001734133    2.002    0.500
       133 -11.5447    159.2928    110.3269   4.6859727666e+01   2.8137584648e+01    0.4529654    0.2173436 -43.03   0.00166742    2.078    0.519
       134 -11.5793    122.2864    110.2556   5.6275853879e+01   3.6365268133e+01    0.5411934    0.2671044 -40.72  0.002034925    2.117    0.528
       135 -11.0270     14.1866    108.8781   8.8408549651e+01   5.1570480069e+01    0.4949771    0.2233142 -73.21  0.002464139    1.860    0.462
       136 -11.0756     66.1097    108.3258   7.2377226443e+01   4.6516971401e+01    0.5539817    0.2216346 -61.01  0.002121839    2.443    0.591
       137 -11.4726    183.0459    108.1709   4.1011303541e+01   2.2976810230e+01    0.3676473    0.2185115 -43.72  0.001528256    1.663    0.399
       138 -10.9208    133.2609    107.9783   5.2727777526e+01   3.4535791352e+01    0.3992949    0.2147347 -47.68  0.001565746    1.864    0.463
       139 -10.0655     17.0187    244.5099   9.8972352341e+01   2.2034560162e+01    0.1604421    0.1065179  76.63  0.000620186    1.114    0.102
       140 -11.4121    159.6081     99.4667   4.3862313035e+01   3.0289858132e+01    0.4499059    0.1516884 -40.64  0.001387535    2.963    0.663
       141 -12.2702    108.4267     95.9295   5.6333812001e+01   4.2344417206e+01    0.9180766    0.4938491 -55.18  0.003651508    2.053    0.513
       142 -11.4292     81.9086     97.3998   6.4814061710e+01   4.6741621679e+01     0.620001     0.205315 -52.47  0.002123821    2.828    0.646
       143 -11.7975     22.6051    101.7725   8.4769196787e+01   5.2616058866e+01    0.7827233    0.3804082  81.00  0.003052745    3.783    0.736
       144 -12.0663     63.4709     92.3223   6.9490915826e+01   5.0593304477e+01    0.9919714    0.2997717 -55.08  0.003467498    2.955    0.662
       145 -11.7506    183.7434     95.7429   3.7593287230e+01   2.5200719316e+01    0.2868839    0.1960369 -35.73  0.001277187    1.475    0.322
       146 -11.6237    164.9599     92.5173   4.0717192176e+01   3.0379267142e+01    0.4300477     0.225911 -28.04  0.001549524    2.407    0.585
       147 -10.9962     95.3623     93.8438   5.9672371487e+01   4.5261052657e+01     0.708088    0.2636293 -40.81   0.00237939    2.902    0.655
       148 -11.7708    176.9983     91.9913   3.7968484361e+01   2.7549283501e+01    0.3414994    0.2194771 -38.28  0.001475785    1.553    0.356
       149 -11.4365    138.7891     89.7626   4.6207535723e+01   3.7136032342e+01    0.5436733    0.2528661 -37.95  0.001979053    2.230    0.552
       150 -10.1776     58.0017     92.0121   7.1234161861e+01   5.1367313519e+01     0.200216    0.1817331 -52.35            0    1.040    0.038
       151 -12.1223    125.0345     87.3622   4.9151116772e+01   4.0712923601e+01    0.8632026    0.4071366 -33.24  0.003061173    2.529    0.605
       152 -11.2643      4.5813     89.8027   8.8619552810e+01   5.6504281070e+01    0.3605908    0.1460589 -73.74   0.00174067    2.132    0.531
       153 -11.6878     44.4125    100.6170   7.7612052946e+01   5.0927117514e+01    0.7176048    0.3859516  83.48  0.002606366    4.012    0.751
       154 -11.4883     85.9015     85.5962   6.0329550672e+01   4.8715883968e+01    0.4642707    0.2836974 -63.83  0.002001612    2.097    0.523
       155 -10.8256    188.5117     86.4984   3.4168339751e+01   2.5745299588e+01    0.1513811    0.1495281 -67.51 0.0002010771    1.029    0.029
       156 -12.1282     48.1191     80.7402   7.1845556282e+01   5.5065116643e+01    0.7705703    0.2480031 -53.57  0.003018116    2.541    0.607
       157 -11.1060     34.6412     86.2153   7.7853193862e+01   5.5193318795e+01     0.772705    0.1961044 -57.54   0.00289519    2.912    0.657
       158  -9.4789    116.7054     83.6364   5.0369313831e+01   4.3263354332e+01    0.1577661    0.1194581  -4.56 0.0007030416    1.711    0.416
       159 -11.7565    104.4670     80.3658   5.2971972202e+01   4.6427234355e+01    0.7207701    0.2842284 -43.45  0.002595644    2.473    0.596
       160 -11.2598    179.4299     84.6960   3.5464831088e+01   2.8306255222e+01    0.3050358    0.1425553 -42.26  0.001131495    2.110    0.526
       161 -10.3771    170.4883     82.4956   3.6696548237e+01   3.0917763683e+01    0.1533929    0.1518375  62.11 2.037986e-05    1.026    0.025
       162 -11.1832    158.6516     81.3775   3.8965888247e+01   3.4037222176e+01    0.3411497    0.2025369 -29.83  0.001379887    1.887    0.470
       163 -11.1019     84.9928    227.0162   8.5418312707e+01   1.6803399289e+01    0.2142655    0.1223252  66.04  0.001144187    1.747    0.428
       164 -10.6328    150.1218     78.3492   4.0047659516e+01   3.6676237120e+01     0.287316    0.2175113 -25.64  0.001314583    1.452    0.311
       165 -12.0602    210.8918    103.6954   3.4476253292e+01   1.7300556299e+01    0.2766428     0.205226 -27.31 0.0009921459    1.409    0.290
       166 -11.4761    174.8660     76.9745   3.4227234401e+01   3.0825589630e+01    0.3160073    0.1887486 -36.59   0.00133323    1.691    0.409
       167 -11.8304    166.9867    102.1523   4.2904424806e+01   2.7992021946e+01     0.490661      0.22911 -38.13   0.00177671    2.185    0.542
       168 -10.2671    194.3253     76.3318   3.0351493502e+01   2.6100077602e+01     0.154028    0.1193349  19.33 0.0007050883    1.708    0.414
       169 -10.6333    167.5997     76.1972   3.5506374749e+01   3.2773477771e+01     0.222974    0.1507839 -23.56 0.0009567529    1.740    0.425
       170 -12.2368    150.2179    100.5258   4.6393095583e+01   3.2286502033e+01    0.8846554    0.2592686 -43.53  0.002563806    3.398    0.706
       171 -10.4369     43.3422     93.1294   7.6393502037e+01   5.2775449682e+01    0.3715627    0.1309851 -52.79  0.001533817    2.268    0.559
       172 -11.5177    128.3402     72.1427   4.3608796052e+01   4.2956968767e+01    0.6864312    0.2853262 -32.69  0.002341256    2.792    0.642
       173 -10.4886      9.9457     74.7359   8.4223492027e+01   5.9555904486e+01    0.1857872    0.1262681 -45.43  0.001189181    1.246    0.197
       174 -10.8334    140.6339     73.3439   4.0827411771e+01   3.9875738057e+01    0.3401767    0.1986435 -30.25  0.001390663    1.894    0.472
       175 -10.6574     81.6225     71.7949   5.7605852318e+01   5.2332315775e+01    0.3280549    0.2267291 -56.31   0.00162004    1.615    0.381
       176 -11.2799     82.2475     66.4867   5.5698820472e+01   5.3286883828e+01    0.4821992    0.2552377 -26.54  0.001934626    2.477    0.596
       177 -11.6233     62.7204     68.7178   6.3249947917e+01   5.5832973761e+01    0.8378611    0.1283086 -47.98  0.002254488    5.257    0.810
       178 -10.5519    119.2088     78.5628   4.8113459908e+01   4.3748395604e+01    0.3084834    0.2119525 -40.61  0.001422617    1.447    0.309
       179 -11.7916    139.7798    102.6177   4.9582109098e+01   3.4244354278e+01    0.6309202    0.2930349 -42.72  0.002303705    2.151    0.535
       180 -10.3241    115.7393     70.5166   4.6563592975e+01   4.6048054716e+01    0.3266371    0.1806844 -27.58  0.001293208    2.176    0.540
       181 -11.0614     94.8237     67.9814   5.2055825553e+01   5.0748526347e+01    0.7216799    0.1828805 -44.47  0.002148078    3.910    0.744
       182 -11.5029     50.9885     66.2896   6.6841003605e+01   5.7834830859e+01    0.7976831    0.1664355 -53.31  0.002418397    4.472    0.776
       183 -11.0723     17.8394     63.0390   7.8745669656e+01   6.1583203673e+01    0.4552083   0.06996187 -51.71   0.00166037    3.469    0.712
       184  -9.7940    170.6687     69.6582   3.2979346209e+01   3.3147599494e+01    0.1598232    0.1196809  20.41 0.0007051253    1.749    0.428
       185 -10.7409    146.9323     65.6655   3.6936552084e+01   3.9726193986e+01    0.4502003    0.2240465 -23.55  0.001579982    2.804    0.643
       186 -11.6932    128.5976    100.0928   5.1825212879e+01   3.7260790789e+01    0.5734628    0.2992015 -40.88  0.002232092    1.938    0.484
       187 -10.4917      6.4270    101.7603   8.9752417265e+01   5.3694213015e+01    0.2433429   0.09861487 -76.10  0.001144791    2.169    0.539
       188 -10.9749    138.5518     64.1786   3.8473319441e+01   4.2004941450e+01    0.3746596    0.1528289 -33.44  0.001307075    2.640    0.621
       189 -10.1236     74.3474     78.4290   6.2076334648e+01   5.2112526111e+01    0.5168886    0.1347875 -54.68  0.001377375    5.185    0.807
       190 -11.1386     73.3003     55.8675   5.5239541486e+01   5.6783654730e+01    0.7923512    0.1990357 -40.64   0.00251003    3.881    0.742
       191 -10.4251    100.0763     56.7732   4.6622877271e+01   5.1796999666e+01    0.5310863    0.1893042 -36.83  0.001881122    2.854    0.650
       192 -11.1166    140.8743     81.0573   4.3110347766e+01   3.8368531707e+01     0.423786    0.2068084 -27.74  0.001447718    2.767    0.639
       193 -11.4201    175.7683    100.5398   4.0541787811e+01   2.6205682140e+01    0.3128188    0.2217528 -38.40  0.001409158    1.409    0.290
       194 -11.3310      7.0000     55.5113   8.1279878413e+01   6.3800494851e+01    0.4216707    0.1245752 -68.03  0.001598305    3.832    0.739
       195 -11.1761    110.1691     60.6352   4.4915779059e+01   4.9041940933e+01    0.5131838    0.2603833 -23.99  0.001903765    2.705    0.630
       196 -10.6390    121.7410     63.3886   4.2568886161e+01   4.6035940957e+01    0.4743758    0.2040942 -30.51  0.001667297    2.759    0.637
       197 -10.4127     63.1598     48.8202   5.6480768410e+01   5.9618567935e+01    0.5246335    0.1505148 -37.30  0.001750013    3.761    0.734
       198 -11.7885     45.2088     49.5088   6.3784206736e+01   6.1835368166e+01    0.4074645    0.1936626 -37.56 0.0005881081    1.902    0.474
       199 -10.6338     53.6003     49.8631   6.0548803925e+01   6.0743766697e+01    0.5262468    0.1211307 -49.43  0.001636888    4.561    0.781
       200 -10.0684    105.5615     50.7104   4.2831858607e+01   5.1703110915e+01     0.285813    0.1386872 -30.40  0.001157983    2.217    0.549
       201 -10.5237     92.3161     49.1659   4.6366382764e+01   5.4616692709e+01    0.3804369    0.1731419 -48.12   0.00147634    2.748    0.636
       202  -9.6129    130.3513     46.3206   3.4610943517e+01   4.6837768795e+01    0.1566341    0.1077158  23.88 0.0005438214    1.746    0.427
       203 -10.3982     83.9749     40.4925   4.5873496464e+01   5.7582918112e+01     0.323294    0.1864796  10.37  0.001318861    2.769    0.639
       204 -10.2639    113.5041     42.3173   3.7564508443e+01   5.1298640830e+01    0.3848642    0.2322288   0.97  0.001550023    2.632    0.620
       205 -10.4350     16.8866     42.0024   7.3425337935e+01   6.5887389640e+01    0.4530938   0.07157734 -49.80  0.001690282    3.575    0.720
       206 -10.5033    123.0232     41.9401   3.4923159123e+01   4.9197258089e+01    0.3699057     0.190715  -5.99  0.001150651    4.367    0.771
       207 -11.1590      4.9098     40.1171   7.8236283523e+01   6.6983090705e+01    0.4157848     0.138958 -66.41  0.001679778    3.765    0.734
       208  -9.8435    106.3161     37.3584   3.7749970822e+01   5.3585605546e+01    0.1497911    0.1014897  16.15 0.0005908491    1.753    0.429
       209 -10.2192     69.3270     36.9979   4.9689007688e+01   6.0666326232e+01    0.2180997   0.09563997 -20.44 0.0007049475    4.302    0.768
       210 -10.2349     95.5057     34.9746   4.0033185559e+01   5.6179480701e+01    0.1978421    0.1143796  -3.93 0.0008103235    2.599    0.615
       211 -10.5550     27.4973     29.4847   6.4246452649e+01   6.7290859344e+01    0.2321312   0.07865397 -39.07  0.001042146    2.492    0.599
       212  -9.8249     12.6685     21.2855   6.8268348670e+01   6.9924382038e+01   0.09113552   0.08942273  62.66 0.0004133609    1.617    0.382
       213  -9.9019     49.9810     16.0189   4.8390690425e+01   6.6675710077e+01    0.2528623    0.1255603   2.58 0.0009512538    4.069    0.754
