#   1 NUMBER                 Running object number                                     
#   2 MAG_AUTO               Kron-like elliptical aperture magnitude                    [mag]
#   3 X_IMAGE                Object position along x                                    [pixel]
#   4 Y_IMAGE                Object position along y                                    [pixel]
#   5 X_WORLD                Barycenter position along world x axis                     [deg]
#   6 Y_WORLD                Barycenter position along world y axis                     [deg]
#   7 A_WORLD                Profile RMS along major axis (world units)                 [deg]
#   8 B_WORLD                Profile RMS along minor axis (world units)                 [deg]
#   9 THETA_WORLD            Position angle (CCW/world-x)                               [deg]
#  10 FWHM_WORLD             FWHM assuming a gaussian core                              [deg]
#  11 ELONGATION             A_IMAGE/B_IMAGE                                           
#  12 ELLIPTICITY            1 - B_IMAGE/A_IMAGE                                       
         1 -10.6497     35.2606     22.7535   6.9103050602e+01   6.7841081317e+01    0.3502328    0.1918531   8.20  0.001726704    2.349    0.574
         2 -11.6805     14.6887     16.5421   7.6914647991e+01   7.1284452419e+01    0.3950291    0.2694079 -58.79  0.002109305    2.985    0.665
         3 -11.0176    229.5426     18.6642   2.8328448266e+01   2.7494431671e+01    0.2832975    0.1848422 -27.20  0.001647133    2.092    0.522
         4 -11.5864    125.1182     17.2017   3.9871777713e+01   5.0544749712e+01    0.2468799     0.199248  48.51 0.0002889648    1.202    0.168
         5 -11.9925    235.6271     14.8673   2.7197627764e+01   2.6755757326e+01    0.3345919     0.197548 -82.85  0.001130559    1.462    0.316
         6 -11.1223    203.0083     16.1606   2.9946068801e+01   3.3136565178e+01    0.2243926    0.1329244 -77.78  0.001321531    1.546    0.353
         7 -10.6890     85.9584     10.8675   4.5977978118e+01   5.9843762842e+01    0.2801639    0.1860232  15.07 0.0003838256    1.787    0.440
         8 -11.1248    208.1129     13.1195   2.8891549500e+01   3.2400813462e+01    0.1937932    0.1539044 -75.52 0.0004050918    1.040    0.038
         9 -11.2654    175.8226     13.2583   3.1900730694e+01   3.9333250724e+01    0.4636928     0.188681  86.66  0.001942488    2.954    0.661
        10 -11.8776    125.7077     10.3108   3.7683923406e+01   5.1043466326e+01    0.5287473    0.2520941 -54.54  0.001182889    2.818    0.645
        11 -10.5851    122.6129      1.9205   3.5639814004e+01   5.2441797890e+01     0.242692    0.1762112  80.20 0.0006511264    1.246    0.197
        12 -11.2532     35.1028     12.2576   6.4320230489e+01   6.9154338889e+01    0.2758201    0.2050768  43.39 0.0006551316    1.541    0.351
        13 -11.5349     29.6636      7.8990   6.4778142283e+01   7.0447876695e+01    0.3833746    0.2520087  12.42   0.00170017    1.349    0.259
        14 -11.6366    191.6574     10.1610   2.9667524635e+01   3.6179727179e+01    0.2893179    0.1738272 -81.29 0.0003837504    1.509    0.337
        15 -12.8430    116.8303      8.5314   3.8637216652e+01   5.3222690834e+01    0.2824093    0.2390265  85.53 0.0004443662    1.180    0.153
        16 -10.9409    182.6017      9.9040   3.0447614647e+01   3.8171408101e+01    0.2372319    0.1471591  85.49 0.0007165864    1.389    0.280
        17  -9.8570     97.5650      9.6820   4.2807670291e+01   5.7438061414e+01     0.283167    0.1284027 -16.57  0.001323769    2.924    0.658
        18 -10.3624     56.1241      8.7450   5.4091470203e+01   6.5975721689e+01    0.2399977    0.1577201  -6.90  0.001042852    1.670    0.401
        19 -11.0123     45.3195      9.7658   5.8684313565e+01   6.7784269689e+01    0.2106183    0.1615677  24.12 0.0002928787    1.034    0.033
        20  -9.7130     22.2244      9.3695   6.9298585837e+01   7.1307950166e+01    0.2586014    0.1294324  17.18  0.001366331    2.131    0.531
        21 -10.4417     15.2445      8.6298   7.2760546572e+01   7.2266069880e+01    0.2875969    0.1475639  18.50  0.001505207    1.825    0.452
        22  -9.3282      9.0213      9.5082   7.6839461670e+01   7.2843715414e+01    0.1267776   0.08899532  41.74 0.0007918083    2.171    0.539
        23 -10.5782    165.8047      7.2800   3.1537322399e+01   4.2154941654e+01    0.2043779    0.1449335  32.22  0.001215349    2.029    0.507
        24 -10.2159      3.2749      6.3523   7.8808180284e+01   7.3834477783e+01    0.2412858    0.1525856  15.56  0.001023107    1.351    0.260
        25 -10.4227     38.8420      5.4889   5.9362762213e+01   6.9283837505e+01    0.2286531     0.195461  20.92  0.001382082    1.184    0.155
        26 -11.0118    199.3056      3.5350   2.7625726735e+01   3.5214744456e+01    0.3267809     0.107155 -36.99  0.001590312    2.826    0.646
        27 -11.0156    104.9999      3.6263   3.9199651156e+01   5.6281558501e+01    0.2856733    0.1987297  22.97 0.0008558451    1.705    0.414
        28 -10.5846     53.5204      2.9791   5.2409192254e+01   6.6968012159e+01    0.1958522    0.1592897  46.52 0.0004010587    1.229    0.186
        29 -12.1869     19.2620      2.5770   6.7392767723e+01   7.2473538099e+01    0.4234001    0.1765693  30.94  0.001075484    2.078    0.519
        30  -9.7541     59.7105      3.1480   5.0378181917e+01   6.5796001968e+01    0.2022637    0.1404107  54.99 0.0006848045    1.381    0.276
        31 -10.7622    162.4539      2.3482   3.0688902833e+01   4.3352099713e+01    0.2433467    0.1275898  77.32  0.001336244    1.606    0.378
        32 -10.2859    237.9669      1.7808   2.4707105945e+01   2.7719647625e+01    0.1349144    0.0717677  81.88 0.0004159851    1.656    0.396
        33 -11.0170    115.5491      1.3913   3.6602506249e+01   5.4083016203e+01    0.5500541    0.1093354  68.41  0.001719489    4.704    0.787
        34  -9.5177     81.0038      1.4813   4.3620964701e+01   6.1649257794e+01    0.1759708    0.1016074  61.58   0.00056074    1.508    0.337
        35 -10.3121     29.5678      1.3965   6.1518111556e+01   7.1137360801e+01    0.3217566   0.08819067  42.24  0.001388557    3.048    0.672
        36  -9.3990     20.4880    209.4995   1.1385509991e+02   2.6865199656e+01    0.1314756    0.1062569  72.23 0.0008097256    1.065    0.061
        37  -9.7016    110.1583    250.6852   9.7390962405e+01   6.4415858928e+00    0.1875454    0.1082722  24.98 0.0004986878    1.705    0.413
        38 -10.9747     28.9721    250.5071   1.1492291634e+02   1.6883979654e+01     0.308437    0.1046928  30.79   0.00136696    2.743    0.635
        39 -11.8223     18.3923    248.8280   1.1696307813e+02   1.8352801361e+01    0.3187446     0.243376 -49.76  0.002094008    1.750    0.429
        40 -11.3989      2.1549    247.0773   1.2007751508e+02   2.0309108075e+01     0.606777    0.2897229  59.24  0.003136903    1.732    0.423
        41 -13.1350     11.0529    243.9638   1.1816154499e+02   2.0103302800e+01     0.695159     0.446468 -76.79  0.004396827    1.512    0.339
        42 -12.8378      5.8876    240.0000   1.1898617754e+02   2.1435420820e+01     0.660245    0.4534588   3.85  0.003918692    2.327    0.570
        43  -9.3587     14.5614    192.8020   1.1394285699e+02   3.1443765395e+01    0.1755543    0.1068965  84.84 0.0003978464    1.545    0.353
        44  -9.4652      6.0848    191.7024   1.1593064208e+02   3.2442691644e+01    0.1733766    0.1496443  74.12 0.0007298726    1.071    0.067
        45  -9.3903      1.0000    190.8673   1.1709791691e+02   3.3053028722e+01      0.20424   0.06178245 -77.32 0.0007887068    2.848    0.649
        46  -8.9254     14.0000    181.9974   1.1316439193e+02   3.4164524132e+01    0.2191176   0.06618616 -74.30 0.0007992091    2.920    0.658
        47 -10.6206      3.3216    153.4771   1.1342023559e+02   4.2183761237e+01    0.3784345    0.1184236  21.91  0.001496177    3.457    0.711
        48 -10.7557     28.9809    143.0350   1.0443046280e+02   4.2817512172e+01    0.2036712    0.1826201 -68.63            0    1.005    0.005
        49  -9.9827     53.0254    141.9354   9.6593258240e+01   4.0472178458e+01    0.2138362    0.1991854 -76.34  0.001197944    1.055    0.052
        50  -9.6895    236.0462    138.4797   5.1338734875e+01   8.2131078011e+00    0.1693157    0.1313321  47.87  0.001018693    1.551    0.355
        51  -9.7198     96.0774    133.7221   8.1358524232e+01   3.5997046602e+01    0.2152222    0.2065388   6.46 0.0006696529    1.066    0.062
        52  -9.4490    213.0140    133.7794   5.4026092283e+01   1.3009865155e+01     0.166912    0.1148112  48.44 0.0005780344    1.657    0.396
        53  -9.8796     61.8094    130.7574   9.1588333413e+01   4.2200417121e+01    0.2148337    0.1927364 -31.33 0.0004377606    1.123    0.109
        54  -9.3364     98.5846    130.4700   7.9847324462e+01   3.6342360592e+01    0.1569925    0.1461676 -25.19 7.340148e-05    1.090    0.083
        55 -12.0273     28.4723    128.0204   1.0228280963e+02   4.6738940869e+01    0.2439992    0.2401346 -61.43    0.0015156    1.101    0.092
        56 -10.0373     12.5484    128.9725   1.0774854022e+02   4.7788915953e+01    0.2153071    0.1143969 -67.93  0.001029255    1.599    0.374
        57 -10.9271     39.9492    127.1093   9.8226519098e+01   4.5826403457e+01    0.3728015    0.2418087  53.97  0.001717137    1.867    0.464
        58  -9.1900    226.3435    124.6802   5.0015653169e+01   1.2287986007e+01    0.1352025   0.09619261 -69.76 0.0006434871    1.723    0.420
        59 -11.2703     10.7822    121.4919   1.0729177957e+02   4.9801630658e+01    0.3519956    0.2498787  36.73  0.001313046    1.604    0.377
        60  -9.7192     26.6307    122.6905   1.0202396081e+02   4.8263769403e+01    0.1509808   0.09099991 -34.98 0.0007035594    1.764    0.433
        61  -9.3990     86.3189    118.6804   8.0822060977e+01   4.1379510236e+01    0.1547087     0.121967  76.40 0.0003246269    1.663    0.399
        62  -9.1949     64.2619    118.7106   8.8151154695e+01   4.4883994326e+01    0.1403655    0.1157635  77.37            0    1.494    0.331
        63 -10.1052     69.1091    116.7173   8.6035287883e+01   4.4657315692e+01    0.2453957    0.2007949 -65.15 0.0006003071    1.284    0.221
        64 -10.6980      1.9572    113.9090   1.0926988801e+02   5.2226429989e+01    0.2180092    0.1578085 -65.06  0.001276008    1.151    0.132
        65  -9.9490     24.7214    111.6554   1.0075274193e+02   5.1200419033e+01    0.1475614   0.08719426 -39.63 0.0004538251    1.631    0.387
        66  -9.7569     35.6609    109.6643   9.6350971744e+01   5.0662280368e+01     0.154065   0.09358297 -32.34 0.0007051353    1.753    0.430
        67 -12.0724     14.0804    107.2837   1.0388260740e+02   5.3107707138e+01    0.5665839    0.1864049 -42.89  0.002144732    2.876    0.652
        68 -11.0158      3.7070    108.8677   1.0792652967e+02   5.3369879182e+01    0.4018796    0.2242071  -1.29  0.002027884    2.177    0.541
        69  -9.9266     44.8209    104.8547   9.1907141518e+01   5.0824810222e+01    0.1803692    0.1658134  77.25 0.0003126242    1.279    0.218
        70 -10.0742     39.3254    105.3181   9.4061848044e+01   5.1336372548e+01    0.1510852   0.09607705 -30.21 0.0007045249    1.675    0.403
        71 -10.6034      1.5473    104.1417   1.0800332076e+02   5.4637027619e+01    0.2636805    0.1103589 -56.81 0.0008941452    1.828    0.453
        72 -10.4149     22.4513    102.7116   9.9895918718e+01   5.3584740662e+01    0.2319888    0.1479809 -23.19 0.0006643467    1.711    0.415
        73 -10.7528    247.0049    101.6939   4.2639258875e+01   1.2610783790e+01    0.1671983    0.1463633 -58.11 0.0005670344    1.097    0.088
        74 -10.2079    197.0895     97.8737   4.8808477054e+01   2.2675516153e+01    0.1968859    0.1750326 -63.64 0.0003016803    1.030    0.029
        75 -10.9738      3.0682     95.1199   1.0597490472e+02   5.6719724763e+01    0.4219804    0.2566305  35.36   0.00188639    1.960    0.490
        76 -12.3338     20.3819     92.6437   9.8642197349e+01   5.6154754281e+01    0.5506849    0.3663215 -20.31  0.002953079    1.579    0.367
        77 -11.6774     10.8563     93.3593   1.0259131564e+02   5.6676678633e+01    0.4459775    0.2000005 -46.22 0.0004415088    1.855    0.461
        78 -10.8010      7.0592     90.7828   1.0361888722e+02   5.7517737455e+01    0.2669552    0.1934863 -51.94 0.0005797627    1.138    0.121
        79  -9.5921    100.0238     95.1705   7.0245335459e+01   4.4153538161e+01     0.225905    0.1756773 -71.55  0.001065206    1.651    0.394
        80 -11.1806    125.1340     93.0640   6.2531287275e+01   3.9331205888e+01    0.2408281    0.2224276  58.08  0.001294332    1.086    0.079
        81  -9.8985    161.0030     92.5792   5.4102280876e+01   3.1437688471e+01    0.2147012    0.1850061 -46.29 0.0001303626    1.147    0.128
        82 -11.6334     58.0065     91.3876   8.3556456751e+01   5.2240058953e+01    0.3226463    0.2553981 -11.23 0.0006775715    1.326    0.246
        83  -9.2946     83.1679     90.5953   7.4344036107e+01   4.8321549295e+01    0.2055806    0.1372733  23.75 0.0009297911    1.660    0.398
        84 -10.0389     65.2424     89.9754   8.0474204769e+01   5.1472343309e+01    0.1831449    0.1181915 -48.96  0.000232444    1.520    0.342
        85  -9.6818     29.7230     91.7048   9.4685980584e+01   5.5552598919e+01     0.165091    0.1553813  86.94  0.001012908    1.274    0.215
        86 -11.3806     11.8281     87.3696   1.0100730248e+02   5.8011944721e+01    0.3905257    0.2318165 -82.35  0.001849237    2.177    0.541
        87 -12.2122      7.1337     84.4162   1.0234682943e+02   5.8988439104e+01    0.5818372    0.2448929 -52.75  0.000996601    1.837    0.456
        88 -10.0723      2.5144     84.0388   1.0419407261e+02   5.9333120426e+01    0.2915484    0.1464971 -72.54  0.001150092    2.027    0.507
        89  -8.9462    104.3205     87.2792   6.6671819874e+01   4.4902950599e+01    0.1490484     0.115916   7.59 0.0002528736    1.582    0.368
        90 -10.1245     17.9165     85.9245   9.8180993962e+01   5.7906906658e+01    0.2455437    0.1777696 -66.54  0.001387658    1.403    0.287
        91  -9.4600     35.4117     83.8256   9.0422127290e+01   5.6768412661e+01    0.2041388    0.1048829 -43.40  0.000935202    1.746    0.427
        92  -9.8656     80.6667     80.6223   7.2218566598e+01   5.0830537397e+01     0.401969    0.1667102 -53.80  0.001149608    3.166    0.684
        93  -9.5558     23.9461     81.5294   9.4620827801e+01   5.8404377266e+01    0.1974027    0.1523104 -50.00 0.0003410731    1.172    0.147
        94 -10.0742    250.4236     80.6991   3.8234558785e+01   1.5306498867e+01     0.159641     0.100667 -37.58 0.0009356989    1.525    0.344
        95  -9.6629    179.9992     81.2726   4.7749327881e+01   2.9208069228e+01    0.1948637    0.1693441  77.60 0.0003729576    1.133    0.118
        96  -9.4927     89.3005     80.6649   6.9351674909e+01   4.9205563497e+01    0.2375358    0.1829566 -69.03 0.0005270662    1.746    0.427
        97  -9.4565     86.4969     78.4956   6.9601855039e+01   5.0165663446e+01    0.2607186    0.1385355  42.49   0.00111084    1.844    0.458
        98  -9.1212     65.0129     81.2489   7.8010912143e+01   5.3370785325e+01    0.1814113    0.1180391  31.64 0.0008707362    1.532    0.347
        99  -9.1019    124.4959     79.0619   5.8718776025e+01   4.2127354367e+01    0.2063156    0.1446312 -43.39 0.0004055384    1.474    0.322
       100 -11.2037     48.7020     78.6947   8.3575571103e+01   5.6286193217e+01    0.4764253    0.2531943  11.79 0.0009452036    2.521    0.603
       101 -11.3203     55.6455     75.2893   7.9785227679e+01   5.6025304836e+01    0.5236162      0.32092  28.72   0.00160502    1.632    0.387
       102 -11.2559     15.9699     77.2549   9.6998626170e+01   6.0008389251e+01     0.285301    0.2089256 -58.95  0.001460854    1.311    0.237
       103 -10.7855     21.2614     75.5839   9.4277765868e+01   5.9950681024e+01    0.4284748     0.302794  68.44  0.002205054    2.317    0.568
       104  -9.7115    176.9804     76.4793   4.7091166769e+01   3.0676801294e+01    0.2096829    0.1329811  60.29  0.001027491    1.576    0.366
       105  -8.6172    165.3358     75.2608   4.8834141240e+01   3.3499827557e+01    0.1358497     0.108847  30.22 0.0003415896    1.579    0.367
       106  -9.9153     69.7778     74.5802   7.4190734159e+01   5.3937753457e+01    0.3152188    0.1787451  39.52  0.001442701    1.756    0.431
       107 -10.3811     42.8431     74.3734   8.4697609752e+01   5.7947323756e+01    0.2482503    0.2228144  81.12  0.001465066    1.534    0.348
       108 -10.5945     34.9117     73.4400   8.7775929501e+01   5.9075070785e+01     0.413617    0.2188397  39.80   0.00131343    2.238    0.553
       109 -11.9237     12.2532     70.9881   9.7110821618e+01   6.1649567525e+01    0.5002462    0.2107246 -29.65  0.001270049    2.576    0.612
       110 -11.7741     15.0909     63.6227   9.3873814569e+01   6.2996583916e+01    0.3763038    0.3208488 -75.18  0.002404807    1.511    0.338
       111 -13.6439     20.7363     58.1937   8.9625777887e+01   6.3618237733e+01    0.3798581    0.2800135 -41.54 0.0008606429    1.214    0.176
       112  -9.1814    181.6941     71.3022   4.5059461921e+01   3.0466452244e+01    0.1411002   0.09791886 -73.26 0.0007010582    1.597    0.374
       113  -9.9940    118.0515     71.0011   5.7991149149e+01   4.4981991717e+01      0.20875    0.1905659  37.56 0.0003094828    1.073    0.068
       114  -9.3338    105.7995     71.6784   6.1533836362e+01   4.7528341253e+01    0.1982257    0.1283469  54.69 0.0004837171    1.597    0.374
       115  -9.6410     93.1547     71.6375   6.5305338678e+01   5.0153157238e+01    0.3026332     0.128891  52.12   0.00109626    2.713    0.631
       116 -13.4745     80.7528     67.1165   6.7894520911e+01   5.3381744398e+01    0.3855912    0.3324877  -6.74 0.0007235816    1.168    0.144
       117  -9.3388    158.0700     70.2423   4.8882040952e+01   3.5982108509e+01    0.1816889    0.1137866  56.89 0.0004225349    1.543    0.352
       118  -9.1159    100.1949     70.0076   6.2642424308e+01   4.9004094810e+01    0.1767424    0.1127544 -38.91 0.0008229219    1.639    0.390
       119 -10.0766     69.9728     69.9508   7.2633887863e+01   5.4796947522e+01    0.1980991    0.1844732   5.99  0.001169772    1.049    0.046
       120 -12.6183      6.4534     64.8084   9.8226790827e+01   6.3353055719e+01    0.6745135    0.2757969 -51.51  0.003276785    1.908    0.476
       121  -9.7048     45.1505     69.2691   8.2176290127e+01   5.8697049078e+01    0.1686006    0.1551442 -56.74 0.0006063769    1.315    0.239
       122 -10.6130     59.1702     66.7159   7.5665238380e+01   5.7180912637e+01    0.2794988    0.2116191 -42.23  0.000947619    1.345    0.256
       123  -9.9834     88.4090     67.0879   6.5349443889e+01   5.1912213195e+01    0.2233159    0.1780136  29.78   0.00119661    1.210    0.174
       124 -10.8314     51.7039     65.9092   7.8387045686e+01   5.8456292804e+01    0.2899667    0.2104833 -24.59 0.0007928105    1.349    0.259
       125 -10.7738     39.9610     65.1423   8.3081516532e+01   6.0178594464e+01     0.218225    0.1735794 -32.72 0.0002818501    1.148    0.129
       126  -9.3333    104.4843     64.4430   5.9636975601e+01   4.9052066884e+01    0.1427775    0.1312464  31.79 0.0001251685    1.036    0.034
       127 -10.2101     63.1558     62.2072   7.2608629130e+01   5.7376484779e+01    0.4201247    0.2296734 -49.70  0.001923442    2.103    0.524
       128  -9.3649    138.6271     63.1317   5.0830973498e+01   4.1600732336e+01    0.1827073    0.1361587 -20.99 0.0003514661    1.650    0.394
       129 -10.5381    145.8230     59.0361   4.8206268309e+01   4.0562804183e+01    0.2861693    0.1832157  55.39  0.001418231    1.465    0.318
       130  -9.9316     90.9044     59.0683   6.1908399410e+01   5.2774930221e+01    0.2026892    0.1894687  35.62            0    1.063    0.060
       131 -12.8877     86.5129     53.9390   6.1545638190e+01   5.4481227549e+01    0.3656784    0.3071066  21.54 0.0004570777    1.150    0.131
       132 -10.8157     57.7853     58.9952   7.3599175027e+01   5.8820772530e+01      0.23175    0.1826871  25.39 -0.0006383859    1.197    0.164
       133 -10.0186     49.1947     58.9933   7.7104281012e+01   6.0116561455e+01    0.2400705    0.1895142   5.96   0.00139847    1.193    0.162
       134  -9.0631    177.7440     58.6526   4.2596342876e+01   3.3285463804e+01    0.1228436    0.1064284  16.03  0.000258596    1.594    0.373
       135  -8.8879    130.7033     57.3076   5.0859262457e+01   4.4321166238e+01    0.1391602     0.106493 -79.04 0.0002663924    1.590    0.371
       136 -10.0558     71.6970     56.3414   6.7401432549e+01   5.6920306011e+01    0.2707149    0.2062895  51.87 0.0009494273    1.499    0.333
       137 -12.0641     67.0389     52.3894   6.7698401850e+01   5.8402828347e+01    0.4752595    0.2339028  33.62  0.001350326    2.008    0.502
       138 -10.3320     32.9295     55.9180   8.3193357191e+01   6.2797186428e+01    0.2753099    0.1548388 -38.49  0.001231375    1.627    0.385
       139  -9.2799     44.6737     56.2838   7.8089109156e+01   6.1245227786e+01    0.1191625    0.1046788  57.91  0.000167066    1.603    0.376
       140 -13.1786    114.5583     52.9827   5.3319937675e+01   4.8636177918e+01    0.3162688    0.2952825  44.54 0.0006004556    1.027    0.027
       141 -12.1323     38.5516     48.7900   7.8125303919e+01   6.3396240528e+01    0.4087511    0.2378242 -33.34  0.002161744    1.645    0.392
       142  -9.4286      1.4010     54.4480   9.7969015649e+01   6.5789948771e+01    0.1204763   0.09641668 -34.64 -2.155626e-05    1.033    0.032
       143 -11.8415    106.2692     50.6758   5.4703531315e+01   5.0812231777e+01    0.3362133    0.2372059 -40.71 0.0008810374    1.551    0.355
       144 -10.0369    148.9695     52.2426   4.5728463154e+01   4.0822935539e+01     0.210038    0.1710988 -86.34 0.0007184418    1.260    0.207
       145 -10.0603      4.1962     51.2075   9.5659513598e+01   6.6269830162e+01    0.2577128    0.1192423 -45.24 0.0008685714    1.709    0.415
       146 -10.4963     51.4915     48.5111   7.2393910950e+01   6.1603928339e+01    0.3288664     0.251666  44.01  0.001828986    1.510    0.338
       147 -10.0330     54.6510     46.1362   7.0204645766e+01   6.1493838960e+01    0.2688696    0.2491831 -18.87  0.001743153    1.217    0.178
       148 -10.9836     14.0522     49.6855   9.0211908407e+01   6.5848652475e+01    0.3228616    0.1966124 -37.53  0.001645641    1.383    0.277
       149 -10.5269      9.3810     47.2080   9.1792984487e+01   6.6686544233e+01    0.3005508    0.2343294   3.28   0.00200529    1.237    0.192
       150  -8.9536    189.3181     49.2722   3.8736854565e+01   3.2038423339e+01    0.1190656   0.09780934  41.76 0.0001740601    1.564    0.361
       151 -10.9366    137.3761     46.6867   4.6359313630e+01   4.4290390247e+01    0.4507159    0.3052841  76.24  0.002307547    1.570    0.363
       152 -11.0266     75.4260     48.2886   6.3215303955e+01   5.7515403959e+01    0.4616229    0.2906308  67.95  0.001975015    2.913    0.657
       153 -10.1767    119.4814     48.0212   5.0579409428e+01   4.8232545991e+01    0.1943713    0.1370317 -34.39 0.0005776069    1.554    0.356
       154  -9.3924    102.2770     48.3501   5.5004949283e+01   5.2018332704e+01    0.1385835    0.1015659  17.55 0.0004767769    1.640    0.390
       155  -9.5347    154.9577     46.7042   4.3169880474e+01   4.0195364309e+01    0.2822384    0.1554829 -52.97  0.001322933    1.994    0.499
       156 -10.3818     79.2859     45.3785   6.0859462492e+01   5.7205444626e+01    0.2262481    0.2026755  37.19 0.0002859991    1.099    0.090
       157 -10.2432     68.7956     46.4306   6.4877162715e+01   5.9027847689e+01    0.2164243    0.1442652  32.24 0.0003768779    1.388    0.280
       158 -10.1134     25.7277     44.4604   8.2596869289e+01   6.5687847636e+01    0.2237956    0.2120926  -2.67  0.001557886    1.321    0.243
       159 -10.9448     16.3058     42.6821   8.6699471415e+01   6.6946455014e+01    0.3381295    0.2307292 -38.39 0.0009529108    1.300    0.231
       160  -9.7259     94.4916     43.4845   5.5515255329e+01   5.4369246882e+01    0.2505017    0.1058531  42.22  0.001022386    2.259    0.557
       161  -9.8680     31.3829     43.4066   7.9466329301e+01   6.5221376878e+01     0.238916    0.1051463  14.98 0.0009590004    3.129    0.680
       162 -10.2782    184.1628     40.7939   3.7414689818e+01   3.4307631994e+01      0.34062    0.2104902 -77.94  0.001736305    1.749    0.428
       163 -10.6972     37.0005     40.6856   7.5780125022e+01   6.4960840231e+01    0.3071718     0.238773 -62.46  0.001250531    2.067    0.516
       164 -10.9084      5.3374     41.5502   9.2079248715e+01   6.8036851805e+01    0.1982179    0.1616297 -28.85 0.0005810038    1.100    0.091
       165 -10.0850    140.1295     39.8600   4.3872505196e+01   4.4541445515e+01    0.3313003    0.2054116 -63.53   0.00141251    2.011    0.503
       166  -9.9298    170.8867     40.1658   3.9028871473e+01   3.7381147124e+01    0.1873733    0.1501739 -84.47            0    1.151    0.131
       167 -11.0630    133.6130     39.2130   4.4907615178e+01   4.6139201040e+01    0.4039847    0.2208708 -39.72  0.001909443    1.963    0.491
       168 -10.0152     44.7574     40.0488   7.2033650263e+01   6.3974022959e+01    0.2126625    0.1601332  23.41 0.0004216562    1.199    0.166
       169 -11.9401    121.4021     36.8155   4.6653530404e+01   4.9257515877e+01    0.4242445    0.3499172 -52.44  0.002140415    1.354    0.262
       170 -10.5319     21.5627     37.6461   8.2137451676e+01   6.7304241724e+01    0.2138809    0.1675251  13.67  0.001411434    1.219    0.180
       171 -10.5270     49.5193     33.9176   6.7527899088e+01   6.4154458049e+01    0.3546175    0.2090436  -9.24  0.001755381    2.177    0.541
       172  -9.3120     78.3051     35.3474   5.7472425091e+01   5.8776894331e+01    0.1372323   0.09206888  18.17 0.0007041754    1.697    0.411
       173 -10.9212      2.7180     33.7338   9.0838431887e+01   6.9627271058e+01    0.3048763    0.1992815  -7.40  0.001958593    1.353    0.261
       174 -10.6311     91.3830     32.8878   5.2651646981e+01   5.6396257272e+01    0.3298796    0.2186754  18.25  0.001291235    1.859    0.462
       175  -9.6555     39.8090     34.7646   7.2125277807e+01   6.5497230636e+01    0.3474965   0.09417025  33.96  0.001268557    3.607    0.723
       176 -10.4343     28.1533     33.4768   7.7153739361e+01   6.7233062582e+01    0.2166626    0.1348011 -20.60 0.0007717786    1.552    0.356
       177 -11.1080    144.4044     31.3682   4.0727814633e+01   4.4572762750e+01    0.2796875     0.201412 -53.96 0.0008219461    1.485    0.326
       178  -9.3463    205.6505     32.2160   3.3084246125e+01   3.0728290929e+01     0.148985    0.1109438 -32.20 0.0003652885    1.607    0.378
       179  -9.8871    187.8549     31.6061   3.4838743403e+01   3.4634340263e+01    0.2446079    0.1508162 -13.88  0.001194476    2.833    0.647
       180  -9.1044    177.6640     32.2574   3.6200767967e+01   3.6824155630e+01    0.1299027   0.08416565 -76.88 0.0002916796    1.574    0.364
       181 -12.3536     10.5618     29.6127   8.4882944956e+01   6.9706608872e+01    0.3845477    0.2222723  34.93  0.002226165    2.102    0.524
       182 -10.0718      2.9622     26.5070   8.7999366441e+01   7.0842823896e+01     0.195683    0.1215686   3.67  0.000396033    1.455    0.313
       183  -9.3007    227.4856     31.0207   3.0852041252e+01   2.6437504755e+01    0.1562083   0.09961982 -45.11  0.000230821    1.440    0.306
       184 -11.6073    135.9486     29.0895   4.1512659097e+01   4.6799375599e+01    0.3121834    0.2335109  52.47 0.0003788504    1.258    0.205
       185  -9.9449     44.1281     31.0555   6.8657789233e+01   6.5398983324e+01    0.1941288    0.1435747   3.97 0.0007763379    1.253    0.202
       186 -10.8068     38.8763     30.6295   7.0836091045e+01   6.6236949061e+01    0.2113778    0.1672054  -6.68 0.0003188684    1.119    0.106
       187 -11.0949     81.1717     28.0062   5.3807480286e+01   5.9099912064e+01     0.270578    0.2495178   3.29  0.001329144    1.152    0.132
       188  -9.2010     59.3605     30.3044   6.2115374667e+01   6.2988309059e+01    0.1357333   0.08595382  16.84 0.0007038676    1.728    0.421
       189  -9.3165     25.5865     29.4318   7.6770269277e+01   6.8165464736e+01     0.121682   0.09541839  -3.63 4.453766e-05    1.025    0.024
       190 -10.5905     69.3407     25.9720   5.6784943881e+01   6.1680507588e+01     0.337992    0.2190729 -15.42  0.001727966    1.750    0.429
       191 -11.0102     74.5610     21.6921   5.3387647456e+01   6.1139813900e+01    0.2692479    0.1814337  60.19 0.0009334889    1.594    0.373
       192 -10.4708     76.7832     17.9429   5.1231233325e+01   6.1083995677e+01    0.2941969    0.2190821  38.99  0.001425806    1.131    0.115
       193  -9.9570    112.4718     27.5686   4.5622211536e+01   5.2368476443e+01    0.1312996    0.1124539  54.45 7.067952e-05    1.019    0.019
       194  -9.9659     92.8459     27.1442   5.0190245231e+01   5.6752276422e+01    0.3936794    0.1544689  57.89  0.001647379    2.387    0.581
       195 -10.5127    216.8479     25.7447   3.0712540070e+01   2.9192511260e+01    0.1954859    0.1557518 -75.87 0.0004007732    1.025    0.024
       196 -10.2308     46.0780     26.0133   6.5671635397e+01   6.5777322259e+01    0.1847577    0.1554986  10.74 0.0004055458    1.057    0.054
       197  -9.2199     18.6084     26.1532   7.9037283795e+01   6.9459090228e+01    0.1700654   0.08908266 -28.61 0.0009292263    1.801    0.445
       198 -10.0022    128.8485     31.0895   4.3399060387e+01   4.8219523407e+01    0.2671404    0.1759668  73.45  0.001419622    1.494    0.330
       199 -10.4087     59.7885     23.6012   5.9184986599e+01   6.3739743734e+01    0.2724972    0.1622627 -21.33  0.001494126    1.846    0.458
       200 -10.0793    191.4931     24.5330   3.2846050259e+01   3.4666976530e+01     0.122641    0.1008135 -83.58 8.266971e-05    1.013    0.013
       201  -9.4199    224.6324    247.2161   7.3161129899e+01  -8.3996774951e+00     0.166623   0.09092379 -27.79 0.0009467403    1.649    0.394
       202  -9.8314    109.2337     21.9818   4.4482796856e+01   5.3691839047e+01    0.2306657    0.1391158  44.50 0.0007800566    1.538    0.350
       203 -10.0133    102.6032     22.0739   4.5990834911e+01   5.5164165466e+01    0.2492922    0.1537766 -48.80  0.001306108    2.044    0.511
       204  -9.6457     22.0586     21.6399   7.5214033865e+01   6.9728302673e+01    0.2340654    0.1163774  10.31  0.001126843    2.491    0.599
       205 -10.9764     15.5696     20.8925   7.8404846429e+01   7.0569294037e+01    0.4406654    0.2166651  30.50  0.002473227    1.968    0.492
       206  -9.7663    171.1075    246.6425   8.3582798947e+01  -1.4914088286e+00     0.189417    0.1433044  14.18  0.001138096    1.160    0.138
       207 -11.7195      3.3691     20.2333   8.5196311851e+01   7.1818633784e+01    0.4602222    0.2264875  10.19  0.001262795    1.970    0.492
       208  -9.4259     26.7651     21.2322   7.2585049954e+01   6.9201220989e+01    0.1569477     0.109374   2.13  0.000303761    1.266    0.210
       209  -9.5516    116.2024    246.5391   9.5528143168e+01   6.3791731186e+00    0.1720589    0.1168213  22.53 0.0009172767    1.442    0.306
       210 -11.0451    213.6286     18.6392   2.9556869602e+01   3.0664005203e+01     0.256982    0.1210524 -66.98 0.0006472513    2.120    0.528
       211  -9.6439     88.8307     18.8256   4.8212825440e+01   5.8488568855e+01     0.154415     0.141161  79.72 0.0002634799    1.269    0.212
       212 -10.0885    154.3222     18.0168   3.5632470530e+01   4.3724578087e+01    0.1645753    0.1495037 -75.16 0.0005167484    1.139    0.122
       213  -9.5367    146.6818    244.6412   8.8512865439e+01   2.3209217220e+00    0.1375491   0.09466778  -7.97 0.0007044016    1.759    0.432
       214 -10.8303     68.3811     17.9474   5.3849311966e+01   6.2751801751e+01    0.3137096    0.1894743  63.62  0.001629019    2.076    0.518
       215  -9.1327     86.5574    244.5608   1.0195363820e+02   1.0965862614e+01    0.1314262    0.1125024  48.19 0.0004758222    1.031    0.031
       216  -9.4311     51.9807    244.5343   1.0961880488e+02   1.5473182108e+01     0.167023     0.109793   0.02 0.0008094969    2.621    0.618
       217  -9.3613     61.1540    240.6669   1.0725222787e+02   1.5152380544e+01    0.1750706    0.1138382  22.77 0.0004983763    1.716    0.417
       218  -9.2335     59.3323     16.2811   5.6244789800e+01   6.4637530403e+01     0.128429   0.07834466  25.15 0.0002240269    1.610    0.379
       219  -9.7146     30.3716     16.0631   6.8389160967e+01   6.9390943925e+01    0.1625627    0.1285735  -4.36 0.0006017211    1.123    0.109
       220  -9.3683    163.3005     15.2895   3.3798437257e+01   4.1947141874e+01     0.117764   0.08538217  48.18 0.0002218811    1.562    0.360
       221  -9.5634     39.5068     15.0635   6.3641651972e+01   6.8156539404e+01    0.1605035    0.1088591 -23.20 0.0004365029    1.513    0.339
       222 -10.3491     35.6087    240.0116   1.1279834332e+02   1.8357110369e+01    0.2097816    0.1428609  50.98 0.0004616535    1.249    0.199
       223 -10.9449     29.9591    240.7516   1.1405788114e+02   1.8824702844e+01    0.3252932   0.08631486  31.39  0.001147259    3.288    0.696
       224  -9.4967    105.7364     13.8958   4.2515554984e+01   5.5256494173e+01    0.1563782    0.1465538  62.53  0.000181509    1.116    0.104
       225 -10.0515    193.9194    202.0465   7.1293285252e+01   3.1913833726e+00    0.2131459    0.1833249 -12.94 0.0009158481    1.023    0.023
       226  -9.6419    118.5259    239.4968   9.4080555985e+01   7.4251501793e+00    0.1352101    0.1185881  38.76 0.0008092951    1.064    0.060
       227 -11.0872     24.7728    235.6626   1.1480871044e+02   2.0480308578e+01    0.2827045    0.1314556  53.33 0.0009577889    1.892    0.471
       228 -10.9197      4.0758    201.4705   1.1709398599e+02   3.0265469303e+01    0.1996879    0.1449242 -87.48 0.0007356022    1.175    0.149
       229 -10.3190    220.3140     11.3339   2.7604628595e+01   3.0117662387e+01   0.09980925   0.08356026  52.06 0.0003441687    1.686    0.407
       230 -10.8562     82.9556     15.8863   4.8675285019e+01   6.0015272411e+01    0.2002796    0.1772449   7.52 0.0002912967    1.208    0.172
       231 -11.8755      4.0847    232.7270   1.1896600071e+02   2.3161103719e+01    0.3186466    0.2299545  55.31 0.0007176138    1.176    0.150
       232  -9.4101    249.4892    233.4470   6.6555152177e+01  -9.1809190395e+00    0.1168798   0.08734655 -13.20 0.0001502632    1.008    0.008
       233  -9.3622     32.4686    233.4554   1.1298622512e+02   2.0133210561e+01    0.1258295    0.1046408  65.97 0.0001451655    1.002    0.002
       234  -9.5084    103.9560     10.4878   4.1728779577e+01   5.5955263874e+01    0.1745794    0.1006489  89.11 0.0006259881    2.539    0.606
       235  -9.1988    204.0158    235.2489   7.5094860775e+01  -4.0342320264e+00    0.1502324   0.09613179  24.67 0.0004537323    1.462    0.316
       236  -9.2135     88.6535    230.2588   9.9815071472e+01   1.3695175455e+01    0.1415471   0.09171294  55.86 0.0005535532    1.597    0.374
       237  -9.7050     47.2665    230.1576   1.0941420575e+02   1.9163834577e+01    0.2079273    0.1305913 -26.39 0.0008713714    2.836    0.647
       238  -9.9828    209.9474    229.4887   7.2983614428e+01  -3.8720595078e+00    0.1779948    0.1129523  26.84 0.0005378841    1.524    0.344
       239 -10.9901    140.1381    227.6276   8.7428729814e+01   6.5445451085e+00    0.3272187    0.2134447 -59.87  0.001630507    1.869    0.465
       240  -9.7027     22.0234    199.2567   1.1265217364e+02   2.9168704290e+01    0.3475339    0.1487348 -87.46  0.001437586    2.548    0.608
       241 -11.6835      2.5110    224.9865   1.1887091530e+02   2.5000521391e+01    0.4615715    0.2047313  63.76  0.001545652    2.090    0.522
       242 -10.3330      2.2655    219.3940   1.1860801244e+02   2.6272904268e+01    0.2942599    0.1253917  86.74 0.0007556662    2.285    0.562
       243  -9.7040    223.4439    226.5447   6.9953828478e+01  -5.1201800184e+00    0.1246418   0.09893178 -10.80 7.174394e-05    1.002    0.002
       244 -10.8362     12.7981    226.2201   1.1675445174e+02   2.3772544326e+01    0.1543448    0.1370812 -66.58  0.000594705    1.322    0.243
       245  -9.8978     26.8063    223.8100   1.1350966200e+02   2.2902056790e+01    0.1815938    0.1223703  64.34 0.0004297462    1.326    0.246
       246  -9.3599    167.3812    221.2013   8.0296194102e+01   3.6263891857e+00    0.1769731     0.130221 -54.92  0.000622957    1.635    0.388
       247 -11.0565      8.1528    218.8498   1.1729922636e+02   2.5869094728e+01    0.2881277    0.1628886 -66.79  0.001217466    1.713    0.416
       248  -9.0984     85.6972    215.2532   9.8630927933e+01   1.7480170603e+01    0.1405342   0.09794384  58.59 0.0006894112    1.504    0.335
       249  -9.3477     29.5780    214.4955   1.1213475692e+02   2.4757362037e+01    0.1290817    0.1104051  76.23 6.402429e-05    1.015    0.015
       250  -9.2790     15.6509    213.2745   1.1525275362e+02   2.6449960202e+01     0.135009   0.07609113  59.34 0.0007002197    1.632    0.387
       251  -9.5712    205.4971    212.0337   7.0807187775e+01  -3.1762630693e-01    0.1972331    0.1169057 -38.24  0.001023168    1.563    0.360
       252  -9.1273    229.6954    209.3158   6.5820953996e+01  -3.1357022573e+00    0.1089953   0.09943353 -59.53 0.0007025286    1.623    0.384
