#   1 NUMBER                 Running object number                                     
#   2 MAG_AUTO               Kron-like elliptical aperture magnitude                    [mag]
#   3 X_IMAGE                Object position along x                                    [pixel]
#   4 Y_IMAGE                Object position along y                                    [pixel]
#   5 X_WORLD                Barycenter position along world x axis                     [deg]
#   6 Y_WORLD                Barycenter position along world y axis                     [deg]
#   7 A_WORLD                Profile RMS along major axis (world units)                 [deg]
#   8 B_WORLD                Profile RMS along minor axis (world units)                 [deg]
#   9 THETA_WORLD            Position angle (CCW/world-x)                               [deg]
#  10 FWHM_WORLD             FWHM assuming a gaussian core                              [deg]
#  11 ELONGATION             A_IMAGE/B_IMAGE                                           
#  12 ELLIPTICITY            1 - B_IMAGE/A_IMAGE                                       
         1 -14.1390    122.1804     37.1206   5.1452641923e+01   4.9508355164e+01    0.9646243    0.4587079  38.71   0.00279529    2.373    0.579
         2 -13.4083    132.3291     33.0280   4.7939844627e+01   4.7638629637e+01     0.592055    0.4768409 -24.88  0.002365676    1.389    0.280
         3 -14.8760    146.9089     29.5860   4.4156241080e+01   4.4578005226e+01     1.301048    0.8475657  58.96  0.005610952    1.368    0.269
         4 -13.4611      7.9774      2.5934   8.0367212513e+01   7.3811212081e+01    0.5032067    0.3553914  36.64  0.003406797    2.042    0.510
         5 -16.0639     14.2282     20.3371   8.5227611608e+01   7.0655214069e+01     1.960811     0.937167 -19.38  0.009960766    2.289    0.563
         6 -14.4849     25.1114     14.0581   7.6363295036e+01   7.0421361981e+01    0.7591212    0.3488384  27.84  0.004080653    2.026    0.506
         7 -14.3867    166.0714     28.6111   4.0853746429e+01   4.0123800717e+01    0.9336067    0.7529131  73.46  0.004004977    1.114    0.102
         8 -13.2737    119.8463     26.2441   4.8329715253e+01   5.1339880425e+01    0.8203897    0.4725994  24.83  0.003716273    2.378    0.579
         9 -13.5269    187.8884     25.0304   3.7096981909e+01   3.5436113464e+01     1.163415     0.429845 -60.11   0.00392992    4.387    0.772
        10 -13.4626    187.3146     12.7035   3.4169480822e+01   3.6900608624e+01    0.8484473    0.3374937 -35.84  0.004019096    2.460    0.593
        11 -15.3441     99.0318     11.5611   4.7830818597e+01   5.7522583585e+01     1.397407    0.7352714  58.34  0.004722914    1.652    0.395
        12 -12.4118     70.0398     16.3732   5.8088002421e+01   6.3050895779e+01    0.3266558    0.2939486  84.51  0.001475827    1.621    0.383
        13 -12.1746     59.5900     16.6619   6.1973765221e+01   6.4939377112e+01    0.2731106    0.2279884 -59.27  0.001682635    1.952    0.488
        14 -12.0275     46.7020     13.0034   6.5492859581e+01   6.7524364908e+01    0.2258029    0.2072912  16.42   0.00160513    1.338    0.252
        15 -13.2562      2.9231     10.4563   8.7433242555e+01   7.3132815284e+01    0.3922884    0.2457959 -32.04  0.002145329    1.298    0.230
        16 -12.4047    214.6770     10.2156   3.1094743512e+01   3.1121808457e+01    0.2904289    0.2508563  81.29   0.00123906    1.212    0.175
        17 -14.0996     41.8556      4.4368   6.3390783074e+01   6.9228496418e+01    0.6550688     0.458077  14.14  0.003663684    1.201    0.168
        18 -13.0536     85.2925     14.4991   5.2559198928e+01   6.0194676693e+01    0.3806307    0.3232119 -10.13  0.001732325    1.269    0.212
        19 -11.6664    153.0648      8.6688   3.7156399020e+01   4.5260986561e+01    0.1847891    0.1446695  71.75 0.0007643484    1.090    0.083
        20 -11.9790    224.2152      4.9832   2.9285704248e+01   2.9667327271e+01    0.1960979     0.141751  89.64 0.0005311323    1.183    0.154
        21 -12.1161    120.1725      3.8144   4.0728134641e+01   5.3386508687e+01    0.2268402    0.1554393  73.74 0.0007406338    1.365    0.267
        22 -11.2938    117.2330      1.5776   4.0499282537e+01   5.4237248154e+01     0.203074    0.1074906  65.34 0.0007231988    1.594    0.373
        23 -10.6927     67.3458      4.2846   5.3648429924e+01   6.4739891078e+01    0.1313381   0.07406997  29.70 0.0006003871    1.646    0.393
        24 -11.7851     61.3054      1.5861   5.4420764283e+01   6.6119979949e+01    0.3077466    0.1225408  52.65  0.001461924    2.247    0.555
        25 -11.8259     81.5840      1.4468   4.8228113305e+01   6.2110047371e+01    0.3882607    0.1002883  58.15  0.001470914    3.211    0.689
        26 -12.4638      7.3021    145.9159   1.1596302650e+02   4.3338330281e+01    0.4419713    0.2966696 -54.55  0.002565124    1.395    0.283
        27 -12.8851     52.2708    248.0172   1.1434453129e+02   1.5360318112e+01    0.4971945    0.3579685  13.57  0.002993355    1.958    0.489
        28 -12.9446      2.8929    248.2889   1.2376812286e+02   2.0578852724e+01    0.4761766     0.261554  85.20  0.003071564    1.566    0.361
        29 -13.7917      9.4602    245.9964   1.2246933881e+02   2.0403665519e+01     0.714427    0.3361523  62.83  0.003613751    1.775    0.437
        30 -11.3952    103.1049    150.5375   8.8814059984e+01   3.0528357586e+01    0.3295427    0.1885796 -38.45  0.001313379    1.984    0.496
        31 -11.8769    133.5156    126.0002   7.4781185333e+01   3.0581551800e+01    0.3786589    0.1462381 -40.95   0.00122002    2.726    0.633
        32 -13.1037     84.9285    114.4109   8.6135083500e+01   4.2513097221e+01    0.9365533    0.6174418   2.41  0.003284035    2.233    0.552
        33 -13.3923    108.7336    123.9029   8.1168229461e+01   3.5994181558e+01     0.999077    0.5498171  35.99  0.004010245    1.885    0.470
        34 -14.9482    106.8343    107.1737   7.7416630603e+01   4.0242171219e+01     2.163007     1.237294 -42.04  0.008966326    1.735    0.424
        35 -14.2444     18.1006    110.9405   1.0814270439e+02   5.1301377521e+01     0.864727    0.5745509 -44.70  0.003512667    1.372    0.271
        36 -14.5353     10.9854    103.6121   1.0943996971e+02   5.3560325927e+01    0.8621989    0.7277941 -41.00  0.005054954    1.144    0.126
        37 -13.5124     95.8210    111.1535   8.1849503867e+01   4.1396130820e+01     1.175695    0.6814069 -65.50  0.004504922    2.366    0.577
        38 -13.6956      2.2188     97.1724   1.1155427294e+02   5.5583520907e+01     0.835236     0.273284 -73.42   0.00330323    2.852    0.649
        39 -11.1949    121.3053    112.4402   7.4625676489e+01   3.6158486609e+01    0.2199969    0.1498693  52.21 0.0009512549    1.606    0.377
        40 -12.0935    136.8208    103.2757   6.7983155899e+01   3.4845415160e+01    0.3958772    0.2535601  56.31  0.001680564    1.749    0.428
        41 -13.1397     28.8910    122.2238   1.0635050134e+02   4.7640232825e+01    0.3833973    0.3122297 -70.39  0.002247419    1.111    0.100
        42 -12.0102      3.9298    119.8045   1.1406587798e+02   5.0008167924e+01    0.4782149    0.1746389  12.05  0.002014535    3.512    0.715
        43 -12.2811     42.8386     91.1832   9.5145163836e+01   5.3871562759e+01     0.414055     0.270362 -76.46  0.001019891    2.016    0.504
        44 -12.9491     49.1418     94.1634   9.3507384763e+01   5.2458885923e+01    0.4781567    0.3206957  59.55  0.002011131    2.190    0.543
        45 -11.7689     47.4942     99.9967   9.5517958785e+01   5.1269671717e+01    0.3436652    0.2543819  66.16  0.001729046    1.857    0.461
        46 -11.8001     61.1905     97.6809   8.9987083043e+01   5.0096644758e+01    0.3612671    0.2726817  84.86  0.001659942    1.950    0.487
        47 -11.3359    163.8112     98.2636   6.0256380808e+01   2.9812868919e+01    0.2218952    0.2029013 -69.80 0.0006721664    1.137    0.121
        48 -12.5556    136.0489     95.0333   6.5900034949e+01   3.6705605422e+01    0.4052446    0.2353349  47.64  0.001555229    1.725    0.420
        49 -11.8027     34.6111     86.9400   9.7288415470e+01   5.5699917516e+01     0.241971    0.1961059   1.51 0.0007109903    1.306    0.234
        50 -14.9214     26.4099     93.9379   1.0201928014e+02   5.4790974792e+01     1.639098     1.125161   7.36  0.009048008    1.656    0.396
        51 -12.0216    188.4805     84.4818   5.1899575234e+01   2.6743441431e+01     0.263694    0.1240679  45.04  0.001036639    2.437    0.590
        52 -13.8851    163.6728     71.6290   5.3100974922e+01   3.4635961625e+01     1.326307    0.8293453  57.39  0.006188903    1.580    0.367
        53 -13.4934    161.8199     80.0090   5.5770933517e+01   3.3637536114e+01    0.7884907    0.5040808  19.64  0.003094581    2.713    0.631
        54 -14.5739    169.4333     77.0944   5.3467271579e+01   3.2370036933e+01    0.9791741    0.5620508  48.68  0.003638164    1.776    0.437
        55 -13.4552     66.0950     49.1411   7.2855367396e+01   5.9251885407e+01     1.119707    0.5717154 -27.57   0.00497269    2.196    0.545
        56 -13.2940     56.6995     66.6128   8.2685103291e+01   5.7489963619e+01    0.7123139    0.4639855 -24.19  0.003581295    1.596    0.373
        57 -12.9038     52.0968     69.7123   8.5518942737e+01   5.7491600367e+01    0.7291011    0.5214084 -85.81  0.003327255    2.728    0.633
        58 -13.0347     54.2623     82.0883   8.8355410999e+01   5.4568594668e+01    0.5467398    0.3571059 -41.74  0.002251484    1.389    0.280
        59 -14.0091     60.9677     75.7347   8.3902034418e+01   5.5012958826e+01    0.7037382    0.4474289 -35.28  0.001578414    1.505    0.336
        60 -12.0952     47.0924     81.6638   9.1024793132e+01   5.5556476546e+01    0.3744166    0.1929784 -55.98  0.001685764    1.885    0.470
        61 -12.8387    135.5409     80.1738   6.1756539207e+01   3.9685808152e+01    0.6309355     0.369661  46.30  0.002212845    1.678    0.404
        62 -11.9168    114.2515     80.0178   6.7379738503e+01   4.4427688828e+01    0.3948793    0.2740299 -56.13  0.001522578    1.716    0.417
        63 -12.0643     42.0603     77.6205   9.1910116903e+01   5.7028702141e+01     0.494784    0.1660863 -57.26  0.001794008    3.016    0.668
        64 -14.9931      6.5359     71.7526   1.0525778555e+02   6.1238736189e+01     1.047328    0.6277568 -48.34  0.004248989    1.305    0.233
        65 -14.1966      4.3724     63.4838   1.0434833808e+02   6.3160840093e+01    0.6461144    0.4836426 -17.06  0.004218796    1.305    0.233
        66 -13.0041     87.3545     65.4686   7.1025835577e+01   5.2601173103e+01    0.5647228       0.4042   9.11  0.002181998    1.654    0.396
        67 -13.2479     91.5108     57.8958   6.7064444962e+01   5.3124825585e+01    0.5055596    0.4330231 -22.32   0.00285922    1.168    0.144
        68 -12.6451     70.8261     75.4516   8.0116253065e+01   5.3566677887e+01    0.4793005    0.3093489  10.59  0.001737619    1.935    0.483
        69 -11.9976     77.1296     73.3715   7.7174324776e+01   5.2940096418e+01    0.3672871    0.2656444 -15.86  0.001059532    1.533    0.348
        70 -11.9847     80.3103     69.8296   7.4896774660e+01   5.3078172595e+01    0.4103762     0.250407  48.67  0.001875939    1.885    0.470
        71 -11.7845     27.0276     75.5526   9.7527248932e+01   5.8970172756e+01    0.3380441    0.1945702 -75.62  0.001539569    2.479    0.597
        72 -13.2988    132.9492     67.4016   5.8566531286e+01   4.2533357671e+01    0.8233324    0.6190149  15.48   0.00364399    1.691    0.409
        73 -13.1728    199.6058     69.5573   4.6423745821e+01   2.6707836550e+01    0.4608389    0.2464784  58.93  0.002141552    1.906    0.475
        74 -12.5497     39.6279     68.2157   9.0199571766e+01   5.9316916351e+01    0.5498576    0.2061176  29.44  0.002277413    2.749    0.636
        75 -12.3205     31.5392     63.2694   9.2192454127e+01   6.1191781899e+01    0.4986178    0.2377849 -61.18  0.002196139    2.483    0.597
        76 -13.6774    177.5815     57.2580   4.6744253468e+01   3.3622126990e+01    0.8896875    0.5177043 -51.58  0.003467958    1.784    0.440
        77 -12.8958     78.3533     60.3993   7.2393075958e+01   5.5179649278e+01    0.5668514    0.5129322 -34.01  0.003333492    1.187    0.158
        78 -12.8625     82.2603     54.5974   6.8979296116e+01   5.5467502215e+01    0.4642378    0.3962664   9.50  0.002499362    1.101    0.092
        79 -12.2652     24.6435     59.6368   9.4178921245e+01   6.2580108340e+01    0.4125751    0.1910487 -47.36  0.001493542    1.781    0.438
        80 -11.4882     17.7572     55.5452   9.6132766549e+01   6.3979890669e+01    0.2555664    0.1482008 -51.78  0.001413615    1.503    0.335
        81 -12.5060     99.9642     44.0187   5.9567652589e+01   5.3543601735e+01    0.5195585    0.2675231  48.79  0.001506235    1.792    0.442
        82 -13.9229    103.1119     50.7434   6.1027454079e+01   5.1877490208e+01    0.6455411    0.5777376 -80.40  0.001078797    1.417    0.294
        83 -14.6443    119.9440     54.6543   5.7776589433e+01   4.7563616302e+01    0.7907297    0.6270137  35.03  0.003349568    1.247    0.198
        84 -12.8876     97.9960     50.4971   6.2448944171e+01   5.2997391374e+01    0.4135911    0.3328232 -77.87  0.001640946    1.835    0.455
        85 -11.9062      5.9577     51.1779   1.0049169704e+02   6.5653256565e+01    0.4626494    0.1700598 -22.45  0.001860408    3.492    0.714
        86 -11.7898     17.4936     40.7191   9.1490171729e+01   6.6882027793e+01    0.1911092    0.1616624 -14.27 0.0002618599    1.125    0.111
        87 -12.7253     11.6969     43.6099   9.5390650048e+01   6.6784040645e+01    0.4699142    0.2447812 -28.96  0.002558623    1.714    0.416
        88 -13.1575      3.8086     43.1180   9.9235170824e+01   6.7379114403e+01    0.4745649    0.3018814 -12.67  0.002961756    1.481    0.325
        89 -11.9091    136.3611     49.6656   5.2319926573e+01   4.4499379928e+01    0.2676415     0.230298  37.38 0.0006854833    1.176    0.149
        90 -10.4242     23.3624     50.2849   9.1855264593e+01   6.4562359985e+01    0.1346429   0.07860045 -21.66 0.0007020291    1.685    0.407
        91 -13.0973    158.9427     43.7545   4.6185456384e+01   3.9939518935e+01    0.4752223    0.2836648  56.63  0.002184945    1.554    0.357
        92 -13.4139    217.7220     42.2066   3.7754992509e+01   2.6683018074e+01    0.9754511    0.2957584  61.71  0.003945542    3.122    0.680
        93 -13.0484    205.7041     40.7045   3.8757918208e+01   2.9492866977e+01     1.155567     0.474454 -88.27  0.003003583    7.579    0.868
        94 -10.6898     50.5311     44.0273   7.7221139952e+01   6.2528435852e+01    0.1782982     0.118283 -35.28 0.0001311796    1.440    0.306
        95 -12.2803    109.7704     42.3411   5.6271221163e+01   5.1640503492e+01    0.3776107    0.1923446  51.39  0.001285687    1.790    0.441
        96 -13.0033    113.8590     38.3760   5.3857865998e+01   5.1252708632e+01    0.3864008    0.3005089 -30.59  0.001408812    1.394    0.282
        97 -12.9679     28.2807    245.4424   1.1889051777e+02   1.8599312753e+01    0.3981853    0.2377433  40.49  0.002488947    1.484    0.326
        98 -13.9635     96.6640    239.2804   1.0419975501e+02   1.1240660504e+01    0.5882116    0.3833272  50.64  0.003227499    1.414    0.293
        99 -12.6444     24.5263    217.6487   1.1781790257e+02   2.4807799604e+01    0.4574735    0.3641938  77.28  0.003076167    1.041    0.039
       100 -13.3739    138.4510     22.0426   4.3345423217e+01   4.7422146406e+01    0.8337631    0.3014285  65.04  0.002718249    2.524    0.604
       101 -12.6365     75.5163     37.2535   6.4812500688e+01   5.9417286254e+01    0.4164965    0.2369659  45.47  0.001297236    1.690    0.408
       102 -11.5765     70.4727     36.4844   6.6311443367e+01   6.0454828523e+01    0.2170427    0.2011208  31.76 0.0006598349    1.230    0.187
       103 -12.2699    104.9777     35.3899   5.5089504746e+01   5.3620722699e+01    0.4140691    0.2240504 -11.13  0.001698929    2.757    0.637
       104 -11.9027    241.6392     36.1394   3.4170768190e+01   2.2560688755e+01    0.2188401    0.1612255  72.48  0.001105542    1.418    0.295
       105 -12.9818     44.6572     32.6966   7.5240819245e+01   6.5184534476e+01    0.5652332    0.4739057  16.92  0.003327035    1.176    0.149
       106 -13.2906     14.0787    221.9656   1.2027227147e+02   2.4897926567e+01    0.4701195    0.3048834  61.10   0.00169804    1.292    0.226
       107 -14.0871     16.4427     30.9733   8.8424588229e+01   6.8709205944e+01    0.6819885    0.3708418  22.28  0.002220026    1.844    0.458
       108 -13.8029     26.1555    226.6939   1.1810447739e+02   2.2683839074e+01    0.7255358    0.3526358 -59.86  0.003842073    2.209    0.547
       109 -13.4965     20.7619    224.7910   1.1908522839e+02   2.3640194458e+01    0.4710368    0.3592806 -36.81  0.002948877    1.942    0.485
       110 -13.6106     65.3929    223.4541   1.0939099190e+02   1.8800502894e+01    0.9881589    0.6384097  49.37  0.005509521    1.378    0.275
       111 -14.1392     64.1235    214.6246   1.0876389611e+02   2.0909513591e+01    0.8042731    0.4127969  36.24  0.003917553    1.806    0.446
       112 -11.9816     94.2175    218.3836   1.0223350235e+02   1.5911009453e+01    0.2035857    0.1096145  43.64 0.0009528726    1.685    0.407
       113 -11.7986    249.5096    216.5094   6.9230842869e+01  -7.0891373530e+00    0.1224826   0.09408633 -10.90 0.0001308093    1.009    0.009
       114 -13.1980     55.3195     27.2213   6.8324867553e+01   6.4350516152e+01    0.5297467    0.3081959  43.21  0.002174889    1.752    0.429
       115 -12.2431     63.3254     25.2085   6.4307212430e+01   6.3252926117e+01    0.4903117    0.2383095  24.07  0.002121361    2.600    0.615
       116 -11.9943     30.5641     25.7034   7.8919622048e+01   6.8091757330e+01    0.2524699    0.1273057  16.77  0.001270728    2.128    0.530
       117 -12.5654     46.5230     20.6592   6.9141568349e+01   6.6613475879e+01     0.347418    0.2112605  28.30  0.001994002    1.468    0.319
       118 -12.2672     72.4922    207.3858   1.0598891614e+02   2.1439172023e+01    0.4037625    0.2922556 -85.70  0.002200412    1.445    0.308
       119 -11.8970     41.2773    206.8130   1.1324342492e+02   2.5451368603e+01    0.2131647    0.1431247  77.52  0.001191351    1.429    0.300
       120 -12.2899     57.2486    203.0115   1.0912586487e+02   2.4436987713e+01    0.4637713    0.2146154  83.88  0.001671784    3.586    0.721
       121 -12.6513    248.2557    197.3857   6.5976086960e+01  -4.0580680142e+00    0.4387087    0.2494378 -44.82  0.002346458    1.918    0.479
       122 -13.1978     15.7760    196.4114   1.1819419900e+02   3.0449173574e+01    0.4733783    0.3785764 -78.34   0.00258239    1.163    0.140
       123 -13.7051     29.6952    169.5827   1.1238384495e+02   3.5607724663e+01     1.054596    0.9618238  66.88  0.006774358    1.122    0.109
       124 -13.5220     22.2572    181.2696   1.1542536096e+02   3.3443287990e+01    0.8566465    0.4010699 -54.95  0.004070546    2.139    0.533
       125 -15.4287      7.9027    183.7407   1.1906693135e+02   3.4091547791e+01     1.371527     1.008373 -88.28  0.008703477    1.127    0.112
       126 -15.3219     15.7107    175.3642   1.1651352004e+02   3.5452563360e+01     2.059756    0.9295835  62.48   0.00920363    2.483    0.597
       127 -11.9539     49.0140    182.0272   1.0878158921e+02   3.0463284927e+01    0.3385947    0.1778919 -60.59  0.001592643    1.776    0.437
       128 -12.4959    124.3233    167.5426   8.6509846518e+01   2.2635487420e+01    0.5698054    0.3743628 -73.30  0.002368186    2.096    0.523
       129 -11.9110     76.8577    156.8616   9.7515769886e+01   3.3142159552e+01    0.3085029    0.2685536  33.51  0.001078292    1.203    0.168
       130 -13.2537     73.2331    153.2830   9.7931866235e+01   3.4574705867e+01    0.6139845    0.4601936  22.76  0.002048985    1.490    0.329
       131 -12.6045    245.8584    149.9045   5.7140277216e+01   4.0554071741e+00    0.3113644    0.2367065 -48.06  0.001845447    1.332    0.249
