#   1 NUMBER                 Running object number                                     
#   2 MAG_AUTO               Kron-like elliptical aperture magnitude                    [mag]
#   3 X_IMAGE                Object position along x                                    [pixel]
#   4 Y_IMAGE                Object position along y                                    [pixel]
#   5 X_WORLD                Barycenter position along world x axis                     [deg]
#   6 Y_WORLD                Barycenter position along world y axis                     [deg]
#   7 A_WORLD                Profile RMS along major axis (world units)                 [deg]
#   8 B_WORLD                Profile RMS along minor axis (world units)                 [deg]
#   9 THETA_WORLD            Position angle (CCW/world-x)                               [deg]
#  10 FWHM_WORLD             FWHM assuming a gaussian core                              [deg]
#  11 ELONGATION             A_IMAGE/B_IMAGE                                           
#  12 ELLIPTICITY            1 - B_IMAGE/A_IMAGE                                       
         1 -16.5479     31.5214    132.1263   1.2687461006e+02   4.4446993674e+01     4.556063     3.321939  38.46   0.02965844    1.533    0.348
         2 -12.6690      9.3551      6.5961   1.0662244266e+02   7.2494850876e+01     1.801591     1.079184  11.87   0.01196582    1.813    0.448
         3  -8.1039    212.3019      7.6774   5.1157626431e+01   3.0579095989e+01     0.144122   0.09066714 -61.04 0.0002016429    1.632    0.387
         4  -9.9167    202.0627      4.2172   5.1258666703e+01   3.3501274146e+01    0.4572081    0.2681303  21.70  0.002014135    2.575    0.612
         5  -7.9132     70.1914     14.1826   8.2144817532e+01   6.3785256631e+01    0.1601003    0.1487794 -28.63 0.0004239899    1.319    0.242
         6 -13.8415    247.7953    245.2328   9.8758217941e+01  -8.3539208425e+00     4.488227     1.182431 -35.75   0.02000404    4.719    0.788
         7 -12.6254    236.9431    247.3673   1.0082213243e+02  -7.0385931281e+00      0.60482     0.540805  54.14 0.0007694057    1.847    0.458
         8 -14.8058    103.6993    231.0339   1.2214130347e+02   1.5539412860e+01     1.018769    0.7369003 -25.89   0.00549645    2.705    0.630
         9 -14.6832     86.4318    214.0938   1.2368012757e+02   2.0903484208e+01     0.717496    0.4383151  63.01  0.004366053    1.489    0.328
        10 -14.9214     94.3540    220.8405   1.2285398135e+02   1.8595618438e+01     1.431073    0.8225001 -31.91  0.005772217    5.568    0.820
        11  99.0000     27.4077    209.2765   1.3420522222e+02   2.8967135948e+01     1.105389    0.6765124  34.24  0.007557385    1.872    0.466
        12 -14.3614     94.0829    235.2463   1.2426416795e+02   1.6229405562e+01    0.7370257    0.3893413  82.34   0.00390887    2.720    0.632
        13 -14.3475     90.5433    247.7861   1.2595075540e+02   1.4742445439e+01     0.506959    0.2107213  54.15  0.002825526    1.993    0.498
        14 -17.4042     62.5749    238.9564   1.3002411045e+02   1.9780023797e+01     5.715739     2.366024  36.81   0.02521224    2.368    0.578
        15 -11.5922     76.9158    211.4418   1.2523486683e+02   2.2690900032e+01      0.19435    0.1459947 -84.05 5.656241e-05    1.323    0.244
        16 -12.4128     62.4021    194.5742   1.2648334667e+02   2.7772532092e+01    0.2222833    0.1628777  70.68 0.0005894033    1.145    0.127
        17  99.0000     40.3681    198.6163   1.3111532925e+02   2.9591903409e+01    0.3706918    0.2194148  76.12  0.002377897    1.480    0.324
        18 -11.7036     53.5447    197.5387   1.2849455639e+02   2.8285060396e+01    0.2516588    0.1928381 -32.70  0.001596365    2.276    0.561
        19  99.0000     49.4890    197.0635   1.2924341625e+02   2.8856108743e+01    0.4997411     0.357559   3.31  0.002863887    2.937    0.660
        20 -11.9429     44.5019    197.5109   1.3024190205e+02   2.9342771843e+01    0.1835364    0.1249481  49.41 0.0007204127    1.321    0.243
        21 -13.0063     63.2081    210.7332   1.2776129776e+02   2.4608476133e+01    0.3267891    0.1411951 -59.97  0.001752764    2.546    0.607
        22 -11.9917     59.8398    210.2569   1.2835265438e+02   2.5116968555e+01    0.2794131     0.186123 -52.00  0.001785664    2.056    0.514
        23 -13.1689     61.1602    202.3834   1.2743484212e+02   2.6425578938e+01     0.697711    0.3751552  74.90  0.003912021    1.941    0.485
        24 -10.7794     53.8428    208.2480   1.2931250751e+02   2.6219707379e+01    0.1176338   0.09316465  80.78  0.000308482    1.110    0.099
        25 -12.9080     76.5132    205.4391   1.2474101926e+02   2.3851696871e+01    0.4135121    0.2070981 -83.99   0.00211327    2.448    0.592
        26 -13.2719     78.6949    202.6776   1.2404146645e+02   2.4072134578e+01    0.4514161    0.1796441  38.92  0.002186141    2.298    0.565
        27  -7.9872    163.5620    201.4737   1.0696723091e+02   1.0667478089e+01    0.1295098    0.1103182  42.25     6.28e-05    1.033    0.032
        28 -11.6268     70.2474    198.9888   1.2534481610e+02   2.5907672622e+01    0.1800292    0.1392148  56.32 0.0003515136    1.120    0.107
        29  99.0000     22.1418    197.4272   1.3444595116e+02   3.1712324585e+01    0.4484606     0.269522 -64.03  0.003034373    1.819    0.450
        30  -8.8316     26.9998    194.3887   1.3334862348e+02   3.1814226209e+01    0.1906648    0.1249579 -64.30  0.001307164    1.679    0.405
        31 -11.5286     82.9335    197.9411   1.2270605911e+02   2.4382196586e+01    0.1774867    0.1488089  67.65 0.0002902971    1.034    0.033
        32 -11.1152     56.6804    192.4024   1.2742553612e+02   2.8907380046e+01     0.319215    0.1604123  81.77  0.001635173    2.287    0.563
        33 -11.1961     76.8786    192.3906   1.2333943883e+02   2.6295774032e+01    0.1782462     0.147169  88.70  0.000311318    1.138    0.121
        34 -10.1865     51.0036    192.3085   1.2854699789e+02   2.9605611438e+01    0.1422481    0.1132101  67.26 0.0003680677    1.058    0.055
        35 -11.4659     45.5376    190.6526   1.2948980429e+02   3.0563285606e+01    0.5050386    0.2898461  29.93  0.002962335    2.142    0.533
        36  -8.7985     35.4261    189.9634   1.3142209066e+02   3.1807958572e+01    0.2380454    0.1476727  73.00  0.001555026    1.364    0.267
        37 -11.0715     35.6322    184.1289   1.3093391900e+02   3.2944883936e+01    0.5579757     0.191256  41.85   0.00282823    2.489    0.598
        38 -11.4183     61.7442    188.3191   1.2601782043e+02   2.9088841717e+01     0.173958    0.1355126  78.66  0.000265539    1.086    0.079
        39 -12.3942     63.0714    184.6281   1.2537665849e+02   2.9661216019e+01    0.2171822    0.1752447 -84.54 0.0004684563    1.165    0.141
        40  -8.1945     92.9256    187.7233   1.1947330255e+02   2.4915525112e+01    0.1642212    0.1179149  74.12 0.0004074733    1.382    0.276
        41 -11.1369     82.6317    185.1644   1.2133422397e+02   2.6922923460e+01    0.2146719    0.1635349  60.66 0.0003223253    1.139    0.122
        42 -11.5984     42.9878    183.2800   1.2938167252e+02   3.2320344792e+01    0.1651289    0.1318584  82.17 0.0004354571    1.050    0.048
        43 -11.3227     53.3639    182.5013   1.2718236120e+02   3.1285027645e+01    0.1691135    0.1364728  69.81 0.0001008206    1.046    0.044
        44 -11.1886     50.4296    180.3971   1.2759305992e+02   3.2058874360e+01    0.1889776    0.1561812  80.64 0.0001153192    1.053    0.050
        45 -11.2606     16.5992    182.4764   1.3456432535e+02   3.5141296665e+01    0.1169135   0.09513957  86.37  0.000295528    1.156    0.135
        46  -9.7636     19.0545    179.7849   1.3390928136e+02   3.5452306997e+01    0.1212439    0.1003183 -83.86 0.0009262332    1.236    0.191
        47 -11.5506     47.8059    216.3673   1.3102168665e+02   2.5444915798e+01     1.021531    0.4830694  49.39  0.006230982    1.677    0.404
        48  -7.3912    181.6952    179.3213   9.9609542347e+01   1.0957894978e+01    0.1295601    0.1069397  76.68 0.0002771048    1.636    0.389
        49  -9.4541     63.3182    179.9060   1.2483611425e+02   3.0589274867e+01    0.1090908   0.05828198  46.43 0.0001680651    1.685    0.407
        50  -7.7143     89.4498    175.4756   1.1865729200e+02   2.7894555780e+01    0.2347542    0.1655737 -32.65 0.0008492181    2.221    0.550
        51  -8.7090     92.2926    170.8653   1.1740154680e+02   2.8418378479e+01    0.2665066     0.188419 -36.74 0.0006298375    1.999    0.500
        52 -11.9854     38.9598    172.3775   1.2926533851e+02   3.4989981810e+01    0.2632194    0.2425992   8.95  0.001632518    1.581    0.367
        53  -9.6201    175.3604    172.1539   9.9552983255e+01   1.3375434885e+01     0.306371    0.2539731  45.20 0.0007792518    1.135    0.119
        54 -10.2518    242.5999    170.4097   8.6591357559e+01   1.0342438174e+00    0.2694456    0.2202107  -9.90   0.00112845    1.125    0.111
        55  -8.0320    196.7072    171.0492   9.5078351214e+01   9.4326521182e+00    0.1859268    0.1652819 -17.99 0.0005572316    1.173    0.147
        56 -12.3286     69.5550    208.5631   1.2637246223e+02   2.4195248361e+01     0.192928    0.1590346  75.02  0.001396451    1.087    0.080
        57  -7.9804     23.6578    168.9219   1.3219396563e+02   3.7235428785e+01    0.2773809    0.1491569  30.62  0.001653182    2.174    0.540
        58  -7.7000    155.4861    168.4767   1.0302644144e+02   1.7865413011e+01    0.1398091    0.1271885  43.30 2.650506e-05    1.005    0.005
        59 -10.0130    243.6143    165.1675   8.5365318373e+01   1.5644948708e+00    0.2538227    0.1997969  22.00 0.0007505986    1.144    0.126
        60  -9.3140     38.3379    166.0741   1.2882327570e+02   3.6374748593e+01    0.1519374    0.1151321 -89.06 0.0003047777    1.101    0.092
        61  -9.5976     98.0214    165.0000   1.1525586393e+02   2.8754600878e+01     0.306834     0.181005  44.23 0.0008853857    1.588    0.370
        62  -9.7470     97.8732    161.8414   1.1480986421e+02   2.9443216191e+01    0.3299863    0.2443253  52.05 0.0007353217    1.262    0.208
        63  -8.2714     82.1416    163.9022   1.1873962953e+02   3.1387465600e+01    0.1944629    0.1501653  67.24 0.0004139077    1.210    0.174
        64  -9.1128     78.1155    227.5707   1.2644493609e+02   1.9688388603e+01    0.1000879   0.06158538 -89.17 0.0002612631    1.734    0.423
        65  -7.6911    136.6219    153.8867   1.0445794485e+02   2.4305348080e+01    0.2012777    0.1330908 -64.83 0.0009401038    1.827    0.453
        66  -8.6091     97.3334    149.8304   1.1300756768e+02   3.2105371549e+01    0.2281505    0.1733267  54.91 0.0006615352    1.270    0.213
        67  -7.8147    133.5872    144.9843   1.0341352629e+02   2.6704469590e+01    0.2123537    0.1404078 -50.95  0.001012461    1.578    0.366
        68  -8.0128    230.8830    140.4948   8.2312329227e+01   7.5006146002e+00    0.1931762    0.1319676  44.05 0.0003688876    1.473    0.321
        69  -7.9624     71.2566    163.3307   1.2115861569e+02   3.3026075651e+01     0.170956    0.1247393  74.21 0.0006894602    1.312    0.238
        70  -8.9468    161.2330    127.7110   9.3221924831e+01   2.4514709574e+01    0.3374214    0.2530763 -88.02  0.001515432    1.960    0.490
        71  -8.0138    105.3350    127.0578   1.0673419220e+02   3.5771387477e+01    0.1969063    0.1716862 -65.46 0.0004737788    1.126    0.112
        72  -8.9683    196.5428    107.2126   8.0708252265e+01   2.0338076556e+01    0.2725413     0.252953  33.55 0.0004727179    1.065    0.061
        73  -9.9598    211.5115    158.0940   8.9618413734e+01   8.6071552332e+00    0.2422689    0.2297985  19.39 0.0003518807    1.128    0.113
        74  -8.6903    249.0105    106.2711   7.1544109739e+01   8.9607220487e+00    0.2972713    0.1704863  -3.60   0.00119744    2.725    0.633
        75  -7.8295    134.8728    105.8432   9.4121728810e+01   3.4611228581e+01    0.2056535    0.1817212 -85.32  0.001042938    1.288    0.223
        76  -8.1584    169.9558    158.2248   9.7959719713e+01   1.6908034291e+01     0.199267    0.1757974  35.34  0.000424675    1.051    0.048
        77  -7.6085    181.0481    104.9708   8.3240929851e+01   2.4340627829e+01    0.1764279    0.1720682   2.69 0.0009501729    1.011    0.010
        78  -7.8793    110.4924    157.5047   1.1117127602e+02   2.8283344414e+01    0.1372567    0.1248701  69.84 0.0003945511    1.016    0.015
        79  -8.7063     95.1246     93.6629   1.0180631554e+02   4.4931065344e+01    0.2155605    0.1771516  67.24 0.0007066305    1.419    0.295
        80  -7.6484    228.4880     84.9613   6.9463745742e+01   1.6570504422e+01     0.206019    0.1359533 -29.83 0.0003314372    1.449    0.310
        81  -7.9737    109.8430     84.1354   9.4916478839e+01   4.4241020293e+01    0.2063417    0.1943154 -63.61 0.0002786227    1.115    0.103
        82  -7.8570    104.3041     82.5570   9.6062616263e+01   4.5633724513e+01    0.1902153    0.1409697  29.02 0.0006803457    1.491    0.329
        83  -8.0855    101.5181    156.5396   1.1311817959e+02   2.9983530922e+01    0.2243229    0.1695397 -80.74 0.0005457889    1.403    0.287
        84  -7.9387     81.5101     77.0232   1.0145830543e+02   5.0773434067e+01    0.2153818    0.1289705 -49.16  0.001019816    1.552    0.356
        85  -8.8429    104.7056    154.4180   1.1201264661e+02   2.9911511713e+01    0.3254356    0.2518225  44.33 0.0009320657    1.258    0.205
        86  -8.3691    155.1827     65.1767   7.7467337498e+01   3.7654996240e+01    0.2075565    0.1833131 -72.42 0.0004299824    1.289    0.224
        87  -8.4387    144.7572     57.0372   7.7242093646e+01   4.1557271038e+01    0.2083708    0.1990015 -27.86 0.0003565211    1.066    0.062
        88 -11.2525    164.7171     50.8815   7.0949164770e+01   3.7535845967e+01    0.7565663    0.4194569  46.84  0.002290792    1.780    0.438
        89  -9.4912    172.4019     48.5796   6.8748309587e+01   3.5905948536e+01    0.2967062    0.2530319  15.58 0.0008353947    1.299    0.230
        90 -11.0809    176.8223     44.4541   6.6669396535e+01   3.5351434067e+01    0.6996569    0.3532396 -24.02  0.002768612    2.200    0.545
        91 -11.1101    179.0987     36.2158   6.3739558217e+01   3.5867778449e+01    0.7235644     0.583026  72.52  0.002857359    1.240    0.193
        92 -10.6527    183.0711     29.4408   6.1033115768e+01   3.5683939838e+01    0.6288346    0.4365832  38.87  0.001425153    1.567    0.362
        93 -11.0148    171.9767     41.5088   6.6614039685e+01   3.7011096061e+01    0.5832273    0.4220615  76.80  0.002778377    1.516    0.340
        94  -8.5845    188.9788    154.1768   9.3185775713e+01   1.3769959948e+01    0.2270164    0.1649128  71.30 0.0009962636    2.001    0.500
        95 -12.4757     81.5879    223.4159   1.2545549039e+02   1.9933585576e+01    0.2246857    0.1496487  62.68  0.001098435    1.250    0.200
        96  99.0000     10.8026    215.7438   1.3740806128e+02   2.9420287039e+01    0.2389024    0.1636299  34.95   0.00183193    1.766    0.434
        97 -10.9654     68.1507    213.4029   1.2706286847e+02   2.3490226565e+01    0.1608535    0.1260057 -88.07 0.0004384397    1.239    0.193
