#   1 NUMBER                 Running object number                                     
#   2 MAG_AUTO               Kron-like elliptical aperture magnitude                    [mag]
#   3 X_IMAGE                Object position along x                                    [pixel]
#   4 Y_IMAGE                Object position along y                                    [pixel]
#   5 X_WORLD                Barycenter position along world x axis                     [deg]
#   6 Y_WORLD                Barycenter position along world y axis                     [deg]
#   7 A_WORLD                Profile RMS along major axis (world units)                 [deg]
#   8 B_WORLD                Profile RMS along minor axis (world units)                 [deg]
#   9 THETA_WORLD            Position angle (CCW/world-x)                               [deg]
#  10 FWHM_WORLD             FWHM assuming a gaussian core                              [deg]
#  11 ELONGATION             A_IMAGE/B_IMAGE                                           
#  12 ELLIPTICITY            1 - B_IMAGE/A_IMAGE                                       
         1 -10.6728    220.3583     15.4878   6.3157838093e+01   2.8647059473e+01     0.466836    0.4355339  50.12  0.003069399    1.337    0.252
         2  -9.6646    239.5648      2.4292   5.8545411319e+01   2.5673447585e+01    0.3923562    0.1804933  75.80  0.001715629    1.929    0.481
         3 -10.0231    228.1379     16.8616   6.2680242737e+01   2.6656247267e+01    0.5905316    0.3237628  58.81  0.003029244    1.827    0.453
         4 -11.3817    248.5454     31.8545   6.3939426147e+01   2.0107328341e+01    0.8990961    0.4209763 -44.70  0.004363915    1.885    0.469
         5 -11.0256    224.7887     23.1642   6.4453392612e+01   2.6684576182e+01    0.8355683    0.4161895  76.60  0.003925063    1.937    0.484
         6 -10.2825    238.2683      8.3808   5.9897933228e+01   2.5305701715e+01    0.6429743    0.2591914 -68.95  0.002530294    3.266    0.694
         7 -10.3778    249.9944     18.6846   6.1031845079e+01   2.1466332926e+01    0.5842578    0.1949741 -36.41  0.002506134    2.775    0.640
         8 -10.3673    246.0015     13.4685   6.0296941605e+01   2.2980705662e+01    0.6039212    0.2213944  59.24  0.002668242    2.742    0.635
         9 -10.8259    248.8793      5.7534   5.8481109096e+01   2.3237750962e+01    0.6038167    0.3025055 -35.00  0.003203973    2.067    0.516
        10 -10.2973    244.4191     21.5410   6.2134968961e+01   2.2355263493e+01    0.3985404     0.289823  26.13  0.001760685    2.416    0.586
        11 -11.2646    239.2135     17.8452   6.1829674682e+01   2.3985141623e+01    0.6722236    0.4873251  83.60   0.00406677    1.225    0.184
        12  -9.5897    233.1498     11.0100   6.0914656153e+01   2.6174173244e+01    0.2431355    0.2239434  -2.30  0.001019868    1.538    0.350
        13  -8.6533    202.0977     11.8632   6.4279334604e+01   3.3435995271e+01    0.2007948    0.1623987  60.40 0.0008334148    1.244    0.196
        14  -8.7474    197.7363     10.5031   6.4444757445e+01   3.4640393865e+01    0.2961363    0.1265337 -19.94  0.001189575    3.397    0.706
        15  -9.2760    112.4907     11.5145   7.8756727116e+01   5.4707742506e+01    0.1287989    0.1097489  36.65 0.0005033886    1.005    0.005
        16  -9.9002    212.8340      8.6050   6.2341038521e+01   3.1202290837e+01    0.4348702    0.2840779 -43.48   0.00246377    1.547    0.354
        17  -9.8678    155.2790      9.1777   6.9838657910e+01   4.5121972470e+01    0.2156948    0.1667831 -14.45   0.00126098    1.533    0.348
        18 -10.2126    222.3904      6.1682   6.0847414143e+01   2.9206301903e+01    0.4364559    0.3445631 -64.13  0.002769399    1.164    0.141
        19  -9.8845     63.5833      2.1970   8.8478486958e+01   6.4801577824e+01    0.2538635    0.1797204   8.37  0.001107049    1.222    0.182
        20  -9.6315    231.7127      2.9465   5.9307925862e+01   2.7395860734e+01    0.3042529    0.1713348 -89.83 0.0009434908    1.634    0.388
        21  -8.5850    190.0055      2.6750   6.3375082861e+01   3.7302350165e+01    0.1877064    0.1471382  76.75 0.0004512293    1.080    0.074
        22  -9.0334    206.4158      6.6006   6.2536139204e+01   3.2949525546e+01    0.3180938    0.1236448 -29.27  0.001374519    2.855    0.650
        23  -8.5727    199.9408    229.4566   1.1500715527e+02  -3.2778315123e+00    0.1792376    0.1042787  59.37 0.0008083296    2.500    0.600
        24  -8.4414    192.5149    250.5032   1.1972298625e+02  -5.1022013601e+00    0.1242597    0.1015271  35.08 2.115028e-05    1.015    0.015
        25  -8.4665    164.6289    229.3099   1.2179190281e+02   3.0602731844e+00    0.1365004   0.09535045  68.17 0.0007034205    1.770    0.435
        26 -10.4504    208.2412    224.1771   1.1253559546e+02  -3.9243513737e+00    0.3214167    0.2146898 -25.32  0.001761153    1.706    0.414
        27  -8.7555    248.0366    227.3692   1.0583055225e+02  -1.0954274112e+01     0.169291    0.1344673  23.03 0.0006558757    1.122    0.109
        28  -8.7974    190.6535    227.1927   1.1640507599e+02  -1.2785856355e+00    0.1753662    0.1200054 -28.92 0.0009491897    1.739    0.425
        29  -8.5802     99.5139    226.4748   1.3410945007e+02   1.4870167218e+01    0.1312014    0.1034257  68.91 0.0008092452    1.061    0.057
        30  -8.9650    155.8013    224.9975   1.2286666392e+02   5.4104065004e+00    0.2047009    0.1557645  -9.82  0.001081142    2.001    0.500
        31 -10.1551    239.0720    220.9248   1.0626324484e+02  -8.6605727873e+00    0.3017106    0.2917887  67.69  0.001931433    1.482    0.325
        32  -8.9361    186.4292    221.6258   1.1629442232e+02   3.9054286976e-01    0.2805428    0.1322029 -45.76  0.001261671    2.426    0.588
        33  -9.3635    204.8603    220.2317   1.1249105526e+02  -2.7142420883e+00    0.3090437    0.2004344 -10.45  0.001517796    2.153    0.535
        34  -9.9145    194.0801    219.9339   1.1451652934e+02  -7.2470697263e-01    0.3510275    0.2912439  56.42  0.002088893    1.323    0.244
        35  -8.5715    159.4848    219.4694   1.2127450988e+02   5.7272732064e+00    0.1359931    0.1191341  49.35 0.0001428251    1.007    0.007
        36  -8.7528     48.5282    219.5232   1.4296145382e+02   2.3610678495e+01    0.1194063   0.09191024  79.54 0.0008093774    1.029    0.029
        37  -9.1963    247.6533    217.1981   1.0405392299e+02  -9.5162385493e+00      0.27457    0.1906993  26.65  0.001463967    1.305    0.234
        38 -10.3369    218.5145    215.5020   1.0905631044e+02  -4.3932857852e+00    0.3094858    0.2506141  52.29  0.001839277    1.431    0.301
        39 -11.2175    214.2968    214.9379   1.0974990506e+02  -3.5620159417e+00    0.4926508    0.3151073 -38.01  0.002206689    1.683    0.406
        40  -8.9319    179.7409    216.3943   1.1672636283e+02   2.5105141603e+00    0.1972043    0.1164738  34.64 0.0009471243    1.643    0.391
        41  -8.6004    109.2155    216.5987   1.3097154530e+02   1.5236569542e+01    0.1742561    0.1182189  37.85 0.0006234559    1.570    0.363
        42  -9.6517    231.7590    212.5993   1.0606280796e+02  -6.2408824299e+00    0.4003561    0.2593162 -54.86  0.002010679    2.369    0.578
        43 -10.0147    186.6787    213.7153   1.1488887048e+02   1.6797726177e+00    0.3828975    0.2139932 -51.99   0.00179316    2.183    0.542
        44  -9.0593    132.4900    214.0534   1.2590211236e+02   1.1688083176e+01    0.1917179    0.1332233 -60.21 0.0006161218    1.568    0.362
        45  -8.6106    125.2265    212.2527   1.2712195128e+02   1.3342644943e+01    0.2026737     0.107628 -69.45 0.0008804636    2.413    0.586
        46  -9.6157    206.7131    208.8291   1.1008571926e+02  -1.2119303493e+00    0.2767357    0.1825287  52.51  0.001319713    1.670    0.401
        47  -8.6385     85.9519    208.4598   1.3461455886e+02   2.0665320534e+01    0.1892867   0.08706881  60.49 0.0008072793    2.401    0.584
        48  -9.4969    124.0384    205.9984   1.2644146624e+02   1.4819677019e+01    0.1977333    0.1690943  67.36            0    1.045    0.043
        49  -9.3250    236.1814    204.5865   1.0374447775e+02  -5.7869410709e+00     0.278871    0.2318172  48.75  0.001392915    1.421    0.296
        50  -9.2275    198.4438    203.2395   1.1066698973e+02   1.2738250196e+00    0.3117269    0.1347857 -45.34  0.001273874    2.555    0.609
        51  -9.5050    193.5093    202.9054   1.1158441648e+02   2.2698865870e+00    0.3099467    0.2306574 -87.99  0.001489316    2.222    0.550
        52  -9.0664    187.9962    204.0002   1.1288930148e+02   3.1296974311e+00    0.2129049    0.1712404  80.17 0.0008586102    1.677    0.404
        53  -8.7285    178.6620    203.6705   1.1471694918e+02   4.9823081766e+00     0.143097      0.10765   8.01  0.000705192    1.734    0.423
        54 -10.1361    164.8967    201.7181   1.1719910617e+02   8.0087867825e+00    0.3017791    0.2080453 -56.35   0.00152025    1.642    0.391
        55  -8.6134     16.2263    201.8034   1.4737550062e+02   3.0924971874e+01     0.143063    0.1133403 -76.30 0.0006264535    1.313    0.238
        56  -8.2242    249.5286    201.5315   1.0076658379e+02  -7.5725764893e+00    0.1275706    0.1114762   0.68 9.798957e-05    1.047    0.045
        57  -9.2485    240.4809    200.1722   1.0211534444e+02  -5.8492098337e+00    0.2704004    0.1869591  10.31  0.001460132    1.577    0.366
        58  -8.5158    160.3582    202.2767   1.1824032389e+02   8.7778599262e+00    0.1821872    0.1331957 -61.27 0.0005977998    1.567    0.362
        59 -10.2561    231.1667    196.1725   1.0303632536e+02  -3.5942788454e+00    0.4666108    0.2464923 -38.14  0.001652381    1.911    0.477
        60  -9.8546    204.2495    198.0378   1.0853877804e+02   1.0725815239e+00    0.3173952    0.1955437  40.99  0.001345525    1.522    0.343
        61  -9.1541    176.1851    197.2564   1.1405524386e+02   6.6565915788e+00    0.2632609    0.1890138 -79.23  0.001229511    2.091    0.522
        62  -8.9701    149.3264    198.3200   1.1987310076e+02   1.1681327871e+01    0.1388235    0.1131952   4.09 0.0004172572    1.682    0.405
        63  -9.2263    192.0554    198.0083   1.1095915196e+02   3.4204129864e+00    0.2180181    0.1757794  81.88  0.001134339    1.700    0.412
        64  -9.8196    184.7641    196.5177   1.1215581895e+02   5.1127120696e+00    0.3127521    0.2560651 -27.27   0.00113004    1.349    0.258
        65 -10.2416    248.4165    194.3003   9.9551924177e+01  -6.3007172937e+00    0.3525077    0.2851409  57.28  0.001627094    1.665    0.399
        66 -10.3584    190.9952    191.0063   1.0983194311e+02   4.9054026402e+00    0.5193171    0.2768503  65.89  0.001680133    4.175    0.760
        67 -10.1397    218.5277    201.9626   1.0652928517e+02  -2.2485106852e+00    0.2554553    0.1929405  44.94 0.0009746455    1.343    0.255
        68 -10.7240    237.9216    190.9106   1.0075789995e+02  -3.9546398526e+00    0.6091208    0.3017267 -44.29  0.002749362    2.215    0.548
        69  -8.9968    224.2275    192.0639   1.0352146360e+02  -1.6633866157e+00    0.2480816    0.1905238 -53.26  0.001339812    1.612    0.380
        70  -9.4863    199.0246    192.5025   1.0850451298e+02   3.0557386605e+00    0.2207766    0.1319242  42.80 0.0007265092    1.583    0.368
        71  -8.1550    210.4812    189.5134   1.0565192957e+02   1.3656262391e+00    0.1386808    0.1301285  17.26 0.0008100327    1.032    0.031
        72  -8.8976    193.7933    188.5833   1.0878968351e+02   4.7992097460e+00    0.2052543    0.1305335  53.65 0.0009458675    1.695    0.410
        73 -10.4045    218.2618    178.3514   1.0187650100e+02   1.8245467812e+00    0.6725038    0.3267215  61.65  0.002137723    4.414    0.773
        74  -9.9520    226.6326    179.7677   1.0058145415e+02  -3.4011931336e-02    0.5234991    0.3247061  50.42  0.002523477    1.775    0.437
        75  -9.7543    230.6337    185.2443   1.0095573086e+02  -1.7104748936e+00    0.3277411    0.2393752 -71.74  0.001556219    2.399    0.583
        76  -8.6301    189.7691    185.6853   1.0903751040e+02   6.1441970143e+00    0.2169307    0.1158087 -53.75 0.0008807722    2.302    0.566
        77  -9.1302    209.9973    184.4577   1.0473175879e+02   2.3533684822e+00     0.254619    0.1489425 -31.61  0.001151938    1.851    0.460
        78  -9.3478    249.7526    185.1231   9.7487571970e+01  -5.1073579841e+00    0.3532032     0.220412 -55.10  0.001667433    2.407    0.585
        79  -9.4165    198.0971    182.6336   1.0673036019e+02   5.0438493516e+00    0.2434706    0.2010514 -52.08 0.0009887586    1.338    0.252
        80  -8.3483     15.5850    183.5119   1.4603715264e+02   3.4859295554e+01    0.1174682   0.08590616 -89.97 0.0001141316    1.016    0.016
        81  -9.4298    242.4091    180.9960   9.7947014544e+01  -3.1549728787e+00    0.3399872     0.211487 -48.99  0.001665751    1.909    0.476
        82  -9.1358    236.0689    181.6778   9.9230214804e+01  -2.1171269833e+00    0.2793802    0.1873792 -37.49  0.001455174    1.465    0.317
        83  -9.9306    158.0955    179.0146   1.1444447229e+02   1.3907942541e+01    0.3908654    0.1845674 -36.88  0.001425269    2.787    0.641
        84  -9.0373    245.4545    178.3371   9.6861071001e+01  -3.2676400558e+00    0.2060058    0.1677163  66.74 0.0009485424    1.724    0.420
        85  -8.3224     64.6782    179.6919   1.3545137577e+02   3.0086454731e+01    0.1217256   0.09868188 -41.45 0.0006571299    1.644    0.392
        86 -10.0826    224.9873    184.7030   1.0190063593e+02  -5.6683296763e-01     0.387901    0.2830877 -41.90  0.001420939    1.429    0.300
        87  -8.8687    197.6133    176.8111   1.0563661104e+02   6.2342351122e+00     0.205967    0.1361655 -52.50 0.0009479721    1.715    0.417
        88  -9.7259    233.4365    174.9436   9.8319666990e+01  -4.9519188894e-01    0.3271149    0.2434195 -40.34  0.001451437    1.351    0.260
        89  -9.6196    193.5400    173.7909   1.0584083679e+02   7.6476988767e+00     0.413246     0.144506 -41.30  0.001403756    2.966    0.663
        90 -10.0459    224.8174    171.7677   9.9252879808e+01   1.7097263834e+00    0.5560367    0.3284164 -52.58  0.002467077    2.095    0.523
        91  -9.2721    237.7626    170.2893   9.6557846208e+01  -5.1614561057e-01    0.2318289    0.1784044 -42.69  0.001163839    1.331    0.249
        92 -10.4097    212.3558    169.3298   1.0112429036e+02   4.6314966087e+00      0.45633    0.2713169 -39.50  0.001584471    1.676    0.403
        93 -10.3821    213.3641    163.9112   9.9762747300e+01   5.4302080539e+00    0.3907894    0.2493623  42.53  0.001827941    1.574    0.365
        94  -8.8211    243.3006    168.8907   9.5276080082e+01  -1.3129040791e+00    0.3047596    0.1643609 -15.06  0.001158612    3.013    0.668
        95  -9.4662    147.4780    168.3333   1.1469996618e+02   1.8352175450e+01    0.2663434    0.2244245  57.92 0.0005592349    1.160    0.138
        96  -8.8660    249.3298    167.7029   9.3974462867e+01  -2.2198653836e+00    0.2023011     0.163124 -70.91  0.001086954    1.809    0.447
        97  -9.9441    193.0757    166.3417   1.0435936220e+02   9.1951193013e+00    0.3834968    0.2559019 -37.19  0.001775598    1.548    0.354
        98  -9.1196    184.6935    166.1451   1.0606814739e+02   1.1007140411e+01    0.2399869    0.1913565 -62.45 0.0009617226    1.430    0.301
        99  -9.1782    234.0817    164.5846   9.6011737701e+01   1.1705957444e+00    0.2800809     0.185954 -52.08  0.001346307    1.758    0.431
       100  -8.7198    240.6080    163.1964   9.4544329553e+01   1.5979899611e-01    0.2046194     0.123699 -26.42 0.0008187673    1.723    0.419
       101  -9.1591    169.9463    169.2406   1.0988631685e+02   1.3492235334e+01      0.27252    0.2132413 -75.92 0.0009875837    1.577    0.366
       102  -8.6213     46.5488    162.4525   1.3725895547e+02   3.6326250102e+01    0.1288327    0.1047076 -84.12 0.0001093781    1.007    0.007
       103 -10.0122    246.2345    158.6822   9.2594118408e+01  -1.3164548195e-01    0.5145717     0.232657  40.87  0.002158249    2.392    0.582
       104  -9.0258    184.0000    158.4145   1.0453720519e+02   1.2720877510e+01    0.3377427   0.08640976 -43.51 0.0009373241    3.956    0.747
       105  -8.3054     51.6938    159.3683   1.3566033336e+02   3.6430090960e+01    0.1387436   0.08675469  78.64 0.0007035369    1.753    0.429
       106  -9.6100    226.3863    157.2249   9.5828578843e+01   4.0036065497e+00    0.3502071    0.2549419   9.05  0.001305518    1.752    0.429
       107  -9.9399    229.7841    148.2115   9.3211257494e+01   4.9494171602e+00    0.3494444    0.3032942 -71.06  0.001187593    1.378    0.274
       108  -8.8909    234.6709    147.9397   9.2274126923e+01   4.0047366406e+00    0.2850499    0.2276075   1.19  0.001475991    1.448    0.309
       109  -9.0814    233.0160    153.0383   9.3697177877e+01   3.4236852524e+00    0.3248819    0.1989004 -30.30  0.001500733    1.646    0.393
       110  -8.8719    229.5577    152.7870   9.4268400729e+01   4.1655509059e+00    0.2733864    0.2225173  57.91 0.0009342892    1.397    0.284
       111  -8.4655     40.9954    157.9489   1.3794960556e+02   3.7990285410e+01    0.1619863    0.1187778 -75.43 0.0005961595    1.119    0.106
       112  -8.5532    156.3394    157.3180   1.1039101926e+02   1.8908237573e+01    0.1551591    0.1240562   1.82 0.0006811798    1.709    0.415
       113 -10.1289    196.7130    147.7962   9.9495525933e+01   1.2087897835e+01     0.986794    0.2455847 -48.30  0.002436408    5.196    0.808
       114  -9.4398    250.5820    152.7471   9.0577372299e+01   6.1177646582e-02    0.5387489    0.2255056 -49.94  0.001964032    3.092    0.677
       115  -9.6230    243.0000    153.0052   9.1926643358e+01   1.4633214212e+00    0.3335195    0.1842668 -40.91  0.001527305    1.701    0.412
       116 -10.9051    244.0097    149.0217   9.0883157910e+01   1.9609873726e+00    0.6020295    0.4206442 -38.78  0.001768209    1.328    0.247
       117  -9.4646    221.6196    153.1832   9.5825861286e+01   5.7192909331e+00    0.3164009    0.2353872 -62.77  0.000928178    1.693    0.409
       118  -9.6019    206.2110    153.1059   9.8785258950e+01   8.9825851690e+00    0.2306499    0.2001212  -6.53 0.0007048251    1.254    0.203
       119  -8.5215     35.5169    151.0194   1.3832769473e+02   4.0166435267e+01    0.1915852    0.1028637 -69.96 0.0004996779    1.529    0.346
       120  -8.3896    182.0330    150.2511   1.0313160321e+02   1.4826299336e+01    0.2003626    0.1304363  45.97 0.0006250796    1.529    0.346
       121  -9.2087    191.8341    148.3473   1.0062770177e+02   1.3052135380e+01    0.2761772    0.2065874 -52.22  0.001212922    1.397    0.284
       122  -9.9292    224.1285    146.6164   9.3888503981e+01   6.4127846713e+00    0.3750107    0.3605164   4.58  0.001633484    1.048    0.045
       123  -9.3352    217.0869    147.7834   9.5471967283e+01   7.6785360229e+00     0.386981     0.205677  42.16  0.001611589    1.973    0.493
       124  -9.9864    206.4025    147.0321   9.7372454499e+01   1.0118785420e+01    0.3454138     0.248672  -6.93  0.001529022    1.911    0.477
       125  -8.9290     16.9981    147.0239   1.4214568390e+02   4.2803098363e+01    0.1892015    0.1176788  77.48 0.0007269919    1.629    0.386
       126  -8.7601    111.5341    147.4593   1.1900075848e+02   3.0130156412e+01    0.1493394    0.1376025 -85.84 0.0008080882    1.030    0.029
       127  -9.0789    188.1849    142.0548   9.9936451230e+01   1.5141826592e+01    0.4300864    0.2708182 -78.98  0.001479259    3.196    0.687
       128  -8.7491    182.1805    143.2027   1.0147929789e+02   1.6252022802e+01    0.2197816    0.1868123 -83.15  0.001072726    1.371    0.270
       129  -9.9232    230.5260    141.0509   9.1469124887e+01   6.1017063593e+00    0.3615539    0.2781929 -51.27  0.001188357    1.346    0.257
       130  -9.0419      9.1777    141.8433   1.4336518594e+02   4.4587377027e+01    0.1559674    0.1133418 -59.54 0.0006771073    1.290    0.225
       131  -9.2811    249.9670    140.5501   8.8023444186e+01   2.2735927005e+00    0.2902717    0.2288925  36.05  0.001261269    1.390    0.280
       132  -9.7376    225.1266    138.5970   9.1884493909e+01   7.6894478423e+00    0.4458544    0.2245582 -27.81  0.001689076    2.436    0.590
       133 -10.3174    218.9988    138.9851   9.3103137879e+01   8.9297932871e+00    0.3650349    0.3374424 -77.04  0.002001987    1.195    0.163
       134  -9.7276    216.2261    135.9469   9.2919352858e+01   1.0108074222e+01    0.3099934     0.242675 -33.51 0.0009960344    1.255    0.203
       135  -9.2191    205.7522    137.4168   9.5276016890e+01   1.2137081317e+01    0.2054664     0.143694  38.23 0.0004381806    1.534    0.348
       136 -10.0461    249.1333    134.6990   8.6867859500e+01   3.4536151805e+00     0.444534    0.2595429 -36.56  0.002099574    1.562    0.360
       137  -9.9885    248.3360    130.6655   8.6099933024e+01   4.3166586028e+00    0.3798096    0.2427666 -67.87   0.00164032    2.424    0.587
       138  -9.5531    233.6115    134.7183   8.9487532596e+01   6.6118714682e+00    0.4285795    0.1755172 -33.18  0.001543655    2.600    0.615
       139  -8.8155    164.4797    136.4637   1.0379999151e+02   2.1654094653e+01    0.1554877    0.1521378 -89.58 0.0005033998    1.006    0.006
       140  -8.5838     52.9755    135.9832   1.3179631832e+02   4.1736255784e+01    0.1588951    0.1351973 -72.04 0.0004542032    1.009    0.009
       141 -10.4344    242.0146    133.4702   8.7768968966e+01   5.1002596423e+00    0.4339629    0.3617902 -57.19  0.002381329    1.274    0.215
       142  -9.5995    169.8940    134.9406   1.0221625588e+02   2.0758676402e+01    0.2337966    0.2325639  85.94 0.0005248802    1.022    0.022
       143  -9.6444    222.0967    130.0739   9.0465263378e+01   9.9328810442e+00     0.463565    0.3242881 -81.77  0.001990702    2.220    0.550
       144  -8.9527     62.0286    129.7325   1.2831888597e+02   4.2083857388e+01     0.179991     0.165999 -70.35 0.0003602843    1.075    0.069
       145  -9.2566    186.6073    128.8266   9.7111714834e+01   1.8203965717e+01    0.2303022    0.1425947 -51.91 0.0009504203    1.707    0.414
       146  -9.1292    193.1052    127.7317   9.5498865317e+01   1.6926279764e+01    0.2496941    0.1983687  73.56  0.001158146    1.462    0.316
       147  -9.7118    229.2101    125.2321   8.8071418439e+01   9.2830785408e+00    0.3948465     0.307408  -7.03  0.001947332    1.602    0.376
       148 -10.0701    206.7048    126.7276   9.2554164923e+01   1.4007367328e+01    0.3975963    0.2781925  46.11  0.001290421    1.479    0.324
       149  -9.7423    212.3427    124.1049   9.0853061913e+01   1.3233898231e+01    0.4108795    0.3336481  -9.12  0.001703404    1.484    0.326
       150  -9.6846    199.2555    126.7063   9.4009138234e+01   1.5714733225e+01     0.284297    0.2503536 -81.19  0.001445245    1.259    0.205
       151 -10.4114    241.5167    124.7918   8.5888135392e+01   6.7473013576e+00    0.4100931    0.3743894  72.99  0.001766597    1.220    0.180
       152  -8.2303    176.6843    124.3403   9.8128660661e+01   2.1426489838e+01    0.1637942    0.1243331 -80.42 0.0007048125    1.705    0.413
       153  -8.6504    161.4419    124.4997   1.0157930522e+02   2.4909383004e+01    0.1575122    0.1514314 -77.79 0.0001067622    1.036    0.035
       154  -8.9470    188.7154    122.6788   9.5162919756e+01   1.8961613325e+01    0.2955355    0.1925047 -29.39  0.001242923    1.747    0.428
       155  -9.3222    221.9828    121.0473   8.8361956551e+01   1.1645723721e+01    0.3453296    0.2709557  37.50  0.001063248    1.411    0.291
       156  -8.6010    195.3081    122.3242   9.3729911008e+01   1.7496051161e+01    0.1562441    0.1243551   6.03 0.0007036361    1.649    0.394
       157 -11.1427    212.0378    116.5000   8.9075522650e+01   1.4752957026e+01    0.8171232    0.4015329  30.90  0.002500706    4.023    0.751
       158  -9.9039    218.6838    115.5074   8.7628348974e+01   1.3421604349e+01    0.4577179    0.2715662  46.44  0.001995957    1.792    0.442
       159 -10.2363    230.3515    116.1450   8.5751248371e+01   1.0695881535e+01    0.4962225    0.3649797  65.61  0.002058259    1.542    0.352
       160  -9.3443    235.4668    115.2370   8.4685362154e+01   9.7432222919e+00    0.4043482    0.2683765 -55.28  0.001829752    1.598    0.374
       161 -10.0104    227.2657     74.0320   7.6179004738e+01   1.8757937441e+01    0.7503628    0.4285812  39.14  0.003135089    2.455    0.593
       162  -9.2336    249.5655     71.2353   7.2488732067e+01   1.4133820158e+01    0.2985689    0.1776294  52.32 0.0009274903    1.893    0.472
       163  -8.9772    241.3964     69.1828   7.3076092316e+01   1.6280610745e+01    0.4099013    0.2341381  53.62  0.001935795    1.900    0.474
       164  -9.9491    243.3712     93.0722   7.8312729306e+01   1.1902882562e+01    0.4129071    0.2608086  55.28  0.001495961    1.704    0.413
       165 -10.5400    236.5447     89.9030   7.8582823545e+01   1.3959639974e+01    0.5225556    0.3278008 -47.06  0.002496578    1.474    0.321
       166  -9.8331    231.7290     82.9438   7.7654753564e+01   1.6237466252e+01    0.5328449     0.289601 -51.44  0.002138992    1.830    0.454
       167 -10.6526    247.0155     98.4922   7.9023889329e+01   1.0187637413e+01    0.5743397    0.4612957  87.14  0.003135534    1.405    0.288
       168  -9.7827    237.6592     83.7648   7.6979120152e+01   1.4747266608e+01    0.5134469    0.2907037 -62.63  0.001858001    2.163    0.538
       169 -11.6800    244.8354     81.0746   7.5346041291e+01   1.3589223846e+01     1.296021    0.6644916 -55.91  0.005511949    2.116    0.527
       170 -10.4206    235.2416     73.6265   7.4943080263e+01   1.6971246884e+01    0.9111492    0.2341617 -41.74  0.002948997    3.342    0.701
       171 -10.8586    248.1379    112.1025   8.1953075414e+01   7.6006392100e+00    0.6324813     0.548948   9.66  0.003558875    1.396    0.284
       172 -10.7557    248.4830    106.6673   8.0667831567e+01   8.4703136085e+00    0.5535032    0.4471228 -18.16  0.002999584    1.413    0.292
       173  -8.6682    203.5848    116.0092   9.0547196780e+01   1.6804580510e+01    0.2325116    0.1459668 -40.32 0.0004507744    1.547    0.354
       174  -8.7622     51.9866    113.4894   1.2796488042e+02   4.7058176816e+01    0.2178516    0.1479321 -59.49 0.0006584669    1.251    0.201
       175  -9.5636     15.0665    112.2180   1.3805191728e+02   5.0761776475e+01    0.2097494    0.1380743 -67.42  0.000561983    1.183    0.155
       176  -9.7483    104.4335    111.9202   1.1280512909e+02   3.9625323304e+01    0.2608588      0.21846  27.43  0.000538256    1.331    0.249
       177  -8.9712    236.5750    108.2384   8.2874943476e+01   1.0752165420e+01    0.3094528    0.2322338  78.85 0.0009428355    1.607    0.378
       178  -9.5314    231.3652    107.9672   8.3656251763e+01   1.1950206205e+01    0.2832552    0.2436751 -54.84   0.00153432    1.112    0.100
       179  -9.9258    215.1330    108.0157   8.6445844766e+01   1.5632202704e+01    0.3995105    0.2604345  64.26  0.001784709    1.722    0.419
       180  -8.5430    190.3942    108.7783   9.1325469197e+01   2.1328255189e+01    0.2231931    0.1485082 -27.90 0.0009430061    1.727    0.421
       181  -9.5949    183.4593    108.2323   9.2602186768e+01   2.3094437676e+01    0.3012325    0.1546239 -35.58 0.0009153641    2.059    0.514
       182 -10.3567    241.3540    105.2007   8.1417351837e+01   1.0247452042e+01    0.4554294    0.2884975 -41.45  0.002191182    1.437    0.304
       183  -9.1083    235.4606    102.0193   8.1596335402e+01   1.2098051333e+01     0.285628    0.1287756 -42.43   0.00113463    2.024    0.506
       184  -9.3020    236.2082     98.3832   8.0625894489e+01   1.2569574346e+01    0.2815402    0.1976078 -40.62  0.001110598    1.321    0.243
       185  -8.3543    195.7186    103.3290   8.8882211016e+01   2.1105190594e+01    0.1584297    0.1181778 -71.21 0.0007002253    1.604    0.376
       186 -10.0686    221.4576    100.6407   8.3550681362e+01   1.5518484808e+01    0.3036382    0.2367797 -59.92  0.001523589    1.308    0.235
       187  -8.4772    216.9634    100.0000   8.4160437342e+01   1.6679445243e+01    0.2432411   0.08573918  55.18 0.0008033193    2.949    0.661
       188  -9.0294    160.6209     99.2139   9.5174708286e+01   3.0345862161e+01    0.2235505    0.1491742 -30.51 0.0009484279    1.670    0.401
       189  -9.1927    130.1085     98.4942   1.0238621989e+02   3.7419801648e+01    0.2311489    0.2005505 -42.40 0.0004975497    1.133    0.118
       190  -8.9482    195.9919     97.5769   8.7353465643e+01   2.2126592085e+01    0.2772552    0.1963453 -61.78  0.001241082    1.589    0.370
       191 -10.7837    230.6732     94.1012   8.0475768930e+01   1.4563871662e+01    0.4880322     0.342471 -27.01  0.001791849    1.585    0.369
       192  -8.8160    200.6818     92.6871   8.5218140308e+01   2.1895202688e+01    0.1519773    0.1219757  16.18 0.0005781668    1.646    0.393
       193 -10.1956    216.7509     89.2863   8.1553290510e+01   1.8647485537e+01    0.4454213    0.3675687  80.46  0.001820246    1.275    0.215
       194 -10.3008    225.8009     86.6537   7.9449901802e+01   1.6978079309e+01    0.4541575    0.3447784  -2.88  0.002158124    1.921    0.480
       195  -9.4816    176.1562     87.5078   8.8613625670e+01   2.8847535563e+01    0.2543128    0.2096621 -70.78 0.0008898103    1.332    0.249
       196  -8.7378    116.7001     84.6710   1.0200573082e+02   4.3026139686e+01    0.1503747    0.1156378  -2.35 0.0007030609    1.642    0.391
       197  -8.1746    135.2997     83.6882   9.6847092444e+01   3.9239289162e+01    0.1506215    0.1204086 -79.66 0.0006868338    1.604    0.377
       198  -8.6948    210.8282     81.1726   8.0508758840e+01   2.1479938509e+01    0.1976413    0.1800915  21.31 0.0006026897    1.314    0.239
       199  -8.7351    175.5084     77.4962   8.5992399178e+01   3.0815743063e+01    0.1523738    0.1461685  89.81 -6.932255e-05    1.016    0.015
       200  -8.8647    126.2361     76.4074   9.6998776774e+01   4.2602532350e+01    0.1999318    0.1420084  58.98 0.0005232886    1.571    0.363
       201  -9.7079    214.6427     75.2352   7.8397200031e+01   2.1565429329e+01    0.4771016    0.1698684  52.38  0.001672609    2.827    0.646
       202  -9.9149    227.0331     67.5295   7.4647450920e+01   1.9864463910e+01    0.4111133    0.2776312 -45.53  0.001853176    1.387    0.279
       203 -10.1529    223.5055     66.5175   7.4906812954e+01   2.0861772750e+01    0.3164448    0.2618039 -36.70  0.001335874    1.258    0.205
       204  -9.9686    250.1651     65.3757   7.1102108967e+01   1.4919337474e+01    0.4302679    0.1860315 -36.11  0.001814518    2.210    0.548
       205  -9.1861    238.5405     65.1085   7.2509910994e+01   1.7571681977e+01    0.2697125    0.2137456 -24.16  0.001461523    1.504    0.335
       206  -8.9973    238.3478     60.3192   7.1427995703e+01   1.8356684708e+01    0.2421814    0.2005768  21.45 0.0007377313    1.728    0.421
       207  -9.3479    235.1585     60.1452   7.1797020620e+01   1.9118684487e+01    0.2747724    0.1958926  80.66 0.0009168662    1.434    0.303
       208  -8.6843    210.5062     66.0230   7.6728811186e+01   2.4078594667e+01      0.22519    0.1377688 -40.34 0.0008441275    1.594    0.373
       209  -8.4510    136.2205     62.9692   9.0366847304e+01   4.2736140590e+01    0.1944526    0.1195144 -35.99 0.0008697053    1.664    0.399
       210  -9.0320    221.0748     61.3270   7.3990064326e+01   2.2259192618e+01    0.2724973    0.1915469 -49.46 0.0007163829    1.348    0.258
       211  -9.2754    206.6943     59.9626   7.5777280893e+01   2.5970004780e+01    0.3284387    0.1652292 -43.08  0.001385866    1.925    0.481
       212  -9.3499    171.8406     59.4370   8.1631625801e+01   3.4734814232e+01    0.4230681    0.2070775  42.64   0.00162405    2.324    0.570
       213  -9.0385    134.3093     59.6650   8.9796780562e+01   4.3712425020e+01    0.1462709    0.1149789 -74.24 0.0007042991    1.677    0.404
       214  -9.1140    126.5735     58.7233   9.1407808769e+01   4.5597719657e+01    0.1908837    0.1348955 -44.82 0.0004402682    1.516    0.340
       215  -9.4293    212.8584     57.8175   7.4307996548e+01   2.4789128818e+01    0.3028302    0.2391644  12.03  0.001518261    1.843    0.457
       216  -9.9979    249.6412     55.2557   6.8916442095e+01   1.6571254625e+01    0.4046891     0.294291  46.07  0.002205428    1.744    0.427
       217 -10.4314    229.4325     52.0780   7.0643024826e+01   2.1670979456e+01    0.6091216    0.4454414 -72.88  0.003260893    1.352    0.261
       218  -9.9516    237.6000     53.8011   7.0021011625e+01   1.9511577098e+01    0.5548292    0.2827097  77.04  0.002406834    2.260    0.558
       219 -10.5571    244.4254     51.5626   6.8698301463e+01   1.8284063354e+01     0.469918    0.3132841 -79.63   0.00191896    1.572    0.364
       220  -9.8256    249.7406     45.8940   6.6849429661e+01   1.7911661708e+01     0.652051    0.2278005 -39.60  0.002669028    2.504    0.601
       221 -10.8198    244.2049     42.1771   6.6634903704e+01   1.9677772376e+01    0.4243076    0.3356282 -42.32  0.001578179    1.279    0.218
       222  -8.9435    221.7090     53.3849   7.1970141615e+01   2.3314975555e+01     0.191378    0.1240247  57.33 0.0008605632    1.565    0.361
       223  -9.9676    199.8665     52.5188   7.4909294854e+01   2.8789910904e+01    0.5129181    0.2467349  79.12  0.001827185    2.983    0.665
       224  -8.8412    163.4894     52.9903   8.1386048325e+01   3.7791338516e+01    0.2222977     0.145207 -34.10   0.00103909    1.609    0.379
       225 -10.1470    233.6677     44.2931   6.8309212288e+01   2.1801819408e+01    0.4384894    0.4047543  78.91  0.002730574    1.172    0.147
       226  -9.2506    238.3268     45.4162   6.8020684428e+01   2.0562898573e+01    0.2302915    0.1502075  60.43  0.001045416    1.578    0.366
       227  -9.4992    215.6274     41.9465   6.9994618825e+01   2.6428876396e+01    0.3679284    0.2529034   9.29  0.001193644    2.651    0.623
       228  -9.0936    189.4729     43.5300   7.4148149306e+01   3.2672720311e+01    0.2311658    0.1452506 -16.44  0.000994256    2.185    0.542
       229  -8.7161    222.9673     43.0420   6.9319527585e+01   2.4506788896e+01    0.1688472    0.1461273 -62.46 0.0009863458    1.084    0.077
       230 -10.2049    201.0405     38.8479   7.1196863144e+01   3.0432134660e+01    0.4356121    0.2390536 -17.81  0.001803283    2.726    0.633
       231  -8.9370    209.4032     39.3109   7.0166456190e+01   2.8308894122e+01    0.2292753    0.1372922 -28.98 0.0006541952    1.899    0.473
       232  -9.8057    238.3285     38.3128   6.6418656884e+01   2.1553258556e+01      0.29923     0.221731 -84.09  0.001174411    1.257    0.205
       233  -8.7884    233.2481     38.3817   6.7002873625e+01   2.2720976200e+01    0.2256989    0.1539994  76.84 0.0006865161    1.394    0.283
       234 -10.0928    185.0782     37.2523   7.3137431857e+01   3.4618334827e+01    0.4125838     0.187464 -49.34  0.001650317    2.472    0.596
       235  -8.8928    234.6363    248.3097   1.1177650008e+02  -1.1581223797e+01    0.2341536    0.1243812  47.20  0.001246528    2.086    0.521
       236  -9.0850    176.9174    248.2001   1.2226451178e+02  -2.1264471537e+00    0.2755423    0.1450625  50.68  0.001199373    1.797    0.444
       237  -9.2005    187.0320    247.3141   1.2025748017e+02  -3.7204627160e+00    0.1818333    0.1357724  39.83  0.000544476    1.109    0.099
       238  -8.8820    151.4975    246.4701   1.2676271452e+02   2.5150226955e+00    0.1278765    0.1036954  52.02 0.0001797798    1.043    0.042
       239 -10.9295    227.5562     34.2113   6.6693383568e+01   2.4618982126e+01     0.589955    0.4817152 -46.95  0.003516522    1.231    0.188
       240 -10.3220    241.8442     33.8251   6.5045522148e+01   2.1354927826e+01    0.4560374    0.2679091 -48.64  0.002080303    1.538    0.350
       241 -10.8019    236.8900     31.2039   6.4984824921e+01   2.2836483502e+01    0.5420607    0.4007232  63.20  0.003151801    1.398    0.285
       242  -8.5540    112.5349    246.4913   1.3397581066e+02   9.0485678423e+00    0.1238619   0.09989711  60.46 0.0008094055    1.030    0.029
       243  -8.6057    192.3406    245.4300   1.1898854691e+02  -4.3479130957e+00    0.2613456   0.09487564  32.21  0.000956877    3.446    0.710
       244  -9.4263    224.4797    243.4466   1.1278948915e+02  -9.3780029887e+00    0.3626739    0.2334601  66.60  0.001625949    3.747    0.733
       245  -9.3322    203.0018    242.4019   1.1654199452e+02  -5.7145906155e+00    0.3047023    0.1654354  44.75  0.001426084    1.648    0.393
       246  -8.8598    215.7940    241.3251   1.1401704968e+02  -7.6894290608e+00    0.1903987    0.1395347  45.14 0.0008596585    1.374    0.272
       247  -8.5840    182.5498    239.7929   1.1995820169e+02  -1.8222170400e+00    0.1574028    0.1238238 -65.25 0.0009399941    1.714    0.417
       248  -8.7220    236.1591    238.1657   1.0981439796e+02  -1.0528601187e+01    0.1535626      0.14217  34.00 0.0009447134    1.362    0.266
       249  -9.3416    221.9361     31.2443   6.6648996344e+01   2.6343349321e+01    0.3155969    0.2005251 -47.86    0.0016566    1.501    0.334
       250  -8.7473    209.0293     31.5014   6.8277683252e+01   2.9430629701e+01    0.2037046    0.1236306  68.55 0.0005008492    1.516    0.341
       251  -9.5229    216.2283     30.9986   6.7265595942e+01   2.7746059527e+01    0.3373494    0.2499621  -3.57  0.001749706    2.057    0.514
       252  -9.6815    213.0250     31.2892   6.7726100921e+01   2.8484448350e+01    0.3846156    0.2137501 -60.19  0.001713768    1.938    0.484
       253  -8.7523    201.4361     27.7510   6.8315480330e+01   3.1764811969e+01     0.168746    0.1367473 -15.23 0.0005744657    1.570    0.363
       254  -9.9474    118.5047     24.8819   8.2072219184e+01   5.2027245628e+01    0.3967396    0.1802467 -47.08  0.001580622    3.207    0.688
       255  -9.0666    141.6963     25.0678   7.7141229556e+01   4.6732122142e+01    0.2220135   0.07731313 -46.87 0.0007032109    4.379    0.772
       256  -9.1403    230.8302    237.3200   1.1062385651e+02  -9.5785346755e+00    0.1922445    0.1599332 -34.01 0.0009088605    1.434    0.302
       257  -8.8506    199.4874     20.9461   6.6847054557e+01   3.3057930459e+01    0.1856398    0.1317779 -34.98  0.000546257    1.531    0.347
       258  -8.7388    165.2877     19.6530   7.1318266293e+01   4.1635774087e+01    0.1380096   0.09732574 -67.62 0.0007022982    1.656    0.396
       259  -8.6657    187.0087     16.7560   6.7372293435e+01   3.6599283084e+01    0.1874988    0.1535783  75.68 0.0004374084    1.068    0.064
       260  -9.2177     74.1941     17.3994   9.1416954012e+01   6.1489221469e+01    0.1611809    0.1111753  51.55  0.000948969    1.705    0.413
       261  -9.2554    199.6654     15.4231   6.5441998672e+01   3.3639825234e+01    0.2388637    0.1850858  86.62 0.0006044156    1.148    0.129
       262 -10.5768    206.4551    236.2526   1.1490831549e+02  -5.4154327160e+00    0.4274893    0.3410771  42.80  0.001971764    1.211    0.174
       263  -9.5299     67.4049     13.7970   9.2148046456e+01   6.3011038153e+01    0.1651808   0.09992659 -11.25 0.0009441155    1.653    0.395
       264  -8.5468     58.4912     12.4693   9.4636610727e+01   6.4544566840e+01    0.1184307   0.09353813   6.15 0.0003065661    1.003    0.003
       265  -8.5116    243.9775    236.9885   1.0822986208e+02  -1.1581510266e+01    0.1568289    0.1497305  65.73  0.001105638    1.625    0.385
       266  -8.6409    192.6930     11.3121   6.5245825780e+01   3.5785468080e+01    0.1369667   0.08955895 -70.25 0.0003887973    1.620    0.383
       267  -9.9397    219.6179    235.5306   1.1235638768e+02  -7.5181938203e+00     0.404286     0.207024  38.47  0.002093176    1.692    0.409
       268  -9.3658    239.4839    231.9368   1.0814888072e+02  -1.0230007552e+01    0.3780042    0.1532279  41.77  0.001771467    2.298    0.565
       269  -8.9193    157.6023    231.7768   1.2353104054e+02   3.9003300233e+00    0.1695939    0.1258408 -66.67 0.0009616575    1.659    0.397
       270  -8.9458    113.5249    231.4729   1.3202339273e+02   1.1622114532e+01    0.1298163    0.1061488  63.97 0.0002676125    1.010    0.010
       271  -8.4609     84.3319     11.3260   8.5909707876e+01   6.0342426746e+01    0.1322374   0.07884084  21.66 0.0007051123    1.710    0.415
       272  -9.5178    229.6547    228.6267   1.0933825639e+02  -8.2051202634e+00    0.3283679    0.2129871 -43.35  0.001677844    1.868    0.465
       273 -10.1483    228.8975    221.9192   1.0828826076e+02  -7.1278766404e+00    0.3803883    0.3167936 -69.41   0.00226639    1.945    0.486
       274  -8.6411    174.7651    229.9935   1.1992713168e+02   1.1191035315e+00    0.1567945    0.1119906 -45.48 0.0008800266    1.626    0.385
