#   1 NUMBER                 Running object number                                     
#   2 MAG_AUTO               Kron-like elliptical aperture magnitude                    [mag]
#   3 X_IMAGE                Object position along x                                    [pixel]
#   4 Y_IMAGE                Object position along y                                    [pixel]
#   5 X_WORLD                Barycenter position along world x axis                     [deg]
#   6 Y_WORLD                Barycenter position along world y axis                     [deg]
#   7 A_WORLD                Profile RMS along major axis (world units)                 [deg]
#   8 B_WORLD                Profile RMS along minor axis (world units)                 [deg]
#   9 THETA_WORLD            Position angle (CCW/world-x)                               [deg]
#  10 FWHM_WORLD             FWHM assuming a gaussian core                              [deg]
#  11 ELONGATION             A_IMAGE/B_IMAGE                                           
#  12 ELLIPTICITY            1 - B_IMAGE/A_IMAGE                                       
         1 -11.9799     60.2358     46.4429   7.6562393971e+01   6.0611220029e+01    0.9833745    0.5360942 -43.20  0.004791811    1.883    0.469
         2 -13.1280     42.5621     45.6349   8.3595694390e+01   6.3263590034e+01    0.8316734    0.5943614  47.51 0.0007189314    1.971    0.493
         3 -12.3582    125.0475     28.0070   5.0167990817e+01   4.9962836982e+01    0.9589814     0.510358  58.53  0.003269044    1.693    0.409
         4 -11.2092    154.3530     23.9620   4.3561325681e+01   4.3382649180e+01      1.36285    0.6444689  46.58  0.005995754    2.207    0.547
         5 -10.8440    139.1605     31.0120   4.8342437134e+01   4.6253275684e+01    0.9033954    0.4726671  -8.94  0.003588701    3.123    0.680
         6 -11.8182    136.6460     22.7431   4.6159314650e+01   4.7785789588e+01     1.408563    0.3899178  54.63  0.005122948    2.883    0.653
         7 -12.2159    130.8046     14.7952   4.4621504383e+01   4.9981032851e+01     1.874303    0.5459105  67.86  0.006307202    3.630    0.725
         8 -12.7037    116.2162     41.7844   5.6946116066e+01   5.0284302849e+01    0.9766427    0.6821926 -65.83  0.004653411    2.073    0.518
         9 -11.5524    164.9247     18.0382   4.0324677565e+01   4.1461349765e+01    0.6655841    0.3774958  24.61  0.002877116    3.026    0.669
        10 -12.2500    159.8880     29.9169   4.4442974196e+01   4.1365730338e+01    0.4768589     0.436579 -26.24 0.0007909231    1.225    0.184
        11 -11.3010    145.8187     47.5731   5.2242871724e+01   4.2502719208e+01    0.9236906    0.4387004 -20.40  0.003444664    3.026    0.669
        12 -10.7720      7.5413     32.0432   9.5389880840e+01   6.9150026315e+01     1.837808    0.4553073 -46.13  0.007930415    2.805    0.644
        13 -10.5285     46.9305     19.2320   7.0485577098e+01   6.6729745221e+01    0.3244228    0.2465226 -10.58  0.001429619    1.168    0.144
        14 -11.7794     27.1289     28.1357   8.3742806774e+01   6.8056933482e+01    0.5386295    0.4078082   1.17  0.002325931    1.158    0.136
        15 -12.0927     36.0975     17.6122   7.4597266923e+01   6.8509367374e+01    0.6652384    0.4771209 -36.12  0.004243448    1.559    0.359
        16 -11.9807     20.0626     21.9428   8.4645305667e+01   6.9786607899e+01    0.6554068    0.2553534 -39.43  0.002642897    2.214    0.548
        17 -12.6927     16.9862     12.6047   8.1928456924e+01   7.1497993246e+01    0.7711312    0.4703807 -15.18  0.003258234    1.443    0.307
        18 -11.3641    105.9550     20.3126   5.1706968092e+01   5.5197485486e+01    0.4724855    0.4082106 -43.72  0.002006801    1.353    0.261
        19 -10.8426    178.8653     21.2306   3.9398984756e+01   3.7785084961e+01    0.5402158    0.2656605  48.39  0.001706814    2.263    0.558
        20  -9.2323     94.2402     12.8640   5.1727743560e+01   5.8517832107e+01    0.2252524    0.1541969 -20.70  0.001282446    1.592    0.372
        21 -11.1982     87.1523      7.5928   5.1425183419e+01   6.0509626748e+01    0.5419533    0.3320099  61.74  0.002040262    1.634    0.388
        22 -11.1318     90.7699     20.8761   5.5854681586e+01   5.8448238700e+01    0.5794576    0.3674916 -29.41   0.00237294    1.698    0.411
        23 -11.2512     86.0124     14.1290   5.4442294913e+01   6.0143890763e+01    0.8176538    0.4252637  20.28  0.003668156    2.543    0.607
        24 -12.1242     48.4325     12.9128   6.6842016906e+01   6.7267223085e+01    0.5804049    0.2832096  42.16  0.001910642    1.939    0.484
        25 -11.9448     68.2451     18.1909   6.1750528173e+01   6.3228084849e+01    0.4968354    0.3809917  10.65  0.001953377    1.196    0.164
        26 -10.4379    125.4183     20.8616   4.7663970287e+01   5.0653652646e+01    0.4563843    0.2352499  79.05  0.001874586    2.690    0.628
        27 -11.9776    238.0958     15.8620   3.2464903657e+01   2.5177281660e+01    0.6319929    0.3884341  79.65  0.003879511    1.541    0.351
        28 -11.3625    227.3267     15.4542   3.3209678598e+01   2.7465223014e+01    0.5066578    0.3260848 -82.28  0.001575825    1.416    0.294
        29 -12.1345    246.6160      7.6208   3.0239127829e+01   2.4376616011e+01    0.9613588    0.5106521 -22.22  0.005096936    2.758    0.637
        30 -10.9938    242.3585      3.5302   2.9714386352e+01   2.5660042841e+01     0.369216    0.2144367  62.45  0.002265164    1.914    0.477
        31 -11.0844    218.8583      3.0994   3.1228872205e+01   3.0586047921e+01    0.3225719    0.2418952 -36.57  0.000997172    1.447    0.309
        32 -10.7612    223.7044      1.9291   3.0631904935e+01   2.9669263280e+01    0.3722137    0.1793146  74.91  0.001072396    1.879    0.468
        33 -11.8413    234.1144      6.1486   3.0776406295e+01   2.7058156827e+01    0.7930155    0.3927001 -89.40  0.004322078    1.956    0.489
        34 -10.3612    211.3396     17.9138   3.5122253541e+01   3.0660924827e+01    0.3275852    0.1933684 -33.90  0.001328172    1.745    0.427
        35 -11.4592    192.5427      9.0881   3.4826249397e+01   3.5852555336e+01    0.8375738    0.4830007  -9.81  0.004110015    2.775    0.640
        36 -12.1742    104.8241     12.7872   4.9149462138e+01   5.6190819640e+01    0.4831849    0.3665769 -18.81  0.001892665    1.458    0.314
        37  -9.5586     99.1360     11.2218   4.9876080718e+01   5.7599816421e+01    0.3063039    0.1701568   6.88   0.00143263    2.460    0.594
        38  -9.4543      1.0000      8.2553   8.9147541205e+01   7.3571411457e+01    0.2592751   0.05205536 -47.42 0.0009919455    4.410    0.773
        39 -11.3853      2.5482      2.0681   8.5050170023e+01   7.4342548412e+01     0.331075    0.1842924   2.80  0.001675659    1.683    0.406
        40  -9.8404      4.7554     12.6239   8.8944622371e+01   7.2615458387e+01    0.3178141    0.1604764  28.53  0.001890194    2.202    0.546
        41  -9.2355      5.3458      9.2997   8.7009114918e+01   7.3070211673e+01    0.1992722   0.08348417 -38.17 0.0005589974    1.957    0.489
        42 -11.2784    211.9002      9.4450   3.3163392632e+01   3.1451080626e+01     0.506106      0.33406   1.52  0.002426069    2.790    0.642
        43 -10.3816     65.8671     10.5187   5.9112584633e+01   6.4489176313e+01    0.3066339    0.1937501  44.67 0.0009976054    1.414    0.293
        44  -9.8197     62.4525      7.0359   5.8672262356e+01   6.5463162661e+01    0.3099476    0.1732144  15.12  0.001601406    2.025    0.506
        45  -9.5881    168.6585      9.7865   3.7578200130e+01   4.1387967359e+01    0.3252766    0.1188644  55.92  0.001383702    2.448    0.592
        46  -9.0625    163.0018     10.0099   3.8333117068e+01   4.2716990859e+01    0.1986657    0.1362052  43.47 0.0006193366    1.610    0.379
        47  -9.4377     78.4703      7.5264   5.3799572042e+01   6.2313115941e+01    0.2277939    0.1474704  51.00 0.0005999099    1.377    0.274
        48 -11.3664     75.4150      3.3676   5.2864652380e+01   6.3287783716e+01    0.6903297    0.3026494  46.59  0.003336489    1.844    0.458
        49 -10.7083    184.0205      4.6638   3.4573145594e+01   3.8252997628e+01    0.4192167    0.3636081 -18.69  0.002736838    1.439    0.305
        50 -11.0468    177.1725      5.9136   3.5593110695e+01   3.9737465018e+01    0.4047325    0.1884561  81.47 0.0008034795    2.108    0.526
        51  -8.9117    153.7081      7.0344   3.8687225484e+01   4.5213378875e+01    0.1731739    0.1542089  72.30 0.0005383156    1.046    0.044
        52 -10.5481     41.5599      4.3792   6.5495414710e+01   6.9292998805e+01    0.4033865    0.2144953   7.45  0.001674739    2.284    0.562
        53  -8.6640    108.5836      5.7915   4.5731594797e+01   5.5948247180e+01    0.2094489    0.1912157 -57.47   0.00101247    1.303    0.232
        54 -10.0717    115.8965      2.6755   4.3190622075e+01   5.4518709212e+01    0.3805274    0.3046094  50.07   0.00240561    1.083    0.076
        55 -10.1772    109.7275      1.9886   4.4110206014e+01   5.5986580762e+01    0.3464073    0.1852575  55.43  0.001226571    1.525    0.344
        56 -10.7336    105.4006      1.7500   4.4883132279e+01   5.6985504519e+01    0.4268835    0.2020631  67.75  0.001613807    2.034    0.508
        57  -9.6891    122.1880      5.0349   4.2877204204e+01   5.2870632548e+01    0.2125908    0.1595106  65.29 0.0002966439    1.170    0.146
        58 -11.9433    134.2164      2.5964   4.0103498689e+01   5.0233575861e+01    0.4050227    0.2445019  70.36 0.0006026533    1.456    0.313
        59  -9.8231    142.8083      3.3225   3.9072648770e+01   4.8133749934e+01    0.3800786    0.1874481  74.56  0.001735418    1.889    0.471
        60  -8.5701     53.1690      3.3913   6.0277549190e+01   6.7471779963e+01    0.2863026     0.153337 -35.08  0.001115215    2.233    0.552
        61 -12.0893     22.9669     11.4220   7.8112700705e+01   7.1001493874e+01    0.4997867    0.3153696  -1.78  0.002290888    1.462    0.316
        62 -10.6701    207.7287      2.5765   3.1970111149e+01   3.3066284762e+01    0.2572201    0.1883367 -87.29 0.0005433669    1.156    0.135
        63 -10.1616    203.5220      1.5407   3.2076200926e+01   3.4101213647e+01    0.2860945    0.1668588  69.61  0.001074709    1.556    0.357
        64 -10.0022    158.1645      3.7778   3.7187401192e+01   4.4433495161e+01    0.4381885    0.2467606  -4.47   0.00212886    2.675    0.626
        65 -10.1525     12.9550      1.7800   7.8588775858e+01   7.3380781606e+01    0.2694071    0.1333845  22.03  0.001243482    1.887    0.470
        66  -9.2099    151.5738      1.3983   3.7328730536e+01   4.6202955499e+01    0.2670493     0.105458  69.73 0.0007551222    2.150    0.535
        67  -9.2800    122.7765      1.3459   4.1522299032e+01   5.3022275176e+01    0.2397612    0.1075816  69.65 0.0007246325    2.039    0.509
        68 -10.2265     82.2448      1.3060   5.0075296261e+01   6.2054853062e+01    0.1978424    0.0951913  55.15 0.0003568209    1.758    0.431
        69 -10.8233    134.9864     45.7059   5.3906469817e+01   4.5361076760e+01    0.4267822    0.2142533  56.40 0.0003331162    1.862    0.463
        70 -10.0572    143.0749    249.8435   9.8435367462e+01   2.7155216897e+00    0.1962641    0.1519886  47.83  0.001225446    1.270    0.213
        71 -10.8920    249.2666    141.6321   5.7952507036e+01   4.2326011741e+00    0.4991671    0.2236906 -32.53  0.002206729    2.046    0.511
        72 -10.1710    239.6922    146.6173   6.0499540455e+01   4.9931365401e+00    0.2365402    0.1869096 -27.19 0.0005971143    1.100    0.091
        73 -10.7790     33.5508    144.4103   1.1032426346e+02   4.1525396826e+01    0.4209646     0.272319  51.97  0.001741347    1.682    0.405
        74 -10.2589     33.0619    154.4949   1.1178011692e+02   3.9044592688e+01    0.3203489    0.2300965  26.81   0.00138796    1.619    0.382
        75  -9.6946    132.8064    140.3192   8.1404646698e+01   2.7256719758e+01    0.3241756    0.2783349 -88.45 0.0009619761    1.384    0.278
        76 -12.0874     30.0190    132.9246   1.0972588865e+02   4.4748665933e+01    0.7287695    0.4053733 -70.50 0.0003361151    1.569    0.363
        77 -10.4412     25.4853    135.4849   1.1143231935e+02   4.4510882106e+01    0.3952468    0.2263351 -74.38  0.001075084    1.542    0.352
        78 -10.6590     21.4772    135.0135   1.1254233205e+02   4.4967107790e+01    0.5682521    0.2706907 -75.66  0.002614073    1.902    0.474
        79 -10.1919     70.0790    139.1709   9.8791827715e+01   3.8494914548e+01    0.2262488    0.1872041 -37.22 0.0004933752    1.282    0.220
        80 -11.1155     63.1585    150.5072   1.0282030855e+02   3.6573196661e+01    0.5236754    0.3414305  12.29  0.002121722    2.104    0.525
        81 -10.0387     80.0317    137.2417   9.5466294692e+01   3.7510807258e+01    0.4466686    0.3056832 -26.42  0.001995769    1.896    0.472
        82  -8.8640     66.2594    138.3549   9.9771070912e+01   3.9233110223e+01    0.1502781    0.1027599 -37.90  0.000462322    1.616    0.381
        83 -10.1770     46.8134    135.3630   1.0506465953e+02   4.2418873337e+01    0.4697572    0.2997706 -84.77  0.001873863    1.745    0.427
        84  -9.9485     40.0464    138.1496   1.0752998871e+02   4.2448151981e+01    0.2814929    0.2010559  29.15  0.001007344    1.585    0.369
        85  -9.9136    245.0055    134.6846   5.7139321189e+01   6.1198728952e+00    0.1805525    0.1619315 -29.63  0.000406546    1.071    0.067
        86 -10.6892     93.1713    131.3971   9.0332281177e+01   3.6832789685e+01    0.7324176    0.2846751 -58.34  0.002438047    2.766    0.638
        87 -10.3604     74.1426    132.3812   9.6231328976e+01   3.9618814626e+01    0.3364939    0.2179746 -33.52  0.001497182    1.829    0.453
        88  -9.8646     61.2617    132.2778   1.0012795106e+02   4.1440093013e+01    0.4399793    0.3247471 -17.90  0.002171704    1.741    0.426
        89  -8.9705     38.4279    133.2941   1.0725454614e+02   4.3841737143e+01    0.2330231    0.1530017  55.60  0.001135874    1.748    0.428
        90 -10.2238    103.8924    130.9171   8.7104191249e+01   3.5057563113e+01    0.2490867     0.230508  -9.26 0.0002728306    1.159    0.137
        91 -10.6838     10.4254    127.1257   1.1479049015e+02   4.7750750933e+01    0.6750904    0.1975862 -56.10  0.002743638    2.584    0.613
        92  -9.9327     81.3579    125.1527   9.2477117851e+01   4.0318792587e+01    0.4377268    0.3107967  31.93  0.002098296    1.512    0.338
        93  -9.4313    241.5876    128.0079   5.6231704213e+01   7.8530278469e+00    0.2509872    0.1471471  28.96  0.001151686    2.464    0.594
        94  -8.9703    223.8349    126.7676   5.8777771563e+01   1.1347733589e+01    0.1949517     0.151771 -54.86 0.0004770082    1.348    0.258
        95  -9.7132    175.6661    127.6760   6.8141116469e+01   2.1035447184e+01    0.1586957    0.1211492   0.58 0.0002337313    1.710    0.415
        96 -10.2246     22.8368    127.0442   1.1104108693e+02   4.6843893456e+01    0.1940858    0.1756666 -63.66 0.0003271569    1.093    0.085
        97 -10.4725    217.2148    138.3368   6.2508491789e+01   1.0507035634e+01    0.3833899    0.3160145 -68.72  0.001190922    1.521    0.342
        98  -9.4600     58.4801    118.1148   9.8158396798e+01   4.5354726053e+01    0.2656541    0.1636659 -53.39  0.001254043    1.443    0.307
        99  -9.5153     53.4916    124.9948   1.0114254292e+02   4.4257131673e+01    0.3435459     0.182558 -58.95  0.001497907    1.655    0.396
       100  -9.6044     56.4617    122.4876   9.9707847419e+01   4.4519965556e+01    0.2549413    0.2062733 -39.58   0.00076166    1.232    0.188
       101 -10.9399     44.9080    119.3342   1.0280070429e+02   4.6667458678e+01     0.584271    0.3335555 -87.63  0.002152573    2.513    0.602
       102  -9.6681      2.1585    125.9591   1.1709185415e+02   4.8557524638e+01    0.2301232    0.1681781  88.89 0.0007215035    1.267    0.210
       103 -12.3669    103.9166    122.4761   8.5076059399e+01   3.7085405462e+01    0.4397893    0.4010867  -1.11 0.0006392281    1.183    0.155
       104  -9.7518     49.3733    123.2574   1.0211424363e+02   4.5181623420e+01    0.3055711    0.2379925 -20.41  0.001103772    1.512    0.339
       105  -9.3814     19.0316    122.6328   1.1157649148e+02   4.8242063580e+01    0.2066266     0.155216 -82.31 0.0004312183    1.237    0.192
       106  -9.1895     71.3425    120.8957   9.4644187242e+01   4.2897142280e+01    0.2139852    0.1755752 -51.99 0.0005654527    1.123    0.109
       107  -9.0302    221.4793    120.5315   5.7758433524e+01   1.2922752127e+01    0.1427044    0.1260211 -43.41 5.687017e-05    1.049    0.047
       108  -9.1855    148.1876    120.2246   7.2579017141e+01   2.8565545962e+01    0.2647453    0.1744875  -1.10 0.0009455158    2.767    0.639
       109 -10.6701     33.8740    118.8760   1.0628239497e+02   4.7909120248e+01    0.2222157    0.1593033 -45.15 0.0007960101    1.322    0.244
       110  -9.3437    210.4057    118.2017   5.9101080190e+01   1.5564368315e+01    0.2207184    0.1225304 -48.31 0.0007404265    1.767    0.434
       111  -8.6910     13.6859    118.7631   1.1269230635e+02   4.9587288309e+01    0.1244362   0.08356915 -41.55 0.0002776824    1.502    0.334
       112 -11.1046     51.1145     96.8098   9.5822232875e+01   5.1452241038e+01     1.484497    0.4699979 -57.35  0.005202218    2.869    0.651
       113 -11.6064      9.6487     97.3060   1.1074802937e+02   5.5053142076e+01    0.9334559    0.6905693  80.29  0.001124736    1.576    0.365
       114 -11.8315      7.0807     88.8057   1.1020616777e+02   5.7208240833e+01    0.5945902    0.4296852  12.66  0.001995797    1.658    0.397
       115 -11.2447     27.0001     86.5468   1.0228412913e+02   5.6340465880e+01    0.6821296    0.5208718  24.44  0.001458208    1.505    0.336
       116 -12.0913     34.4069     94.1888   1.0124019293e+02   5.3880578825e+01       1.3645     0.859282 -36.93  0.007093141    1.532    0.347
       117 -12.2208     42.5807     85.3725   9.6084615849e+01   5.5096333086e+01    0.9250273    0.4565194  18.06  0.002654715    2.471    0.595
       118 -11.6139     18.7397    106.0451   1.0908260271e+02   5.2342183482e+01    0.3294126    0.2405494 -35.82 0.0002058118    1.385    0.278
       119 -11.6398     22.3711     94.9116   1.0577117296e+02   5.4749071751e+01    0.5333804    0.3539014   0.19  0.001716817    1.828    0.453
       120 -11.9221     18.2262     90.1833   1.0635037106e+02   5.6176042234e+01    0.4393047    0.2449843 -60.89 0.0002649025    1.471    0.320
       121 -11.6866     25.4662    113.6026   1.0811536266e+02   4.9964589077e+01     1.097151    0.4534255   7.46  0.004112419    4.017    0.751
       122 -12.1300     24.9627    108.4269   1.0739032064e+02   5.1278274340e+01     1.148268    0.6225401 -12.89  0.005147993    2.735    0.634
       123  -9.6747    113.4970    115.9051   8.0645734202e+01   3.6794088078e+01    0.2507563    0.2193759  -8.35 0.0006045036    1.263    0.208
       124  -9.3613     79.1216    114.2689   9.0638600324e+01   4.3339938212e+01    0.2796842    0.1894598 -43.58  0.001307064    1.411    0.291
       125  -9.1779     67.0083    114.2089   9.4526726103e+01   4.5168680505e+01    0.4288249    0.3110963 -63.24  0.002135706    1.358    0.264
       126  -9.3477     65.6969    110.6835   9.4139937854e+01   4.6214704184e+01    0.4061093    0.1907952  23.60  0.001556393    2.690    0.628
       127 -10.3140      6.9912    114.4722   1.1420865316e+02   5.1071524366e+01    0.2495975    0.2221812 -38.69  0.000817209    1.232    0.188
       128 -12.6759      2.2159    111.3177   1.1530438189e+02   5.2109919859e+01    0.3741994    0.2253147 -71.99  0.000560548    1.341    0.254
       129 -11.2711      4.0475    104.8724   1.1382996977e+02   5.3563263186e+01     0.423799    0.3331595  31.48  0.002003566    1.549    0.354
       130 -10.2390    107.3049    112.0021   8.1414361947e+01   3.8906613982e+01     0.384382    0.3134785  54.92  0.001249436    1.353    0.261
       131 -10.9429    102.9694    109.0580   8.1917945815e+01   4.0416303869e+01    0.6745721    0.5687468 -25.40  0.003394336    1.239    0.193
       132  -9.4412     94.0403    112.5323   8.5535873140e+01   4.1247037052e+01    0.2971414    0.2167764 -68.82  0.001354968    1.623    0.384
       133  -9.8396     48.8178    112.4777   1.0015095948e+02   4.7930859020e+01    0.2648674    0.2202275 -81.70   0.00106475    1.287    0.223
       134 -10.7050    170.3563    110.4692   6.4960511480e+01   2.5696960031e+01     0.453779    0.3694436 -25.38   0.00126602    1.299    0.230
       135 -10.5335    175.1882    107.8914   6.3274818712e+01   2.5125086659e+01    0.3207034    0.2407524 -19.48  0.001047975    1.566    0.361
       136 -10.4947    129.0190    109.9946   7.4785115921e+01   3.4935725265e+01    0.3354248    0.2264536  55.52  0.001446395    1.669    0.401
       137 -10.1069    120.6018    109.2290   7.6872181579e+01   3.6872897431e+01    0.3433174    0.2879465 -17.65  0.001386999    1.317    0.241
       138 -11.5329     79.7616    108.2736   8.8949083870e+01   4.4679054753e+01    0.6400247    0.3640642  30.23 0.0009149264    1.935    0.483
       139  -9.0723     58.9960    109.7802   9.6159592348e+01   4.7341920277e+01     0.220891    0.1541939  60.07 0.0004803321    1.868    0.465
       140 -10.0953    157.3497    106.3797   6.6773827859e+01   2.9450956694e+01    0.3575411    0.2650367  26.00  0.001144438    1.626    0.385
       141 -10.8912    143.6540    106.1145   6.9965826890e+01   3.2579190640e+01    0.3664108    0.3284701  87.42  0.001328804    1.267    0.211
       142 -11.5150    145.4153    100.0206   6.7860978399e+01   3.3445755723e+01    0.4341883    0.3989049 -36.85 0.0003299827    1.073    0.068
       143  -9.2037    189.2474    105.4772   5.9866793389e+01   2.2453155331e+01    0.3265957    0.1233663 -29.01 0.0008932647    4.393    0.772
       144 -10.1062     45.7524    105.7135   9.9751577915e+01   4.9936963985e+01    0.2745105    0.1873414 -44.96 0.0006515945    1.327    0.247
       145 -11.5556     88.3485    103.8707   8.5043683651e+01   4.4277514865e+01    0.5780914     0.397914  39.07  0.001278948    1.523    0.343
       146  -9.3412    180.9879    103.4713   6.0960180354e+01   2.4677667296e+01    0.3464234    0.1751246 -54.91  0.001267342    2.461    0.594
       147  -9.4692     57.1568    102.3078   9.5035785824e+01   4.9388064790e+01    0.2637991    0.1743391 -45.80 0.0009105338    1.366    0.268
       148 -10.0368     65.3812     98.8349   9.1331582783e+01   4.9094927330e+01    0.5144599    0.2002751 -41.89  0.001842707    2.640    0.621
       149 -10.9870     67.8370     95.1506   8.9513144395e+01   4.9596666351e+01    0.5077389    0.2964607  41.89  0.002296709    1.908    0.476
       150 -10.1174    209.6073     98.7970   5.4629262767e+01   1.9235536027e+01    0.4771542    0.2880152 -21.56   0.00204013    2.188    0.543
       151  -9.4838    120.9722    101.0196   7.4501539604e+01   3.8597545162e+01    0.2541193     0.194001  -2.61  0.001133923    1.705    0.413
       152 -11.0866     89.9731     89.5494   8.0483563618e+01   4.7204929760e+01    0.7464356    0.4052382 -29.87  0.002502009    2.299    0.565
       153  -9.8784     93.9771     91.1102   7.9661169454e+01   4.6130407355e+01    0.2161059    0.2024737 -18.00 0.0002744363    1.020    0.020
       154 -10.1254     80.5165     98.4973   8.6129415586e+01   4.6844798035e+01    0.2814173    0.2358394  -2.06 0.0008346583    1.310    0.236
       155  -9.6424     77.5292     96.5608   8.6593324914e+01   4.7776226729e+01    0.2511264    0.2106537  24.56 9.211682e-05    1.256    0.204
       156 -10.1191     82.8075     93.3787   8.3943461915e+01   4.7621663470e+01    0.3568487    0.2506378  18.92  0.001028151    1.653    0.395
       157 -10.9217     77.9609     92.9922   8.5454541786e+01   4.8516303504e+01    0.4839671    0.4072407 -12.69  0.001766115    1.246    0.198
       158  -9.3405    156.6564     98.7040   6.4859239827e+01   3.1150766335e+01     0.157402     0.122633  11.44 0.0007032554    1.666    0.400
       159  -9.2567     97.8078     97.5104   8.0310704185e+01   4.4008067111e+01    0.2750024    0.2008525 -87.56 0.0009265639    2.199    0.545
       160  -9.9631     57.6479     97.5670   9.3698848573e+01   5.0450586393e+01    0.2718193    0.2116452 -43.86 0.0009231097    1.154    0.134
       161  -9.5229    141.5753     96.0474   6.7689415210e+01   3.5119996314e+01    0.3575152    0.2398039  16.43  0.001416942    2.269    0.559
       162 -10.2635    117.3981     93.7801   7.3425772044e+01   4.0892691960e+01    0.4447294    0.3306099  -5.48  0.001982382    1.777    0.437
       163 -11.0332    124.9053     93.6925   7.1325131833e+01   3.9303306169e+01    0.5815488    0.3515425  42.80  0.001721868    1.678    0.404
       164 -11.2559    120.9842     88.3102   7.0811429867e+01   4.1253723974e+01    0.7502654     0.418726 -44.62  0.002968422    1.792    0.442
       165 -10.5768     42.8469     94.4954   9.8238218954e+01   5.2947564888e+01    0.3253622    0.3045159  -1.08 0.0009025322    1.162    0.140
       166  -9.7348    160.0298     93.5839   6.2703357432e+01   3.1371781474e+01    0.5827847    0.3277426  78.22   0.00177391    4.100    0.756
       167 -10.7675    152.3589     92.1590   6.4027824933e+01   3.3421829741e+01    0.3806378    0.2906448  52.85  0.001050261    1.335    0.251
       168  -9.4891    104.0356     93.2454   7.7173169020e+01   4.3738502205e+01    0.3307208    0.2047207 -59.72  0.001286691    2.022    0.506
       169 -10.4187     99.3014     90.9849   7.7955634877e+01   4.5148117488e+01    0.4688038    0.2255741  38.14  0.001815269    2.167    0.539
       170 -10.7562    105.0106     86.4808   7.4862151174e+01   4.4970724411e+01    0.6020235    0.3548809 -19.40    0.0022402    2.637    0.621
       171 -11.1814    113.8313     83.7266   7.1433136656e+01   4.3706461768e+01    0.6456781    0.4679445 -35.62  0.002323628    1.381    0.276
       172 -10.6442    183.5508     85.7894   5.5876723652e+01   2.7346812748e+01    0.7042661    0.2798052 -45.67  0.002539832    2.497    0.600
       173 -10.3143     66.5582     88.6922   8.8184101460e+01   5.1255945029e+01    0.3272484    0.2314257 -17.58 0.0007748569    1.646    0.392
       174 -10.4003     67.3224     82.1913   8.6029253929e+01   5.2578202401e+01    0.4023131    0.2900159 -36.82    0.0020702    1.293    0.226
       175 -10.8546     72.7172     78.1499   8.2872155700e+01   5.2599048841e+01    0.4642724    0.3660322 -60.51  0.001821195    1.482    0.325
       176 -10.5277     75.9889     76.2556   8.1123105915e+01   5.2456052031e+01    0.4967328    0.3419258 -72.36  0.002173119    2.402    0.584
       177 -10.6148     80.4922     84.0142   8.1971237810e+01   5.0066484969e+01    0.5168061    0.2921828 -39.53  0.002270287    1.713    0.416
       178 -10.3629     77.1326     81.2885   8.2293532108e+01   5.1213275096e+01    0.4142908    0.2788272 -60.86  0.001317509    1.823    0.451
       179 -10.2621    165.5927     83.8031   5.8823455814e+01   3.1895124620e+01    0.3749768    0.2914128 -47.24  0.001223646    1.271    0.213
       180 -10.0362     60.5244     83.3877   8.8846572650e+01   5.3304395562e+01    0.2924972    0.2229886 -51.38 0.0007247739    1.266    0.210
       181 -10.0477     47.2734     75.3687   9.1534145980e+01   5.6784415740e+01    0.4466304    0.1954886 -55.91  0.001474531    2.267    0.559
       182 -11.6525     52.9705     75.7361   8.9436879257e+01   5.5991262608e+01    0.6433724    0.4628711 -54.04  0.003447716    1.392    0.282
       183 -10.8970     58.1101     77.8707   8.8123741111e+01   5.4843548762e+01      0.35305    0.3098456 -46.82   0.00114067    1.150    0.130
       184 -11.8206    122.8722     69.0471   6.4346666946e+01   4.4490532648e+01    0.5905261    0.5081279  33.52  0.001600689    1.157    0.136
       185 -10.7492    126.8894     77.0082   6.5794133513e+01   4.2143055469e+01     0.379756    0.3054644 -24.05   0.00189644    1.318    0.241
       186 -11.1563     16.9602    101.0718   1.0883786425e+02   5.3673634069e+01     0.364132    0.2857585 -16.86 0.0003223236    1.441    0.306
       187  -9.4528     21.1071     80.8173   1.0325699155e+02   5.8133744156e+01    0.1797115    0.1691197 -81.25 0.0006357576    1.251    0.201
       188 -10.4296    109.1782     80.8255   7.1883996345e+01   4.5260529955e+01    0.3291673    0.2953266 -34.56 0.0008902883    1.102    0.092
       189 -10.8585    103.9640     75.9603   7.1897161262e+01   4.7289256747e+01    0.6161437    0.3632093 -40.19   0.00225979    1.682    0.406
       190 -10.0798    233.0405     77.7471   4.6331029663e+01   1.7833280011e+01    0.3204603    0.2302318 -34.80  0.001724036    1.339    0.253
       191 -10.3280     94.3428     76.5756   7.5077136348e+01   4.9082348410e+01    0.6979592    0.3720458  31.94  0.002610219    2.114    0.527
       192 -11.4613     85.7617     73.3484   7.6836556042e+01   5.1333087691e+01    0.7968464    0.4578848  37.35  0.003487163    1.771    0.435
       193 -11.5637     91.5658     63.2089   7.1525419308e+01   5.2151751889e+01    0.9721915     0.399747  47.68  0.002838349    2.577    0.612
       194 -11.5205     76.9863     65.4201   7.7205102680e+01   5.4434006311e+01    0.9131297    0.5639198 -67.16  0.003188177    3.282    0.695
       195 -10.7489     87.8278     56.7915   7.0489828392e+01   5.4005037212e+01     1.393183    0.7848604 -56.04  0.005589304    2.773    0.639
       196 -10.5888     91.9464     57.4982   6.9409784351e+01   5.3078373547e+01    0.3270047    0.3006395  63.74  0.001020275    1.306    0.234
       197 -12.2327     76.1352     57.3127   7.4667176042e+01   5.6075485696e+01     0.871008    0.5446616 -46.05  0.003295137    1.719    0.418
       198 -11.3082     72.7232     47.6352   7.2309039854e+01   5.8330546841e+01    0.5867211    0.5086534 -57.50  0.002316233    1.532    0.347
       199 -11.5686     13.9538     74.8403   1.0474446563e+02   5.9994321487e+01    0.5414877     0.329319 -62.40  0.002395865    1.441    0.306
       200  -9.7019     14.6937     67.3864   1.0266790509e+02   6.1591819697e+01    0.3759775    0.2295327   8.82  0.001767014    1.857    0.462
       201  -8.8018      9.6919     68.6638   1.0507917717e+02   6.1633186039e+01    0.2097652    0.1149278 -43.93 0.0006339171    1.461    0.316
       202 -11.0943    142.8655     84.3075   6.4001756028e+01   3.7121102446e+01    0.4198806     0.328396  44.22 0.0008460859    1.288    0.224
       203  -8.3800     38.2870     78.6260   9.5964797700e+01   5.7078899243e+01    0.1285391    0.1041047  85.16 0.0007018812    1.718    0.418
       204  -6.8757     15.5379     61.3648   1.0074253331e+02   6.2825674979e+01    0.5456296    0.3545944  72.75  0.001711198    3.055    0.673
       205 -11.6969      1.9709     71.6165   1.0890900894e+02   6.1397517884e+01    0.7631765    0.1491024 -63.61  0.002753473    3.516    0.716
       206 -12.4408      4.5312     61.8652   1.0568075545e+02   6.3400542717e+01    0.4601052    0.3619472 -29.74 0.0008071158    1.161    0.139
       207 -10.9038      9.8443     62.6163   1.0355361292e+02   6.2935849996e+01    0.3268279    0.2433775 -48.85 0.0009296857    1.086    0.079
       208  -8.9399      4.4734     77.4553   1.0907729027e+02   5.9961304435e+01    0.1270095    0.0970499 -49.82  0.000436835    1.040    0.039
       209 -12.2932    186.0886     69.8677   5.1245648865e+01   2.9447859133e+01     1.103312    0.5723945 -42.60  0.003794064    1.836    0.455
       210  -8.7326    137.6124     93.6812   6.8003866666e+01   3.6491298307e+01    0.1649722    0.1221231   9.99            0    1.844    0.458
       211  -9.8170     64.7332     75.3059   8.4875147402e+01   5.4436877671e+01    0.4064965    0.2509825   0.15  0.001055938    2.378    0.579
       212 -11.2661     40.9160     71.4558   9.2911486505e+01   5.8364245061e+01    0.5491148    0.2703837 -51.89  0.002301218    1.805    0.446
       213 -11.4811     33.4547     72.2387   9.6154715857e+01   5.8975790378e+01     0.787367    0.2956791  24.76  0.003301535    2.926    0.658
       214  -9.4608    205.9979     73.2095   4.8968367616e+01   2.4343603985e+01    0.1800995    0.1114677  61.95 0.0004537489    1.695    0.410
       215  -9.8573    153.3818     72.7866   5.8250852212e+01   3.6731233800e+01    0.5014984    0.1637754  44.00  0.001516178    3.609    0.723
       216  -9.6579    162.1372     70.6829   5.5837569154e+01   3.4999930558e+01    0.3081448    0.2165379 -64.57  0.001243801    1.701    0.412
       217  -8.7946     19.6234     71.7291   1.0169145212e+02   6.0286348430e+01    0.1358033   0.07852108 -30.34  0.000699661    1.687    0.407
       218  -9.8360    172.4632     68.4949   5.3254489755e+01   3.2894243561e+01    0.3401128    0.3286832  -4.20  0.001456776    1.144    0.126
       219 -10.1148    171.1063     64.3046   5.2340220067e+01   3.3891230488e+01    0.4458309    0.2994646 -83.52  0.001994855    1.987    0.497
       220  -9.9310    127.2490     83.3961   6.7648700992e+01   4.0849693991e+01    0.3301652    0.2630414 -64.66  0.001264543    1.493    0.330
       221  -9.9051     22.3843     66.6810   9.9229475905e+01   6.1170744657e+01    0.4700659    0.2436725 -76.44  0.001907113    3.416    0.707
       222  -8.9368     25.5654     65.4846   9.7550361148e+01   6.1159793406e+01    0.1306372    0.1052391 -36.66 0.0001661068    1.015    0.015
       223 -11.4347    219.9319     66.4633   4.5424758955e+01   2.2330465671e+01    0.5849738    0.3536898  57.32  0.002547663    1.773    0.436
       224 -10.4565     59.4993     63.9835   8.3182599204e+01   5.7511985140e+01    0.4265728    0.2669981 -26.43  0.001418362    1.661    0.398
       225  -9.6737     57.3330     61.3136   8.3119719079e+01   5.8347396429e+01    0.2643496    0.1869227   0.36 0.0008180172    1.567    0.362
       226  -9.8003    192.4275     65.7420   4.9149085410e+01   2.8623130076e+01    0.2713792    0.2024053 -73.12 0.0007298207    1.457    0.314
       227  -9.5508     53.2113     66.0048   8.6310430673e+01   5.7991500196e+01    0.2731022    0.1771436  39.42  0.001012722    1.757    0.431
       228 -10.3489    200.1232     63.9267   4.7528045639e+01   2.7128705948e+01    0.4960879    0.3070342 -85.35  0.002226715    2.152    0.535
       229 -11.2100    105.8958     58.1786   6.5415781155e+01   5.0086275770e+01    0.5047339    0.3499265  48.32  0.001698989    1.423    0.297
       230 -12.0480     26.5036     56.5129   9.4482205204e+01   6.2939485016e+01     1.105059    0.7124681   1.60  0.005331079    1.680    0.405
       231  -9.9981     67.4490     31.9546   6.7969331795e+01   6.1637069941e+01    0.4721881    0.4176625 -52.58  0.002931645    1.556    0.357
       232 -11.3652     21.0822     46.8580   9.3831087606e+01   6.5329018409e+01    0.4166477    0.2673925 -47.49   0.00217784    1.373    0.272
       233 -10.3152     22.5260     36.9145   8.9572726071e+01   6.7041433658e+01    0.4934039    0.2963985  45.43  0.002579306    2.714    0.632
       234 -11.6113     26.7437     46.9618   9.1218956547e+01   6.4789615536e+01    0.7227575    0.3512235 -33.73  0.003605882    1.881    0.468
       235  -9.4639    174.6668    246.7259   9.1641738371e+01  -1.4952805116e+00    0.2474069    0.1342622  25.81  0.001277025    1.718    0.418
       236 -11.4394     61.2228     36.6601   7.2279157991e+01   6.2018569835e+01    0.5442922    0.3329369 -42.44  0.001807604    1.823    0.451
       237 -11.2402    127.1247    241.6833   1.0065163837e+02   6.5319148063e+00    0.3407166    0.2995965  81.26  0.001559453    1.326    0.246
       238 -12.2802     58.1343     29.9196   7.0658376869e+01   6.3510960733e+01     0.371625    0.2567082   9.26  0.001294732    1.451    0.311
       239 -11.9407     49.2740     30.3761   7.4494705972e+01   6.4832423593e+01    0.7740454    0.3247184  40.18  0.003556214    2.434    0.589
       240 -11.1226     41.0374     57.2438   8.8397259510e+01   6.1272787216e+01      0.41768    0.2545551  32.04  0.002223922    1.782    0.439
       241 -11.8193     44.9973     59.9352   8.7636551179e+01   6.0265554546e+01    0.7667471    0.4007468 -25.51  0.003410632    2.272    0.560
       242 -11.2281     50.9852     61.1411   8.5589250817e+01   5.9260259334e+01    0.3874142     0.287678  39.52  0.002168422    1.573    0.364
       243 -10.6090    240.0874     50.5023   3.9544904052e+01   2.0413187226e+01     0.338243    0.2495192 -67.54  0.001338377    1.226    0.185
       244 -10.5121    245.1535     51.0715   3.9164172192e+01   1.9315623400e+01    0.2326339    0.1692389  77.24 0.0009613375    1.440    0.306
       245 -11.3970    234.7456     60.9890   4.2394701755e+01   2.0018905240e+01    0.3893519    0.3798367 -62.85   0.00144525    1.222    0.182
       246  -9.8121    238.1806     55.8561   4.0895957156e+01   2.0052568724e+01    0.2091823    0.1433726 -50.61 0.0002743443    1.240    0.194
       247  -9.8327    156.9314     63.0932   5.4684477800e+01   3.7489410136e+01    0.3648812    0.2118177  42.15 0.0008479254    1.893    0.472
       248  -9.7398    160.6568     61.7102   5.3552558771e+01   3.6811719455e+01    0.2249736    0.2041212  41.24 0.0008673053    1.157    0.136
       249  -8.9410    163.3256    243.6444   9.3465326346e+01   6.8569309464e-01    0.1233453   0.09510589  61.65 0.0001322082    1.771    0.435
       250  -9.9605     68.2920    240.4418   1.1266909944e+02   1.5192474245e+01       0.2206    0.1111313  31.71 0.0008516079    2.024    0.506
       251 -12.0848    120.7679     57.4972   6.1135209645e+01   4.6911740260e+01     1.756487     1.162386 -86.65  0.006971304    2.863    0.651
       252 -11.1804    148.7354    237.7280   9.5607432265e+01   3.9124287878e+00    0.5042641    0.2528419  35.77  0.002392257    1.725    0.420
       253 -10.8354    198.7969    232.7465   8.4683503990e+01  -2.8962525453e+00    0.3972532    0.3058718  14.83  0.002492392    1.108    0.097
       254  -9.3359     15.2756    233.7831   1.2253636356e+02   2.2679918436e+01    0.1933445    0.1174416 -87.93  0.001211645    1.434    0.303
       255  -9.7119     23.8183    232.0700   1.2081571023e+02   2.2150850305e+01    0.1870834    0.1200821  65.39 0.0007364996    1.269    0.212
       256 -12.6370    119.5397     37.7960   5.4757104799e+01   5.0053631222e+01    0.8034681    0.5921279 -85.68  0.002801486    1.889    0.471
       257  -9.7337     64.9068     61.0028   8.0093083031e+01   5.7268321641e+01     0.353235     0.159195 -41.57  0.001089054    2.095    0.523
       258  -9.8691    149.1040     60.8451   5.5616729247e+01   3.9726835978e+01    0.5142294    0.1795171  58.81  0.001719815    2.989    0.665
       259 -11.0569    156.3420     52.9584   5.1820264916e+01   3.9184303547e+01     1.117377    0.8020189 -24.72  0.005612827    1.562    0.360
       260 -11.3861    155.8600     42.1739   4.8714910527e+01   4.0809994527e+01    0.8045146    0.3947449  69.52   0.00332606    2.214    0.548
       261 -10.4152    247.6564    232.2355   7.5611922967e+01  -9.4546733207e+00    0.2357112    0.2258408 -30.68  0.001736978    1.752    0.429
       262 -12.4308    153.0059     35.8412   4.7326623496e+01   4.2318835063e+01    0.3635674    0.3183323  42.94 0.0003897314    1.185    0.156
       263 -10.5170    243.0333    231.9958   7.6371364258e+01  -8.8459273374e+00    0.2589313    0.1866434  38.30  0.001663999    1.767    0.434
       264 -11.1766    164.0645     27.6543   4.3158225293e+01   4.0617286974e+01    0.2745872     0.256115 -65.98 0.0005254225    1.100    0.091
       265 -10.3744    135.4957     50.9960   5.5493168231e+01   4.4481759047e+01    0.3222251    0.2762096 -49.78  0.001771937    1.247    0.198
       266 -10.4384    136.2987     57.1424   5.7266702517e+01   4.3360620483e+01    0.6786601    0.4254626   0.02  0.002680642    2.744    0.636
       267  -9.8598    234.0362    223.0097   7.6401485513e+01  -6.4256738825e+00     0.153406    0.1207262  -0.69  0.001001217    1.017    0.016
       268  -8.8027    219.6357     56.8301   4.3216760755e+01   2.3824566861e+01    0.1869666    0.1057093 -46.75   0.00047972    1.580    0.367
       269 -10.2498     66.5624     54.1978   7.7038051639e+01   5.8254291289e+01    0.3986421    0.2628326 -54.76  0.001956133    1.990    0.498
       270  -9.3914    188.1209     55.1839   4.7067933081e+01   3.1229641797e+01     0.207501    0.1881163  48.51 0.0008976544    1.223    0.182
       271  -8.8646      6.9704     54.9276   1.0284055528e+02   6.4729332692e+01    0.1459777    0.1095159 -43.31 0.0003349897    1.042    0.040
       272  -9.4374    211.8091     53.0228   4.3281841383e+01   2.6096493126e+01    0.2543892    0.1669029 -88.94  0.001300877    1.697    0.411
       273  -9.5670    201.6978     52.6628   4.4499448129e+01   2.8435842110e+01     0.259246    0.1933309  53.07  0.001378092    1.458    0.314
       274 -10.5400    201.8194     48.8164   4.3531422866e+01   2.8950389161e+01    0.6655276    0.3278746 -63.73  0.002690167    2.692    0.629
       275 -10.8800    199.2393     44.5771   4.2813532171e+01   3.0126158014e+01    0.6701877    0.2870815  76.17  0.002601939    2.911    0.656
       276  -9.6390    176.4255     43.4935   4.5714153845e+01   3.5657189507e+01     0.278922    0.2341899  85.29  0.001142429    1.141    0.124
       277 -10.8509    173.9672     48.2410   4.7399142909e+01   3.5598014097e+01    0.5193532    0.3554699  86.60  0.002567195    1.642    0.391
       278 -10.7846     12.5876     48.1743   9.8277942226e+01   6.5738791853e+01    0.3615152    0.1646248 -32.91  0.001812839    1.999    0.500
       279  -9.3808    209.4488    223.5304   8.1057959813e+01  -3.0389622833e+00    0.1305842    0.1043071   2.01 7.714239e-05    1.065    0.061
       280  -9.6085      9.7760    218.0034   1.2268892744e+02   2.6472491262e+01    0.1529244   0.07940432 -81.91 0.0007928225    1.665    0.399
       281 -10.2821    164.6902    212.2439   8.8218164745e+01   5.9404910043e+00    0.2618668     0.201597  36.33 0.0007236085    1.220    0.180
       282 -10.8711     13.9370     23.4913   8.8588931891e+01   7.0120746897e+01    0.2571204    0.1596278 -26.15  0.000327853    1.315    0.239
       283  -9.3160    204.4759    208.4806   7.9338710759e+01   1.3580458135e-01    0.1330817    0.1149261   0.93   0.00080973    1.027    0.026
       284  -9.6995    153.0950    207.6728   8.9967281013e+01   8.7608492462e+00    0.2242597     0.199288 -63.05 0.0007385488    1.321    0.243
       285  -9.4915     61.1744    206.6262   1.1085808764e+02   2.3260309110e+01    0.2106258    0.1628805  87.52 0.0007552073    1.216    0.178
       286 -10.7312    139.9014     43.9597   5.2312487421e+01   4.4427341057e+01    0.4009063    0.3489913 -43.14  0.001663431    1.213    0.176
       287  -8.5919    209.6647     47.2906   4.2175618352e+01   2.7379239899e+01    0.1403076   0.09029806 -68.80 0.0003119484    1.636    0.389
       288  -9.7200     91.5047     48.6397   6.6351525604e+01   5.4615680907e+01    0.2419656    0.2130117 -52.55 0.0004943194    1.375    0.273
       289  -8.9645    101.4839     44.5123   6.1848378414e+01   5.3162278246e+01    0.1389226    0.1289535  24.92 0.0001046068    1.030    0.029
       290 -10.7430     94.2492     41.2026   6.2742170747e+01   5.5165621687e+01    0.6966127    0.2938815  49.75  0.002861408    2.264    0.558
       291 -10.1663    189.2059     40.9409   4.3210091921e+01   3.2953245054e+01    0.5299212    0.2004044 -28.53  0.002013744    3.065    0.674
       292 -10.7214     81.7851     39.8856   6.6170630170e+01   5.7854744658e+01    0.6592216    0.3986272  48.23  0.002612592    1.674    0.403
       293 -10.2198     78.3912     34.3124   6.5093869893e+01   5.9295397582e+01     1.074995    0.3304966  38.02  0.003653121    3.621    0.724
       294 -10.6391     82.7794     32.9134   6.3090161212e+01   5.8631465511e+01    0.5222951    0.3228827 -63.11  0.002066846    3.788    0.736
       295  -9.7459     17.4967     41.8269   9.3828645507e+01   6.6589440598e+01    0.2491546    0.1499104 -21.63  0.001363481    1.556    0.357
       296 -11.3263     52.8730     49.3496   8.0627435142e+01   6.1211573157e+01    0.4950922    0.3770246  55.33  0.002717821    1.964    0.491
       297 -10.2093    231.0892     38.5503   3.7850694616e+01   2.3877748980e+01    0.3414782    0.2458896 -64.19  0.001845374    1.219    0.179
       298  -9.2731    193.6883     38.9441   4.2111618707e+01   3.2162125461e+01    0.2230447    0.1697839  44.76 0.0005312963    1.545    0.353
       299 -10.7000    175.2151     30.8368   4.2446212693e+01   3.7555725526e+01    0.4329052    0.2029617  46.47  0.001298246    2.457    0.593
       300 -11.4793    176.8985     36.9012   4.3852756732e+01   3.6404005583e+01    0.5096411    0.3419489 -21.07  0.002606227    1.808    0.447
       301  -9.6760    133.2820     37.2273   5.1516743804e+01   4.6898477668e+01    0.3694608    0.2249988  87.51  0.001552432    2.515    0.602
       302  -9.2300    206.9072     37.2744   4.0103012122e+01   2.9334497421e+01    0.1829748     0.155044  88.64  0.000712622    1.096    0.088
       303  -9.3521     94.8183     36.2282   6.0692988101e+01   5.5734183766e+01    0.2069853     0.169792  73.01   0.00114695    1.560    0.359
       304 -10.6875    198.4275     28.7971   3.9014375932e+01   3.2327448577e+01    0.4353099    0.3566369 -82.73  0.001864521    1.093    0.085
       305  -9.1241    199.7183     24.6236   3.7856043070e+01   3.2522976470e+01    0.2091247    0.1408406  40.23 0.0007571387    1.986    0.496
       306 -10.4955    237.6323    204.3690   7.2383671095e+01  -4.1616719178e+00    0.2705902     0.253392  19.37  0.001850764    1.407    0.289
       307 -12.0172    106.2035     32.5066   5.6166053234e+01   5.3749924932e+01    0.6148407    0.3437001  20.08  0.002129419    2.649    0.623
       308 -12.3083    114.1566     25.1564   5.1561094682e+01   5.2815441937e+01    0.7572542    0.3150733  51.49  0.002143491    2.057    0.514
       309 -10.6879    240.0447     32.1853   3.5674774583e+01   2.2832645273e+01    0.4208347    0.2970536 -44.38  0.002210844    1.281    0.219
       310  -9.7595    240.4908     26.4966   3.4457952558e+01   2.3442141601e+01    0.1990173    0.1561757 -58.30 0.0006927896    1.074    0.069
       311  -9.1334    214.3069     34.6699   3.8677348080e+01   2.8006921486e+01    0.1309014    0.1197635 -81.03 0.0004392167    1.117    0.105
       312  -8.8942    216.5568     32.4844   3.7941140276e+01   2.7783744692e+01     0.126822    0.1092695 -71.85 3.056289e-05    1.027    0.027
       313  -9.8281    145.5052     39.4777   4.9800050250e+01   4.3673736303e+01    0.2245374    0.2099498  -0.90 0.0005668194    1.184    0.156
       314  -9.0988     36.0099     31.7540   8.1008403831e+01   6.6434783813e+01    0.1682581    0.1388415   0.75 0.0004612324    1.094    0.086
       315  -9.2635    221.6908     29.8815   3.6845649798e+01   2.6983195948e+01    0.1793554    0.1378153 -51.76   0.00101562    1.173    0.147
       316  -8.9988    196.6376    205.2798   8.0308624931e+01   1.9281205984e+00    0.1251305    0.1078167  63.99 0.0006182588    1.673    0.402
       317 -10.6160    189.3112     27.6327   3.9785837926e+01   3.4587725411e+01    0.3356656    0.2850911   5.53  0.001477896    1.584    0.369
       318 -11.4491    183.0114     25.4966   4.0004667744e+01   3.6322209372e+01    0.5225955    0.3142883  54.11  0.002688081    1.681    0.405
       319  -9.0357     99.5225     30.4791   5.7180629985e+01   5.5466330344e+01    0.1352779    0.1209281  31.58 0.0001304775    1.010    0.010
       320  -9.7698     97.5823     26.5565   5.6209185173e+01   5.6354646246e+01    0.2593106    0.2335158 -48.50  0.001012402    1.339    0.253
       321 -10.6218    230.2393     26.8130   3.5390334023e+01   2.5528321188e+01    0.3148715    0.1835941 -38.03 0.0006661103    1.621    0.383
       322 -10.5040    214.5833     23.4915   3.6086679139e+01   2.9305281333e+01    0.3968605    0.3100148  11.09   0.00232656    2.031    0.508
       323  -9.9307    250.5800     26.6979   3.3704466490e+01   2.1401599100e+01    0.2121926    0.1068797 -31.93   0.00112597    2.085    0.520
       324 -10.2483     16.6727    204.6796   1.2044003063e+02   2.8707642991e+01    0.1749535   0.08909816 -80.78 0.0009399719    1.713    0.416
       325 -11.4262      6.1931    197.2626   1.2214838354e+02   3.1315038806e+01    0.9968824    0.1100516 -67.62  0.003299136    4.930    0.797
       326 -10.6820    234.2800    196.9696   7.1585627787e+01  -2.5300381288e+00    0.4037421    0.2902447  -0.72  0.001781356    1.343    0.255
       327  -8.9958    195.5509    199.8044   7.9507068000e+01   3.0650839691e+00    0.1804377    0.1289154 -49.88 0.0005849128    1.659    0.397
       328  -9.4608    168.8180     23.9156   4.1431562572e+01   3.9893045292e+01     0.202816      0.16833  48.39 0.0006822722    1.283    0.221
       329  -9.7089     60.1309     23.2370   6.6956660199e+01   6.4072762219e+01    0.3484229    0.1968461  17.76  0.001707638    2.069    0.517
       330  -9.2825     60.4046     19.5037   6.5178533873e+01   6.4487376825e+01      0.19883    0.1631009 -15.52 0.0001373498    1.221    0.181
       331 -12.1405      4.8384    184.4225   1.2158094928e+02   3.4346610447e+01    0.6421936    0.4566405  83.81  0.003364006    1.138    0.122
       332  -9.1861    223.4562     22.0874   3.4962781167e+01   2.7534431874e+01    0.1919414    0.1409086  84.87  0.000752389    1.256    0.204
       333  -9.5189     82.6983    196.2609   1.0457994914e+02   2.2658327382e+01    0.3324478    0.2049751  19.20  0.001517976    2.187    0.543
       334  -9.7470     74.5414     19.5213   6.0208332041e+01   6.1883949760e+01    0.2497896    0.1706678  33.05 0.0008113458    1.292    0.226
       335 -10.3001    246.4882    193.0298   6.8711112401e+01  -3.6765655182e+00    0.1997907    0.1066353 -33.15  0.001040652    1.621    0.383
       336  -9.9520    169.9180    191.4371   8.3323536091e+01   9.0312782431e+00    0.3681187    0.2220111  23.14    0.0016382    1.894    0.472
       337 -10.2604    239.5310    184.9841   6.8348844591e+01  -1.3973375967e+00    0.3822528    0.2245589 -12.13  0.001295506    2.032    0.508
       338  -9.1145     16.4281    191.4899   1.1952712797e+02   3.1712210521e+01    0.1227022    0.0996771  88.50   7.7447e-05    1.048    0.046
       339 -10.4857    250.1971    178.5993   6.5299606022e+01  -1.9571909000e+00    0.4853108    0.1365554 -33.04  0.001687793    3.598    0.722
       340  -9.7296    230.7090    175.4947   6.8008095005e+01   1.5379836283e+00    0.3343413    0.1540541  33.47  0.001468225    2.443    0.591
       341 -10.3527     52.1766    173.8710   1.0919514463e+02   3.2123543188e+01    0.4931651     0.236795 -88.05  0.001907159    2.831    0.647
       342  -9.8684     27.7020    175.8971   1.1554145291e+02   3.4312858309e+01    0.2415236    0.1737534  50.00  0.001090771    1.382    0.277
       343  -8.5627      1.3254     20.7354   9.4468657038e+01   7.1548448519e+01   0.09220644    0.0861595  21.29 0.0003321277    1.565    0.361
       344 -10.0440    247.3567    174.1549   6.4889884781e+01  -8.2701144238e-01    0.4455049    0.2058689  23.43  0.001774573    3.483    0.713
       345  -9.0963    194.7890     19.3650   3.7102992530e+01   3.4253858694e+01    0.1768091    0.1037188  63.08 0.0003925486    1.611    0.379
       346  -9.0418    198.3704     17.8461   3.6362010710e+01   3.3596392708e+01    0.1994387    0.1416274  46.96 0.0004893361    1.695    0.410
       347  -9.1767    205.3126     17.4293   3.5577339526e+01   3.2063748210e+01    0.2280633     0.105379  67.70 0.0009975317    1.983    0.496
       348 -10.5821    245.6568    200.8907   7.0337852976e+01  -4.7565730474e+00    0.2098183    0.1520265  10.28 0.0006725538    1.308    0.236
       349 -10.2593    186.4395     15.2240   3.6971975579e+01   3.6641547630e+01    0.2397667     0.195656  88.90 0.0004237701    1.070    0.066
       350  -8.9545    174.4219     15.8243   3.8508172102e+01   3.9417057274e+01    0.1472202    0.1275568  -3.66 0.0003594653    1.466    0.318
       351 -10.3320     38.2526    173.0046   1.1262295171e+02   3.3928988335e+01    0.4787158    0.2176919  49.27  0.002150823    2.252    0.556
       352 -10.1727     35.4845    169.5003   1.1292714683e+02   3.5080297541e+01    0.2296911    0.1914227  45.17  0.001256011    1.277    0.217
       353  -9.6676     75.7454     13.9006   5.7391169080e+01   6.2250316635e+01    0.2213545    0.1619338  48.91 0.0005071895    1.305    0.234
       354 -10.3805    109.3812     43.0506   5.9147635276e+01   5.1647352829e+01    0.6124498    0.3845094 -41.85  0.002978492    1.754    0.430
       355  -8.8431    170.6048    171.8302   7.9268483434e+01   1.2862865659e+01    0.1989422    0.1400536 -52.77  0.000701234    1.557    0.358
       356  -9.7872      9.2850    155.8726   1.1820781283e+02   4.0774399302e+01    0.2318063    0.1680224 -73.26  0.001067665    1.146    0.128
       357 -11.6233      9.5749    167.0413   1.1913626813e+02   3.8054947262e+01    0.5019987    0.3822981  79.10     0.002402    1.151    0.131
       358 -11.3108     13.4751    159.5975   1.1749219277e+02   3.9540871865e+01    0.5972139     0.233782 -67.48  0.002745329    2.039    0.510
       359  -9.2185    198.0366    167.7642   7.2591473155e+01   8.5529103840e+00    0.2016103    0.1814438   1.28 0.0008982486    1.063    0.059
       360  -9.6366    188.8139    163.9967   7.3679376726e+01   1.0999836370e+01    0.3066545    0.1668467 -24.00  0.001157188    2.480    0.597
       361  -9.0010    152.3827    166.7293   8.2386286876e+01   1.7423066242e+01    0.2046457     0.139499 -36.81 0.0003877571    1.517    0.341
       362  -9.2730    156.3343    166.0705   8.1318723270e+01   1.6806017505e+01     0.212876    0.1851593 -44.19 0.0004503006    1.155    0.134
       363 -10.3378     19.1308    164.7443   1.1656215332e+02   3.7812187711e+01    0.3006009     0.251337   5.18  0.001499323    1.593    0.372
       364 -10.2353    204.9878    162.9697   7.0192587164e+01   8.1909115933e+00    0.5012892    0.2807912  53.65  0.001910712    2.373    0.579
       365  -9.6140    208.4664    160.4917   6.8988489595e+01   8.0208888086e+00    0.2789271    0.1288766 -43.03  0.001140871    2.051    0.513
       366 -10.2087     27.9870    163.7478   1.1420483864e+02   3.7244447744e+01    0.3399849    0.2050375  61.08  0.001767261    1.730    0.422
       367 -10.3484     28.5215    160.5015   1.1370440757e+02   3.7993759225e+01    0.2620478    0.1691042 -73.26  0.001204582    1.328    0.247
       368  -9.3563     38.6211    160.4043   1.1102716165e+02   3.7000020835e+01     0.286139    0.1639098  41.72   0.00143055    1.801    0.445
       369  -9.9163    246.3288    159.1321   6.2028945523e+01   1.7907064357e+00    0.2810574    0.1039141 -32.55  0.001097632    2.604    0.616
       370  -9.1453     78.9929    160.0173   1.0002038434e+02   3.1951090000e+01    0.2354922    0.1694384  74.91 0.0008135404    1.634    0.388
       371  -9.5600    224.2732    157.3763   6.5399727354e+01   5.7681818082e+00    0.3453654     0.179017 -48.79  0.001501681    2.116    0.527
       372  -9.2694    215.6268    157.6759   6.7033905135e+01   7.2456571829e+00    0.2285253    0.1602855  -6.88  0.001111391    1.720    0.419
       373 -11.1792     12.8271    138.1711   1.1541466391e+02   4.4854942103e+01     1.507593    0.7382238 -66.24  0.007566607    1.629    0.386
       374 -11.6855     15.8380    147.8567   1.1566969992e+02   4.2231505403e+01    0.5424387    0.3879727  56.55  0.002795168    1.467    0.319
       375 -10.5791     22.2952    155.1264   1.1474121860e+02   3.9894390405e+01    0.4454149    0.3182099  38.46  0.001369167    1.534    0.348
       376 -10.4680      3.3968    146.9037   1.1889567985e+02   4.3374626115e+01    0.2327217    0.1753792  69.27 0.0008552971    1.308    0.235
       377 -12.0430      2.4754    141.4705   1.1862273550e+02   4.4756524558e+01      1.37199    0.4039458 -79.13  0.005153758    3.141    0.682
       378 -11.4776     21.2107    150.6256   1.1452618506e+02   4.1102767184e+01    0.2478195    0.2204667 -41.81  0.000214245    1.301    0.232
       379 -11.6555     24.0022    148.0068   1.1345906360e+02   4.1511065707e+01    0.3549327    0.2124182 -64.78  0.000849627    1.409    0.290
       380 -10.4459    104.8129    154.0804   9.1866158161e+01   2.9236997287e+01    0.3928193    0.3368493 -34.43   0.00201957    1.246    0.197
       381 -10.6883     30.8000    151.7873   1.1205763480e+02   3.9941879779e+01    0.2833932     0.218959 -42.01  0.001494086    1.450    0.310
       382  -9.8308     41.4918    149.0145   1.0871993757e+02   3.9550341596e+01    0.2238647    0.2038046   7.24  0.000422715    1.330    0.248
       383 -11.3946     46.2135    146.4005   1.0699692276e+02   3.9690964644e+01    0.7544925    0.3601168 -63.50  0.002539383    1.821    0.451
       384  -9.9199     71.8270    150.8132   1.0041639984e+02   3.5304973013e+01    0.3799394    0.2580209 -35.04  0.001778739    1.770    0.435
       385  -9.1998    234.5423    150.1946   6.2102938527e+01   5.2545883016e+00    0.2604416     0.169605   1.86  0.001211238    2.222    0.550
