#   1 NUMBER                 Running object number                                     
#   2 MAG_AUTO               Kron-like elliptical aperture magnitude                    [mag]
#   3 X_IMAGE                Object position along x                                    [pixel]
#   4 Y_IMAGE                Object position along y                                    [pixel]
#   5 X_WORLD                Barycenter position along world x axis                     [deg]
#   6 Y_WORLD                Barycenter position along world y axis                     [deg]
#   7 A_WORLD                Profile RMS along major axis (world units)                 [deg]
#   8 B_WORLD                Profile RMS along minor axis (world units)                 [deg]
#   9 THETA_WORLD            Position angle (CCW/world-x)                               [deg]
#  10 FWHM_WORLD             FWHM assuming a gaussian core                              [deg]
#  11 ELONGATION             A_IMAGE/B_IMAGE                                           
#  12 ELLIPTICITY            1 - B_IMAGE/A_IMAGE                                       
         1 -14.1745    219.7423      2.9503   4.2496241348e+01   2.8335152958e+01     2.274133      1.06709  58.26  0.007719893    2.246    0.555
         2 -13.5607    178.9999     46.8990   6.0199675424e+01   3.3778747964e+01     1.019528    0.8370098 -12.23 0.0008987323    1.258    0.205
         3 -13.9976    190.4856     36.9489   5.5416613512e+01   3.2111179767e+01     1.238079     1.032929 -28.68  0.003094475    1.145    0.127
         4 -14.8129    197.9036     27.6313   5.1643495780e+01   3.1302504438e+01      1.96615      1.35695  32.21  0.001306496    1.705    0.413
         5 -11.0030    189.8929     14.8564   4.8553511972e+01   3.4688759216e+01    0.2537894    0.2040716 -23.30 0.0009176995    1.226    0.184
         6 -10.3197     68.6668      6.3234   6.8940337795e+01   6.6710484460e+01    0.1353431     0.106356 -60.45 0.0005080393    1.707    0.414
         7 -11.3557    162.8993     55.6503   6.5792133051e+01   3.6647937630e+01    0.3023082    0.2699109  53.86 0.0004642511    1.136    0.120
         8 -16.5079     71.9167    148.2126   1.1133637578e+02   3.6406550068e+01     9.266259     4.315647  74.48   0.01900215    4.469    0.776
         9 -12.9031    108.7293    209.9082   1.1042871541e+02   1.9774401578e+01    0.8066902    0.3594153  33.89  0.003205578    2.007    0.502
        10 -12.0439     38.9445    211.6067   1.2422617167e+02   2.8093759203e+01     0.348479     0.148377  67.75  0.001956831    2.321    0.569
        11  -7.7905     32.3560    227.7817   1.2622733179e+02   2.6100234031e+01    0.2112519   0.05197932  49.12  0.001096061    2.547    0.607
        12 -11.3207     69.6595    208.8298   1.1803894318e+02   2.5084431858e+01    0.2030897    0.1386944  61.19 0.0003082074    1.255    0.203
        13  -9.8017     29.1988    210.1263   1.2602193222e+02   2.9338985589e+01    0.2714231   0.06084481  43.32  0.001340674    2.641    0.621
        14 -10.8505     74.9478    206.8914   1.1683070783e+02   2.4757629719e+01    0.2430974    0.2199873  27.95  0.001203679    1.365    0.268
        15 -10.9972     32.9306    205.8976   1.2509339646e+02   2.9699432689e+01    0.1719723    0.1454813 -79.09  0.001388417    1.423    0.297
        16  -9.7571     61.4316    218.5982   1.2034444029e+02   2.4444257078e+01     0.110932   0.07611931  54.50 0.0004484862    1.106    0.096
        17 -11.3438     96.3507    200.4063   1.1190331418e+02   2.3032585174e+01    0.3085337    0.2342547  15.58  0.001212229    1.716    0.417
        18 -11.9255    193.2393    194.8520   9.2476553683e+01   9.1122710523e+00    0.7109389    0.4099678 -59.38  0.002931248    5.246    0.809
        19 -12.9126    107.5922    203.1225   1.0992402860e+02   2.1011927549e+01    0.5585951    0.2160721  44.53  0.000494556    2.075    0.518
        20  -9.5741     45.4386    199.1801   1.2221182091e+02   2.9575070631e+01    0.1816301     0.116746  54.31 0.0003512587    1.201    0.167
        21 -10.3429     44.7545    195.5750   1.2211750554e+02   3.0301873672e+01    0.2617752    0.1229117  53.78  0.001299971    1.717    0.418
        22 -12.4139     32.2606    198.2625   1.2482611949e+02   3.1125431183e+01    0.1991214    0.1399898  48.29 0.0007641924    1.165    0.142
        23 -10.2097     36.3541    197.7774   1.2397136752e+02   3.0794686102e+01    0.1665524     0.107029  50.20 0.0004392987    1.202    0.168
        24 -11.4286    208.5566    196.6146   9.0127522944e+01   6.5595005438e+00     0.206877    0.1662807  14.36 0.0006551353    1.065    0.061
        25 -19.4125      9.3256    136.6372   1.2653912708e+02   4.5634009049e+01     17.13796     1.852691 -80.57   0.03989906   10.211    0.902
        26  99.0000     58.9864    214.0297   1.2050627624e+02   2.5479515766e+01     0.636812    0.4458857 -39.75  0.001584527    2.398    0.583
        27 -10.5539     80.7094    194.4909   1.1453883214e+02   2.6163492494e+01    0.4134667    0.1497923  42.41  0.001729336    2.145    0.534
        28 -13.0659     66.2509    190.1360   1.1719084875e+02   2.8797168519e+01    0.6887299    0.6135242  58.81  0.003858653    1.155    0.134
        29 -12.5754    150.4909    190.0690   9.9695114970e+01   1.6549242443e+01    0.5457359    0.3616891 -86.60  0.002546552    3.559    0.719
        30 -10.1830     38.3506    192.6618   1.2325727235e+02   3.1522222611e+01    0.1893261    0.1326399  56.71 0.0006796276    1.100    0.091
        31  99.0000     43.8972    211.4354   1.2326194484e+02   2.7598289657e+01    0.4947802    0.2392378 -85.45  0.003027176    2.237    0.553
        32 -10.5045     49.4508    205.5130   1.2181330817e+02   2.8012465341e+01    0.2034292    0.1510948  62.93 0.0005945747    1.083    0.076
        33 -10.8631     51.9705    208.9729   1.2153896865e+02   2.7132973481e+01    0.4150032    0.1730649  41.79  0.002397532    1.787    0.440
        34 -13.6504     56.4120    204.0250   1.2032230710e+02   2.7483586620e+01    0.4867513    0.3558413  81.59  0.001728115    1.326    0.246
        35 -11.5454     99.4408    180.6634   1.0901435176e+02   2.6041066585e+01    0.2375148    0.1897586  52.87 0.0005533961    1.075    0.070
        36 -10.9470    149.0921    180.0540   9.8456992076e+01   1.8313679847e+01    0.1953058    0.1654951  42.16  0.001269052    1.090    0.083
        37  -9.7264     73.7558    189.6193   1.1554334891e+02   2.7944726318e+01    0.1677815   0.09574621  40.87            0    1.461    0.315
        38  -9.1954    169.2196    177.9593   9.4146940529e+01   1.5270161408e+01    0.1451472    0.1028688 -37.90 0.0004848537    1.615    0.381
        39  99.0000     38.6543    224.8789   1.2495482505e+02   2.5924114898e+01    0.2143602    0.1356938 -88.31 0.0006178534    1.633    0.388
        40  -9.6563     39.2274    177.2186   1.2204681904e+02   3.4373390503e+01    0.1641967   0.09959025  55.06  0.000584323    1.344    0.256
        41 -10.4351    164.1319    170.3702   9.3852694130e+01   1.7274093839e+01    0.2029278    0.1846731 -50.46 0.0004624496    1.349    0.259
        42 -10.1611    201.4570    169.2410   8.6653568084e+01   1.1031926881e+01    0.2038132    0.1917484 -15.06  0.001108722    1.308    0.235
        43 -10.4932    204.7618    165.9297   8.5460797226e+01   1.0904910703e+01    0.3964035    0.2213197 -39.45   0.00152984    2.068    0.516
        44 -11.1772    193.1605    165.3821   8.7428146776e+01   1.2964275568e+01     0.376531    0.2684079 -49.01  0.001334533    1.904    0.475
        45 -11.6672     60.2961    202.6701   1.1944132595e+02   2.7267346529e+01    0.2563142    0.1307072  60.49 0.0007508319    1.802    0.445
        46  -9.9410    158.5022    162.4998   9.3599985958e+01   1.9499604532e+01     0.131238    0.1160904  35.01 -8.024193e-06    1.048    0.046
        47 -12.6936     95.0859    154.3666   1.0645445750e+02   3.1743518804e+01    0.6226345    0.4765117 -20.04  0.003411528    1.951    0.487
        48 -10.9350    188.8645    154.8878   8.6218042476e+01   1.5204113611e+01    0.4799999    0.2316861  43.01  0.002261303    1.908    0.476
        49 -16.6388     65.9335    247.2776   1.2130769636e+02   1.9571771887e+01     8.256866     2.414092  28.60   0.02896037    6.608    0.849
        50  -9.6674    113.6660    151.5444   1.0156333541e+02   2.9302715295e+01    0.2236825    0.1625909 -87.60  0.001170463    1.794    0.442
        51 -11.5404    133.7610    144.8075   9.5677225402e+01   2.7056445248e+01    0.9929585     0.276719 -53.67  0.002878702    5.359    0.813
        52 -10.5602    174.5721    149.0028   8.7797989676e+01   1.8720639145e+01    0.2434304    0.2196048  40.66 0.0008132597    1.151    0.131
        53 -10.6485    144.0229    146.5369   9.3703767114e+01   2.4849473881e+01     0.256356    0.1984419 -66.68  0.001307993    1.647    0.393
        54 -11.5580    106.6232    140.0443   1.0128091161e+02   3.2794926290e+01    0.4606286    0.3169562 -33.60  0.002314763    1.899    0.474
        55 -12.5630     94.7095    139.8857   1.0425995109e+02   3.4793110047e+01    0.2802962    0.2698232  -7.01 0.0004745953    1.230    0.187
        56 -11.2672    105.9045    130.4701   9.9686469242e+01   3.4905867558e+01     0.442957     0.315101 -63.42  0.002299183    1.511    0.338
        57 -11.1237    101.7278    126.5027   1.0000415225e+02   3.6470387766e+01     0.266303    0.2314889  -6.40  0.001003345    1.452    0.311
        58 -11.0828    114.3509    130.2951   9.7501103990e+01   3.3443231020e+01    0.3052821    0.2649402 -12.31 0.0007824646    1.407    0.289
        59 -10.1958    160.3973    127.4321   8.6139973546e+01   2.5059953950e+01    0.3664714    0.2330865 -50.13  0.001732814    1.819    0.450
        60 -10.7812    119.6856    124.0412   9.4864041096e+01   3.3739083840e+01    0.3057256    0.2228243 -17.46  0.001242907    1.952    0.488
        61 -10.9870    135.7673    127.1501   9.1614486917e+01   3.0029923458e+01    0.4661117    0.1171461 -49.74  0.001305234    4.879    0.795
        62 -10.2417    109.8775    119.0857   9.6325572314e+01   3.6595666912e+01    0.2054711    0.1990845  61.63 0.0003526253    1.021    0.021
        63  -7.8626     49.0221    216.7441   1.2258806571e+02   2.6149337022e+01    0.3340164    0.2175084  19.01  0.001724359    2.163    0.538
        64  -9.9385    167.9567    112.8357   8.1114545051e+01   2.6010528502e+01    0.3126454    0.2273259 -87.56   0.00137816    2.342    0.573
        65 -11.2731    119.1252    110.8051   9.2022643950e+01   3.6569907963e+01    0.5444395    0.2922535  54.76  0.002233488    2.114    0.527
        66 -10.1229    205.4967    110.1668   7.3409116848e+01   1.8498441723e+01    0.2404503    0.1891322  40.63 0.0006016624    1.275    0.216
        67  -9.9910     36.8017    220.7849   1.2509759204e+02   2.6780365193e+01    0.2865482    0.1571044  30.09  0.001837007    1.865    0.464
        68  -8.7650    166.3469     93.6848   7.6491112966e+01   2.9640427240e+01    0.1509976    0.1189418 -76.09 0.0007047643    1.720    0.419
        69 -11.7387     53.2222     91.1920   1.0749520672e+02   5.1965561677e+01    0.3793016     0.247929 -72.83  0.001405728    1.485    0.327
        70 -11.3355     42.0080     91.7292   1.1149355039e+02   5.3164554296e+01    0.2389186    0.2265928 -24.16 0.0006980484    1.250    0.200
        71  -9.8918    186.5802     86.7596   7.0701894445e+01   2.6118119945e+01    0.2140907    0.1296267 -40.86 0.0009531696    1.661    0.398
        72 -11.5319    161.6246     62.8906   6.8364758766e+01   3.5856014022e+01    0.3485098     0.279137 -77.38  0.000443829    1.532    0.347
        73 -10.0290     43.8921    220.0418   1.2374062001e+02   2.6159993040e+01    0.1339346    0.1150848 -52.47  0.001079782    1.721    0.419
        74 -12.5640     48.8624    233.1848   1.2352777008e+02   2.3537723642e+01    0.2103348    0.1366964  64.83  0.000602925    1.286    0.222
        75 -10.8042     53.5422    231.2027   1.2257986266e+02   2.3334254953e+01    0.1654835    0.1316174  70.54 0.0008570743    1.214    0.176
        76  -9.9859     52.0620    227.0609   1.2261609914e+02   2.4144781168e+01    0.1784027   0.09034439  57.42  0.001169371    1.588    0.370
        77 -10.4430     59.9884    229.4819   1.2130863638e+02   2.2880560058e+01    0.1572269    0.1049702  61.33 9.835384e-05    1.236    0.191
        78  -9.5660     42.2346    229.6049   1.2453554189e+02   2.4799231510e+01    0.1055135   0.05348826  62.73 0.0004602431    1.655    0.396
        79 -10.2277     36.0659    234.0184   1.2583782172e+02   2.4747233462e+01    0.1434488    0.1076953  56.39 0.0004669483    1.093    0.085
        80 -10.1108     72.2615    230.3401   1.1912041137e+02   2.1324185832e+01    0.1385527   0.08466385  52.48 0.0004732854    1.251    0.201
