#   1 NUMBER                 Running object number                                     
#   2 MAG_AUTO               Kron-like elliptical aperture magnitude                    [mag]
#   3 X_IMAGE                Object position along x                                    [pixel]
#   4 Y_IMAGE                Object position along y                                    [pixel]
#   5 X_WORLD                Barycenter position along world x axis                     [deg]
#   6 Y_WORLD                Barycenter position along world y axis                     [deg]
#   7 A_WORLD                Profile RMS along major axis (world units)                 [deg]
#   8 B_WORLD                Profile RMS along minor axis (world units)                 [deg]
#   9 THETA_WORLD            Position angle (CCW/world-x)                               [deg]
#  10 FWHM_WORLD             FWHM assuming a gaussian core                              [deg]
#  11 ELONGATION             A_IMAGE/B_IMAGE                                           
#  12 ELLIPTICITY            1 - B_IMAGE/A_IMAGE                                       
         1 -10.1441     51.4502     17.9000   7.1363826351e+01   6.6745485912e+01    0.3956557    0.2870702 -30.04   0.00176635    1.427    0.299
         2  -9.8245    192.8247     24.4197   4.0429949021e+01   3.4586106381e+01    0.4091371     0.363349  15.86  0.001914378    1.433    0.302
         3 -10.0437    210.1847     18.3549   3.7043851669e+01   3.1194079157e+01    0.5105419    0.3958972 -85.68  0.003152355    1.154    0.134
         4  -9.0056    142.5623     22.8912   4.7361124200e+01   4.7043968626e+01      0.61457    0.3290763 -51.46  0.002724844    2.325    0.570
         5 -10.7508    141.2373     12.8695   4.4319417874e+01   4.8374911583e+01    0.3781132    0.3338211 -15.32 0.0005297774    1.284    0.221
         6  -9.7214    136.8256     16.1648   4.6171616124e+01   4.9129990144e+01    0.4864157    0.2900844  60.45  0.002294797    1.467    0.318
         7  -9.1919    133.4580     19.4777   4.7913580591e+01   4.9611588827e+01    0.3824357    0.2508197 -54.10 0.0005419034    1.866    0.464
         8  -9.3192     79.2925     24.2600   6.3672093049e+01   6.1079941379e+01    0.4681638    0.4260897  26.91   0.00245258    1.154    0.133
         9  -9.5074     15.7950     19.0818   8.9580593289e+01   7.0919940690e+01    0.5474789    0.1965814 -44.42  0.002690311    2.340    0.573
        10  -9.9996    196.5236     17.5997   3.8260335310e+01   3.4463382804e+01    0.6095459    0.2451027 -53.15  0.002520083    2.717    0.632
        11  -8.9738    192.7428     13.2574   3.7560796756e+01   3.5817243207e+01    0.3344962    0.1835173  42.32  0.001587583    2.365    0.577
        12 -11.0992     88.0061     16.3220   5.7530975039e+01   6.0240492010e+01    0.4826974    0.4144942  68.42  0.001490199    1.430    0.301
        13  -9.9307    247.7888     17.9389   3.3749630989e+01   2.3057720243e+01    0.4535549    0.2613399 -80.57  0.002594201    1.702    0.412
        14  -9.4811     61.0308     12.7219   6.4991581256e+01   6.5793395130e+01    0.3981859    0.2453607  37.59   0.00228206    1.449    0.310
        15 -12.0001     65.3736      6.2053   6.0251770570e+01   6.5696983252e+01    0.6960612    0.2822946  44.21  0.003323091    2.092    0.522
        16  -9.2348     66.8421     14.8516   6.3823311370e+01   6.4521389213e+01    0.2942718    0.1975657 -22.79  0.001719929    1.492    0.330
        17  -8.9843    157.1886     15.9919   4.2792698685e+01   4.4171786088e+01    0.3980023     0.316756 -16.58  0.002320529    1.465    0.317
        18  -9.6911     24.7248     17.9027   8.4199656354e+01   7.0246056132e+01    0.3012426     0.208387  19.47 0.0006501164    1.420    0.296
        19  -8.7564     20.4547     17.5679   8.6335505319e+01   7.0731356861e+01    0.2126085     0.147523 -38.44 5.844091e-05    1.397    0.284
        20  -9.6269    112.9094      4.0204   4.6432126280e+01   5.5873703680e+01    0.5368688     0.417423  38.76  0.003255144    1.171    0.146
        21 -11.1465    113.1770     12.1055   4.9420036341e+01   5.5118083996e+01    0.3588726    0.2530048  29.50 0.0003657626    1.427    0.299
        22 -10.0300     26.4129     10.4043   7.9628237737e+01   7.1145727903e+01    0.5435736    0.4578619 -81.41  0.003083416    3.118    0.679
        23  -9.9568     40.9086     13.2456   7.3817955791e+01   6.8905670998e+01    0.6025945    0.3548798   5.54  0.003313188    1.844    0.458
        24 -10.1473     33.1259     12.5980   7.7271573188e+01   7.0032009976e+01    0.2525424    0.1947342  14.47 0.0005843809    1.189    0.159
        25  -9.0557    234.5658      1.4613   3.1270959493e+01   2.7590333502e+01    0.1989927    0.1180488  88.25  0.001180109    1.522    0.343
        26  -8.4611    237.4784      5.4484   3.1903375588e+01   2.6566151529e+01    0.2112599    0.1014755  84.33 0.0001414213    2.004    0.501
        27  -9.3002    233.1419      5.8884   3.2301931297e+01   2.7439256266e+01     0.298932    0.2071892  84.10 0.0006701901    1.310    0.236
        28  -9.5778    238.8259      8.4688   3.2438555696e+01   2.5963983132e+01    0.3645869     0.178618  69.27  0.001985918    1.967    0.492
        29  -9.5795    236.4353     15.2375   3.4046216963e+01   2.5730125156e+01    0.4003104    0.2147349 -42.49   0.00219543    1.635    0.388
        30  -9.5436    239.2008     12.9453   3.3349301576e+01   2.5399713635e+01    0.3175932    0.1984896 -56.60  0.001332169    1.358    0.264
        31 -11.5451    101.4361     13.6489   5.2773033363e+01   5.7627446879e+01     0.391896    0.2803784   8.62 0.0002069551    1.516    0.340
        32  -9.7001    100.2918      9.7101   5.1476301377e+01   5.8247856274e+01    0.2209557     0.179531  49.99 0.0002115045    1.107    0.097
        33  -9.3743     91.7978     12.3952   5.4792419093e+01   5.9840529333e+01    0.4019782    0.1861198  38.01  0.001841689    2.045    0.511
        34  -8.8166    202.4574      8.0305   3.5295143551e+01   3.4066378478e+01    0.2616775    0.1487496  57.58  0.001390707    1.776    0.437
        35  -9.9955    204.6138     12.3706   3.6142815665e+01   3.3123257703e+01    0.2958469    0.2224166 -60.92  0.000687293    1.223    0.182
        36  -9.2882    209.0310     11.2542   3.5462174064e+01   3.2221663420e+01    0.2993304    0.1851264 -57.50  0.001210434    1.513    0.339
        37  -9.1948    122.5952     10.2315   4.6782260408e+01   5.3089095563e+01     0.343038    0.1813805  61.93  0.001043122    1.660    0.398
        38  -8.5794    229.2047     11.4990   3.3805648632e+01   2.7692438271e+01    0.2217572     0.172141 -65.29  0.001289851    1.081    0.075
        39  -8.4401    181.7614      4.1585   3.6360259371e+01   3.9320115510e+01    0.4155819     0.148707 -27.63  0.001774138    2.944    0.660
        40 -10.3312    184.1342      8.9726   3.7375244962e+01   3.8299466012e+01    0.3829074    0.2569301  64.82  0.000691746    1.359    0.264
        41 -11.0402    186.4774      3.7679   3.5773528120e+01   3.8231091440e+01    0.3192489    0.2274885 -34.27 0.0009939334    1.510    0.338
        42  -8.9725     80.5539     11.9466   5.7884000139e+01   6.2208966077e+01    0.2214793    0.1700388  49.41 0.0003531592    1.280    0.219
        43  -9.7312      7.1398      9.3455   9.0092498795e+01   7.3172105700e+01    0.5446577    0.1789602 -42.99  0.002723336    2.433    0.589
        44  -9.3088      5.0963      3.1179   8.8244238380e+01   7.4267580285e+01    0.2355201    0.1343756  15.62  0.001102916    1.684    0.406
        45  -8.9546    134.5014      9.7904   4.4441857380e+01   5.0286331627e+01    0.2894619    0.2102286  24.21  0.001614738    1.561    0.359
        46  -9.0385    128.3807      9.6383   4.5478300532e+01   5.1767939401e+01    0.1919402    0.1459569 -65.92 0.0008530522    1.591    0.371
        47  -9.7176     94.1868      5.0105   5.1068717077e+01   5.9992095052e+01    0.4572083    0.2533174  65.20  0.002078824    1.896    0.473
        48  -8.6964     84.7361      9.9092   5.5729622907e+01   6.1557045414e+01    0.2386084    0.1777911  -8.68 0.0009147036    1.380    0.275
        49  -8.3453     87.6554      6.6978   5.3507293035e+01   6.1242632979e+01    0.2539022    0.1029116  39.80 0.0007584228    2.246    0.555
        50  -8.7436     15.0173      2.9992   8.2111085403e+01   7.3388105789e+01    0.1798287    0.1429526   5.38 0.0007206626    1.242    0.195
        51  -9.5208     17.6832      9.0130   8.3725088289e+01   7.2283988419e+01    0.3754771    0.2357824  -7.44  0.001406334    1.409    0.290
        52  -8.3242     13.6670      8.7081   8.5889970764e+01   7.2713777193e+01    0.2096135    0.1113694 -23.58  0.001122007    1.637    0.389
        53  -9.4090    249.7322      7.4890   3.1495849936e+01   2.3821921172e+01    0.3798034    0.1555978 -59.47  0.001275737    2.253    0.556
        54  -9.7110    243.1219      3.6766   3.1159427439e+01   2.5574947763e+01    0.4340968    0.1710003 -52.72  0.002183464    2.152    0.535
        55  -9.3497    223.9485      5.7712   3.2959207534e+01   2.9440806003e+01    0.3883406    0.1638581 -49.91   0.00146949    2.102    0.524
        56  -8.2122    223.9842      1.2326   3.1962914244e+01   2.9889188173e+01    0.1713832    0.1076729  76.62 0.0004396293    1.451    0.311
        57  -9.2529    138.4722      6.1459   4.2570421630e+01   4.9643164885e+01    0.2247806    0.1732133  50.72 0.0002459708    1.181    0.153
        58 -10.0752     32.3290      5.9713   7.4237558320e+01   7.0989295332e+01    0.2249995    0.1653763  10.26 0.0005443076    1.115    0.103
        59  -8.6775    168.6306      5.2402   3.8125852857e+01   4.2388677345e+01    0.1866073    0.1671815  -2.76 0.0005041038    1.362    0.266
        60 -10.0660    149.5140      3.2392   3.9998391684e+01   4.7207996437e+01    0.4446439    0.2638658  30.76  0.002229658    2.092    0.522
        61  -8.8027    195.3979      5.0532   3.5227410880e+01   3.6003974030e+01     0.237327     0.149634 -81.77 0.0006205339    1.526    0.345
        62  -9.0420    218.0393      3.1417   3.2831414257e+01   3.1010797107e+01    0.1894174    0.1586543 -56.31 0.0004370449    1.155    0.134
        63  -9.8100    203.0989      2.9997   3.4027415949e+01   3.4409328024e+01    0.3428056    0.1655591  72.97  0.001736019    1.834    0.455
        64  -8.1093    121.4792      3.5313   4.4592078699e+01   5.3914298530e+01     0.131452    0.1105457  51.20   2.9546e-05    1.030    0.029
        65  -9.1935     77.9467      2.7123   5.4517656397e+01   6.3584034992e+01    0.1979736    0.1659194  -3.36 0.0003485655    1.225    0.184
        66  -8.2283     38.4504      3.4719   6.9901196783e+01   7.0435370289e+01     0.118705   0.09210336   5.84 0.0001611496    1.024    0.024
        67  -8.5026    171.1597     11.2298   3.9501699319e+01   4.1218531928e+01     0.183088    0.1586391  65.20 0.0003613111    1.104    0.095
        68  -9.1849    248.4260      1.9731   3.0481431675e+01   2.4668119957e+01    0.2021373    0.1441132  87.02 6.086106e-05    1.282    0.220
        69  -7.6763    130.3207      2.6878   4.2744409858e+01   5.1883483246e+01    0.1287514   0.09369025 -70.27 0.0007037789    1.651    0.394
        70  -8.0447     81.8306      2.2139   5.3163323229e+01   6.2834791155e+01    0.1726446    0.1210598  22.72 0.0005934761    1.323    0.244
        71  -7.8109     24.2561      2.6446   7.6667864237e+01   7.2414835326e+01   0.09732087   0.08499564 -28.80 0.0004197517    1.610    0.379
        72  -7.9895     34.0790      1.5198   7.0945274883e+01   7.1275015205e+01     0.159253   0.09786195  30.65 0.0003751985    1.469    0.319
        73  -8.6035    135.6007     82.8255   6.8179716730e+01   3.9668546307e+01    0.3142779    0.2181399 -60.49  0.001016371    1.803    0.445
        74  -7.7929    238.4957    250.4722   8.2819902620e+01  -9.9633675009e+00    0.1150415   0.08750892   7.84 2.302097e-06    1.060    0.057
        75  -8.3408    110.8070    249.6791   1.0724436247e+02   8.5306498016e+00    0.1938951    0.1715668  78.09  0.001328561    1.221    0.181
        76  -8.8433    169.5974     81.7658   6.0035322924e+01   3.1865521971e+01    0.2147255    0.1375086 -47.12 0.0003514814    1.586    0.369
        77  -9.3796    124.9928     81.6981   7.0648874698e+01   4.2267199574e+01    0.2943912    0.2224873  -6.12  0.001346432    1.657    0.396
        78  -8.0198     69.4968     82.4665   8.8547104793e+01   5.2527371885e+01    0.1437462    0.1288936 -28.07 0.0002063413    1.011    0.011
        79  -8.8054    136.9901     89.6754   6.9866038129e+01   3.8013163465e+01     0.308407    0.2327723 -30.18 0.0009904586    1.377    0.274
        80  -8.8720     12.2174     82.1974   1.1002182717e+02   5.8429392323e+01    0.2259383   0.07937834 -39.58 0.0009435121    2.753    0.637
        81  -9.1386    174.1048     78.9244   5.8331850849e+01   3.1287974548e+01    0.2835063    0.2399397  73.90 0.0007315581    1.255    0.203
        82  -7.8965    151.5412     78.5217   6.3014762061e+01   3.6755142601e+01    0.1504555    0.1482453  13.18  0.000161023    1.021    0.020
        83  -7.7128    245.4718     77.4894   4.6841991130e+01   1.5535447227e+01    0.1328522    0.1142495 -48.93 6.699374e-05    1.015    0.015
        84  -8.8691    107.5142     77.4724   7.4353920877e+01   4.6817361390e+01    0.2486807    0.1898831 -45.93 0.0007072836    1.342    0.255
        85  -8.3884    106.9966     74.5027   7.3555942819e+01   4.7503550116e+01    0.3054945    0.1875146  29.66  0.001307819    1.857    0.462
        86  -9.3062     31.6658     77.0559   1.0138155745e+02   5.8195036357e+01    0.3406247    0.1894222   6.23  0.001664246    2.262    0.558
        87  -8.2564     86.2912     76.1446   8.0736101180e+01   5.1140827946e+01       0.2115    0.1793909  14.44  0.001135216    1.201    0.167
        88  -9.7384     72.4037     73.8284   8.4866485270e+01   5.3933892497e+01    0.4730515    0.2639925 -50.42  0.001244392    1.789    0.441
        89  -8.6982    233.1760     74.8714   4.7791730191e+01   1.8464612267e+01    0.2795863    0.2080364 -73.72   0.00144028    1.471    0.320
        90  -9.4129    218.8234     74.1956   4.9579748120e+01   2.1672421541e+01    0.4522664    0.2705353  79.19  0.002039502    2.176    0.540
        91  -8.9375    147.6294     73.4527   6.2394839103e+01   3.8590233077e+01    0.4062781    0.2577862 -38.14  0.001808025    1.583    0.368
        92  -9.9848     18.6438     73.9379   1.0581024836e+02   5.9905687844e+01    0.3680501    0.2653427 -73.26  0.002195972    1.452    0.311
        93  -8.8449    249.2592     74.0211   4.5623024183e+01   1.5304473066e+01    0.2432009     0.188235 -15.75  0.001395243    1.599    0.375
        94  -8.7496    189.0569     73.4621   5.4067876961e+01   2.8642109518e+01    0.2071302    0.1959253 -58.15 0.0004778088    1.016    0.016
        95  -7.9894    169.5258     74.4424   5.7974994037e+01   3.3160460038e+01    0.1467262    0.1453081  78.87 2.443752e-05    1.021    0.021
        96  -8.0309     64.1340     73.8181   8.7906666896e+01   5.5172614422e+01    0.1911566    0.1493624 -11.92  0.000463894    1.329    0.247
        97  -9.1866    243.5265     71.5360   4.5745819350e+01   1.6827441755e+01    0.3097898    0.1956756  36.30  0.001478575    2.349    0.574
        98  -8.8920    160.8543     71.3843   5.8862578413e+01   3.5774943195e+01    0.2911594    0.2181201 -59.03 0.0007313889    1.497    0.332
        99  -9.6879    139.1955     69.2048   6.3082543220e+01   4.1329006978e+01     0.578029    0.2608652  49.14  0.001320179    2.149    0.535
       100 -11.1629    128.7867     71.0601   6.6292304347e+01   4.3412337614e+01    0.4051729    0.3325694  54.65 0.0003111229    1.251    0.200
       101  -9.1929    133.7245     68.9894   6.4365349695e+01   4.2644813601e+01    0.3000683    0.2086342  44.12 0.0005913688    1.416    0.294
       102 -10.3479    113.4847     70.3177   7.0267871941e+01   4.6934653207e+01    0.4793469    0.4199165 -68.91  0.002066127    1.385    0.278
       103 -10.1894     37.4466     71.1121   9.7520855197e+01   5.8976199037e+01    0.2328172    0.1986224 -20.97 0.0002914896    1.119    0.107
       104  -9.3232     38.3426     66.9450   9.5974625076e+01   5.9786752001e+01    0.5756066    0.1770201  26.75  0.002208206    3.515    0.715
       105  -9.6782     29.0123     71.5574   1.0105467976e+02   5.9649442536e+01    0.2330548    0.1667495 -48.25 0.0003337516    1.152    0.132
       106  -8.2441    152.6656     71.0827   6.0537287619e+01   3.7799560790e+01    0.2060453    0.1899968 -33.74 0.0003590897    1.099    0.090
       107  -8.3582     86.0240     71.5186   7.9326992074e+01   5.2122572779e+01    0.2206523    0.1408639  36.86  0.001035866    1.601    0.376
       108  -8.1936     80.2649     71.6447   8.1359896333e+01   5.3100012871e+01    0.1965177    0.1314121  25.88 0.0008506679    1.601    0.375
       109  -8.9466    211.7237     69.9927   4.9565111400e+01   2.3923063432e+01    0.2385499    0.2009695  80.77 0.0004667813    1.229    0.186
       110  -9.8258     90.0854     65.6686   7.5991522497e+01   5.2513959021e+01    0.5301942    0.3657326 -70.69  0.002261886    2.573    0.611
       111  -8.8423     92.6184     59.7290   7.3086530523e+01   5.3122100418e+01    0.3009611    0.2070003 -51.53 0.0009787354    1.730    0.422
       112  -8.3939     89.7260     57.3386   7.3191158644e+01   5.4101216493e+01    0.2145289    0.1880806  37.07 0.0002581167    1.180    0.152
       113 -10.2028     95.6036     65.9567   7.4277839104e+01   5.1406491993e+01    0.4304059    0.3209489 -32.32  0.000880448    1.313    0.238
       114 -10.9692    100.7279     62.5569   7.1483879176e+01   5.1009311793e+01    0.7704113    0.4719946 -43.23  0.003546443    1.689    0.408
       115  -9.0840    204.1862     68.6224   5.0339905617e+01   2.5866079525e+01    0.2596806    0.1933187 -60.29 0.0005199114    1.367    0.268
       116  -8.4050    191.8681     69.5206   5.2535133104e+01   2.8614194943e+01    0.2110533     0.138743  55.30 0.0009990293    1.542    0.352
       117  -8.7524    168.7696     68.5168   5.6426401599e+01   3.4336622503e+01    0.2449003    0.2056281 -35.77 0.0004759245    1.204    0.169
       118  -9.3548    173.2793     66.7049   5.5044604537e+01   3.3536987770e+01    0.2809773    0.2485297  23.64 0.0006135585    1.282    0.220
       119 -10.3959    149.3245     66.9602   6.0028899507e+01   3.9302337940e+01    0.3148439    0.2865138  36.63 0.0003031254    1.109    0.098
       120  -9.8474    144.2048     63.9616   6.0258975844e+01   4.1029321338e+01    0.3294762    0.2946144 -72.34 0.0006770411    1.241    0.194
       121  -8.9060     59.5856     71.0004   8.8752087955e+01   5.6401485191e+01    0.3220342    0.2120012 -48.02  0.001469288    1.415    0.293
       122 -10.0647     16.6347     65.8322   1.0472996777e+02   6.1833580515e+01    0.4934373    0.3346039 -15.26  0.002970909    1.559    0.358
       123  -9.0951      3.6069     66.4872   1.1030302739e+02   6.2411849186e+01    0.3933588    0.1182382 -58.94   0.00176845    2.253    0.556
       124 -10.5254    234.6765     62.5570   4.4761707017e+01   1.9996692498e+01    0.4443206    0.3857056 -19.78  0.001220937    1.350    0.259
       125  -8.9977    228.4632     64.4698   4.5964360950e+01   2.1047568070e+01    0.2515509    0.1829782 -32.19 0.0007089974    1.379    0.275
       126 -10.2716     39.6299     61.0397   9.3658952682e+01   6.0894065134e+01    0.4705678    0.3626761  68.78  0.002276854    2.137    0.532
       127 -10.1271     34.4044     59.8742   9.5519239270e+01   6.1665367587e+01    0.4118574    0.2314198 -38.08   0.00215729    1.542    0.351
       128  -9.1943    208.4930     64.6878   4.8703022810e+01   2.5479557860e+01    0.2692603    0.2191312  37.91 0.0001959971    1.468    0.319
       129  -8.2082     66.9781     64.5104   8.3829473547e+01   5.6663518837e+01    0.2044719    0.1654946 -34.59 5.895665e-05    1.137    0.120
       130  -8.1446    201.9719     63.9795   4.9481780204e+01   2.7100074530e+01    0.2076507    0.1690378  24.87 0.0005065159    1.573    0.364
       131  -9.5526    134.5960     58.5606   6.0793285166e+01   4.4193010471e+01    0.5581484     0.266959 -44.07  0.002194375    2.261    0.558
       132  -8.1848    126.9590     63.9689   6.4476030415e+01   4.5073186815e+01    0.1776086    0.1706877  17.44 0.0009804149    1.007    0.007
       133  -8.4405    161.0545     62.6926   5.6250906604e+01   3.7157900304e+01    0.2511144    0.2135682 -30.34 0.0007784834    1.221    0.181
       134  -9.2639     82.3761     61.5644   7.7203722787e+01   5.4690260475e+01    0.5004944    0.2700822  21.73   0.00199799    2.561    0.609
       135  -9.6363     28.7055     54.1162   9.6226636249e+01   6.3376804062e+01    0.3912589    0.1688463 -34.34  0.001463788    2.273    0.560
       136  -8.7556     27.7952     61.8059   9.8923415451e+01   6.1862139501e+01    0.2388745    0.1865439 -13.72 0.0007635587    1.262    0.208
       137  -9.6423     24.6928     58.8249   9.9413395620e+01   6.2746639396e+01    0.3932944    0.2507826 -46.19  0.002285049    1.269    0.212
       138  -8.3971      1.3527     61.6007   1.1022167515e+02   6.3578060866e+01    0.2163527   0.09689491 -68.76 0.0005786275    2.007    0.502
       139 -10.3436    243.7113     58.7979   4.2885459058e+01   1.8649284795e+01    0.3006468    0.2769062 -63.37 0.0005744227    1.108    0.098
       140  -9.0505    249.0942     59.0109   4.2355747277e+01   1.7522890166e+01      0.26339    0.2143756 -76.11 0.0009399046    1.197    0.165
       141  -8.3477    185.3289     60.4857   5.1180298221e+01   3.1592558997e+01     0.271743     0.129717  54.28  0.001114151    2.057    0.514
       142 -10.6779     48.9262     65.4282   9.1198969811e+01   5.8933861200e+01    0.3004369    0.2541001  -6.67 0.0004483562    1.151    0.131
       143  -9.2422    174.9415     58.2202   5.2327091084e+01   3.4460184527e+01    0.4595297    0.3173439  -2.34  0.002052218    2.144    0.534
       144  -8.2966    173.1991     53.4531   5.1270658579e+01   3.5596811647e+01    0.2224524     0.175888  89.32 0.0006040229    1.369    0.270
       145  -9.5276    158.0656     57.9124   5.5418241675e+01   3.8637446522e+01    0.5069136    0.3192379  76.12  0.001969386    1.986    0.497
       146  -8.6207    149.2019     58.8745   5.7559116465e+01   4.0646211491e+01    0.2868668    0.1886202  61.24  0.001111101    1.543    0.352
       147 -10.0771     63.1545     56.0649   8.2366695669e+01   5.8870811300e+01    0.4062311     0.332271  87.23  0.001439039    2.098    0.523
       148  -8.0876      5.5606     58.2485   1.0765631449e+02   6.4106118894e+01     0.169177   0.08358146 -51.48 0.0004817915    1.496    0.332
       149  -9.0856    235.4702     56.7990   4.3352149403e+01   2.0657800138e+01    0.3178847    0.1901311 -69.17   0.00156655    1.921    0.479
       150 -10.2614    191.6628     55.6018   4.8846182707e+01   3.0798270776e+01    0.6700605    0.3602475 -69.77  0.002420801    2.948    0.661
       151  -9.2429    184.7483     50.7982   4.8616158802e+01   3.3160661843e+01    0.3468895    0.2277596 -29.81  0.001408323    1.616    0.381
       152  -8.6527    196.2237     53.0085   4.7475236072e+01   3.0084418196e+01    0.1928104    0.1653363 -57.98 0.0002381902    1.110    0.099
       153 -10.1318    192.8447     49.0536   4.6921498887e+01   3.1452223996e+01     0.390643    0.2953942 -68.65 0.0009681514    1.370    0.270
       154  -9.4869    197.3302     48.4466   4.6120775055e+01   3.0465084402e+01    0.4023508    0.2410637 -78.49  0.001776739    2.181    0.542
       155  -8.3299    224.2629     56.6335   4.4634231417e+01   2.3111476205e+01    0.1765425    0.1199476  56.93 0.0009349065    1.585    0.369
       156  -9.0088    207.1942     48.1405   4.4711174838e+01   2.8185156264e+01    0.2369844    0.1795548 -43.41 0.0003661663    1.257    0.204
       157  -9.7669    208.3167     54.9966   4.6286911918e+01   2.6957294190e+01    0.2763063    0.2380863  63.70 0.0008109876    1.206    0.171
       158  -9.2701    204.8631     51.8675   4.5963744663e+01   2.8207976365e+01     0.246844    0.2201176  -4.02 0.0004584175    1.381    0.276
       159 -10.2439    123.6074     54.9693   6.2343812189e+01   4.7323140462e+01    0.5975814    0.3373445  31.42  0.002412708    2.182    0.542
       160  -9.9286    113.2814     54.6138   6.5001015932e+01   4.9702171308e+01    0.4516403    0.3592569  30.80  0.001421398    1.241    0.194
       161  -9.4462    142.3158     54.1822   5.7587470899e+01   4.3036841814e+01    0.3819735    0.2240171  45.67 0.0006064869    1.672    0.402
       162 -10.2151      9.7256     52.6309   1.0438265502e+02   6.5068938656e+01    0.3159666    0.2854953  48.30  0.000975881    1.505    0.335
       163  -8.6567     14.8747     50.3205   1.0136885944e+02   6.5226477851e+01    0.2449407    0.2200638  59.43  0.001277081    1.573    0.364
       164  -9.7162     92.6005     48.5988   6.9042151598e+01   5.5011657998e+01    0.5220366    0.2738536 -47.16  0.002004998    2.324    0.570
       165  -9.4112     88.4533     46.3174   6.9537213985e+01   5.6190293473e+01    0.2730326    0.2130531  14.28 0.0006909783    1.284    0.221
       166  -9.3838     83.8213     51.0032   7.2873850128e+01   5.6303306083e+01    0.3098122    0.2562222  51.25 0.0009587586    1.416    0.294
       167  -9.4854     79.6523     50.3662   7.4094677837e+01   5.7171688472e+01    0.3777232    0.2696322 -11.90  0.001130305    1.502    0.334
       168  -9.9245    244.8105     49.5893   4.0741204412e+01   1.9704045671e+01    0.3286004    0.3044633  11.30  0.001416161    1.450    0.310
       169  -9.2712    242.2888     45.1663   4.0023710355e+01   2.0823040996e+01    0.2634513    0.2113157  86.63 0.0007827199    1.244    0.196
       170  -8.6697    246.7750     44.4189   3.9424501397e+01   1.9994396336e+01    0.1785315    0.1744384  39.54 0.0005942226    1.338    0.252
       171  -9.6946    250.2502     40.8325   3.8333807806e+01   1.9756449724e+01    0.2484575    0.2085265 -70.26 0.0005425045    1.068    0.063
       172 -10.1301    247.8648     37.2897   3.7795588743e+01   2.0698645662e+01    0.4716974    0.2966466 -58.57  0.002738624    1.403    0.287
       173  -9.6779    212.8850     48.5069   4.4077082524e+01   2.6819531572e+01    0.3845941    0.3229873  31.70  0.002222135    1.523    0.344
       174  -8.7606    176.8517     50.3571   4.9766792044e+01   3.5148969206e+01    0.2286789    0.1747663 -25.99   0.00118328    1.431    0.301
       175 -10.1667    120.1982     50.5032   6.1697778893e+01   4.8797384649e+01    0.2693939    0.2431831  28.54  0.000291974    1.056    0.053
       176  -8.9387    119.7056     46.0623   6.0274980437e+01   4.9572636482e+01    0.2722178    0.2412442 -11.31 0.0009571823    1.161    0.139
       177  -9.7266     72.4723     49.5099   7.6383166928e+01   5.8568606327e+01    0.4365374    0.3942325 -21.37  0.002245937    1.131    0.116
       178  -9.7221    222.1690     50.0097   4.3311834460e+01   2.4510798319e+01    0.2715771    0.1880053  57.02 0.0009832322    1.554    0.356
       179  -9.4273    237.2465     48.5489   4.1290386385e+01   2.1428181938e+01    0.2752868    0.2353522  75.25  0.001444204    1.238    0.192
       180  -9.2716    237.9616     43.0000   3.9975941533e+01   2.2020818331e+01    0.2304105    0.1629562  84.98 0.0009477972    1.434    0.303
       181  -9.6272    233.9059     45.0324   4.0848091548e+01   2.2616599642e+01    0.3799368    0.2701692 -21.75  0.002117847    1.712    0.416
       182  -9.1717    232.3312     41.6906   4.0254038779e+01   2.3399570696e+01     0.379411    0.1880235 -89.27  0.001632665    2.745    0.636
       183  -8.4902    232.4804     36.5182   3.9069454963e+01   2.4037009042e+01     0.336919    0.2069372 -32.75  0.001726374    1.642    0.391
       184  -9.5608    236.2535     35.4336   3.8461900788e+01   2.3363661482e+01    0.6328636    0.2675721 -79.46  0.002145259    4.653    0.785
       185  -9.9377    173.8010     45.3166   4.8834843167e+01   3.6600869132e+01    0.4220093    0.2931308 -17.51  0.002072561    1.750    0.429
       186  -7.9040    168.5032     49.5041   5.0949358850e+01   3.7319894728e+01    0.1436618    0.1341883 -86.72 0.0008102111    1.048    0.046
       187  -7.7249    159.9000     50.0000   5.2668328789e+01   3.9366050687e+01    0.2285633   0.07925326  59.50 0.0003378545    2.769    0.639
       188  -8.9168    109.9673     47.3118   6.3337303062e+01   5.1571794324e+01    0.5304195    0.1934188  48.26  0.001952749    2.553    0.608
       189  -9.4089     41.1167     45.9788   8.7898210753e+01   6.3685890824e+01    0.4087996    0.3158909  73.58  0.002157805    2.607    0.616
       190  -8.1226    225.5968     46.7175   4.2138976117e+01   2.4201034462e+01    0.1856773    0.1079835 -45.21 0.0009417195    1.536    0.349
       191  -8.5705    164.6741     46.2959   5.0681666098e+01   3.8713145201e+01     0.277377    0.1738766 -44.52 0.0007552136    1.645    0.392
       192  -8.2785    150.4186     45.7583   5.3201701745e+01   4.2294614238e+01    0.2433496    0.1459851 -15.05  0.001038293    2.205    0.547
       193 -10.0826    152.7875     33.9341   4.9043476372e+01   4.3262087974e+01    0.5813548    0.3416077  54.80  0.001722072    1.558    0.358
       194  -9.4020    163.0452     42.0716   4.9709598155e+01   3.9689021427e+01    0.4328579    0.2117388  58.64 0.0004814758    1.891    0.471
       195  -9.3202    156.2367     44.0581   5.1547685905e+01   4.1099794380e+01    0.3546038    0.2579292 -11.79  0.001130365    1.683    0.406
       196  -9.1996    152.8491     41.2529   5.1318019319e+01   4.2310960988e+01    0.5496909    0.2932031 -48.94  0.002351915    2.153    0.536
       197  -9.8370    137.3955     44.6505   5.5573840312e+01   4.5613508754e+01    0.5315821    0.3491768  48.75  0.001332142    1.431    0.301
       198  -9.7416    140.4503     39.5446   5.3235347459e+01   4.5567816308e+01    0.7482307    0.3221968  53.83  0.003026539    2.087    0.521
       199  -8.7002     20.9181     47.1434   9.7576119034e+01   6.5427042114e+01    0.1824693    0.1401167 -30.89 0.0003640126    1.046    0.044
       200 -10.2363     32.0198     44.1080   9.1351526655e+01   6.5020960768e+01    0.5122518    0.2996403  14.42   0.00205514    1.833    0.454
       201  -8.7076    221.3262     44.7949   4.2169985914e+01   2.5410928829e+01    0.2354787     0.155779  41.03  0.001199364    2.015    0.504
       202  -8.1974     55.2891     44.8263   8.1353490546e+01   6.2059192533e+01    0.1955701     0.157924 -45.41 0.0008219302    1.408    0.290
       203  -9.4800     96.9195     42.7804   6.5487684883e+01   5.5033814482e+01    0.3805984    0.2868919  22.44  0.001150657    1.332    0.249
       204  -9.7245     99.7287     37.1655   6.2498337093e+01   5.5248082552e+01    0.4176688    0.2420768 -39.00  0.001986384    1.874    0.466
       205  -8.3766    102.6789     34.6667   6.0689198284e+01   5.4952569034e+01    0.2233504    0.1463679  19.98  0.001064057    1.767    0.434
       206  -8.9238    147.5484     41.8562   5.2538106363e+01   4.3530810821e+01    0.3192151    0.1982958  40.47   0.00107342    1.705    0.413
       207  -9.4030    128.3823     41.5874   5.6587802983e+01   4.8185658539e+01    0.3928448    0.2823772  68.48  0.001620306    1.523    0.343
       208  -7.9784     85.0546     42.4691   6.9190411203e+01   5.7446166623e+01    0.2031101    0.1268867  39.91 0.0007260003    1.533    0.348
       209  -8.5160     89.9449     40.5167   6.6813111119e+01   5.6784871511e+01    0.4111616    0.1015724  41.77  0.001245372    4.110    0.757
       210  -8.7412     76.7047     41.9039   7.1879385711e+01   5.9084230880e+01    0.3610649    0.1616605  35.34  0.001266468    2.286    0.563
       211  -8.8761     67.5327     41.9470   7.5311888944e+01   6.0659626653e+01    0.3227189    0.1850637  38.38 0.0009783527    1.744    0.427
       212 -10.0986     51.7440     37.3707   7.9877821869e+01   6.3828833792e+01    0.2651427     0.202492 -17.72 0.0002066956    1.146    0.128
       213  -9.2254     62.2440     38.3709   7.5939298983e+01   6.2091833613e+01    0.3765584     0.279078  51.55  0.002088844    1.816    0.449
       214  -9.6193     58.3271     34.3693   7.5862295687e+01   6.3335124370e+01    0.4552192    0.2701788   4.42   0.00186399    2.192    0.544
       215  -9.1994      2.5032     41.7825   1.0480743713e+02   6.7657247239e+01     0.241298     0.160668 -83.43  0.001403245    2.210    0.548
       216  -9.4514    224.3387     38.6027   4.0380556770e+01   2.5554801662e+01    0.5070998    0.2645376 -22.66  0.002297628    2.500    0.600
       217  -8.0404    185.4882     41.4821   4.5952466095e+01   3.4258318230e+01    0.1408415    0.1251884 -77.95 0.0005277699    1.070    0.065
       218  -8.2856    170.8517     41.2001   4.8131829280e+01   3.7879488486e+01    0.3682987     0.127289  54.86  0.001353122    2.616    0.618
       219  -9.3278     18.1550     39.9793   9.6524211714e+01   6.7032759606e+01    0.4704981    0.1841547  27.57  0.002219836    2.783    0.641
       220  -8.7734     12.5257     36.1093   9.8005861664e+01   6.8175927717e+01    0.1957443    0.1449779 -21.17  0.001145389    1.150    0.130
       221  -8.2909    106.6749     39.9418   6.1557409079e+01   5.3365164773e+01    0.1857742    0.1681064 -12.45 0.0004202547    1.123    0.109
       222  -9.5095    216.2778     38.6441   4.1272840432e+01   2.7362056885e+01    0.3767507    0.2374672 -42.10  0.001181344    1.471    0.320
       223  -9.4965    212.0320     37.5147   4.1482928325e+01   2.8479142661e+01    0.3052302    0.2124448  70.13 0.0007814993    1.404    0.288
       224  -9.1920    119.8275     38.9527   5.7727372997e+01   5.0540666588e+01    0.2351191    0.1850491  49.40 0.0004062106    1.185    0.156
       225  -9.5775    112.5711     36.6027   5.8725298647e+01   5.2509677474e+01    0.5399287    0.3614326  51.54  0.002255125    1.400    0.286
       226 -10.0087      4.8218     34.2550   1.0133961308e+02   6.9004803117e+01    0.5064898    0.2129186 -52.76  0.002510601    1.852    0.460
       227  -8.5889    241.8225     37.0903   3.8302631710e+01   2.1975061831e+01    0.2055332    0.1419665 -64.01  0.001158814    1.302    0.232
       228  -8.6396    192.9417     36.5310   4.3588934242e+01   3.3098363495e+01    0.2214008    0.1932434   2.44 0.0006079576    1.447    0.309
       229 -10.3421    124.6940     35.1345   5.5204635381e+01   4.9906325758e+01    0.4107103    0.2695963 -37.77  0.001119545    1.638    0.389
       230  -8.5394     26.0480     36.7230   9.1472075405e+01   6.6965119597e+01    0.2411624    0.1252594 -34.89  0.001265586    1.634    0.388
       231  -9.4641     92.3337     35.4478   6.4064972225e+01   5.7026093301e+01    0.3716745    0.2730739  41.74  0.001899697    1.273    0.215
       232  -9.7595     70.2903     35.1757   7.1503204581e+01   6.1246499083e+01    0.3946694    0.3227062 -10.69  0.001373981    1.117    0.105
       233  -9.2799     68.0184     27.6663   6.9160913429e+01   6.2713808856e+01    0.4608625    0.2737685   1.74  0.002193047    2.177    0.541
       234  -8.3524    165.8047     35.1395   4.7181310185e+01   3.9901156083e+01    0.2056525     0.174603 -73.48 0.0005166727    1.213    0.176
       235  -8.8616    138.9545     34.1786   5.1772040918e+01   4.6616470101e+01    0.2443159    0.1993686 -72.69 0.0005188143    1.434    0.303
       236  -9.6711    134.1242     32.1938   5.2104499221e+01   4.8027187168e+01    0.2727895    0.2137643  66.05 0.0003943729    1.252    0.201
       237  -9.0173    130.5011     27.5916   5.1289743383e+01   4.9440514169e+01    0.3527464    0.1942997 -50.48 0.0007466423    2.328    0.571
       238  -8.5983     24.0078     30.9977   9.0258137366e+01   6.8174514261e+01    0.1854557    0.1549747 -69.28  0.001190409    1.895    0.472
       239  -9.5355     20.0993     31.4710   9.2435109764e+01   6.8442077643e+01    0.3943655    0.3069356  11.15   0.00219084    1.339    0.253
       240  -9.6039     13.8927     30.8709   9.5420006667e+01   6.9046588968e+01     0.315578    0.1890957  10.91 0.0008553165    1.728    0.421
       241  -9.8629      8.6919     26.4945   9.6543512536e+01   7.0200707255e+01    0.3215463    0.2466646 -23.45  0.001487467    1.056    0.053
       242  -8.8637     39.6627     32.4778   8.3248334995e+01   6.6229392217e+01    0.2426502    0.1803361   9.43 0.0007483598    1.257    0.204
       243  -9.2920    211.7260     31.6769   4.0095455091e+01   2.9282838104e+01    0.2833344     0.175006 -60.51 0.0005350599    1.599    0.375
       244  -8.8769    239.9764     31.0004   3.7146955378e+01   2.3127829349e+01    0.1835094    0.1504303 -65.66 -0.005334738    1.013    0.013
       245 -10.0294    224.2544     28.0430   3.7945603089e+01   2.6892318824e+01    0.4151128    0.2223738 -31.30  0.002110271    1.923    0.480
       246  -8.7916     96.6240     29.9397   6.0588210248e+01   5.6859750423e+01    0.2234167     0.168131  31.66 0.0005068844    1.226    0.184
       247  -9.1007     84.6008     29.3616   6.4066541014e+01   5.9395738818e+01     0.263317     0.203042  26.48 0.0005691695    1.178    0.151
       248  -8.5014    230.5933     28.7165   3.7496909861e+01   2.5417697239e+01    0.1772889    0.0977869 -46.84 0.0004582861    1.591    0.371
       249  -7.8139    168.3786     23.2377   4.3302895516e+01   4.0661347536e+01    0.2283305    0.1318417 -35.33 0.0004288389    1.794    0.443
       250  -9.1754    175.4451     27.1860   4.3425713176e+01   3.8481623348e+01    0.4721465    0.2675689 -59.32  0.002144967    2.048    0.512
       251  -9.1601    167.3343     28.6879   4.5043621750e+01   4.0301192540e+01    0.4738978    0.1910803  58.18   0.00181438    2.185    0.542
       252  -9.8202    170.1915     26.5155   4.3986912043e+01   3.9848331209e+01    0.2597783    0.1933956  64.70 0.0008862864    1.233    0.189
       253  -9.2509    156.8286     28.6022   4.6692554498e+01   4.2902380036e+01    0.4700093     0.209401  58.19  0.002007228    1.979    0.495
       254  -8.7601    153.3006     24.6470   4.6059457865e+01   4.4219220255e+01    0.3041303    0.1506305 -65.29 0.0009715882    3.531    0.717
       255 -10.5005    157.6955     22.8325   4.4790563261e+01   4.3335595048e+01    0.5375677    0.2270688  61.95  0.002278039    2.067    0.516
       256  -9.5864    123.8416     27.0383   5.2533105548e+01   5.1086267570e+01    0.3213298    0.2105709 -24.09 0.0006297711    1.661    0.398
       257  -9.5683    105.1383     26.1213   5.6725162546e+01   5.5477607979e+01     0.362506    0.1917568 -20.78 0.0003681969    2.120    0.528
       258  -9.5076    103.5724     20.8773   5.5091686031e+01   5.6414620306e+01    0.3618485    0.2671152 -48.15  0.001062628    1.697    0.411
       259  -8.9486     52.4737     28.4933   7.5784395668e+01   6.5115594047e+01    0.2355758    0.1130589  32.22  0.001139026    2.051    0.512
       260  -9.3979     51.8830     23.7750   7.3919747241e+01   6.5886191518e+01    0.3959644    0.2049528 -37.96  0.001396085    1.978    0.494
       261  -8.1582    150.5096    249.4687   9.9315041672e+01   2.6601347893e+00    0.1247979    0.1021549  30.64 0.0003347989    1.027    0.026
       262  -9.4114     44.7265     17.9884   7.4375488621e+01   6.7737070346e+01     0.423592     0.229931  21.01  0.001946373    1.907    0.476
       263  -9.8020    234.3476     25.8769   3.6526401251e+01   2.4947967805e+01    0.2453831    0.2037033 -78.15 0.0003913277    1.066    0.062
       264  -8.9598    238.5137     25.0039   3.5975688821e+01   2.4163629331e+01    0.1874936    0.1632497  61.34 0.0007904746    1.376    0.273
       265  -8.8907    188.3772     27.2129   4.1709938096e+01   3.5332032595e+01    0.3594954    0.1776341  81.06  0.001542564    2.278    0.561
       266  -8.0905     72.1946    247.6159   1.1460826627e+02   1.4235227947e+01    0.1543781    0.1009293  32.40 0.0004973509    1.579    0.367
       267  -8.4853    114.9450     27.4645   5.4752762090e+01   5.3107718077e+01    0.2069404    0.1231637  53.71  0.000455049    1.521    0.343
       268  -9.2844     62.6818     26.0027   7.0482387502e+01   6.3855004640e+01     0.291631    0.2021107   6.86  0.001367863    1.442    0.306
       269  -8.4763     48.3681     26.7313   7.6790386373e+01   6.5975963983e+01    0.1684892    0.1029641 -24.76 0.0004490419    1.519    0.342
       270  -8.7839     37.9908     26.0032   8.1236846967e+01   6.7473803282e+01    0.2371131    0.1501353 -26.23 0.0007326565    1.386    0.278
       271  -8.9500     30.7180     27.1858   8.5300345945e+01   6.8136288505e+01    0.2319863    0.1603195  30.29 0.0008202422    1.621    0.383
       272  -9.4578    217.5336     25.4124   3.7993044164e+01   2.8711779667e+01    0.4335341    0.2496713 -77.03  0.002186463    1.876    0.467
       273  -8.7204    214.7675    244.6449   8.6172058692e+01  -6.0805461930e+00    0.2977462   0.08872186  42.73  0.001109866    4.017    0.751
       274  -7.9063    134.4795    244.5013   1.0189149682e+02   5.9034542708e+00    0.1259768    0.1049943  38.94 8.995139e-05    1.006    0.006
       275  -8.4238    234.5091    242.5124   8.2241219338e+01  -8.4680902003e+00    0.1198137   0.09028798   6.02 0.0008104726    1.011    0.011
       276  -9.9578    136.9309     25.4829   4.9273972767e+01   4.8130051600e+01    0.3645535    0.2500626 -49.14 0.0003594727    1.672    0.402
       277  -8.4491    136.9746     20.7801   4.7689254603e+01   4.8626883592e+01     0.203497     0.123523  58.86  0.000208045    1.455    0.313
       278  -7.9168    227.6848    242.6696   8.3490668122e+01  -7.5839369360e+00    0.1249399   0.07575092   2.42 0.0005292231    1.680    0.405
       279  -8.7898    195.0342    242.4942   8.9564823733e+01  -2.9599835874e+00    0.2825286    0.1024493  31.24  0.001202389    2.560    0.609
       280  -9.3556    129.5180     19.0000   4.8514608078e+01   5.0606727567e+01    0.4099385    0.2054046  62.55  0.001479527    1.816    0.449
       281  -8.5053     89.1937     25.1101   6.0856084473e+01   5.9004103628e+01    0.2449764    0.2151885  41.53  0.001509255    1.155    0.134
       282  -9.0329    248.4003    240.8028   7.9528229171e+01  -1.0031407039e+01    0.1598327    0.0897904 -19.10 0.0007574905    1.649    0.394
       283  -8.2543     22.4007     23.4220   8.7923459255e+01   6.9607883460e+01    0.2523464    0.1374077 -49.94  0.001385693    2.035    0.508
       284  -9.5772    246.1898     23.3063   3.4985472151e+01   2.2761793025e+01    0.2175797    0.1696613 -77.67 0.0003124165    1.125    0.111
       285  -8.0558      1.2085     24.0123   9.9749198671e+01   7.1099711114e+01    0.1470975   0.07262703 -51.18 0.0003248398    1.654    0.395
       286  -8.1114    113.7962     22.3795   5.3136607187e+01   5.3944514689e+01    0.1922709    0.1070766  46.90 0.0003953181    1.591    0.371
       287 -10.3066    171.6563    233.5646   9.2810264714e+01   1.9582838340e+00    0.4252422     0.406604  40.62  0.002893485    1.250    0.200
       288  -8.6041    238.1070     20.4665   3.5032693208e+01   2.4781823848e+01     0.361189    0.1471798  54.26  0.001637487    2.953    0.661
       289  -8.6711    232.3117     20.9054   3.5610363534e+01   2.5970162545e+01    0.1701044    0.1366592 -48.77 0.0004404258    1.177    0.150
       290  -8.5248     11.0750    235.1883   1.2517354393e+02   2.3554280026e+01    0.1363673   0.07397269  36.43 0.0008570819    1.825    0.452
       291  -8.0293    153.0000    233.9865   9.6687179032e+01   4.8237024010e+00    0.1883761   0.07465131 -49.48 0.0008021462    2.940    0.660
       292  -8.6564    219.9686    228.6985   8.2588485500e+01  -4.6183531846e+00     0.181779    0.1398158  17.30 0.0008603815    1.102    0.093
       293  -9.2976     70.6912     19.9330   6.4754229465e+01   6.3227293625e+01    0.2762261    0.2146806 -43.58  0.001284291    1.679    0.404
       294  -8.2440     73.4502     16.0492   6.2037798944e+01   6.3162059461e+01    0.2290647    0.1186602 -20.25  0.001126079    2.040    0.510
       295  -9.4632    227.5319    215.8566   7.8946565315e+01  -3.8640389720e+00     0.218434     0.176781  10.04 0.0003102456    1.070    0.066
       296  -8.3930    151.8230     18.7680   4.4471312866e+01   4.5208686859e+01     0.191559    0.1706112 -24.96 0.0002473184    1.255    0.203
       297  -8.1266    152.3346     15.3027   4.3314979042e+01   4.5430890591e+01    0.1703624     0.136198  14.77 0.0003769588    1.507    0.336
       298  -8.4064    234.5118    209.9770   7.6610204767e+01  -4.0206406036e+00    0.1857215    0.1113803 -31.97 0.0007557962    1.573    0.364
       299  -8.1707     29.5989    198.7423   1.1927243497e+02   2.9292730607e+01    0.1714947   0.09774876  88.90 0.0009433407    1.606    0.377
       300  -9.4616     63.9648     17.8605   6.6290708588e+01   6.4682886667e+01     0.302358    0.2343446   0.53  0.001847621    1.157    0.136
       301  -8.0635    220.4427    193.5142   7.6113599365e+01   6.7986165393e-01    0.1340898    0.1142111  -3.95 0.0001364139    1.013    0.013
       302  -9.3331    170.0727     17.7646   4.1493558297e+01   4.0830368145e+01    0.4400579     0.160729  55.97  0.001792724    2.410    0.585
       303  -7.8517     17.3112    174.3187   1.2005336025e+02   3.6012714881e+01    0.1193556   0.08283074 -51.13 0.0007035201    1.644    0.392
       304  -9.2839    121.6161     17.6581   4.9652855555e+01   5.2618115616e+01    0.2331157     0.191708  68.14 0.0005153941    1.210    0.173
       305  -8.1894    224.3982    153.2144   6.7096113766e+01   6.8739751880e+00    0.2022969    0.1213391 -45.14 0.0009488519    1.685    0.407
       306  -8.2061      5.9757    141.4959   1.1998021211e+02   4.4652660540e+01       0.1723   0.07495423  51.11 0.0008100339    2.533    0.605
       307  -8.9699    184.6196     16.6394   3.9351918978e+01   3.7410074547e+01    0.3935863    0.2150888  85.87  0.001867663    1.931    0.482
       308  -8.9604    244.4837    139.4978   6.0708987271e+01   5.6356256888e+00    0.1369309    0.1165667 -25.63 0.0008104541    1.008    0.008
       309  -9.5919    113.3149     16.3279   5.0978576722e+01   5.4683030629e+01    0.2704678    0.1815401  37.87  0.000677475    1.400    0.286
       310  -9.2011     13.6449    133.2008   1.1703560516e+02   4.6136207291e+01    0.2102101    0.1629239  86.57 0.0005593183    1.192    0.161
       311  -9.5652     65.7811    131.6907   1.0145790823e+02   4.1290725804e+01    0.3497158    0.2653377   7.02  0.001206552    1.673    0.402
       312  -8.4620     25.5007    128.4651   1.1302430037e+02   4.6395766329e+01    0.1313539    0.1102113 -74.58 0.0001003764    1.020    0.020
       313  -8.0504    225.4653    124.5169   6.0496356323e+01   1.1750436641e+01    0.1429685    0.1274613 -29.05 8.505681e-05    1.015    0.015
       314  -8.4144     29.1875    124.5828   1.1136870576e+02   4.7044499471e+01    0.1687279    0.1263208  -7.63 0.0009535716    1.723    0.419
       315  -7.9093     17.0048    124.0404   1.1496006671e+02   4.8131005480e+01    0.1559791    0.1235679 -71.59 0.0003653224    1.032    0.031
       316  -9.8394     69.3949    122.8577   9.8601280593e+01   4.2999217534e+01    0.2333859    0.2315607  28.37  0.000271072    1.099    0.090
       317  -8.5864      1.5125    123.4848   1.1942811000e+02   4.9236886835e+01    0.1246519   0.09726245 -72.00 0.0008101623    1.031    0.030
       318  -8.2716      9.6859    122.6499   1.1695720978e+02   4.8958728744e+01    0.1344418    0.0743518 -48.19 0.0007046598    1.726    0.420
       319  -8.9400     12.1239    115.1491   1.1528263110e+02   5.0620212405e+01    0.2182082    0.1546774 -71.77 0.0004459241    1.150    0.130
       320  -9.3445     15.1235    112.0544   1.1391997763e+02   5.1175181165e+01    0.2361323    0.1903348 -88.02 0.0007193826    1.209    0.173
       321  -8.4863     22.3559    114.2877   1.1195316656e+02   5.0121447419e+01    0.1350047   0.08268174 -40.48 0.0003411126    1.676    0.403
       322  -9.1053      6.3060    113.3021   1.1684189406e+02   5.1413202053e+01    0.2488855    0.1592634  15.85  0.001463771    1.961    0.490
       323  -9.2079     26.0302    112.0136   1.1042098332e+02   5.0392283885e+01    0.1939238    0.1641716 -65.63            0    1.019    0.019
       324  -7.8589    105.3222    111.7016   8.4931782429e+01   3.9830939833e+01    0.1529638    0.1229688  81.76 0.0007023426    1.624    0.384
       325  -9.0210     19.4836    105.0530   1.1144600841e+02   5.2570955777e+01    0.2423557    0.1331962 -43.59 0.0008343971    1.721    0.419
       326  -8.1120    120.7250     13.1548   4.8209694012e+01   5.3263413709e+01     0.204889    0.1603054 -51.68  0.001172813    1.526    0.345
       327  -9.2681    120.1182    103.0943   7.8302368474e+01   3.8859470257e+01    0.3412117    0.2415745  56.76 0.0002722054    1.630    0.386
       328  -8.0131    246.6755    103.6777   5.2520620796e+01   1.1167259125e+01    0.1321558    0.1021907  -0.45 0.0007047298    1.683    0.406
       329  -8.4660     25.5233    103.4441   1.0914831054e+02   5.2512917378e+01    0.1313162    0.1098781 -60.12 9.708979e-05    1.007    0.007
       330  -8.2434    218.0273    103.0000   5.6682659283e+01   1.7053353976e+01    0.2225467   0.08315156  53.72 0.0005027953    2.932    0.659
       331  -8.4903     56.0754    100.2765   9.7983056236e+01   5.0238136548e+01    0.1817823     0.175611 -27.89 0.0002626515    1.096    0.088
       332  -9.4776    203.5895     97.0441   5.7662141520e+01   2.1241877004e+01    0.3802349    0.2106399 -42.91  0.001649081    1.690    0.408
       333  -8.0056    130.5637     97.9406   7.3959295999e+01   3.7748316876e+01    0.2345918     0.150895 -42.46  0.000527459    1.533    0.348
       334  -7.7347    150.6712     97.3023   6.8652465858e+01   3.3369640469e+01    0.1576244    0.1250854 -83.00  0.000703322    1.647    0.393
       335  -7.9253    150.0683     10.5412   4.2181210387e+01   4.6437448597e+01    0.1959466    0.1170008  68.51 0.0004211696    1.488    0.328
       336  -9.4946     72.4102     95.8514   9.1257350502e+01   4.9073331024e+01    0.3639788    0.3002508  -4.12  0.001036507    1.341    0.254
       337  -9.2950    164.9954     94.6386   6.4609879691e+01   3.0570900523e+01    0.3098099    0.2773094  51.18 0.0007382458    1.137    0.120
       338  -8.5351     38.8080     94.5921   1.0277406864e+02   5.3479937222e+01    0.2992931     0.128435 -48.57 0.0009447706    1.965    0.491
       339  -8.0521    174.6020     92.8138   6.2062496974e+01   2.8667033288e+01    0.2178986    0.1382058 -47.73 0.0005913046    1.596    0.373
       340  -8.0679    145.4138     92.8322   6.8662081405e+01   3.5467172674e+01    0.2062561    0.1484593 -27.39 0.0003348304    1.512    0.339
       341  -9.0931    249.5640     92.2068   4.9594722794e+01   1.2448963896e+01    0.2120336    0.1156779 -37.63  0.001038431    1.568    0.362
       342  -9.4456     20.1865     91.0138   1.0875350997e+02   5.5869699436e+01    0.3170714    0.2110301 -42.39  0.001362929    1.352    0.260
       343 -10.8488    189.1744     88.1505   5.7962291355e+01   2.6106072366e+01    0.3699315     0.288575 -79.44            0    1.548    0.354
       344  -8.9768     55.9689     89.6127   9.5396972903e+01   5.2756241169e+01    0.4370906      0.28466  67.38  0.001914631    2.623    0.619
       345  -8.1715     99.7437     90.4381   8.0741065777e+01   4.5663911805e+01    0.2044132    0.1446739  25.95  0.000641711    1.563    0.360
       346  -8.7168     27.9114     88.9752   1.0552922862e+02   5.5769204991e+01    0.2574475    0.1989285  88.72  0.001495109    1.548    0.354
       347  -9.9443    211.1556     92.0343   5.5134400478e+01   2.0435583503e+01     0.457806    0.3003056 -62.45  0.001592492    1.830    0.453
       348  -8.7249      5.9946     87.4913   1.1325241679e+02   5.7541146892e+01    0.2021197      0.13918 -63.25  0.001243621    1.146    0.127
       349  -8.8951     33.5260     16.4654   7.8981899411e+01   6.9446314675e+01    0.2091464    0.1620756  16.22 0.0006510072    1.231    0.188
       350  -8.0930    170.1801     86.7852   6.1319980690e+01   3.0821134049e+01    0.2056088    0.1792241  17.34 0.0006315178    1.304    0.233
       351  -8.8426    241.5975     86.0843   4.9262139146e+01   1.4980504739e+01     0.373144    0.1809227  54.54  0.001715721    2.305    0.566
       352  -7.9807    102.7623     86.3333   7.8570530963e+01   4.5959632713e+01    0.2020817    0.1383183  32.08 0.0005849249    1.542    0.352
       353  -9.9087    199.7738     76.5116   5.3067345410e+01   2.5624332510e+01    0.4549827    0.3097961  37.44  0.001291685    1.794    0.443
       354  -8.3312    195.5678     77.5079   5.4026550469e+01   2.6439321057e+01    0.2391135    0.1333723 -37.06 0.0001322124    1.720    0.419
       355 -11.2341    195.7167     82.1464   5.5214808494e+01   2.5625216381e+01    0.3381391    0.3050988  83.95 0.0002445608    1.152    0.132
       356 -10.5303    188.8610     82.1463   5.6426262136e+01   2.7226977188e+01    0.3256318    0.2633092  47.00 0.0003307683    1.302    0.232
       357  -8.2792     96.8889     85.3608   8.0122686619e+01   4.7288121149e+01    0.2058354    0.1379563  26.79 0.0004397268    1.661    0.398
       358  -8.7409    235.8953     83.4847   4.9424171760e+01   1.6551734949e+01    0.2239726    0.1629228 -39.91  0.001227389    1.218    0.179
       359  -9.3076     87.1194     82.5225   8.2450656362e+01   4.9663346330e+01    0.4113364      0.30767 -72.00  0.001709332    1.869    0.465
       360  -9.9439     63.9333     82.1305   9.0460236963e+01   5.3400646072e+01     0.437431    0.2788571 -60.26 0.0003878449    1.718    0.418
       361  -7.9195    158.6485     83.3283   6.2818398274e+01   3.4191223741e+01    0.1609814    0.1207267 -77.38 0.0007047794    1.767    0.434
       362  -7.4890    154.3189     83.3273   6.3792381148e+01   3.5217008872e+01    0.1580702    0.1213192  11.99 0.0005295057    1.681    0.405
       363  -8.2679    146.4254     82.9492   6.5528546273e+01   3.7143794161e+01    0.2318088    0.1483102 -40.37 0.0003764198    1.557    0.358
