#   1 NUMBER                 Running object number                                     
#   2 MAG_AUTO               Kron-like elliptical aperture magnitude                    [mag]
#   3 X_IMAGE                Object position along x                                    [pixel]
#   4 Y_IMAGE                Object position along y                                    [pixel]
#   5 X_WORLD                Barycenter position along world x axis                     [deg]
#   6 Y_WORLD                Barycenter position along world y axis                     [deg]
#   7 A_WORLD                Profile RMS along major axis (world units)                 [deg]
#   8 B_WORLD                Profile RMS along minor axis (world units)                 [deg]
#   9 THETA_WORLD            Position angle (CCW/world-x)                               [deg]
#  10 FWHM_WORLD             FWHM assuming a gaussian core                              [deg]
#  11 ELONGATION             A_IMAGE/B_IMAGE                                           
#  12 ELLIPTICITY            1 - B_IMAGE/A_IMAGE                                       
         1 -17.4340    209.6764     52.7944   4.4495374446e+01   2.6512250384e+01     4.394414     3.500617  56.77   0.02526755    1.355    0.262
         2 -16.4256    246.4455    120.5811   5.5045066571e+01   7.9812216108e+00     7.788304     4.544462   5.55   0.02602948    5.054    0.802
         3 -17.4143    240.3963    107.3549   5.3021015936e+01   1.1325991734e+01     8.291181     2.635108  47.96    0.0257281    3.662    0.727
         4 -16.9837    233.2194     70.6910   4.5732287079e+01   1.8691454628e+01     2.358066     1.353336 -26.26   0.01114359    2.048    0.512
         5 -17.4527    228.4764     95.3289   5.2024197019e+01   1.5710548040e+01     11.22735     4.291824  68.21   0.03128801    5.963    0.832
         6 -16.8799    222.5706     81.7343   4.9701664665e+01   1.9200156936e+01     8.886685     4.485322 -77.20   0.02285992    6.728    0.851
         7 -17.7210    247.4525     68.7796   4.3634826489e+01   1.6084276635e+01     8.675991      1.71739 -36.58   0.02749127    4.210    0.762
         8 -12.2335    113.2664     29.5565   5.4602776293e+01   5.2653333382e+01    0.5961697    0.4487835 -34.57  0.001373526    1.444    0.308
         9 -11.3726     14.3860     15.2303   8.6195296434e+01   7.1320686434e+01    0.5085033    0.3111459  38.50  0.002732916    2.323    0.570
        10 -11.0839     68.3088     14.6835   6.1594929461e+01   6.3716446254e+01    0.3194675    0.2791728  49.14   0.00119437    1.351    0.260
        11 -10.7318     51.6542     14.0943   6.7598570642e+01   6.6680510449e+01    0.3609294    0.2873621 -65.77  0.002062293    2.539    0.606
        12  -9.8918     44.2022     14.0962   7.0761313279e+01   6.7840087383e+01    0.3155437    0.1604919  16.85  0.001503867    2.431    0.589
        13 -10.0083    168.3566     10.1946   3.8662131662e+01   4.1497527898e+01    0.4163504    0.2884586 -21.98  0.002158068    1.706    0.414
        14 -10.4169    250.5562      8.8359   3.0959435932e+01   2.3261049367e+01    0.2221637   0.09605215 -46.00 0.0008334726    1.846    0.458
        15  -5.5126    248.4929      4.0231   3.0154135805e+01   2.4194080768e+01    0.2084674     0.107685 -50.14 0.0008729121    1.565    0.361
        16 -10.0486    244.4138      7.3603   3.1072754078e+01   2.4655528668e+01     0.259082    0.1473808 -61.75   0.00101624    1.478    0.323
        17  -8.9483    244.5962      3.1690   3.0231955566e+01   2.5067394581e+01    0.1676923    0.1225503 -86.13 0.0003333412    1.187    0.158
        18 -10.1066     60.6630      9.4479   6.1893283058e+01   6.5663851913e+01    0.2018903    0.1751182  51.88 0.0009668411    1.452    0.311
        19  -9.5827    208.8900      5.0474   3.3233113278e+01   3.2510210783e+01    0.4076672     0.274606   1.65  0.002201595    2.542    0.607
        20 -10.4873     51.9424      6.3066   6.3686854715e+01   6.7496627704e+01    0.2438805    0.2201763  35.28  0.001723553    1.374    0.272
        21 -10.5245    107.5669      3.7703   4.6345065687e+01   5.6518084528e+01    0.3791221    0.3288463  47.61  0.001373254    1.023    0.022
        22 -10.9106    101.9943      3.3072   4.7361009110e+01   5.7808984919e+01    0.4776104    0.3238508  47.61 0.0006512653    1.238    0.192
        23 -10.8355     71.6708      4.1172   5.5680037313e+01   6.4116633845e+01    0.3759703    0.3470436 -27.17  0.001602714    1.362    0.266
        24  -8.1434    196.4236      5.4650   3.4430312090e+01   3.5311181690e+01    0.1235042    0.1054776 -86.33 7.199937e-05    1.034    0.033
        25  -9.5824    201.8554      2.7083   3.3290474701e+01   3.4333110450e+01    0.3584105    0.2758304 -82.42  0.002315784    1.101    0.092
        26  -9.6894    156.3938      4.3134   3.8505491149e+01   4.4920622750e+01    0.2476339    0.1935992 -75.81 0.0005685323    1.293    0.227
        27 -10.2451     92.4916      3.5430   4.9662039385e+01   5.9877138502e+01     0.282699    0.2571522 -52.91   0.00090241    1.389    0.280
        28 -10.2991     78.5428      2.7739   5.3024942496e+01   6.2863646033e+01    0.2942241    0.2245917 -30.04  0.001472093    1.533    0.348
        29 -10.2657     65.6487      4.5722   5.7840955902e+01   6.5227481329e+01    0.2223934    0.1710977  13.89 0.0009647625    1.149    0.129
        30  -9.1016    176.1264      2.7958   3.5775072852e+01   4.0325168030e+01    0.2707382    0.1528037 -38.19  0.001452118    1.824    0.452
        31  -8.9733    162.3819      3.7136   3.7585726351e+01   4.3531268556e+01    0.2425187    0.1541736  73.28 0.0009475789    1.367    0.269
        32  -9.2580     11.5406      4.0836   8.2289101556e+01   7.3198184258e+01    0.1567897   0.09129759 -33.58 0.0006051086    1.520    0.342
        33 -10.1239    165.2421    181.3716   8.3685540693e+01   1.1885545379e+01    0.2577908    0.2191841  -3.34 0.0006442888    1.242    0.195
        34  -9.5720     91.6376    178.0842   1.0082274026e+02   2.5624252106e+01     0.467966    0.2592091  79.53  0.001651959    3.366    0.703
        35  -9.8968    160.0479    176.5734   8.3906642592e+01   1.3846668205e+01    0.3539044    0.2770631  44.65   0.00180053    1.292    0.226
        36 -10.4305    171.7301    171.7394   8.0292438910e+01   1.2631033935e+01    0.4591025    0.3121352 -25.87  0.001382613    1.658    0.397
        37  -9.9704     87.6494    171.4768   1.0077994777e+02   2.7830383655e+01    0.4063799    0.3396173 -41.08  0.002197392    1.335    0.251
        38  -9.7519    151.7821    149.7105   8.0137222590e+01   2.1272346372e+01    0.5094158    0.3303035  67.90  0.001990304    2.390    0.582
        39  -9.5328    154.1499    146.0993   7.8747986719e+01   2.1586920175e+01    0.2864717    0.2320306  47.79 0.0006379714    1.276    0.216
        40 -10.5549    154.6096    162.2197   8.2204914807e+01   1.7958281206e+01    0.5341549    0.3345743 -62.48  0.002211185    2.075    0.518
        41 -10.1398    154.7576    156.4004   8.0913351566e+01   1.9199606611e+01    0.4279849    0.2270393 -54.57  0.001657486    2.139    0.533
        42  -8.8185     77.8429    163.1727   1.0199858757e+02   3.1340365318e+01    0.1967221    0.1747621 -25.44  0.001085748    1.341    0.254
        43  -8.4129    179.9340    159.5323   7.5892504595e+01   1.3531921107e+01    0.2043695     0.146044  39.64 0.0003160349    1.422    0.297
        44  -8.6236     15.6270    159.2224   1.1776452336e+02   3.9443701989e+01    0.1715536    0.1403372  79.89 0.0007739451    1.108    0.097
        45  -9.9376     94.3545    156.3804   9.6374980367e+01   3.0445685216e+01    0.5993577    0.3149418 -75.85  0.002124273    2.922    0.658
        46 -10.7736    143.4081    155.1999   8.3388982135e+01   2.1722618089e+01    0.5404615    0.4481231  77.97  0.002152113    1.487    0.327
        47 -10.4245    136.1280    151.1845   8.4323616548e+01   2.4073814010e+01    0.4940736    0.4129313  47.01  0.001026678    1.217    0.178
        48 -11.6306    132.4662    139.6733   8.2660876417e+01   2.7461091235e+01     1.037256    0.4984602 -58.74  0.003579674    2.629    0.620
        49 -10.4092    137.7499    139.3119   8.1219870542e+01   2.6475184970e+01    0.4779544    0.3210779 -57.23  0.001650821    1.607    0.378
        50 -10.7310    124.5619    157.8046   8.8678948214e+01   2.4760820129e+01    0.8921777    0.5434852   5.37  0.002949375    3.611    0.723
        51 -10.3867    181.0505    155.0564   7.4664824346e+01   1.4221465484e+01     0.308676    0.2630697 -66.39 0.0008857645    1.409    0.290
        52 -10.9327    179.0874    150.6335   7.4098060705e+01   1.5519379279e+01    0.4393762    0.3816691  58.75  0.001144332    1.310    0.237
        53  -9.6354     52.0060    150.6466   1.0706174945e+02   3.7913129135e+01    0.3278949    0.1865927 -66.85   0.00129793    1.581    0.367
        54 -11.3392     61.4598    149.4326   1.0423507655e+02   3.7039823672e+01     0.526841    0.3813937 -21.99  0.002598676    1.896    0.473
        55 -12.1656     56.0714    143.7230   1.0482957443e+02   3.9159976663e+01    0.5705301    0.4893225  68.08  0.003274861    1.206    0.171
        56 -12.5233     42.4785    141.2876   1.0834610616e+02   4.1342648169e+01    0.8819044    0.5698567  81.79  0.004357277    1.777    0.437
        57 -10.9451    145.8756    143.5844   8.0177665662e+01   2.3844691482e+01    0.6168823    0.3630428 -52.77  0.002532923    1.780    0.438
        58  -9.3883    104.2453    145.6823   9.1555681994e+01   3.1380613679e+01    0.2815669    0.2576267  81.75 0.0006844507    1.144    0.126
        59  -9.7652     84.7505    143.6769   9.6606793808e+01   3.5138224119e+01    0.2884029    0.2197131  80.56  0.001225883    1.560    0.359
        60 -10.5250    120.4660    141.6100   8.6264473184e+01   2.9366267405e+01    0.5808008    0.3871109  76.61  0.002254086    2.439    0.590
        61  -9.0997     28.4965    143.4700   1.1260194271e+02   4.2187542205e+01    0.1331724    0.1123398 -76.24 0.0001108221    1.009    0.009
        62  -9.3392    142.2613    137.0786   7.9552463828e+01   2.6056960065e+01    0.3218126    0.2098383 -39.94 0.0003892911    1.548    0.354
        63 -10.0435    140.6634    132.9457   7.8963579791e+01   2.7323970711e+01    0.5100124    0.2723481  48.96  0.001903948    1.997    0.499
        64 -11.0728     59.6494    135.3162   1.0233810334e+02   4.0827955983e+01    0.5007207    0.2736587  84.86  0.001800464    3.264    0.694
        65 -10.1216     86.4803    149.6480   9.7268650402e+01   3.3379058773e+01    0.3716152    0.2531549  52.75  0.001746356    1.582    0.368
        66 -10.2247     85.5632    133.6676   9.4333663193e+01   3.7500687259e+01    0.6024785    0.3176229 -61.33  0.002447349    1.924    0.480
        67 -10.3631     89.5064    131.8308   9.2781387520e+01   3.7313115152e+01    0.4430253    0.3203088  -4.53  0.001967904    1.987    0.497
        68  -9.5745      2.1647    226.9480   1.2530268145e+02   2.5507424864e+01    0.2539649    0.1167843 -74.53  0.001489937    1.939    0.484
        69  -9.2725    104.6564    133.4153   8.8763703257e+01   3.4293899680e+01    0.4305505    0.2259442 -44.01  0.001695647    1.927    0.481
        70  -9.9142    145.8231    125.3695   7.5798535363e+01   2.7928121349e+01    0.3604542    0.3047816  57.56 0.0008912846    1.272    0.214
        71 -15.1224    248.1113     98.5340   5.0020798700e+01   1.1314799558e+01    0.5653582    0.5019572  -0.28  0.002579214    1.367    0.269
        72  -9.0906    183.4139    223.5321   8.7452953519e+01   9.4317225452e-01    0.3092855    0.1176066 -38.20  0.001260413    2.919    0.657
        73  -9.7278    134.9677    197.5193   9.3557649318e+01   1.3992848838e+01    0.2178775    0.1910565 -52.29 0.0005788885    1.216    0.177
        74  -9.2055    248.0491    129.6151   5.6753164519e+01   6.1814177746e+00    0.1951922    0.1550994  34.96  0.001145142    1.469    0.319
        75  -9.1982    135.6054    128.7467   7.9232224276e+01   2.9330442065e+01    0.3099048    0.1477196 -42.91  0.001129216    2.091    0.522
        76 -10.3897    142.0903    145.4960   8.1554960426e+01   2.4183272164e+01     0.486638     0.302602 -44.44  0.001829672    1.593    0.372
        77  -9.8522    127.7509    124.8834   8.0339913254e+01   3.1837578711e+01    0.3085122    0.2405415 -84.04  0.001382091    1.693    0.409
        78 -10.1376     50.9207    127.3680   1.0353764435e+02   4.3895948283e+01    0.3382019    0.1935532 -79.69  0.001474867    2.051    0.513
        79  -8.9885     46.6581    198.1241   1.1419258916e+02   2.7090695265e+01    0.2152142     0.141128  81.80  0.001191994    1.462    0.316
        80  -9.7709     40.1607    125.3438   1.0649752574e+02   4.5584699662e+01    0.2454819    0.1348513  10.76  0.001082499    2.588    0.614
        81 -10.9030     26.7536    124.2545   1.1044252160e+02   4.7119264425e+01    0.3865968    0.1686535  43.92  0.001694467    2.647    0.622
        82 -10.5564    134.9662    121.0125   7.7455724084e+01   3.1214347327e+01    0.3757939    0.3549033 -50.97 0.0008936564    1.054    0.051
        83 -10.4296    138.8142    119.5092   7.6075399992e+01   3.0730607373e+01    0.5300938    0.3607589 -48.87  0.002298936    1.463    0.317
        84 -10.2360    135.0215    116.2504   7.6209024656e+01   3.2266502277e+01    0.3407241    0.2902827  33.32 0.0002778215    1.220    0.180
        85 -11.6858      5.0398    118.8001   1.1629016373e+02   5.0028813883e+01    0.4612587     0.372465 -80.79  0.003030504    1.093    0.085
        86  -9.1653     82.6065    119.6614   9.2117960304e+01   4.1428639890e+01    0.2559937     0.178269  57.08  0.001150931    1.735    0.424
        87 -11.0116    147.9340    130.5203   7.6556127896e+01   2.6336630212e+01    0.9938524    0.5051262  61.03  0.003195138    3.274    0.695
        88 -15.4295    218.0233     63.7439   4.6052717105e+01   2.3020730321e+01     1.205516    0.7109725 -35.97  0.005376832    1.619    0.382
        89 -10.2601    113.3140    121.2129   8.3393442316e+01   3.5580880999e+01    0.2956982    0.2400638  78.06 0.0009932193    1.538    0.350
        90  -9.2113    112.6516    113.9555   8.1727273027e+01   3.7400309535e+01    0.2327514    0.1964679 -47.38  0.001150955    1.151    0.131
        91  -9.6279    208.0079    193.5303   7.7102467744e+01   2.0272680485e+00    0.2450576    0.1833097 -48.21 0.0007674797    1.577    0.366
        92  -8.9050     71.1311    109.8672   9.3444728750e+01   4.5572082455e+01    0.2240981    0.1994387  89.58  0.001220911    1.270    0.213
        93 -11.7377     14.3608    108.3648   1.1193853894e+02   5.1967053810e+01    0.4505727    0.2292925 -66.19  0.002287339    1.574    0.364
        94 -10.9673      4.3753    103.8111   1.1452773017e+02   5.3671406991e+01    0.3422672    0.2174201  -9.16  0.001962794    2.019    0.505
        95  -8.7136     90.8495    102.8501   8.5329242867e+01   4.4049071793e+01    0.2035899    0.1824889 -89.90 0.0006661793    1.309    0.236
        96  -8.7289     78.4919    103.0257   8.9341498087e+01   4.6079575872e+01    0.2360905    0.1372354 -50.27  0.001032502    1.595    0.373
        97  -9.0743     68.2932     98.4144   9.1543535249e+01   4.8713526426e+01    0.3076383    0.2112397  85.40  0.001310428    2.459    0.593
        98  -9.9336     15.5708     98.3413   1.0990082705e+02   5.4295261214e+01    0.2557013    0.1119619 -72.05  0.001138527    2.133    0.531
        99  -9.0711     95.2019     95.5119   8.1927341660e+01   4.4927770388e+01    0.2915268    0.2075337 -45.82  0.001239416    1.349    0.259
       100  -8.7946     44.2688     95.0137   9.9087369316e+01   5.2570895090e+01    0.1924913    0.1548078 -51.85 0.0003910313    1.084    0.077
       101 -11.3361    104.7441     85.8306   7.6129254990e+01   4.5174409829e+01    0.5689316     0.443266 -65.48   0.00196708    1.584    0.369
       102  -8.6251     49.1594     88.9486   9.5844183420e+01   5.3433558354e+01    0.2167301    0.1548984 -84.83  0.001059609    1.963    0.491
       103  -8.9108    136.5559    224.7998   9.7474223934e+01   8.2968261345e+00    0.2539439    0.1545056  26.90 0.0008421693    1.698    0.411
       104  -9.3890      1.8252     84.4141   1.1240358653e+02   5.8353080050e+01    0.1583008    0.1045912 -21.22 0.0008035681    1.680    0.405
       105  -8.7820     58.3064     83.6621   9.1087195828e+01   5.3483604238e+01    0.1350042    0.1113229  84.03 0.0005217959    1.677    0.404
       106  -9.9180     81.9592     77.3449   8.0810886356e+01   5.1203569927e+01    0.3990175    0.2877972 -58.09  0.001296182    1.618    0.382
       107  -9.8862     85.0666     72.2898   7.8136705636e+01   5.1678045773e+01    0.3218876    0.2547793  22.26  0.000584651    1.299    0.230
       108  -9.5758     98.5285     76.4246   7.5107479301e+01   4.8318547659e+01    0.2890438    0.2492217  84.12 0.0007791595    1.527    0.345
       109  -8.9120     86.8114    222.2122   1.0789845207e+02   1.6498932686e+01    0.2293513    0.1136967  65.55 0.0009465636    2.797    0.643
       110  -9.4796      2.2841     77.0072   1.1091204102e+02   6.0020018383e+01    0.1842864    0.1281978 -58.53 0.0007109344    1.121    0.108
       111  -9.8102    104.9576     71.5898   7.1574639622e+01   4.7958194861e+01    0.2692077    0.2165963 -44.86 0.0005226207    1.287    0.223
       112 -10.4409     99.6063     68.6433   7.2233017038e+01   4.9602919640e+01    0.5467284    0.4150395  88.99  0.002499086    2.164    0.538
       113  -9.5202     85.8201     55.0939   7.1966899819e+01   5.4729498568e+01    0.2766285    0.2311811  65.69   0.00112978    1.583    0.368
       114 -10.2578     94.1860     61.0255   7.1342476434e+01   5.2073303306e+01    0.5726832    0.2758797 -50.50  0.002200532    2.668    0.625
       115  -9.9475     90.7520     57.6002   7.1241954876e+01   5.3349194438e+01     0.337509     0.222539  64.94  0.001483661    2.344    0.573
       116  -9.6435    100.6655     62.2771   6.9758067312e+01   5.0545401925e+01     0.366102    0.2543193 -47.29  0.001776128    1.577    0.366
       117  -8.2179     89.6032    199.2878   1.0442199040e+02   2.1030616206e+01    0.1497627   0.09332576  63.05  0.000699953    1.779    0.438
       118 -10.3691     79.5010     63.0470   7.6937984033e+01   5.4454316066e+01    0.3689405    0.2060984  34.92  0.001675936    1.830    0.454
       119  -9.4738     53.6920     62.6824   8.6440840273e+01   5.8545138771e+01    0.2515413    0.1658051 -68.34  0.001127517    2.418    0.586
       120 -10.6286    185.8609    201.6194   8.3103944640e+01   4.3297025527e+00    0.2799734    0.2318103  40.94  0.001062638    1.277    0.217
       121  -9.5278     57.3048     55.4343   8.2517570237e+01   5.9444168657e+01    0.2683964    0.2046693 -82.34  0.001315856    2.495    0.599
       122  -8.6075     21.1825     50.9723   9.6488476273e+01   6.4407744182e+01    0.1778586    0.1383594 -82.15 0.0008374773    1.945    0.486
       123 -10.2571     85.8282     48.4804   6.9535720526e+01   5.5829492308e+01    0.3937591    0.2959433  84.20  0.001852305    2.441    0.590
       124  -9.8302     59.2369     46.8117   7.8569691508e+01   6.0709411623e+01    0.2459843    0.1886464  49.08 0.0009902845    1.692    0.409
       125 -11.5519     68.2002     41.0738   7.2877174569e+01   6.0209256350e+01     0.584522    0.3731476 -51.10   0.00289668    2.117    0.528
       126 -10.7201     72.5237     36.8243   6.9589989542e+01   6.0101439387e+01    0.3643916    0.2900168 -39.18  0.001158618    1.419    0.295
       127  -8.8966    132.7749     42.7491   5.4654908023e+01   4.6401399758e+01    0.2065015    0.1828895  36.55 0.0007245218    1.110    0.099
       128 -10.0212     55.1295     39.6679   7.7424757016e+01   6.2528410922e+01    0.2872991    0.2009006  -2.28 0.0005723968    1.475    0.322
       129 -10.3948    170.0551    196.4176   8.5495861909e+01   8.0360321026e+00    0.4241191    0.3318369 -22.25  0.002280191    1.356    0.262
       130 -11.6806    123.4747     34.7786   5.4051168849e+01   4.9650031340e+01    0.6446254    0.3773955 -25.78  0.003060704    1.871    0.465
       131  -8.9417     45.5083     39.0135   8.1219615268e+01   6.3999182949e+01    0.1872645    0.1134394 -38.36 0.0004832946    1.531    0.347
       132  -9.0247     50.9951     36.0210   7.7655869844e+01   6.3725736211e+01    0.1998873    0.1334078  -2.48 0.0003165841    1.591    0.371
       133  -9.6249     43.4488    221.2636   1.1695058347e+02   2.2390145682e+01    0.2916466    0.1937906  68.09   0.00163546    1.313    0.238
       134 -10.1266    107.2152     20.5974   5.2759619583e+01   5.5036855402e+01     0.237611    0.2225565  24.57 0.0002747638    1.079    0.073
       135 -10.5119     24.2834     27.6708   8.6481180835e+01   6.8384698395e+01    0.1915266    0.1714748 -18.04 0.0007326253    1.290    0.225
       136  -8.7619     48.2411     25.1726   7.4167824679e+01   6.5764846558e+01    0.1544032    0.1446416 -11.79 0.0006277499    1.354    0.261
       137  -9.9591     11.3670     23.3927   9.1432261593e+01   7.0273124661e+01     0.184907    0.1652286  62.16 0.0008385116    1.979    0.495
       138  -9.4700     31.9895     22.4920   8.0400347724e+01   6.8341545941e+01    0.1806391    0.1746116  48.61  0.001281542    1.687    0.407
       139  -9.9593     50.5338     18.7113   7.0241836158e+01   6.6289039231e+01    0.2319399    0.2000771 -61.52  0.001065811    1.981    0.495
       140  -9.7872     53.3153     27.9252   7.3245483530e+01   6.4604789651e+01    0.2347176    0.1514252  11.84 0.0008215799    1.613    0.380
       141 -11.4529    236.2521    211.4979   7.5199801027e+01  -5.1814745876e+00    0.4813835    0.3206586 -40.29   0.00223561    1.661    0.398
       142 -12.0840     26.3226    207.1900   1.1938972684e+02   2.7313996877e+01    0.8409708    0.6004868  36.33  0.002256211    1.516    0.340
       143  -9.2572     57.7784    209.4624   1.1284916745e+02   2.3183939398e+01    0.2246336    0.1649862 -78.34 0.0006648493    1.299    0.230
       144 -11.0801    244.8424    208.0608   7.3058175789e+01  -5.8811005394e+00    0.3231248    0.1570425 -34.61  0.001461418    1.872    0.466
       145 -10.1906    188.0687    208.0396   8.3818610471e+01   2.8230120711e+00    0.5675213    0.3246678  58.95  0.002233152    3.412    0.707
       146  -8.6874    192.5058    199.5058   8.1342959254e+01   3.5809408079e+00    0.1394728    0.1210094   3.40 0.0002824606    1.040    0.038
       147  -9.0209    144.0403    209.0635   9.3420389037e+01   1.0086313945e+01    0.2087188     0.191009  36.60 0.0004085738    1.029    0.029
       148 -10.9421    249.0771    205.4425   7.1846566850e+01  -6.0842668058e+00    0.4366906    0.1825209 -37.24   0.00187515    2.199    0.545
       149 -10.7726    228.3508    205.8765   7.5593308598e+01  -3.1874224165e+00    0.4110366    0.2552009  13.93  0.002189997    1.712    0.416
       150 -10.9556    225.3654    202.1506   7.5446053316e+01  -2.1566446458e+00    0.2684935    0.2378615 -38.21 0.0008555623    1.394    0.283
       151 -16.4524    240.4094     88.8868   4.8908888601e+01   1.4362976837e+01     1.322074    0.7406467 -52.27  0.006429265    1.725    0.420
       152 -12.2194    226.4930    198.2733   7.4504598792e+01  -1.7138573570e+00    0.8747638    0.3685289  40.02  0.003815183    2.473    0.596
       153 -12.6037     21.8591    223.3357   1.2140170278e+02   2.4333860638e+01    0.6271368    0.4563131  83.36  0.004323797    1.130    0.115
       154 -12.3261     14.7515    217.7612   1.2243624237e+02   2.6208480098e+01    0.5628354    0.2929116 -74.70  0.003316126    1.722    0.419
       155  -9.6027    162.5123    193.0255   8.6521514943e+01   1.0038531678e+01    0.2056672     0.140667 -44.99 0.0004023855    1.528    0.346
       156  -9.6529    135.5179    193.0714   9.2669975119e+01   1.4836266983e+01    0.2860557    0.1882474  51.59 0.0008400086    1.597    0.374
       157  -8.6704      1.5068    193.4866   1.2362517085e+02   3.2647522411e+01    0.1179773   0.09085269  83.65 0.0008104228    1.020    0.020
       158  -8.7187     85.4490    192.2861   1.0444786810e+02   2.3245266138e+01    0.1829556    0.1285854 -81.45 0.0006472005    1.520    0.342
       159  -9.0185    102.4221    232.2014   1.0572924036e+02   1.2202079837e+01    0.1689847    0.1198792 -83.67 0.0009509472    1.667    0.400
       160  -9.0821     65.6621    187.9358   1.0862873311e+02   2.7061663127e+01    0.2512283    0.1664866  62.58  0.001049037    1.521    0.343
       161  -8.7583    108.9554    187.4787   9.8047515319e+01   2.0632871083e+01    0.2150689    0.1338117  40.93 0.0005673059    1.532    0.347
       162  -9.9027    168.3474    186.0762   8.3913944059e+01   1.0366414757e+01    0.2695127    0.2023108  39.78 0.0004941779    1.305    0.234
       163  -8.2539     34.4911    186.0054   1.1579377297e+02   3.1260941403e+01    0.1863652   0.08057825 -51.94  0.000810618    2.626    0.619
       164  -9.1998    124.7817    183.6015   9.3556319841e+01   1.8793924392e+01    0.2176463    0.1278564  48.05 0.0009505045    1.720    0.419
       165 -10.4432    171.8926    181.4112   8.2218632380e+01   1.0646188358e+01    0.3632366    0.3050885  25.51  0.001082476    1.155    0.134
