#   1 NUMBER                 Running object number                                     
#   2 MAG_AUTO               Kron-like elliptical aperture magnitude                    [mag]
#   3 X_IMAGE                Object position along x                                    [pixel]
#   4 Y_IMAGE                Object position along y                                    [pixel]
#   5 X_WORLD                Barycenter position along world x axis                     [deg]
#   6 Y_WORLD                Barycenter position along world y axis                     [deg]
#   7 A_WORLD                Profile RMS along major axis (world units)                 [deg]
#   8 B_WORLD                Profile RMS along minor axis (world units)                 [deg]
#   9 THETA_WORLD            Position angle (CCW/world-x)                               [deg]
#  10 FWHM_WORLD             FWHM assuming a gaussian core                              [deg]
#  11 ELONGATION             A_IMAGE/B_IMAGE                                           
#  12 ELLIPTICITY            1 - B_IMAGE/A_IMAGE                                       
         1 -12.5135    180.6258     30.2520   7.1001652851e+01   3.6567123045e+01    0.8848153    0.8561977  40.59  0.003881663    1.132    0.116
         2 -12.3794    185.6966     20.6418   6.7438011690e+01   3.6378516968e+01    0.7897816    0.6644045   2.40  0.001556633    1.460    0.315
         3 -10.5945    103.7730    237.6236   1.3350531261e+02   1.3445936967e+01    0.2196457    0.1814158  55.52 0.0004647764    1.110    0.099
         4 -19.3115     29.9224    132.9329   1.3804111371e+02   4.5212354274e+01     18.71628     2.178452 -70.38   0.04376635    8.241    0.879
         5  -9.1723    164.3141    237.6681   1.2224779513e+02   3.7289893247e+00    0.1200041   0.08577776  64.09 0.0007045408    1.681    0.405
         6  -9.0589    201.0316    182.1814   1.0611691144e+02   5.8498335750e+00    0.2305079    0.2011607 -25.90  0.001211974    1.200    0.167
         7 -10.5052     86.8897    181.5935   1.3048963775e+02   2.6897086796e+01    0.4124515    0.2558247 -50.38  0.002125731    1.899    0.473
         8 -10.0384     89.7578    176.2185   1.2910887242e+02   2.7622097953e+01    0.2794443    0.2344944 -41.30 0.0007744007    1.545    0.353
         9  -8.7246      3.8376    229.3767   1.5051287466e+02   2.7402531046e+01    0.1163694   0.08882888  40.07  0.000524981    1.661    0.398
        10  -8.7749     73.5461    175.2854   1.3268513367e+02   3.0254618965e+01    0.1760819    0.1136656 -58.66 0.0009457013    1.606    0.377
        11  -9.9927    114.2186    171.2521   1.2271557169e+02   2.4611349962e+01    0.4628367     0.206432 -57.43  0.001905077    2.350    0.574
        12  -9.6530    161.2286    226.9775   1.2136052623e+02   5.8549906907e+00    0.1453763    0.1069535 -48.76 0.0007276899    1.662    0.398
        13  -8.4850    226.2975    168.6599   9.8684640355e+01   3.2328125699e+00    0.1268381    0.1096437 -71.39 0.0007033296    1.662    0.398
        14 -10.2833     95.6580    166.7649   1.2633808968e+02   2.8769919603e+01    0.2977584    0.2436082 -60.62  0.001699414    1.271    0.213
        15 -11.8403     84.7424    162.0064   1.2821565137e+02   3.1579232814e+01    0.3912445    0.3692947 -67.49  0.001277838    1.211    0.174
        16  -9.6205     99.6558    160.1176   1.2430770755e+02   2.9599457269e+01     0.277035    0.2352882 -54.07 0.0007380353    1.276    0.216
        17  -9.9294    101.5061    156.5032   1.2324164970e+02   3.0103447477e+01    0.3042379    0.2565755  82.16  0.001435287    1.144    0.126
        18  -9.9870    112.7675    209.5298   1.2858483482e+02   1.7075177576e+01    0.3932415    0.1157706  39.20  0.001443511    3.170    0.685
        19 -13.6938     73.1666    153.5167   1.2977254310e+02   3.5254639230e+01     2.157845    0.9570345 -77.67   0.00812878    3.036    0.671
        20 -12.0317     67.4943    142.4887   1.2951814239e+02   3.8631869633e+01     0.457803    0.3590669  61.64  0.001626828    1.257    0.205
        21 -10.8407     70.3984    145.2001   1.2919374627e+02   3.7590740011e+01    0.3637704    0.2386266 -74.44  0.001125804    1.447    0.309
        22  -9.1369    133.6416    143.8055   1.1290265472e+02   2.6928106025e+01     0.217637    0.1394278 -61.17 0.0009497848    1.730    0.422
        23  -9.5908    110.2543    143.0789   1.1856204121e+02   3.1616633715e+01    0.3693525    0.1923167 -51.48  0.001557195    1.916    0.478
        24 -10.5503     99.2627    143.1166   1.2137707410e+02   3.3563271524e+01    0.2654088    0.2594543  47.29 0.0003464205    1.161    0.139
        25  -8.8291    110.3100    198.3021   1.2762763606e+02   1.9661539692e+01    0.1192694    0.1055724   1.39 0.0004903031    1.606    0.377
        26 -11.8308     68.6286    133.3530   1.2770677665e+02   4.0638717630e+01    0.4676575    0.3182702  68.39  0.002402139    1.628    0.386
        27  -9.3458    116.4779    132.0033   1.1464807977e+02   3.2978113014e+01    0.2730989    0.2165413  23.24 0.0008381002    1.546    0.353
        28 -10.1386    105.3047    129.7838   1.1709899311e+02   3.5587854570e+01    0.4659806    0.2888961 -68.18  0.001529037    1.827    0.453
        29 -11.7974     71.7605    126.5436   1.2562151763e+02   4.1817534669e+01    0.4769417     0.382734 -62.86  0.002700073    1.142    0.125
        30  -8.6630    111.4941    120.4945   1.1335003285e+02   3.6571112252e+01    0.1498995    0.1429828 -80.22 0.0001079995    1.002    0.002
        31  -8.6353    169.0004    113.7884   9.7438173040e+01   2.5486865784e+01    0.2170669    0.2063784  57.79  0.000486728    1.052    0.049
        32 -10.7729    135.0488    236.8399   1.2759394285e+02   8.6578834342e+00    0.2086878    0.1475759  45.69  0.001314256    1.128    0.114
        33 -11.3431    169.1130     40.8243   7.6113949522e+01   3.8205605479e+01    0.3726042    0.3490337 -68.46 0.0009850188    1.073    0.068
        34 -11.0920    169.8677    241.1475   1.2169282819e+02   2.3191946205e+00    0.3110093    0.1491732  35.40  0.001596413    1.820    0.451
