#   1 NUMBER                 Running object number                                     
#   2 MAG_AUTO               Kron-like elliptical aperture magnitude                    [mag]
#   3 X_IMAGE                Object position along x                                    [pixel]
#   4 Y_IMAGE                Object position along y                                    [pixel]
#   5 X_WORLD                Barycenter position along world x axis                     [deg]
#   6 Y_WORLD                Barycenter position along world y axis                     [deg]
#   7 A_WORLD                Profile RMS along major axis (world units)                 [deg]
#   8 B_WORLD                Profile RMS along minor axis (world units)                 [deg]
#   9 THETA_WORLD            Position angle (CCW/world-x)                               [deg]
#  10 FWHM_WORLD             FWHM assuming a gaussian core                              [deg]
#  11 ELONGATION             A_IMAGE/B_IMAGE                                           
#  12 ELLIPTICITY            1 - B_IMAGE/A_IMAGE                                       
         1 -13.5029    169.7795     92.4004   4.8356385786e+01   2.9582672987e+01      2.90876     1.943946 -10.97   0.01333021    1.868    0.465
         2 -16.2646    241.6595     83.5625   3.5858782676e+01   1.6756299705e+01     6.123629     5.029372  -0.33   0.02013736    1.278    0.218
         3 -14.6661    245.9811     48.4633   2.7420566910e+01   2.0053922153e+01     4.667408     1.572446 -54.22    0.0174264    4.243    0.764
         4 -14.0602    229.9930     42.2355   2.7214112932e+01   2.3740065838e+01     2.085718     1.566283 -59.64   0.01320275    1.332    0.249
         5  -8.3610    215.1349      8.0441   1.9643779878e+01   3.0223282413e+01    0.1722364    0.1628098   7.24 0.0006153247    1.288    0.224
         6  -9.2262    191.4070      6.7264   2.0707160490e+01   3.5633690628e+01    0.2341372    0.2047322 -56.14 0.0006314378    1.016    0.016
         7  -7.9469    250.0675      4.6988   1.7237111471e+01   2.3595993823e+01    0.1487681    0.1262792 -56.10 0.0006813035    1.150    0.131
         8  -7.4519    216.6738      1.2534   1.7832828868e+01   3.0486038879e+01    0.1273257   0.07139932 -55.49 0.0002757112    1.548    0.354
         9 -10.6162    192.2825    193.9701   6.5920106966e+01   9.6943428511e+00    0.7916928    0.4245473 -55.89  0.003004507    5.762    0.826
        10  -8.8631    204.9639    199.7570   6.4649191037e+01   7.2626435994e+00    0.1476345    0.0825545  29.19 0.0007204962    1.587    0.370
        11  -8.9741      7.9145    189.9761   1.0736639505e+02   3.3682698692e+01    0.1691425    0.1385917  56.70 0.0003010283    1.040    0.038
        12  -9.0595    152.1231    248.1900   8.0899632189e+01   7.7158217740e+00    0.1795992    0.1337281  11.72 0.0002859867    1.137    0.121
        13  -8.2911    153.2502    243.4537   8.0147586037e+01   8.1765537752e+00    0.1580872    0.1356241  -4.41 0.0003203426    1.266    0.210
        14 -11.2187      3.5213    153.1607   1.0705436887e+02   4.2197181878e+01    0.7098763    0.3965953 -83.76  0.003870221    1.643    0.391
        15  -9.2560    211.1381    156.3891   5.5812374599e+01   1.2110402479e+01    0.2164486    0.1971146 -75.35 0.0009347716    1.850    0.460
        16  -9.8084    191.6046    152.5018   5.8418755391e+01   1.5738346770e+01    0.4892159    0.2330569 -44.14  0.002232179    2.390    0.582
        17  -9.6352    188.9048    176.5112   6.3511349920e+01   1.2605519004e+01    0.2361752    0.1975895 -55.84  0.001476353    1.834    0.455
        18  -7.9206    172.4891    150.5021   6.1652573820e+01   1.9244079637e+01    0.1360192    0.1175929   0.67 8.856035e-05    1.036    0.034
        19  -9.4842    120.2052    234.9329   8.5583868866e+01   1.3320681978e+01    0.1974391    0.1724031 -12.15 0.0005147473    1.310    0.236
        20 -12.8122     13.7250    140.5146   1.0329253135e+02   4.4520865266e+01     1.025544    0.7896208  68.40  0.003752522    1.149    0.129
        21 -10.4027     67.5265    143.0169   8.6822786640e+01   3.8178838938e+01     1.000851    0.6891677  80.49  0.004914528    1.721    0.419
        22 -13.2824     54.4737    131.2528   8.9126933277e+01   4.2769744097e+01     2.379664     1.233895  19.44  0.007483578    2.332    0.571
        23 -11.1217     42.7927    133.7988   9.3303269157e+01   4.3509940373e+01    0.4051082    0.3682667  17.53 0.0009089905    1.226    0.184
        24  -8.5502    194.2066    172.7820   6.1865791748e+01   1.2354450840e+01    0.2844109    0.1849901 -57.38  0.001384323    3.031    0.670
        25  -9.7357    160.8261    128.8186   5.9332548123e+01   2.5081300000e+01    0.3636281      0.33436  36.89  0.002127662    1.155    0.134
        26 -10.2592    164.9438    124.5957   5.7486988725e+01   2.5041574543e+01    0.4759722    0.3004602 -35.69  0.001576684    1.526    0.345
        27 -10.3028    177.7839    169.5873   6.4341704200e+01   1.5327707331e+01    0.3912281    0.1860586  40.15  0.001871411    2.072    0.517
        28  -9.5835    175.7564    165.7348   6.4012759606e+01   1.6247285399e+01    0.2902606    0.1630037 -47.05   0.00139018    2.147    0.534
        29  -9.9216    209.0606    140.3129   5.2887352776e+01   1.4685995744e+01    0.2609755    0.1499295 -27.89  0.001068474    1.556    0.357
        30  -8.8085    214.2848    143.3039   5.2665762030e+01   1.3430396717e+01     0.257636    0.1499869 -35.89  0.001033165    1.617    0.381
        31  -9.7587    154.7637    170.2396   6.9141319466e+01   1.8859579832e+01    0.2258677     0.193436   7.48 0.0002419663    1.053    0.050
        32  -9.1407    235.2494    182.9461   5.6926905690e+01   5.4267196262e+00    0.1793026    0.1477453  60.98  0.001163664    2.613    0.617
        33  -8.2003     94.4958    121.3608   7.4549345516e+01   3.9124087459e+01    0.2479407    0.1385318  37.12  0.001021565    1.768    0.435
        34  -8.1961    160.2472    167.6151   6.7504197088e+01   1.8423948629e+01    0.1851845     0.113141  26.10  0.000809509    1.606    0.377
        35  -9.8061    178.0251    139.5117   5.8242952008e+01   2.0090608289e+01    0.3654211    0.2194271 -42.03  0.001815596    1.709    0.415
        36 -10.0814     70.3174    109.2578   7.9687963374e+01   4.6056467561e+01    0.2486515    0.2448991  27.30 0.0003234579    1.064    0.060
        37  -9.4643    140.7207     99.8078   5.6514516283e+01   3.4558716480e+01    0.3698975    0.3126418  69.67 0.0009753374    1.388    0.280
        38  -7.8314    120.4734     93.7500   5.9904991807e+01   4.0132768571e+01    0.2107724    0.1458475 -30.19 0.0006700807    1.574    0.365
        39  -8.8524     71.7967    225.9847   9.4857970938e+01   2.0478561989e+01    0.1910064    0.1350882  32.89 0.0003354892    1.148    0.129
        40  -9.8347    170.3592     79.5402   4.4678805070e+01   3.1539429894e+01    0.4142376    0.2600362 -11.63  0.001623002    2.079    0.519
        41  -8.6701    207.5285    162.0889   5.7524154589e+01   1.1868437559e+01    0.1823434    0.1480255  11.81 0.0008556944    1.119    0.106
        42  -9.9398    188.7497     69.7912   3.8994150497e+01   2.8915893548e+01     0.429584      0.22989 -26.12    0.0019289    1.802    0.445
        43 -10.6967    195.7710     65.6272   3.6882382246e+01   2.7964408953e+01    0.8567185    0.4949801  -9.14  0.003474765    2.333    0.571
        44  -8.7825    198.5620     53.9769   3.3357541508e+01   2.8884199786e+01    0.3741083    0.1845277 -21.09  0.001081709    2.119    0.528
        45  -8.9945    106.2606     66.9306   5.5312248677e+01   4.8697113305e+01    0.5536782    0.2203192 -42.96  0.001918825    2.478    0.597
        46  -7.8798    139.0072     67.1673   4.7064567273e+01   4.0891020766e+01       0.1917    0.1870073  61.17  0.001050418    1.055    0.052
        47  -9.8876    184.0964     64.7363   3.8256554930e+01   3.0661295900e+01    0.4093853    0.2544973 -38.69 0.0009436759    1.453    0.312
        48  -9.4199    180.6791     60.3340   3.7491190670e+01   3.2051939867e+01    0.2648719    0.1829949 -41.63  0.001345629    1.336    0.251
        49  -8.1640     98.0186    162.0566   8.1223644370e+01   2.9436030080e+01     0.195498    0.1814729  32.16 0.0003331643    1.023    0.022
        50  -8.3298    108.8159     56.7655   5.0850230580e+01   4.9994931355e+01    0.2165552    0.2037163   9.33 0.0004591232    1.114    0.102
        51  -9.7305    177.4308     51.7436   3.5426700119e+01   3.3975045729e+01    0.3410957    0.2295326  88.93  0.001139278    1.833    0.455
        52  -9.7186    176.9351     44.7008   3.3377496505e+01   3.5007759015e+01    0.3536855    0.2027148 -39.99 0.0009013119    1.579    0.367
        53 -11.0974    187.0505     45.6896   3.2400170396e+01   3.2512771947e+01    0.5482395    0.3748912 -25.07  0.001247874    1.397    0.284
        54  -9.6434    204.2129     44.4159   3.0134093140e+01   2.8820183034e+01    0.4068996    0.2648864 -13.21  0.002103682    1.689    0.408
        55  -9.1580    167.2479     43.6731   3.4378436746e+01   3.7476337507e+01     0.269418    0.2186821  -6.65 0.0008136511    1.379    0.275
        56 -10.9045    223.9150    175.1794   5.7293947433e+01   7.8290781740e+00    0.4494191    0.2585442   0.50  0.002523546    1.903    0.474
        57 -10.0854    180.0078     39.6994   3.1483513337e+01   3.4896605097e+01    0.3890646    0.2245296 -37.36 0.0004684469    1.543    0.352
        58  -8.1912    190.3654     36.8462   2.9470574071e+01   3.2808925181e+01    0.1876731    0.1229804 -14.02  0.000542747    1.675    0.403
        59 -10.7010    148.9648     32.8900   3.3475863651e+01   4.3418388691e+01     0.619331    0.3235976  -7.11  0.002322572    2.835    0.647
        60  -7.9638    182.9057     31.4842   2.8693004793e+01   3.5166575533e+01    0.1804872    0.1332477  74.87 0.0003107442    1.425    0.298
        61  -9.0180    155.9094     29.9523   3.1460751918e+01   4.1995171244e+01    0.2088902    0.1997208 -59.86 0.0003193473    1.018    0.018
        62 -10.8195    217.9481    184.9676   5.9987821513e+01   7.4079311845e+00    0.4248077    0.3082966 -17.84  0.002355654    1.206    0.171
        63  -7.7634    248.4896    220.5096   6.1065621851e+01  -7.4098489868e-02    0.1031784   0.07143316   0.77 7.410986e-05    1.043    0.041
        64  -9.4696      4.1437    205.3810   1.0873069470e+02   3.0864223145e+01    0.1934535    0.1620689  50.52 0.0005062431    1.117    0.105
        65  -9.6090    242.8120    201.1367   5.8861811672e+01   2.5062266801e+00     0.282687    0.1235014  41.64  0.001546288    3.019    0.669
        66  -9.4861    210.2935    187.5208   6.1694939410e+01   8.1033328925e+00    0.2143878    0.1862975  11.15  0.001562063    1.294    0.227
