#   1 NUMBER                 Running object number                                     
#   2 MAG_AUTO               Kron-like elliptical aperture magnitude                    [mag]
#   3 X_IMAGE                Object position along x                                    [pixel]
#   4 Y_IMAGE                Object position along y                                    [pixel]
#   5 X_WORLD                Barycenter position along world x axis                     [deg]
#   6 Y_WORLD                Barycenter position along world y axis                     [deg]
#   7 A_WORLD                Profile RMS along major axis (world units)                 [deg]
#   8 B_WORLD                Profile RMS along minor axis (world units)                 [deg]
#   9 THETA_WORLD            Position angle (CCW/world-x)                               [deg]
#  10 FWHM_WORLD             FWHM assuming a gaussian core                              [deg]
#  11 ELONGATION             A_IMAGE/B_IMAGE                                           
#  12 ELLIPTICITY            1 - B_IMAGE/A_IMAGE                                       
         1 -17.9541    238.8737     74.4650   7.1197418972e+01   1.6394407790e+01     4.428444     1.709438 -38.98   0.01922001    2.146    0.534
         2 -14.9499    181.8643     32.9993   6.7064764964e+01   3.5049177762e+01     1.256223     1.089552  28.44  0.004436037    1.371    0.271
         3 -13.7061    185.9692     25.5618   6.4318625621e+01   3.4882633516e+01    0.6089659    0.4859142 -49.91  0.001171632    1.168    0.144
         4 -13.9134    189.5573     14.8853   6.0778569209e+01   3.5141507229e+01     1.217892    0.5162852 -56.78  0.004781926    2.509    0.601
         5 -14.1221    200.4755      3.9635   5.6776825712e+01   3.3485631471e+01     1.051782    0.6524693  73.18  0.005552844    1.573    0.364
         6 -12.0299    107.3218    203.7756   1.2461383871e+02   1.8585690841e+01      0.42121    0.2861427   0.98  0.002136218    2.153    0.536
         7 -19.6057     36.2035    159.0539   1.3861941065e+02   3.7593547394e+01     19.58382     5.417241 -80.35   0.06587241    3.995    0.750
         8 -13.7605     79.2568    191.4415   1.3006901045e+02   2.5038479372e+01    0.7966567    0.7733423 -46.62  0.005282664    1.270    0.213
         9 -10.7477     21.5845    197.7034   1.4464528416e+02   3.0326448512e+01     0.200172    0.1298881  30.08 0.0006412076    1.468    0.319
        10 -10.3299     64.4496    195.6768   1.3416543760e+02   2.6090541409e+01     0.144321    0.1218419 -66.74 0.0003200783    1.396    0.284
        11 -10.7834    103.4389    194.5157   1.2441992647e+02   2.0941737460e+01    0.3441862    0.2116377   9.50  0.001555257    2.412    0.585
        12 -10.0992     90.8857    193.9764   1.2744384856e+02   2.2888748125e+01    0.2185811    0.1340204  57.45  0.001109726    1.676    0.403
        13 -10.3803    180.2645    192.8503   1.0671167160e+02   9.0514102543e+00    0.1890861    0.1417616  70.32 0.0009394902    2.729    0.634
        14 -13.8907     10.9420    206.7844   1.4737103446e+02   2.9428922543e+01    0.5022175    0.3089818  19.91  0.003123385    1.841    0.457
        15 -11.5679     89.3548    183.5561   1.2660570075e+02   2.5274602022e+01    0.5985963    0.1865858  42.67  0.002106546    2.655    0.623
        16 -11.8724    207.8042    183.8261   9.9741538678e+01   6.0865852414e+00    0.2899898    0.2239557  27.78  0.001095048    1.239    0.193
        17 -11.8764    211.0462    179.8714   9.8421548375e+01   6.1446435203e+00    0.3930257    0.2325938 -18.20  0.002109512    1.723    0.420
        18 -11.6339     98.1846    180.6210   1.2395274612e+02   2.4576164128e+01    0.4741431    0.2141249  35.02  0.002036544    1.888    0.470
        19 -17.1079    195.0342    244.9505   1.1165013434e+02   7.4501492323e-02     2.751321    0.7052974  29.73   0.01128846    3.368    0.703
        20 -12.2203    197.6468    174.3003   9.9916902211e+01   9.0816372114e+00     0.521229    0.3123427 -41.69  0.002707903    1.906    0.475
        21 -12.0310    249.6211    170.9555   9.0269699740e+01   1.7000890842e+00    0.3754039    0.2013099 -39.40  0.002070687    2.159    0.537
        22 -11.2038    118.5354    173.5015   1.1767898940e+02   2.2797731705e+01    0.2598106    0.1112689  44.23 0.0007340777    2.152    0.535
        23 -11.4068    137.7514    170.9919   1.1245924305e+02   1.9998689017e+01    0.2637976    0.1901487  34.74 0.0005765448    1.221    0.181
        24 -17.4987    154.2925    241.6311   1.1898358508e+02   5.8091373253e+00     2.459501     1.264318  21.77   0.01352016    1.791    0.442
        25 -11.1572    145.9678    168.6589   1.1005945490e+02   1.8996501688e+01    0.2092804    0.1712017  33.04 0.0006972088    1.085    0.079
        26 -11.7898    100.0220    157.2335   1.2000859059e+02   2.9435659359e+01      0.38614    0.3139638   6.41 0.0006630037    1.475    0.322
        27 -11.6518    101.5007    153.4761   1.1896754873e+02   3.0050025746e+01    0.4522217    0.2499949  37.10  0.001716717    1.636    0.389
        28 -17.9845    187.3221    223.9084   1.1017210364e+02   3.6356552850e+00     4.129241     1.094455  33.89   0.01392852    3.050    0.672
        29 -11.7617    133.8051    144.6765   1.0845905601e+02   2.6120149356e+01     1.027812    0.2811319 -55.40   0.00241503    6.579    0.848
        30 -11.9869    145.3902    145.8874   1.0575320160e+02   2.3611854926e+01     0.341115    0.2867104  54.04  0.001773822    1.281    0.219
        31 -12.3015      9.5248    144.9685   1.4547115596e+02   4.3272385456e+01     0.416967    0.3355954 -12.38  0.001898866    1.641    0.391
        32 -13.9271      8.2132    135.4314   1.4540091979e+02   4.5703282215e+01     1.247858    0.5340124  63.23  0.002234916    2.162    0.537
        33 -11.7168    110.7898    140.3214   1.1389774058e+02   3.1453142402e+01    0.4968519    0.2930376 -37.64  0.002047428    2.092    0.522
        34 -12.4671     99.7959    140.6490   1.1717530804e+02   3.3347598859e+01    0.2892263    0.2568734  27.73 0.0004789754    1.139    0.122
        35 -11.4085     15.5589    201.2560   1.4616664009e+02   3.0139517484e+01    0.2156625    0.1363055  25.78 0.0006255281    1.610    0.379
        36 -11.8344    105.6159    128.9165   1.1308297660e+02   3.5096578362e+01    0.6309257    0.3326866 -62.59  0.002414971    2.264    0.558
        37 -10.8857    117.1792    130.6404   1.1003834839e+02   3.2478791608e+01    0.2944727    0.2497944 -18.11 0.0007565912    1.372    0.271
        38 -10.7888    174.8888    149.1129   9.9566054647e+01   1.7271846881e+01    0.2102671    0.2008836  55.43 0.0006029702    1.268    0.211
        39 -10.3723    160.6414    127.3160   9.7892052620e+01   2.4227081142e+01    0.1525612    0.1233822  84.61 0.0007043857    1.753    0.430
        40 -10.1702    125.6876    127.3567   1.0688393180e+02   3.1528952640e+01    0.1609558    0.1239414  79.49 0.0007043814    1.738    0.425
        41 -10.1107    111.8882    119.5060   1.0907354661e+02   3.6119837172e+01    0.2328836     0.151528  38.62 0.0005075283    1.481    0.325
        42 -12.2416     76.5093    118.6671   1.2037450172e+02   4.2698002840e+01    0.5173112    0.2061234  44.27  0.001817037    2.492    0.599
        43 -10.5839    168.6948    113.5181   9.2663474954e+01   2.5145222930e+01     0.306929     0.239957 -88.78 0.0009244796    1.872    0.466
        44 -10.9160     93.0872    206.8909   1.2832002288e+02   2.0038191946e+01    0.2314483    0.1987062 -45.59 0.0006857797    1.468    0.319
        45 -10.3606    205.5618    110.2216   8.4605366221e+01   1.7831358087e+01    0.2446906    0.1952796  42.73 0.0006751954    1.320    0.242
        46 -12.9938    243.3022    216.5863   9.9145405938e+01  -2.7317312552e+00    0.5469609    0.2645506   9.31  0.002656451    2.235    0.553
        47 -10.7774     85.9238    204.6104   1.2978479656e+02   2.1467000821e+01    0.3317638    0.2300465  -5.06  0.001708857    2.287    0.563
        48 -13.3487    193.6308    194.0775   1.0424732253e+02   6.7960614375e+00    0.9461163    0.5867482 -55.18  0.004313999    3.008    0.668
        49 -10.5634     94.8490    200.1729   1.2717305299e+02   2.1086672201e+01    0.4770744    0.2308057  69.07  0.001713782    4.179    0.761
        50 -13.3583    168.2301     46.3534   7.3254932381e+01   3.6842126231e+01    0.5049044    0.4775023  31.91 0.0008738176    1.161    0.138
        51 -11.0958    116.1492    211.9516   1.2354348854e+02   1.5804765484e+01    0.3284292    0.2000469  60.59  0.001016554    2.109    0.526
        52 -10.9138     10.5744    213.7000   1.4763988634e+02   2.8105911907e+01    0.1650493   0.09400475   8.31 0.0009012668    2.670    0.625
        53 -11.0006     12.7167     36.9988   1.3165704933e+02   7.0685393768e+01    0.2490685    0.1791367   4.52 0.0006513945    1.506    0.336
        54 -10.1731    110.5337     20.8489   7.5359773821e+01   5.6030284960e+01    0.4054817    0.1836504  78.67   0.00124947    3.563    0.719
        55 -11.4123    108.3825    209.5400   1.2504075264e+02   1.7367084147e+01    0.4148683    0.2865534  29.06  0.002167898    1.257    0.205
