#   1 NUMBER                 Running object number                                     
#   2 MAG_AUTO               Kron-like elliptical aperture magnitude                    [mag]
#   3 X_IMAGE                Object position along x                                    [pixel]
#   4 Y_IMAGE                Object position along y                                    [pixel]
#   5 X_WORLD                Barycenter position along world x axis                     [deg]
#   6 Y_WORLD                Barycenter position along world y axis                     [deg]
#   7 A_WORLD                Profile RMS along major axis (world units)                 [deg]
#   8 B_WORLD                Profile RMS along minor axis (world units)                 [deg]
#   9 THETA_WORLD            Position angle (CCW/world-x)                               [deg]
#  10 FWHM_WORLD             FWHM assuming a gaussian core                              [deg]
#  11 ELONGATION             A_IMAGE/B_IMAGE                                           
#  12 ELLIPTICITY            1 - B_IMAGE/A_IMAGE                                       
         1 -10.8985      4.8911     37.8358   1.0499042183e+02   6.7833471521e+01    0.5368625    0.4343193  88.51  0.003639993    1.846    0.458
         2  -9.8760     37.1908     19.6822   8.1960154607e+01   6.8160093793e+01    0.5023949    0.2846318  -5.24  0.001536105    2.079    0.519
         3 -10.4110     53.1865     11.0018   7.0607468352e+01   6.7036822975e+01    0.5063092    0.3528398  14.22  0.002096565    1.268    0.211
         4  -9.9524     47.5091      8.4776   7.1731926830e+01   6.8225243708e+01    0.4234982    0.1723874  35.54  0.001474502    2.312    0.568
         5 -10.0528     45.1970     15.6235   7.6325835813e+01   6.7662805788e+01    0.4958313    0.2789693  39.60  0.002745915    1.908    0.476
         6  -9.2707     39.2159     10.5592   7.6536730129e+01   6.9167400638e+01    0.4418437     0.233525  50.56  0.002059703    3.449    0.710
         7 -12.5695    116.9147     22.2741   5.5537127843e+01   5.2944752233e+01    0.3082089    0.2837754  12.73 0.0005049898    1.090    0.083
         8 -10.7026    115.7533     14.8649   5.2982703228e+01   5.3992890184e+01    0.4939775    0.2695453  53.13  0.001385158    1.584    0.369
         9 -12.3987    107.6236     29.0274   6.0470109551e+01   5.4287360239e+01    0.5066246    0.3975033 -32.19  0.002804426    1.370    0.270
        10 -10.5552     16.4097     17.5089   9.1475720086e+01   7.0702737513e+01    0.4802348    0.2844697 -17.47  0.002124162    1.526    0.345
        11  -9.4610     23.5830      1.4137   7.9510331719e+01   7.2313998606e+01    0.1533479    0.1221672   4.54 5.390923e-05    1.194    0.163
        12 -11.2094     18.4036     22.8222   9.2734740630e+01   6.9648765894e+01    0.5195418    0.2324543 -46.97   0.00245849    1.970    0.492
        13 -10.7858     24.8918      6.7204   8.1677637095e+01   7.1467485724e+01    0.2478365    0.1580356 -33.77  0.000499427    1.492    0.330
        14 -10.4692     13.9558     10.9881   8.9793251506e+01   7.1948466416e+01    0.2219211     0.158759 -26.58 0.0004546909    1.109    0.099
        15 -12.2223     19.3503      7.0203   8.4818742571e+01   7.2023152769e+01    0.4975119    0.2936051  -0.80  0.001556209    1.657    0.396
        16 -10.0034     16.2759      2.3495   8.4063119303e+01   7.2984215911e+01    0.4807161    0.2489562   8.76  0.002731228    2.077    0.519
        17 -11.7692    165.8618     18.5785   4.5128713769e+01   4.1218724335e+01    0.5796912    0.4094247 -78.25  0.002018148    1.579    0.366
        18  -9.6339      5.7779      9.0093   9.3532369401e+01   7.2915124591e+01    0.4405406    0.2240817  22.71  0.002708221    2.106    0.525
        19 -11.7911      5.2127     16.0721   9.7002340688e+01   7.1798801980e+01    0.4240611    0.3741368 -51.93  0.001865633    1.542    0.351
        20  -9.1504    132.1299     21.5855   5.1953972720e+01   4.9364397174e+01    0.6768621    0.4340813 -47.61  0.003305913    1.849    0.459
        21  -9.2073    127.2433     18.4762   5.1844572363e+01   5.0884127825e+01    0.4090183    0.2116853 -42.02  0.001818072    2.248    0.555
        22  -9.9053     60.4932     17.5453   7.0838648979e+01   6.5036999715e+01    0.4376745    0.2278513  32.80  0.002227347    1.823    0.451
        23 -11.3054     67.8204     15.3340   6.7030918717e+01   6.4032833872e+01    0.3756816    0.3098737 -10.50 0.0004041716    1.168    0.144
        24  -9.6924     69.5088     11.5940   6.4668345452e+01   6.4147650073e+01    0.2842451    0.1684987  56.37  0.001116568    2.070    0.517
        25 -10.7904     27.0193     21.2225   8.7636644800e+01   6.9089022789e+01    0.5765944    0.2827035 -13.02  0.002649511    2.804    0.643
        26  -9.6120     32.4302     12.3335   8.0704054779e+01   6.9807376319e+01     0.224095    0.1786207 -28.95 0.0005755094    1.360    0.265
        27 -10.7176    182.3896     18.1174   4.2738542590e+01   3.7093439748e+01    0.6334402    0.3467705  30.50  0.001618852    2.833    0.647
        28 -10.0807    218.7896     18.7905   3.8883432218e+01   2.8146098730e+01    0.3248443    0.2495255 -60.72  0.001941661    1.177    0.150
        29  -9.5077    199.2586     18.7783   4.0907449050e+01   3.2833123811e+01    0.3484332    0.1999252 -27.77  0.001277626    1.885    0.470
        30  -9.6889    230.1781     15.3369   3.7039067816e+01   2.5912675197e+01    0.3223307    0.1677344 -35.90  0.001025897    1.811    0.448
        31 -10.0468    209.7776     14.2117   3.8643569152e+01   3.0785853474e+01    0.2393658    0.2069007  85.53 0.0004632312    1.077    0.071
        32  -9.9964    173.3148     13.6827   4.2644249367e+01   3.9837781680e+01    0.3068673    0.2122152 -35.22  0.000957221    1.530    0.346
        33 -10.4292    175.9932     11.0133   4.1533538092e+01   3.9428824614e+01    0.4518995    0.2770805  38.78  0.002220087    1.933    0.483
        34 -10.9625    133.1497     12.7675   4.8643848681e+01   5.0005769757e+01    0.2304073    0.2177607  38.79 0.0003054196    1.077    0.071
        35 -10.5028     88.8180     13.3906   5.9292603480e+01   6.0145450701e+01     0.307578    0.2839961  -2.44   0.00198897    1.177    0.151
        36  -8.9752     92.4715      7.9719   5.5920230312e+01   5.9896830342e+01    0.3496349    0.1744091 -17.42  0.001667667    2.167    0.539
        37 -10.2455     86.7657      6.1567   5.6703017190e+01   6.1273571814e+01    0.3789234    0.2180293  55.40  0.001434633    1.650    0.394
        38 -10.6811    146.6531     12.0917   4.6055540764e+01   4.6715527196e+01    0.4929173    0.3339065  77.54 0.0008694747    1.477    0.323
        39 -10.0415    138.9666      6.7114   4.5525605949e+01   4.9116428988e+01    0.2326517    0.1859378  -1.32            0    1.436    0.303
        40  -9.0965     75.4073     12.4782   6.3063620162e+01   6.2938257794e+01    0.2588401    0.1942097 -63.34   0.00137119    2.394    0.582
        41  -9.4565     74.2162      8.2238   6.1479772866e+01   6.3608526685e+01    0.2100799    0.1783831  26.45  0.000548438    1.090    0.083
        42  -9.0059     97.9681     10.5796   5.5570699833e+01   5.8457755012e+01    0.4354044    0.1447629 -25.68  0.001718813    3.080    0.675
        43 -11.4645    108.4518      6.9189   5.1530834747e+01   5.6426296409e+01    0.7691497    0.4678901  40.42  0.003181239    1.467    0.318
        44  -9.7498    119.9925      7.8080   4.9403012735e+01   5.3643026435e+01    0.3360443    0.2443337 -30.82 0.0009075908    1.538    0.350
        45  -8.9478    119.2863      2.3498   4.7498254198e+01   5.4262564422e+01    0.2036295    0.1440996  33.41 0.0006385379    1.366    0.268
        46 -10.5402    115.6868      2.0432   4.8089976934e+01   5.5139565643e+01    0.2570283    0.1679114  59.89 0.0003324513    1.338    0.253
        47 -10.1453    165.1318      7.9315   4.2029137996e+01   4.2453729010e+01    0.3197134    0.1972495 -37.77  0.001332245    1.718    0.418
        48  -8.6910     79.4005      9.7839   6.0536243998e+01   6.2435000818e+01    0.1693009    0.1125991  -2.94 0.0005568645    1.532    0.347
        49  -9.4271    211.8953      8.7936   3.7115245209e+01   3.0854685056e+01    0.2832526    0.1519277  61.86  0.001436627    1.788    0.441
        50 -10.0244    202.7802      8.4995   3.7902453723e+01   3.3064288932e+01    0.2612509    0.2193126  85.36  0.001627907    1.064    0.060
        51 -10.2119    208.7744      4.6590   3.6391812320e+01   3.2013114764e+01    0.3622659    0.2332554  47.31   0.00196488    1.842    0.457
        52  -8.6911    206.3666      1.7285   3.5889795069e+01   3.2870962786e+01    0.1768007    0.1104074 -50.04 0.0004010148    1.520    0.342
        53  -8.2519    224.3147      8.6729   3.6005374694e+01   2.7973530992e+01    0.1374299   0.07832944 -63.06 0.0007043862    1.671    0.402
        54  -9.7665    193.9140      8.2649   3.8736743394e+01   3.5245763511e+01    0.4439488    0.2477715  75.03  0.001581655    1.626    0.385
        55 -10.4365    193.9234      3.5092   3.7496977328e+01   3.5702793545e+01    0.5546896    0.2209655  69.68  0.002431128    2.175    0.540
        56  -9.6994    198.3330      2.3007   3.6762028579e+01   3.4744943748e+01      0.29302     0.159169  55.70  0.001124376    1.840    0.457
        57  -9.6174    128.2257      8.0974   4.7905464696e+01   5.1634253095e+01    0.2278174    0.1726603  65.85 0.0002265691    1.224    0.183
        58  -9.5252     29.1780      7.9385   8.0091919834e+01   7.0802459147e+01    0.2037733    0.1078522 -12.94  0.001079229    2.020    0.505
        59 -10.3416     30.8970      3.3926   7.6798301869e+01   7.1173676366e+01    0.2614088    0.1536262 -38.13 0.0005673025    1.938    0.484
        60 -10.5259    247.9102      5.0736   3.3448060699e+01   2.3147471181e+01    0.3185328    0.2553177  22.16  0.000728391    1.973    0.493
        61  -9.2464     62.4491      6.0947   6.4546333009e+01   6.6010615814e+01    0.2734119    0.2321825 -39.84  0.001777992    1.616    0.381
        62  -6.7175     41.0029      6.2684   7.3484109220e+01   6.9452238231e+01    0.2805065    0.1510445  -0.92  0.001416854    2.229    0.551
        63 -10.3407     38.4892      2.9079   7.2852995127e+01   7.0205400763e+01    0.3296137    0.2760589  30.22  0.001376334    1.448    0.309
        64 -10.9898    179.7821      2.0542   3.8577487928e+01   3.9319359410e+01    0.3795041     0.242238 -87.48 0.0005260993    1.545    0.353
        65 -10.9326    160.2868      3.0122   4.1186951551e+01   4.4106693430e+01    0.5183967    0.2737986  61.99  0.001801058    1.609    0.379
        66  -9.8843    237.9183      3.4044   3.3785701534e+01   2.5476919273e+01    0.2429803    0.1872844 -56.41  0.001179632    1.131    0.116
        67  -9.0670    224.0431      3.7740   3.4904287600e+01   2.8543426055e+01    0.1968595    0.1657723  -4.06  0.001252392    1.625    0.385
        68 -10.4138    218.8724      2.4819   3.5018421868e+01   2.9861710626e+01    0.2973651    0.2071662  74.96  0.001086312    1.323    0.244
        69  -9.2820    147.2775      2.0908   4.2698367147e+01   4.7436910030e+01    0.3047035    0.1712063  29.57  0.000835537    2.195    0.544
        70  -9.4054     68.6499      1.9066   6.0300257703e+01   6.5273934827e+01    0.2587537     0.185192  25.68  0.001260666    1.170    0.145
        71 -10.6692     74.1046      1.9806   5.8562535299e+01   6.4215253598e+01     0.378291     0.203119  49.11  0.001680616    1.651    0.394
        72  -9.4620     81.9986      1.9867   5.6184174653e+01   6.2627278213e+01    0.3256634    0.1787851  60.58   0.00161249    1.938    0.484
        73 -10.5760     49.6472      2.1878   6.7548247073e+01   6.8588439121e+01    0.2736337    0.1597157  30.26 0.0002930448    1.500    0.333
        74  -9.2059      4.1366      2.3086   9.1221676000e+01   7.4065246314e+01    0.2492772     0.118316 -23.94  0.001444038    1.853    0.460
        75  -8.8560    127.5953      1.7607   4.5747921542e+01   5.2311037880e+01    0.3677141   0.08819321  52.69   0.00130905    2.996    0.666
        76 -10.0863     89.6575      1.7364   5.3957084571e+01   6.1039900201e+01    0.4169456    0.1083883  49.96  0.001602676    2.817    0.645
        77  -9.1109    186.1428      1.2858   3.7695628767e+01   3.7815421535e+01    0.1872555    0.1033905  84.74 0.0003861619    1.736    0.424
        78  -8.3860    122.7074      1.3113   4.6466967296e+01   5.3525348639e+01    0.1259814   0.09799097 -67.44 0.0004005647    1.589    0.371
        79  -9.4943      7.1279     89.4041   1.1553683673e+02   5.6574954799e+01    0.2770608    0.1851103 -69.14 0.0006376753    1.212    0.175
        80  -9.5511    201.4554    249.6111   9.3071051065e+01  -5.1627655827e+00    0.2224949    0.1501701  32.47 0.0007389106    1.209    0.173
        81  -9.0237      6.3298     94.1300   1.1653801534e+02   5.5523348635e+01     0.260254    0.1994464 -55.49  0.001195254    1.111    0.100
        82  -9.4315      3.4717    102.0333   1.1856785885e+02   5.3834862699e+01     0.311897    0.1386439 -72.03 0.0009174279    1.769    0.435
        83 -10.5013      2.5429    115.9873   1.2054963500e+02   5.0614734595e+01    0.3039781    0.2751656 -86.45  0.001218855    1.176    0.150
        84 -10.4300      4.4501    111.1894   1.1943415172e+02   5.1634315519e+01    0.5396419    0.1498379 -72.97  0.002145583    2.871    0.652
        85  -9.8557      8.7614     98.8793   1.1645558201e+02   5.4278274401e+01    0.3073156    0.1982977  58.22 0.0008110764    1.906    0.475
        86  -9.6842      3.8022     98.0876   1.1792852610e+02   5.4737660481e+01    0.2229867    0.1869023 -89.40  0.001543949    1.210    0.174
        87  -9.8615     61.4926    114.0055   1.0233589402e+02   4.5747931245e+01    0.3213134    0.2168737 -77.51  0.001561039    1.666    0.400
        88  -9.8709     62.7771    110.9700   1.0128567510e+02   4.6317362986e+01    0.2855663    0.1795595 -53.97  0.000205141    1.408    0.290
        89  -9.9104     28.8638    114.6381   1.1257455006e+02   4.9079956907e+01    0.2729475    0.1256284 -48.27  0.001269741    2.019    0.505
        90  -9.3106     33.8083    114.1678   1.1098207739e+02   4.8755435277e+01    0.2199046    0.1671853  70.87 0.0005073566    1.488    0.328
        91  -9.2819     30.7218    110.5583   1.1133533860e+02   4.9904229382e+01    0.2452919    0.1844179  41.22  0.001457248    1.538    0.350
        92  -8.5941     97.6652    113.6483   9.1175682826e+01   4.0259956601e+01    0.1603704    0.1172862 -17.67 0.0007045942    1.786    0.440
        93 -10.8750     19.5752    109.5561   1.1464157153e+02   5.1039486773e+01    0.3946404    0.3513732 -42.40  0.002168654    1.219    0.180
        94  -9.4099    233.0286    111.0473   5.9496400249e+01   1.1343917613e+01    0.2251565    0.1687407 -66.62 0.0006344046    1.691    0.409
        95  -9.5413    128.7707    109.0919   8.1129281796e+01   3.5165563426e+01    0.3326311    0.2039846  48.23 0.0008467181    1.692    0.409
        96 -10.5783     36.7648    106.8657   1.0876823510e+02   5.0244528534e+01    0.5283827     0.235733 -66.44  0.002109603    1.993    0.498
        97  -9.9133    137.2909    107.3859   7.8401634867e+01   3.3680610509e+01    0.2844979    0.2654566 -85.25 0.0004897005    1.183    0.154
        98  -9.0759    153.8937    107.0988   7.4155561856e+01   2.9977842089e+01    0.2237217      0.21155 -83.86  0.001138888    1.149    0.129
        99  -9.1593     52.8498    106.7042   1.0354611327e+02   4.8580378139e+01    0.2072095    0.1705631 -11.95 0.0007538315    1.426    0.299
       100 -10.0604     74.8279    104.3037   9.5905470221e+01   4.6225868623e+01    0.2966191     0.150228 -45.57  0.001240959    1.852    0.460
       101 -10.7544    109.2356     98.7784   8.3784269240e+01   4.1489687409e+01    0.7596787    0.5325306  50.66  0.002173096    1.558    0.358
       102 -10.6770    104.0794     90.7709   8.3014043770e+01   4.4260142584e+01    0.5183864    0.3612294  75.68  0.001008671    2.404    0.584
       103 -10.4492    102.6398    101.3137   8.6455474100e+01   4.2199584554e+01     0.573238    0.3703268  -9.92  0.001216079    2.649    0.622
       104  -9.4697    100.7189     98.3067   8.6202726504e+01   4.3239863858e+01    0.2567179    0.2472918 -13.86 0.0001801956    1.033    0.032
       105  -9.1687     47.9911    103.2395   1.0439984018e+02   4.9966228720e+01    0.2438789    0.1645211 -56.40  0.001291317    1.270    0.212
       106  -9.7126    175.1897    102.6351   6.8083670245e+01   2.5878145687e+01    0.3675226     0.267857   5.60  0.001560885    1.916    0.478
       107  -8.9063     68.6287    103.2928   9.7657549801e+01   4.7365168929e+01    0.1441968    0.1097983  72.89 0.0007025524    1.726    0.421
       108  -9.4013     57.3667     99.7627   1.0052523801e+02   4.9696246054e+01    0.2053126    0.1119834 -49.74 0.0004804919    1.602    0.376
       109  -8.8678     15.7666     99.4757   1.1428408536e+02   5.3700442227e+01    0.1958322    0.1604868  -2.28 0.0008850521    1.509    0.337
       110  -8.7204     17.6363     96.4664   1.1317491688e+02   5.4282898840e+01    0.2315893    0.1439386 -59.86 -3.737877e-05    1.268    0.211
       111  -9.7768    124.3907     98.1199   7.9264290277e+01   3.8496203656e+01    0.4229954     0.289304  -2.10  0.001657521    2.311    0.567
       112  -9.9231     50.7900     98.9561   1.0253966957e+02   5.0673896340e+01    0.2044565    0.1960079 -23.64 0.0003122087    1.131    0.116
       113  -8.8109     67.2834     98.0145   9.6806072362e+01   4.8800041872e+01    0.1985453      0.17007 -53.94 0.0004078018    1.081    0.075
       114  -8.4779     27.3815     98.4856   1.1029050425e+02   5.3075218143e+01    0.1303425    0.1055048 -63.45 -5.338564e-05    1.044    0.042
       115  -9.5880    135.7320     96.7177   7.5803791703e+01   3.6292150665e+01    0.2617355    0.1897466 -83.30  0.001058547    2.150    0.535
       116  -9.4112    129.8452     96.8175   7.7398408995e+01   3.7584792024e+01    0.2282485    0.2096894  -0.80 0.0003993012    1.136    0.120
       117  -9.5504     12.2542     94.1952   1.1458792585e+02   5.5165163900e+01    0.3584579    0.1492658 -76.48  0.001583662    2.402    0.584
       118  -9.2010     23.4805     95.5918   1.1106673056e+02   5.4066617430e+01    0.2059941    0.1550882 -84.21  0.000574777    1.375    0.273
       119 -10.2851     80.5269     94.1747   9.1434604380e+01   4.7701188490e+01    0.4366552    0.2931069 -53.20  0.002093306    1.427    0.299
       120  -8.9227    179.0655     94.1483   6.4952695476e+01   2.6568115733e+01    0.2384104    0.2072197   1.64 0.0005295047    1.300    0.231
       121  -8.1433     73.6970     94.7192   9.3830288644e+01   4.8637751821e+01    0.1441124    0.1065589 -21.59 0.0002085206    1.550    0.355
       122  -9.7381     51.9534     93.9910   1.0100080711e+02   5.1711420760e+01    0.2051646    0.1772774 -49.05            0    1.007    0.007
       123  -9.2133     52.4731     90.5358   9.9987004015e+01   5.2456678518e+01     0.229636    0.1643786 -63.66 0.0009793113    1.370    0.270
       124  -9.8434     46.4805     93.5212   1.0277423255e+02   5.2439117299e+01    0.3196616    0.1986348 -43.79  0.001638465    1.459    0.315
       125  -9.8141     21.1290     87.5466   1.1036280837e+02   5.6122223432e+01     0.316796    0.1619497  25.63  0.001086422    2.298    0.565
       126  -8.8262     31.5281     93.5135   1.0792767085e+02   5.3901356236e+01      0.24128    0.1770806  55.54  0.000923706    1.700    0.412
       127  -8.6715     33.6573     91.2728   1.0672772504e+02   5.4239221275e+01    0.1968321    0.1426294 -56.16 0.0006790988    1.143    0.125
       128 -10.4132     27.6867     88.9096   1.0832680538e+02   5.5302254940e+01      0.49321    0.2594142 -64.73  0.002027526    1.641    0.391
       129 -10.4677     30.6288     84.1147   1.0625429252e+02   5.6166995859e+01    0.2915401    0.2119486 -29.84 0.0005887792    1.399    0.285
       130  -8.9974    134.4344     92.1945   7.4824225513e+01   3.7519926643e+01    0.2080486    0.1487178 -51.97 0.0003855739    1.498    0.333
       131  -9.2614    116.9514     91.5459   7.9441222969e+01   4.1481875648e+01    0.2824453    0.2100744 -24.01 0.0006320602    1.491    0.329
       132 -10.2967    124.5361     88.4090   7.6364905195e+01   4.0505867236e+01    0.4779031    0.3144432 -59.85  0.001621532    1.932    0.482
       133  -9.7663    119.0539     84.3494   7.6662916595e+01   4.2529193667e+01    0.3169282    0.3003975  73.00  0.001146586    1.178    0.151
       134 -10.0928     87.6472     87.7627   8.7296345303e+01   4.7950178389e+01    0.5230783    0.2476787 -46.48  0.001751076    1.980    0.495
       135  -9.8325     94.9608     87.1816   8.4777074102e+01   4.6768605462e+01    0.4375325    0.2496509  51.74   0.00135662    2.142    0.533
       136 -10.6437     70.0330     86.4958   9.2829631303e+01   5.1055578095e+01    0.6275093    0.3207394  22.92  0.002155637    2.532    0.605
       137 -10.5499     73.3559     81.1064   9.0130432182e+01   5.1750948127e+01     0.674619    0.4114127 -30.67  0.003075797    1.782    0.439
       138  -9.7516     43.6914     88.0581   1.0247623691e+02   5.4011570267e+01    0.2193519    0.1927009  43.42 0.0005538011    1.346    0.257
       139  -9.9162     16.4783     86.1831   1.1174130842e+02   5.6758510250e+01    0.4007632    0.2092235 -49.71  0.001920953    1.552    0.356
       140  -9.2687    189.3715     87.1020   6.0992202746e+01   2.5366284814e+01    0.2367249     0.205124  42.87 0.0003334407    1.205    0.170
       141 -10.4585    129.6543     85.6247   7.4125252355e+01   3.9931647825e+01    0.3835032    0.2742689 -11.19  0.001014751    1.826    0.452
       142 -10.7788     46.1411     69.1068   9.6561469761e+01   5.7988169887e+01     1.025298    0.4085582 -32.49  0.002700938    3.508    0.715
       143 -11.0004     50.4127     82.8925   9.8779838589e+01   5.4452425062e+01    0.7078122    0.4075494 -18.54  0.002865586    2.495    0.599
       144  -9.8998     57.1636     82.2363   9.6171851717e+01   5.3777775990e+01    0.3381051    0.2415408  52.10  0.001653592    1.810    0.448
       145 -11.9491     52.9448     75.1516   9.5730040574e+01   5.5876140704e+01    0.2724416    0.2402645 -22.72            0    1.084    0.078
       146 -10.5319     52.9175     70.2949   9.4315626983e+01   5.6930858052e+01    0.3829944    0.1999552 -54.13  0.000731174    1.818    0.450
       147  -8.9842     10.9856     85.8316   1.1360692617e+02   5.7181009886e+01     0.196356     0.130778 -48.79 0.0005702742    1.261    0.207
       148  -8.0080      2.4415     86.5264   1.1667690361e+02   5.7477164501e+01    0.1233603   0.09252344 -60.36 0.0003369082    1.035    0.034
       149 -10.0990    155.2909     84.8294   6.7481695958e+01   3.4070557423e+01    0.3149002    0.2697014  14.10 0.0002170872    1.311    0.237
       150 -10.2856    151.1713     80.6719   6.7201979003e+01   3.5844967951e+01    0.4922524    0.2232084  59.01  0.001683323    2.619    0.618
       151  -9.5694     79.5020     83.8106   8.8830387651e+01   5.0186906848e+01    0.3888373    0.2673589 -15.41  0.001767433    1.842    0.457
       152  -9.5753     35.5013     82.7212   1.0416347647e+02   5.6051573358e+01    0.2983084    0.2016499 -58.30 0.0006676685    1.274    0.215
       153  -8.7948     38.4052     79.6642   1.0235496524e+02   5.6470020795e+01     0.198097    0.1148528 -57.93  0.001004315    1.503    0.335
       154  -9.6621     54.4637     86.4381   9.8253478649e+01   5.3161999422e+01    0.2827202    0.1987137 -41.50 0.0005663057    1.279    0.218
       155  -9.2612     42.6292     80.6204   1.0103417454e+02   5.5826347625e+01    0.2696956    0.1921085 -37.58  0.001511663    1.279    0.218
       156  -9.2800    129.5383     80.0252   7.2428693532e+01   4.1062022222e+01    0.2379135    0.1513447 -38.83 0.0003909613    1.564    0.361
       157  -9.3239      1.9119     80.1354   1.1583180451e+02   5.8957623821e+01    0.2095107    0.1476018  89.47   0.00130777    1.538    0.350
       158  -9.6872      1.9093     74.4446   1.1484992461e+02   6.0238457279e+01    0.3411385    0.1200957 -62.98 0.0005494585    2.017    0.504
       159  -9.6284    138.5701     79.1548   6.9809756366e+01   3.9137106861e+01     0.361915    0.1952129  65.88  0.001248988    2.806    0.644
       160  -9.8681    110.5192     76.9852   7.6822829720e+01   4.5822870045e+01    0.3220721    0.2477104  18.24   0.00123801    1.468    0.319
       161  -9.6225    107.3087     77.6731   7.8003617013e+01   4.6350220138e+01    0.3575988     0.241165 -24.37  0.001348461    1.668    0.400
       162  -9.4279     90.2808     79.2712   8.3865553451e+01   4.9310168842e+01     0.191318    0.1746034  83.99 0.0006228212    1.366    0.268
       163  -8.4720     16.3646     78.7209   1.1032405832e+02   5.8474814100e+01    0.1664819     0.113093 -75.84 0.0004824893    1.480    0.324
       164 -11.4672     16.9442     74.0096   1.0911540151e+02   5.9499472927e+01    0.2896613      0.23641 -44.08 0.0004332554    1.080    0.074
       165 -10.4629    157.9306     76.5620   6.4420536917e+01   3.4948007586e+01    0.3239213    0.2717325  43.42 0.0005542345    1.196    0.164
       166 -12.1661    199.7703     71.7986   5.5009229404e+01   2.5444729654e+01    0.3563052    0.2760817 -29.27 0.0004065155    1.321    0.243
       167 -10.0358    179.6131     74.8555   5.9441349524e+01   2.9883529105e+01    0.4547994    0.3403294  20.58  0.001968653    1.721    0.419
       168  -9.0736    175.2961     75.2882   6.0404531218e+01   3.0878813112e+01    0.2309465    0.1889184 -19.03 0.0001958883    1.340    0.254
       169 -11.3577    170.0715     72.7071   6.0698988522e+01   3.2618768629e+01    0.5939177    0.5179126  42.28 0.0008483107    1.172    0.147
       170  -9.2656    125.9827     75.9035   7.2085072045e+01   4.2661568985e+01    0.2292306     0.215245   6.86 0.0002985653    1.054    0.052
       171  -9.7983     82.6159     75.0158   8.5075852232e+01   5.1546728282e+01     0.441954    0.2879343   6.24  0.001273104    2.187    0.543
       172  -9.1386     28.9566     75.4379   1.0486914663e+02   5.8280389076e+01    0.3038067    0.1752069 -26.41    0.0015527    1.947    0.486
       173  -9.4323     93.0279     67.0533   7.8978853574e+01   5.1263262797e+01    0.2890157    0.2081307 -46.71 0.0007334909    1.444    0.307
       174  -9.6870     88.6666     68.0033   8.0737931324e+01   5.1892725723e+01    0.2740404    0.2274723  -5.26   0.00128439    1.233    0.189
       175 -10.5970     89.3402     72.9346   8.2149897939e+01   5.0787051393e+01    0.5018148     0.313665 -48.24  0.001195624    1.626    0.385
       176  -9.1955     93.0000     74.0553   8.1315772623e+01   4.9885126044e+01    0.3014422    0.1894257 -43.24 0.0004010418    1.538    0.350
       177  -9.1731     94.6876     71.3182   7.9871540385e+01   5.0114191978e+01     0.236621    0.2142018  49.94 0.0006996989    1.245    0.197
       178  -9.5334     68.9826     73.8819   8.9480173357e+01   5.3969613337e+01    0.2620994     0.178943 -44.58  0.001331346    1.336    0.251
       179  -9.5000     20.8516     81.9931   1.0935052589e+02   5.7422075886e+01    0.2755453    0.2037278  59.05 0.0009876308    1.768    0.434
       180  -9.5283    152.1176     72.2962   6.4432763605e+01   3.7132251331e+01    0.2704735    0.2181545 -39.46 0.0002737589    1.250    0.200
       181  -9.4458    137.9351     72.0392   6.7738361169e+01   4.0604686159e+01     0.229056    0.2271889  -1.40 0.0004716201    1.035    0.033
       182  -9.7525    157.1645     68.7580   6.2223282949e+01   3.6501264463e+01    0.2510778    0.2301201 -85.88 0.0004930305    1.179    0.152
       183 -11.3911     79.7602     69.8494   8.4383694770e+01   5.3091879574e+01    0.2642609    0.2427662 -13.67 0.0003090904    1.027    0.026
       184  -9.9009     75.2957     66.0963   8.4704668921e+01   5.4587092394e+01    0.2441898    0.2024568  25.81 0.0002940973    1.244    0.196
       185  -9.4506     63.9237     69.6222   8.9984487354e+01   5.5605582355e+01    0.2669472    0.2106875 -23.01 0.0008511568    1.213    0.176
       186  -9.4219     10.3603     69.3949   1.1065614207e+02   6.0930890365e+01    0.2234826    0.1421583 -52.64 0.0006366358    1.203    0.169
       187 -10.0568    120.5274     65.6931   7.0238857436e+01   4.5780264138e+01    0.6213311    0.2963488 -30.19  0.002323719    2.344    0.573
       188 -10.6754     63.3205     75.5013   9.2016705744e+01   5.4441044293e+01    0.4034597    0.3669366  20.41  0.002060874    1.194    0.162
       189 -10.3662     14.5771     64.8823   1.0797430701e+02   6.1669247227e+01    0.5551316    0.3575061  58.63  0.003031408    2.420    0.587
       190 -10.5471      1.9704     67.7480   1.1357665024e+02   6.1721618681e+01    0.4816514    0.1894289 -49.98  0.001624599    1.847    0.459
       191 -11.2056      1.7683     61.9331   1.1248129924e+02   6.2999787088e+01       0.5515     0.182912 -64.51 0.0005737711    2.312    0.567
       192 -11.1269      6.0130     59.0639   1.1011481311e+02   6.3414415343e+01    0.4257952    0.3257774  47.31  0.001596474    1.781    0.439
       193  -9.6432    105.9084     66.7526   7.4826821866e+01   4.8755005573e+01      0.35146    0.2720511  34.30  0.001099914    1.292    0.226
       194  -9.5565     32.1057     41.5069   9.3425950344e+01   6.5041140247e+01    0.2993511    0.1983841 -57.68  0.001690291    1.781    0.439
       195 -10.4957     30.4058     53.2661   9.8164290473e+01   6.2906344319e+01    0.5357186    0.2663385  28.39  0.002749342    2.257    0.557
       196 -12.2421     41.3764     37.3362   8.7668548200e+01   6.4780209462e+01    0.5434201    0.2964276 -27.72  0.000242854    1.756    0.430
       197 -10.0445     46.8875     47.1625   8.9040227442e+01   6.2327376311e+01    0.3293814    0.2304962 -10.63 0.0003846192    1.455    0.313
       198 -10.3738     39.8542     58.3931   9.5810482877e+01   6.0926863151e+01    0.5122064    0.3213316  18.92  0.001958952    1.769    0.435
       199 -10.9171     23.3909     62.9061   1.0389937940e+02   6.1479967034e+01    0.7013898    0.3755465 -40.45  0.002699101    1.578    0.366
       200  -9.8932     23.5482     55.3730   1.0174283823e+02   6.3059113959e+01     0.612711     0.244748 -40.36  0.002851623    2.132    0.531
       201  -9.4423     42.8535     44.6383   8.9826294236e+01   6.3285267371e+01    0.1906021    0.1490821 -33.24 0.0006110064    1.112    0.100
       202 -11.0745     42.0968     51.4253   9.2576040061e+01   6.2078306399e+01    0.5903414    0.3064884 -52.44  0.002075989    1.894    0.472
       203  -9.8044     38.2315     46.2804   9.2427335152e+01   6.3499755425e+01    0.3532115     0.267902  31.06  0.002171446    1.542    0.351
       204 -11.2360     32.1140     64.6915   1.0084172021e+02   6.0364797092e+01    0.4450614    0.2866637  -7.82  0.001177768    1.823    0.451
       205 -10.4892     31.6166     59.0601   9.9423532475e+01   6.1602271461e+01     0.372346    0.2251177 -57.21  0.002024484    1.555    0.357
       206 -10.5441    144.2715     66.2875   6.4370397891e+01   4.0093730737e+01    0.4363538    0.2890529  30.93  0.001722975    1.771    0.435
       207 -10.2705    135.0617     64.4404   6.6006940543e+01   4.2629151005e+01     0.438895     0.313436  67.34  0.001997881    1.653    0.395
       208  -9.1746    139.8471     64.1809   6.4748725732e+01   4.1525855812e+01    0.2175455    0.1890561  44.30 0.0002429993    1.123    0.109
       209 -10.0080     83.1464     62.9589   8.0881738546e+01   5.3865071106e+01    0.4086473    0.2521557 -50.03 0.0008326875    1.781    0.438
       210  -9.3790     99.9493     63.9761   7.5710900602e+01   5.0490142150e+01    0.2421246    0.2001589  36.55 0.0003680481    1.212    0.175
       211  -8.3832     59.6599     64.3041   8.9870604363e+01   5.7302418931e+01    0.1273221     0.110318  81.66 0.0007039975    1.677    0.404
       212  -9.9305    203.4359     62.9849   5.2070178245e+01   2.5946078058e+01    0.2856191     0.215019  60.36 0.0006386627    1.348    0.258
       213  -9.5280    194.0399     61.1420   5.3051275283e+01   2.8528381011e+01    0.3686478     0.218485 -29.86 0.0008576754    1.756    0.431
       214 -10.6549    163.3769     53.7605   5.6339417810e+01   3.7352048640e+01    0.4413016    0.2966053 -25.31  0.002038694    1.622    0.383
       215 -10.0385    160.2439     61.2176   5.9257435365e+01   3.6981142874e+01    0.2970563     0.260786 -35.79  0.001045327    1.160    0.138
       216  -9.7690    170.6923     57.6871   5.6131577551e+01   3.4906008075e+01    0.2763161    0.2018989 -43.58 0.0007895072    1.386    0.278
       217 -10.4206    167.2220     56.8449   5.6537022899e+01   3.5911637238e+01    0.2833225    0.2192426  64.84 0.0003453961    1.289    0.224
       218 -10.3442     70.5772     60.3968   8.4462254435e+01   5.6466176840e+01    0.3843537    0.3148794   9.95  0.001049144    1.227    0.185
       219  -9.2607    116.7008     61.1525   6.9762447691e+01   4.7438429963e+01     0.230192     0.199342  53.70 0.0002587598    1.222    0.181
       220  -8.3623    216.4781     61.3827   4.9751648853e+01   2.3074844908e+01    0.1403902    0.1278536 -69.58 -7.181247e-05    1.040    0.039
       221  -9.7473    151.8241     59.7782   6.0592369744e+01   3.9315206969e+01    0.4162207     0.239641  53.51  0.001419752    1.674    0.403
       222  -9.8857    151.8830     54.4176   5.8877766902e+01   4.0142930781e+01    0.4680736    0.4024243  76.74  0.002444073    1.240    0.194
       223 -10.1268    155.5200     49.9865   5.6716970681e+01   3.9896096927e+01    0.3416824    0.2065951  28.70  0.001388012    2.230    0.552
       224 -10.0550    152.7357     48.4435   5.6790867104e+01   4.0821996948e+01    0.3597676    0.2320973  60.97 0.0009037727    1.519    0.341
       225  -9.5462     16.1304     59.9467   1.0612442839e+02   6.2633677387e+01    0.1790673    0.1517043 -49.34 0.0006020325    1.110    0.099
       226  -8.9065    180.8525     58.3238   5.4477090355e+01   3.2248210375e+01    0.2651307    0.1984296 -48.25 0.0007874114    1.349    0.259
       227  -9.5926    132.8679     58.4839   6.4582941468e+01   4.4153352291e+01    0.2520369    0.2064548   7.53  0.001257196    1.366    0.268
       228  -8.7254    144.7113     58.3328   6.1713997338e+01   4.1306766451e+01    0.2420483    0.2035882 -60.78 0.0008629807    1.344    0.256
       229  -9.6807    145.3895     53.8444   6.0103296403e+01   4.1846068717e+01    0.3757077    0.1951952 -28.91  0.001342465    2.068    0.517
       230  -9.1546    105.1225     57.4016   7.1814597853e+01   5.0601511622e+01    0.2533205    0.1915453 -20.94 0.0005570382    1.355    0.262
       231  -9.6110     60.4221     58.1124   8.7493745715e+01   5.8434263747e+01    0.2682401     0.228353  25.56  0.000919784    1.266    0.210
       232  -8.7123     55.0590     57.2308   8.9284015594e+01   5.9344498722e+01    0.1854666     0.136531  24.42 0.0004871875    1.436    0.304
       233  -9.3791     52.7139     53.9517   8.9080605535e+01   6.0294076835e+01     0.487296    0.2018882 -45.30  0.002109263    2.142    0.533
       234 -11.5903    225.8202     55.2685   4.6993594679e+01   2.1802046391e+01    0.2853633    0.2221952 -50.61 0.0003029128    1.171    0.146
       235  -9.6348    137.1070     55.8082   6.2657845184e+01   4.3566984184e+01    0.3904113    0.2489535 -13.24   0.00122578    2.028    0.507
       236 -10.5401    118.3095     53.8281   6.6770950873e+01   4.8307372583e+01    0.4605523    0.2766814 -32.09  0.002060218    1.697    0.411
       237 -10.1538    122.6946     52.1669   6.5017653579e+01   4.7566196893e+01    0.4780789    0.3354057  22.89  0.002047194    1.648    0.393
       238 -10.1479    123.6738     47.7355   6.3206993828e+01   4.8022238848e+01    0.2739025    0.2536347 -20.54 0.0002592254    1.108    0.097
       239 -10.6875    125.6979     45.2840   6.1831010300e+01   4.7909777393e+01    0.4426876    0.2398919  62.56  0.001770943    2.101    0.524
       240  -9.3332    108.5915     44.3979   6.6061386016e+01   5.1957563613e+01    0.3900389    0.1554408 -38.33 0.0006503314    2.581    0.613
       241 -10.2079     93.2690     54.6404   7.4522355498e+01   5.3495235860e+01    0.3651361    0.2519909 -16.53 0.0007238483    1.593    0.372
       242 -11.7756     94.8810     49.3622   7.2050581667e+01   5.4068716919e+01     1.257034    0.4791569  51.21  0.003391768    3.009    0.668
       243 -11.7625    103.6538     38.7212   6.5331048829e+01   5.3869081484e+01    0.2749228    0.2518944  25.62 0.0003123479    1.050    0.047
       244  -9.3938      9.6130     32.1787   1.0082732316e+02   6.8638902216e+01    0.2476118    0.1606007 -32.47  0.001608876    1.208    0.172
       245  -8.9807      8.3998     43.7713   1.0510123208e+02   6.6462085615e+01    0.1995509    0.1154405 -56.97 0.0007265879    1.462    0.316
       246  -9.7781    115.8744    248.6892   1.0924853771e+02   8.1496122165e+00    0.2049115    0.1864342  35.49 0.0006537323    1.220    0.180
       247  -9.4757      5.2939     31.6614   1.0282094900e+02   6.8998588475e+01    0.2967236    0.1652702 -20.46   0.00122479    1.721    0.419
       248 -11.0370      6.7428     50.5436   1.0771581351e+02   6.5172613917e+01    0.6653697    0.4126083  31.75  0.004078316    2.065    0.516
       249 -11.5868     14.4535     39.2296   1.0084963513e+02   6.6972276098e+01    0.4749939    0.3311343 -57.81  0.001375535    1.459    0.314
       250  -8.4672    243.4985     55.5547   4.4977019580e+01   1.7826915584e+01    0.1325729    0.1165584 -56.45 5.662013e-05    1.021    0.021
       251 -10.2945    191.4877     54.3152   5.1574008493e+01   3.0187888530e+01     0.302004    0.2613306 -25.99 0.0007177859    1.235    0.190
       252 -11.0532    103.3718     43.6529   6.7292923465e+01   5.3204962553e+01     1.017988    0.4497584  39.53  0.004008007    2.308    0.567
       253 -10.4849     83.5557     52.0596   7.6815658081e+01   5.5788400806e+01    0.3575233    0.2764886 -23.23 0.0003960907    1.230    0.187
       254  -8.3341     79.5896     48.8252   7.6979159342e+01   5.7065475280e+01    0.2128562    0.1309931 -37.10 0.0007375378    1.571    0.363
       255  -8.6976    106.7967     53.1368   6.9786933811e+01   5.0967005228e+01    0.1955288    0.1582682  15.08   0.00031628    1.272    0.214
       256  -9.4739    199.4684     51.9364   4.9707046175e+01   2.8558890582e+01    0.2464732    0.1948975  58.35 0.0003436198    1.277    0.217
       257 -10.1034     71.1406     51.7524   8.1140635160e+01   5.7995663369e+01    0.3139348    0.2159375   7.23  0.001319886    1.674    0.403
       258 -10.3097     57.9339     33.9372   7.9206035127e+01   6.3101344893e+01    0.8932676    0.4030389  42.95  0.003334244    2.510    0.602
       259 -10.4299     49.5602     27.0313   7.9722344941e+01   6.5404304401e+01     0.657898     0.408724  56.15  0.003044114    3.290    0.696
       260  -9.8675     41.3867     21.8545   8.1014923306e+01   6.7299542455e+01    0.2311852    0.1988742  28.60 0.0008534117    1.442    0.306
       261  -9.6836    163.6537    246.6241   9.9787449437e+01   1.0598094077e+00    0.1833106    0.1545784  -9.97  0.000680538    1.373    0.272
       262  -8.6008     27.2960    245.6807   1.2516369286e+02   2.0342526113e+01    0.1148372    0.0572104  64.73 0.0003685044    1.613    0.380
       263  -9.4995     20.5181    244.9608   1.2626868271e+02   2.1195916090e+01    0.1478967   0.08590227 -85.55  0.000634898    1.541    0.351
       264  -9.6908     61.2145     51.9134   8.4977191337e+01   5.9504316813e+01    0.2731061    0.2367623 -58.35 0.0009202354    1.476    0.323
       265  -9.0726      1.4567    244.0514   1.2935188399e+02   2.3255439102e+01    0.1444661   0.07806265 -89.76 0.0004028213    1.529    0.346
       266 -10.1529    202.6741    242.4704   9.1756774534e+01  -4.4107101739e+00    0.2448405    0.1699499   6.15 0.0006626887    1.447    0.309
       267 -12.4942     61.8170     44.1586   8.1805391566e+01   6.0811287189e+01    0.4650595    0.2825268 -37.63 0.0004793475    1.526    0.345
       268 -10.2588     65.5991     49.4955   8.2383696036e+01   5.9285908363e+01     0.295247    0.2097392 -27.48 0.0006917701    1.293    0.226
       269 -10.9556     67.6137     44.4462   7.9674392612e+01   5.9853078719e+01    0.4702191    0.2974937  13.43 0.0005320661    1.860    0.462
       270  -9.4922    176.4097     49.7138   5.2744053045e+01   3.4647381574e+01    0.4078285    0.2175222  46.09  0.001698964    1.980    0.495
       271  -8.7635    181.4243     49.2476   5.1765125543e+01   3.3446599997e+01    0.2071112    0.1293904 -44.52 0.0009431255    1.611    0.379
       272  -9.6108    203.7380     46.6187   4.7680565756e+01   2.8263039420e+01    0.4317106    0.2123118  41.28  0.001678104    2.782    0.641
       273  -9.1291    196.5694     48.2016   4.9120560241e+01   2.9805179832e+01    0.2466427    0.1895235  65.47 0.0003592323    1.277    0.217
       274  -9.4114     31.7361     47.7982   9.5801072320e+01   6.3871846426e+01    0.1745783    0.1370202 -28.08 0.0005199024    1.049    0.046
       275  -9.6786     17.7192     47.2128   1.0187064004e+02   6.5166817500e+01     0.333847    0.2778825   5.64  0.002318475    1.341    0.254
       276  -8.3499     22.2747     45.7033   9.9334978749e+01   6.5120036953e+01    0.1647611   0.08545184 -51.81 0.0002001348    1.622    0.383
       277 -11.0227     12.2596     44.0859   1.0341120489e+02   6.6164416934e+01    0.4024604    0.1543913 -47.68  0.001321499    1.891    0.471
       278 -10.3647    114.7386     46.1707   6.5003954229e+01   5.0317221042e+01    0.2941412     0.246429 -10.12  0.001047955    1.219    0.179
       279  -9.1917     26.6133     45.0972   9.7172032801e+01   6.4872448497e+01    0.3791352    0.1287821 -45.45  0.001068939    2.277    0.561
       280  -9.8586    245.1795     45.0588   4.2399346053e+01   1.8911291733e+01      0.46242    0.2404557  85.48  0.002114651    2.423    0.587
       281  -8.7516    164.8523     46.1826   5.3734905096e+01   3.8081854534e+01    0.1995632    0.1655543  34.91 0.0003621805    1.292    0.226
       282 -11.0759    116.2689     34.0247   6.0118895674e+01   5.1678075179e+01    0.7487835    0.4254472  23.84 0.0006368993    2.325    0.570
       283 -10.0054    179.1614     42.5304   5.0189614973e+01   3.4952808239e+01     0.536694    0.2271581 -28.97  0.002057851    2.516    0.602
       284  -9.4500    199.8979     43.4048   4.7352716033e+01   2.9645057309e+01    0.2352584    0.2012969 -28.42 0.0003675467    1.257    0.205
       285  -8.8020    187.0506     43.8561   4.9337284903e+01   3.2782004711e+01    0.2866064    0.1610765  63.65  0.001279072    1.715    0.417
       286  -9.2198    149.6750     43.6653   5.5872878684e+01   4.2270270347e+01    0.2287468    0.1605254  29.20 0.0005799701    1.650    0.394
       287 -10.2198     53.0579     42.7743   8.4801315238e+01   6.2320917120e+01    0.2330544    0.1698071 -35.92 0.0003364776    1.255    0.203
       288  -8.8339    142.1395     43.0726   5.7256374712e+01   4.4233376399e+01    0.2250482    0.1849651  30.89  0.000413612    1.254    0.203
       289  -9.5989     91.0491     41.2658   7.0174959428e+01   5.6120816212e+01    0.2407082    0.1930014 -32.38  0.000307526    1.283    0.221
       290 -10.5015     78.4234     34.5301   7.1701035033e+01   5.9557462125e+01    0.7256442    0.3234636  48.55  0.001596524    2.428    0.588
       291 -10.3818     83.4837     33.3443   6.9474998483e+01   5.8773645966e+01    0.4722221    0.2939137  40.72  0.001225923    1.531    0.347
       292 -10.2576     82.3879     38.8538   7.2094661845e+01   5.8169375008e+01    0.4541541    0.2255915 -31.96  0.002002246    1.988    0.497
       293 -10.3532     75.2333     28.7621   7.0390237188e+01   6.0968284639e+01    0.2889041      0.22702 -25.51  0.001172472    1.267    0.211
       294 -10.1259     71.5363     29.5416   7.2059174328e+01   6.1524847930e+01    0.4376601    0.2651646 -23.36  0.002262286    1.618    0.382
       295  -9.1366    121.2652     39.4259   6.0843079725e+01   4.9787867559e+01    0.3392457    0.1586904  50.41  0.000980663    1.963    0.491
       296  -9.2488    143.0188     22.4771   5.0147189403e+01   4.6570456171e+01    0.2700383    0.1895772  28.88 0.0003921378    1.590    0.371
       297 -10.4385    136.0878     36.7181   5.6410304707e+01   4.6586160024e+01    0.8133412    0.5611298 -72.83  0.001487741    2.093    0.522
       298  -9.7152    152.3096     31.8080   5.1510636548e+01   4.3154946912e+01    0.3958755    0.3093377  71.95  0.001691914    1.266    0.210
       299  -8.9432    143.5035     35.4855   5.4427699611e+01   4.4908293377e+01     0.246252    0.2062114  43.49 0.0006315756    1.141    0.123
       300 -11.0616    145.3480     29.0648   5.1915978605e+01   4.5238037596e+01    0.6570088    0.5318786  30.67  0.003158793    1.295    0.228
       301  -9.3660    140.7667     26.0476   5.1784040325e+01   4.6734130425e+01    0.2327625    0.1869858  66.45 0.0004599614    1.198    0.165
       302 -11.3875    127.1596     39.3756   5.9381426535e+01   4.8397832219e+01     0.467398    0.3407176 -11.38 0.0001933167    1.541    0.351
       303 -10.2618    130.8300     36.2501   5.7419331595e+01   4.7931329617e+01    0.3602826    0.1845747  49.27 0.0007868193    1.784    0.439
       304 -10.3918    228.2117     37.9463   4.2517599676e+01   2.3624707212e+01    0.3559308    0.1885281 -44.91  0.000598125    1.697    0.411
       305  -8.9422    191.6380     38.7527   4.7240782589e+01   3.2314186574e+01    0.3150358    0.1911871  -9.26  0.001345983    2.442    0.590
       306  -9.0143    165.9700     39.5436   5.1500679234e+01   3.8703381107e+01    0.2001652    0.1934768 -62.49 0.0004070463    1.067    0.062
       307  -9.3486    157.9119     39.5221   5.2941825827e+01   4.0753541241e+01    0.3032251    0.1755237 -47.42  0.001326838    1.910    0.476
       308  -8.7883    182.3143     38.9598   4.8667260740e+01   3.4630515455e+01    0.1872319    0.1787418 -83.65 0.0003979752    1.030    0.029
       309  -9.5955    186.4865     36.7771   4.7427889074e+01   3.3861927983e+01    0.2794024    0.2640072  36.75  0.000680626    1.178    0.151
       310  -9.1668     86.1270     36.8300   7.0017974464e+01   5.7756592846e+01    0.2381138    0.1799967  -2.11 0.0002330199    1.337    0.252
       311  -9.0537     24.2619     38.5660   9.5979584884e+01   6.6328511215e+01    0.2432733     0.177859 -42.97  0.001560655    1.201    0.167
       312  -9.3210    238.0219     37.9718   4.1503766486e+01   2.1411615152e+01    0.1961088    0.1680195 -62.58 0.0003793616    1.006    0.006
       313  -8.9485    214.5886     38.1246   4.4100306181e+01   2.6784873262e+01    0.2861441    0.1407116 -49.25  0.001264358    1.980    0.495
       314  -8.2069    202.6467     38.3305   4.5635283878e+01   2.9644430714e+01    0.1532576   0.09623656 -66.45  3.33618e-05    1.778    0.438
       315  -9.6562    204.4753     24.1839   4.1722062233e+01   3.0945153976e+01    0.2651337    0.2025922 -59.94  0.001019456    1.245    0.197
       316 -10.4420    208.1702     35.2191   4.4130697032e+01   2.8700661471e+01    0.4721268    0.2923682  -9.47 0.0006614905    2.419    0.587
       317 -10.1094    211.9739     28.1306   4.1886029256e+01   2.8666040810e+01     0.216283    0.1998705 -61.12 0.0003439818    1.095    0.087
       318  -9.5402    208.0249     26.7866   4.1987708032e+01   2.9777427033e+01    0.2527282     0.168803  86.10   0.00065635    1.488    0.328
       319  -9.9051    176.6781     36.5334   4.8833678422e+01   3.6372422018e+01    0.3615642    0.2370213  81.96  0.001068545    1.666    0.400
       320  -9.0554    250.1922     36.0608   3.9909478554e+01   1.9020953726e+01    0.1812606    0.1711298  48.87 0.0004698529    1.350    0.259
       321  -8.9666     47.7581     34.6007   8.3756596032e+01   6.4442425106e+01    0.1853196    0.1329999   6.21  0.001085569    1.360    0.265
       322  -9.8182    247.5132    239.0259   8.3128850304e+01  -1.0397761865e+01    0.1895638    0.1289031  21.95  0.001265932    1.207    0.171
       323 -10.1730    123.7917     22.4529   5.4034835947e+01   5.1292708729e+01    0.4309717    0.2795832 -78.66   0.00147882    2.520    0.603
       324 -11.0530    105.5779     21.0648   5.7872218286e+01   5.5685306639e+01     0.498465    0.2511202  59.59 0.0003937564    2.021    0.505
       325  -9.4763     34.4564    239.3224   1.2355948506e+02   2.0714723198e+01    0.2025403   0.08889338  54.76 0.0007718462    1.793    0.442
       326  -9.2493    221.0139    237.5273   8.7580793583e+01  -6.5010805399e+00    0.1856055   0.09878767  32.30 0.0008086129    1.578    0.366
       327 -10.2267     99.9031     26.8938   6.1751709632e+01   5.6256312737e+01    0.7724356    0.3397057  36.29  0.003093448    2.443    0.591
       328  -8.9468    232.8302     31.8962   4.0614208136e+01   2.3347479504e+01    0.1905574    0.1331427 -63.74 0.0004792422    1.329    0.248
       329  -8.5772     13.8174     28.7828   9.7475310928e+01   6.8973233309e+01    0.3036976    0.1394681  25.11  0.001653619    2.415    0.586
       330  -9.1004    167.8533    237.5936   9.7699985855e+01   1.7522909554e+00    0.1794841    0.1002012  45.27 0.0005924517    1.638    0.390
       331  -9.4077    186.5050    231.4735   9.3121479485e+01  -3.3324611496e-01    0.1291973    0.1047775  22.18  0.000809881    1.031    0.030
       332  -8.3150    207.4972    226.4697   8.8262862394e+01  -2.9550958148e+00    0.1283946    0.1032356  15.90  9.30535e-05    1.012    0.012
       333  -8.6382    223.5825    225.1715   8.5034768114e+01  -5.2580734999e+00    0.1644817    0.1043993 -16.43 0.0005841852    1.610    0.379
       334 -12.2000     26.2881     30.9673   9.2130453031e+01   6.7524927149e+01     1.107058    0.4542119  14.33  0.003722084    3.308    0.698
       335 -10.9089     19.2917     29.0686   9.4824199060e+01   6.8489624422e+01    0.2979436    0.1807431 -17.99 0.0003782576    1.553    0.356
       336  -8.4656    132.2576    225.6405   1.0318429091e+02   9.5543538444e+00    0.1262098   0.09336717  71.06 0.0004823116    1.622    0.383
       337  -8.3694      1.9659    224.2593   1.2843225615e+02   2.6880720454e+01    0.1216402   0.07600064  47.14 0.0003627218    1.461    0.315
       338 -10.9640    221.6136     29.0057   4.1065747784e+01   2.6280159508e+01    0.3871467    0.2966722 -30.32  0.002239122    1.398    0.285
       339  -9.0976    159.1625     30.6855   4.9932357612e+01   4.1554295296e+01    0.3051179   0.07618361 -34.48  0.000849554    3.657    0.727
       340  -9.6110    124.3766     29.7908   5.6587182347e+01   5.0302396007e+01    0.4092163    0.2833716  83.98  0.001821893    1.976    0.494
       341  -9.2443    247.4508     30.2597   3.8880583730e+01   2.0336804037e+01    0.2199132     0.162221  77.97 0.0007205762    1.365    0.267
       342 -10.7931    186.2922     29.9822   4.5548274037e+01   3.4758739901e+01    0.6806794    0.3913386  70.91  0.002357391    1.676    0.403
       343  -9.1550    196.7980    222.1734   8.9597874232e+01  -6.1282160742e-01    0.1891541     0.136577   9.08  0.001086846    1.390    0.280
       344  -9.9983    134.0510     27.4536   5.3624213863e+01   4.8233756584e+01    0.2414144    0.2065875 -22.70 0.0004110951    1.254    0.202
       345  -9.1836     88.8038    220.9492   1.1158527419e+02   1.7226372581e+01    0.1768083    0.1679563  44.38 0.0006079202    1.253    0.202
       346 -10.1424    165.1670     25.9074   4.7462127057e+01   4.0589540614e+01    0.5032287    0.3128999 -75.11  0.001958888    2.083    0.520
       347 -10.2760    159.3048     24.6396   4.8011311065e+01   4.2222778844e+01    0.2843911     0.232745 -57.85 0.0007949553    1.313    0.238
       348  -8.7074     10.4036     22.5341   9.6819948051e+01   7.0331268583e+01    0.1278455    0.1033429  13.17 0.0002223428    1.432    0.302
       349  -8.5224    183.4810    219.4674   9.1775471067e+01   2.0122142352e+00    0.1324475    0.1120387  23.76 7.477896e-05    1.008    0.008
       350  -8.8176    203.1331    217.8156   8.7621913243e+01  -9.9287651444e-01     0.177032    0.1302848  11.02 0.0003431316    1.288    0.224
       351 -10.8750      2.0378     25.5153   1.0238645484e+02   7.0323628636e+01    0.1817022    0.1452473 -38.29  0.000349746    1.144    0.126
       352 -10.7740      1.7001     22.3004   1.0140330088e+02   7.0925659081e+01     0.194927    0.1420019 -58.01 0.0002585012    1.519    0.342
       353  -8.6020      2.3159    211.7077   1.2777610552e+02   2.9310455472e+01    0.1156527   0.05818292  65.05 0.0002445756    1.598    0.374
       354  -8.8598    230.6527    209.6100   8.0963252146e+01  -4.1896147964e+00    0.1933751    0.1247266   4.00 0.0002712077    1.609    0.378
       355 -10.5085     61.5791     23.7598   7.3284444780e+01   6.4035406594e+01    0.3106461    0.2169783  -8.06    0.0017851    1.361    0.265
       356  -8.7903     65.8776     22.8199   7.1199195115e+01   6.3438055197e+01    0.3167335     0.261417   4.62  0.001699716    1.013    0.013
       357  -8.2391      8.3223    209.3022   1.2654827103e+02   2.9253807544e+01   0.09803367   0.07797916 -59.43  0.000588464    1.632    0.387
       358  -8.2217      8.2628    203.6396   1.2624250826e+02   3.0418707629e+01    0.1198598   0.06181629  70.34 0.0006982202    1.634    0.388
       359 -10.1163     33.6709    199.7834   1.2095107965e+02   2.8711862965e+01    0.2947566     0.164962  68.77  0.001345632    1.640    0.390
       360  -9.4077    233.6069     24.2691   3.8778581873e+01   2.4105798875e+01    0.3595186    0.1573495 -89.28  0.001434573    3.080    0.675
       361 -11.1396    153.6331     23.0542   4.8453914002e+01   4.3836503742e+01    0.3029821    0.2355485  44.31 0.0003150067    1.265    0.209
       362  -9.0284     85.4858     23.8855   6.4840666015e+01   5.9639023923e+01    0.1899839    0.1256825 -18.97 0.0006578086    1.522    0.343
       363  -8.5786    120.4343    199.2061   1.0193535433e+02   1.6609740400e+01    0.1761379    0.1309505 -78.02 0.0006854918    1.589    0.371
       364  -9.2771      7.1456    194.5225   1.2592405706e+02   3.2424728883e+01    0.2251465    0.1240429  60.48  0.001392222    1.548    0.354
       365  -8.9072    189.3807     21.7493   4.2865828560e+01   3.4945110675e+01    0.1821387    0.1338071 -11.57 0.0009558498    1.706    0.414
       366  -9.5215    174.5911     21.8991   4.4862764784e+01   3.8648412930e+01    0.3446036    0.1621418  50.87   0.00106948    2.077    0.518
       367  -8.7169     92.0812    188.4851   1.0683618022e+02   2.3526513843e+01    0.1986337    0.1269428  39.65 0.0009814582    1.507    0.337
       368  -8.4659     79.7920     22.2229   6.5979189107e+01   6.0966255239e+01     0.198272    0.1469391 -73.18 0.0009463647    2.746    0.636
       369 -10.2845     93.6913     20.1581   6.0764585882e+01   5.8386683620e+01    0.2278383    0.1890103  44.81 0.0003250222    1.171    0.146
       370  -9.4287     55.3931    181.3192   1.1444246897e+02   3.0285593740e+01    0.2070475    0.1831255  68.71 0.0004388205    1.101    0.091
       371  -9.6496     16.8852    174.8718   1.2253000595e+02   3.5859446123e+01    0.1779008    0.1419377 -69.62 0.0006537515    1.270    0.213
       372  -9.5116    198.8092     14.0210   3.9719352884e+01   3.3457748462e+01    0.2795189    0.1771669  69.23 0.0006054616    1.443    0.307
       373 -10.3176    236.0670     18.5412   3.7262376923e+01   2.4227689504e+01    0.4357949    0.1426715  75.12  0.001714824    3.204    0.688
       374  -9.8872      7.4913    174.9778   1.2457949874e+02   3.6638863152e+01    0.1830499   0.09306006 -80.28  0.001031762    1.587    0.370
       375  -9.3736    213.9523     18.3060   3.9239240217e+01   2.9341013669e+01    0.1877571    0.1564521  88.46 0.0008462051    1.090    0.082
       376  -9.0387    152.0450     18.2307   4.7168323894e+01   4.4752441797e+01    0.1957038    0.1729921  60.36 0.0006683258    1.027    0.026
       377  -9.3174    225.8105     16.5190   3.7693849803e+01   2.6774923072e+01    0.2309878    0.1650205 -40.96 0.0008468457    1.345    0.257
       378  -9.8501     73.0804     16.6888   6.5788303436e+01   6.2908390657e+01     0.217436    0.1873183 -33.12 0.0005024872    1.409    0.290
       379  -8.6124     16.3112    169.6524   1.2223375992e+02   3.7091288500e+01    0.1300379   0.07231543  69.78 0.0007045635    1.712    0.416
       380  -8.7549    179.4924     13.4994   4.1803559680e+01   3.8302494579e+01    0.2007108        0.149  43.25 0.0006872414    1.476    0.322
       381 -10.4689      5.5855    168.2617   1.2451321690e+02   3.8291982187e+01     0.272606    0.1765547 -50.24  0.000915899    1.843    0.457
       382 -11.6144     37.8085    159.6183   1.1617022519e+02   3.7368929940e+01    0.5933089     0.325708  56.26  0.002308505    1.890    0.471
       383  -8.6688     10.9930     14.9595   9.3289278002e+01   7.1565285277e+01    0.1378851    0.1017775 -21.28  0.000539696    1.022    0.022
       384  -9.5760    139.3618     13.8661   4.7892649707e+01   4.8365843535e+01    0.2686865    0.1664094  54.54 0.0007221177    1.411    0.291
       385 -12.1409     30.6007    154.5978   1.1739434001e+02   3.9285141835e+01    0.6133197    0.4132025  58.31   0.00304984    1.490    0.329
       386 -12.1576     14.4305    143.0722   1.2024546687e+02   4.3422163454e+01    0.8116561    0.4558389 -48.71  0.003208892    1.908    0.476
       387  -9.9094     21.7132    141.0582   1.1814764598e+02   4.3314097380e+01    0.2560365      0.17723 -68.53 0.0008210341    1.206    0.171
       388 -11.4571      4.8050    146.6973   1.2298516094e+02   4.3280034575e+01      0.80874    0.3071213  65.17   0.00337376    3.389    0.705
       389  -8.9993      9.2685    147.3463   1.2195032228e+02   4.2808512135e+01    0.1754682   0.09357432 -73.33 0.0003181532    1.484    0.326
       390 -10.5348     45.5375    152.1449   1.1329462889e+02   3.8322887072e+01    0.4166094    0.2056597 -52.25  0.001521061    2.015    0.504
       391 -10.4899     24.6037    162.7424   1.1969865775e+02   3.7936050346e+01    0.2164667    0.1955222  86.72 0.0002555465    1.157    0.136
       392 -11.7285      2.5447    153.8938   1.2411786443e+02   4.1779210841e+01     1.225251   0.07205986 -68.14  0.003858127    5.098    0.804
       393  -9.5285     54.0927    146.0109   1.1017225063e+02   3.8821674191e+01    0.2023887    0.1751631 -83.64 0.0003674251    1.030    0.030
       394  -8.7430    219.4933     11.4880   3.7076586959e+01   2.8787305688e+01    0.1285451    0.1099577 -77.38 4.009547e-06    1.013    0.013
       395  -9.2294     30.0415    141.9642   1.1605948584e+02   4.2361351019e+01    0.1939815    0.1580942 -81.38 0.0003426787    1.025    0.024
       396  -9.2741     41.6834    138.9720   1.1251889248e+02   4.1936177704e+01    0.2401878    0.1634797  65.32 0.0009764908    1.596    0.374
       397  -9.2388    235.9743    136.9894   6.5014013527e+01   6.3639917197e+00    0.2159235    0.1929434 -26.19 0.0005790614    1.057    0.054
       398  -9.9770     34.5145    136.5694   1.1415297925e+02   4.3243030989e+01    0.2591887    0.2262271  49.15 0.0009917788    1.274    0.215
       399 -10.6729      2.6168    133.6282   1.2235197543e+02   4.6471176529e+01    0.5668741    0.1730155 -71.30  0.002500284    2.405    0.584
       400 -10.2178      8.0420    133.0212   1.2087343303e+02   4.6259317385e+01    0.3115698    0.1976313 -29.20  0.001413105    2.161    0.537
       401  -8.4741     82.8369    134.4103   1.0015636076e+02   3.7723013569e+01    0.1748948    0.1431931  15.49 0.0001394968    1.471    0.320
       402 -10.5408     42.8957    131.3586   1.1104992246e+02   4.3668350892e+01    0.5194139     0.230405 -47.98  0.002249796    2.278    0.561
       403 -11.8864     28.7066    131.9677   1.1513926372e+02   4.4897257634e+01    0.2625482    0.2151496 -81.87  0.000296994    1.059    0.056
       404  -9.5164     23.6991    133.4125   1.1670746959e+02   4.4981178742e+01    0.2003248    0.1764314  42.07 0.0003391242    1.327    0.247
       405 -10.2493     20.2013    131.3360   1.1740990897e+02   4.5765917661e+01    0.2261373    0.1786988 -86.55 0.0004661629    1.109    0.098
       406 -10.7365     33.9339    128.8516   1.1323188841e+02   4.5174696972e+01    0.3022023    0.2724649  21.45 0.0006121704    1.351    0.260
       407  -9.3038     30.2417    125.3751   1.1378852295e+02   4.6358445839e+01    0.1987737    0.1525973 -58.45 0.0004786393    1.169    0.144
       408  -9.8149     61.8842    131.2360   1.0556642421e+02   4.1476454834e+01    0.2334281    0.1958137  87.38 0.0002632112    1.214    0.177
       409  -9.6880     12.7510    130.9925   1.1939867520e+02   4.6411337464e+01    0.1834429    0.1371373  87.60  0.001160662    1.202    0.168
       410 -10.3270     12.0579    127.4689   1.1918938140e+02   4.7298236441e+01    0.2394464    0.1696104 -46.30 0.0008136206    1.491    0.329
       411  -9.0890     88.3720    127.1029   9.7044095880e+01   3.8622671905e+01    0.2130574    0.1764412 -61.50 0.0006399493    1.154    0.133
       412  -9.0215    217.9573    125.5077   6.5494150514e+01   1.1962498725e+01    0.2461475    0.1818863 -34.42 0.0009584873    1.254    0.203
       413  -9.8185     59.8967    125.8385   1.0515918492e+02   4.3056854345e+01    0.2075604    0.1739912 -44.69 0.0003031981    1.208    0.172
       414 -10.5642      7.5279    123.2025   1.1995747350e+02   4.8613431191e+01    0.2155613    0.1925409  85.81 0.0008109643    1.170    0.145
       415  -8.8347      2.7716    122.8050   1.2122886926e+02   4.8999787759e+01    0.1576472    0.1169515  81.72  0.001021768    1.274    0.215
       416 -10.6759     32.4601    121.3889   1.1254611309e+02   4.7126235801e+01    0.3381781    0.2160521  24.24  0.001662987    1.883    0.469
       417  -9.3488    236.8303    121.1545   6.1250795736e+01   8.8686574983e+00    0.1976933    0.1629614   1.66  0.001075266    1.331    0.249
       418  -9.1426    123.6428    121.0340   8.5646024581e+01   3.3551142002e+01    0.2471659    0.2122159  58.56 0.0004197635    1.249    0.199
       419 -11.4597     21.3680    119.2916   1.1550974674e+02   4.8569271450e+01    0.5439442    0.3726125  60.66   0.00316067    1.650    0.394
       420 -10.2775      9.4694    117.9777   1.1879774387e+02   4.9726693287e+01    0.2965233    0.1968947 -56.48  0.001188364    1.317    0.241
       421 -10.2696     13.3914    113.3951   1.1706383185e+02   5.0557952472e+01      0.34204    0.2225998   2.31  0.001487891    2.102    0.524
       422  -9.4272     93.3877    119.0928   9.3761901419e+01   3.9714753767e+01    0.2764121    0.2508308 -11.83 0.0009854102    1.216    0.178
       423  -8.9385     44.8152    119.7443   1.0857495435e+02   4.6307271670e+01    0.2013398    0.1638251 -21.93  0.000762226    1.475    0.322
       424  -8.6340     61.7103    119.3521   1.0336231177e+02   4.4415722043e+01    0.1434189    0.1048117  81.33 0.0004061996    1.672    0.402
       425 -11.1220     54.7716    118.1323   1.0524430916e+02   4.5576462520e+01    0.2288967    0.2196278  81.50 0.0002800934    1.122    0.108
       426  -9.5060     83.5171    117.2769   9.6284949324e+01   4.1781494135e+01     0.271364    0.2205627  74.87 0.0008609248    1.461    0.316
       427  -8.4824     66.6742    118.2664   1.0162520457e+02   4.4023805097e+01    0.1392756    0.1065053  72.02 0.0006966759    1.569    0.363
       428  -9.4849      1.9494     92.9697   1.1780420052e+02   5.6018768260e+01    0.1823111     0.144982 -72.48 0.0006679958    1.082    0.076
       429  -9.3111      8.1879    107.2102   1.1780482556e+02   5.2353584776e+01    0.2808088    0.1466038 -77.10  0.001485645    1.639    0.390
