#   1 NUMBER                 Running object number                                     
#   2 MAG_AUTO               Kron-like elliptical aperture magnitude                    [mag]
#   3 X_IMAGE                Object position along x                                    [pixel]
#   4 Y_IMAGE                Object position along y                                    [pixel]
#   5 X_WORLD                Barycenter position along world x axis                     [deg]
#   6 Y_WORLD                Barycenter position along world y axis                     [deg]
#   7 A_WORLD                Profile RMS along major axis (world units)                 [deg]
#   8 B_WORLD                Profile RMS along minor axis (world units)                 [deg]
#   9 THETA_WORLD            Position angle (CCW/world-x)                               [deg]
#  10 FWHM_WORLD             FWHM assuming a gaussian core                              [deg]
#  11 ELONGATION             A_IMAGE/B_IMAGE                                           
#  12 ELLIPTICITY            1 - B_IMAGE/A_IMAGE                                       
         1 -11.9253    100.0923     29.9041   6.1757079869e+01   5.5659146129e+01    0.8215013    0.4601596  18.34  0.001500767    2.541    0.607
         2 -10.6509    132.5054     10.6696   4.7239322378e+01   5.0281343052e+01    0.3682314    0.2674666  -6.71   0.00141353    1.583    0.368
         3 -10.3025    130.9839      5.9660   4.5868833485e+01   5.1063357488e+01    0.2418862    0.1966499 -13.40 0.0006897986    1.371    0.271
         4 -12.0470    106.3502     19.2347   5.5908852146e+01   5.5541316068e+01    0.6542434    0.2878559  39.49 0.0005521395    2.292    0.564
         5 -11.8707     92.7548     23.0099   6.1040820054e+01   5.8058411192e+01    0.5926136    0.5025206  88.83  0.003438871    1.657    0.397
         6 -11.6661     11.8259      2.3625   8.4241357769e+01   7.3301857749e+01     0.686455    0.3884081  35.48  0.004265045    2.254    0.556
         7  -9.6725     15.1453     14.2181   8.8404916568e+01   7.1263063000e+01    0.2280394    0.1804169  36.23 0.0008480821    1.842    0.457
         8 -12.3290     20.4913     17.8999   8.7325167699e+01   7.0180520675e+01     0.544055    0.2850109 -31.44 -0.0001271591    1.583    0.368
         9 -12.1411     23.7173      7.5793   8.0583860045e+01   7.1338966289e+01    0.3669736    0.3025727 -55.08            0    2.190    0.543
        10 -12.0361     27.6822      3.7445   7.6530683392e+01   7.1358279379e+01    0.3077593    0.2114716  43.01 0.0004383877    2.018    0.504
        11 -11.7226     32.0228      1.8407   7.3372821092e+01   7.1020852724e+01     0.230333    0.1610608  20.61 0.0005348548    1.262    0.208
        12 -10.2949     50.8088     15.4325   7.2069489076e+01   6.6660174345e+01    0.4837096    0.3901196  46.95  0.003112899    1.629    0.386
        13 -10.1287     41.5924     19.3606   7.7895029005e+01   6.7475560892e+01    0.3513039    0.3220346   7.45  0.002057081    1.346    0.257
        14  -9.4970     43.6874      8.8596   7.1799155629e+01   6.8547782579e+01    0.4064952    0.2982715  47.90   0.00255453    1.826    0.452
        15 -10.4645     31.1392     12.8579   7.9579122793e+01   6.9738965707e+01    0.2310778    0.1398471 -22.03 0.0008047434    1.428    0.300
        16 -12.0605     35.4149     15.0626   7.8639272249e+01   6.8895723132e+01    0.6756059     0.248097  25.32  0.001281285    3.637    0.725
        17 -11.5872     39.9679     11.1642   7.4610306959e+01   6.8800459549e+01    0.3334094    0.2525549 -37.80 0.0004955421    1.626    0.385
        18 -11.1310      9.9902     15.6314   9.1840288616e+01   7.1486270359e+01    0.2612529    0.1582278 -22.27 0.0006619719    1.374    0.272
        19 -11.7872      4.0666     17.8626   9.6050548111e+01   7.1559482103e+01    0.3635339    0.3074122  17.72   0.00276473    1.513    0.339
        20 -10.5308      5.2126     13.4414   9.3493732848e+01   7.2209180865e+01    0.1843493    0.1571282 -12.58 0.0006424783    1.270    0.212
        21 -10.8821     64.3065     14.1695   6.6270764236e+01   6.4575416120e+01    0.4103225    0.2318985  26.47  0.001574019    1.768    0.434
        22 -10.9913    157.9182     13.8638   4.4201352203e+01   4.3749038647e+01    0.5381379    0.2752643 -43.60  0.002487684    2.083    0.520
        23 -10.0521     81.4264      6.0297   5.6974344662e+01   6.2160223000e+01    0.1746196    0.1418468   2.91  0.000350377    1.174    0.148
        24 -11.3987     79.0942     10.5319   5.9689754412e+01   6.2196031288e+01    0.4414908    0.2268326  35.48  0.001060235    1.821    0.451
        25 -12.1089     74.0961      5.8650   5.9088150051e+01   6.3627035859e+01    0.8551233    0.3311359 -15.55  0.003568937    3.090    0.676
        26 -11.5977    241.2977      9.7390   3.4506848423e+01   2.4509678839e+01      0.26623    0.1852255 -58.72 0.0004447372    1.198    0.165
        27 -10.8966    237.3051      9.3627   3.4719484897e+01   2.5409517448e+01    0.2187365    0.1422793  68.63  0.001108118    1.560    0.359
        28 -10.8525     26.5157     14.1353   8.2481992191e+01   7.0105890180e+01    0.1946829    0.1387802  -4.88 0.0002922002    1.186    0.157
        29  -9.8885    118.5370     12.5005   5.0576762714e+01   5.3430405061e+01    0.2056323    0.1845178  31.58  0.000581979    1.064    0.060
        30 -10.1997    117.5082      9.4787   4.9659545318e+01   5.3949338674e+01    0.2461244    0.1841628 -40.86 0.0007919949    1.531    0.347
        31 -10.3503    101.0171     11.7612   5.4231294059e+01   5.7483297467e+01    0.4053931    0.2013733  25.36  0.001731309    2.559    0.609
        32  -9.5056     55.4703      9.5402   6.7328558259e+01   6.6614191477e+01    0.1917684    0.1346451  -5.33 0.0005726428    1.295    0.228
        33  -9.6624    107.7041      9.7737   5.1868540289e+01   5.6175558493e+01    0.1982383    0.1475817  16.59 0.0008720587    1.390    0.280
        34 -10.4793    175.9754     11.3419   4.1056849560e+01   3.9536307398e+01    0.2160585    0.1982554  -6.40 0.0003950478    1.290    0.225
        35  -9.4465     10.3277      9.3112   8.8675908136e+01   7.2442501245e+01    0.1617202   0.09535906  -2.35  0.001004742    1.663    0.399
        36  -9.8960      6.6975      8.3814   9.0275828032e+01   7.2888357352e+01    0.1915995    0.1573298  38.94 0.0007284752    1.977    0.494
        37 -11.4435    245.1622      5.9277   3.3426897419e+01   2.4106485783e+01    0.4943651     0.117922 -48.69  0.001944279    3.300    0.697
        38 -10.0960    214.3430      5.0360   3.5550015019e+01   3.0996782872e+01    0.1747603    0.1441373 -60.25 0.0004792179    1.105    0.095
        39 -11.1459    145.8928      6.2393   4.3568200347e+01   4.7421926338e+01    0.3698125    0.3404101  61.85  0.002359694    1.040    0.038
        40 -10.0172    127.0613      8.1112   4.7319705133e+01   5.1816795454e+01    0.2048333    0.1561483  38.88 0.0004150934    1.253    0.202
        41 -10.7670     67.1736      7.3875   6.2049877927e+01   6.4788320307e+01    0.3067673    0.1725371 -10.85  0.001309836    1.860    0.462
        42 -10.8239     92.5629      5.8474   5.3883552311e+01   5.9858744420e+01    0.4254176    0.2079178  25.36  0.001894081    2.449    0.592
        43 -10.3814     97.4285      4.7844   5.2236580605e+01   5.8898267443e+01    0.3565979    0.1900255  24.04  0.001201146    2.146    0.534
        44 -10.0535    164.9328      5.4035   4.0704541426e+01   4.2816845131e+01    0.2092255    0.1705464 -54.47 0.0005120398    1.273    0.214
        45 -10.8737    237.4677      4.4914   3.3653566434e+01   2.5898938024e+01    0.2455321    0.1859748  62.38  0.001584356    1.498    0.333
        46 -11.0406    237.8332      1.7186   3.3034202597e+01   2.6110996675e+01    0.4142819    0.1256858  75.17   0.00174057    3.117    0.679
        47 -10.6746    179.2697      4.4115   3.8745731345e+01   3.9394459646e+01    0.2605811    0.1832222 -61.93 0.0001938006    1.431    0.301
        48  -9.8234    174.9460      5.5071   3.9534605226e+01   4.0349239769e+01    0.1938955     0.116289  72.39 0.0003639957    1.491    0.329
        49  -9.9226    223.6915      4.0422   3.4569248520e+01   2.8975730549e+01    0.1683386    0.1408329 -60.22 0.0003813495    1.098    0.089
        50 -10.2460    113.3158      2.8522   4.7999555567e+01   5.5483242499e+01    0.4066261    0.2160673 -84.85  0.001543421    3.806    0.737
        51  -9.2260     63.9493      3.7936   6.1406051572e+01   6.5729206698e+01    0.1627363   0.08643225  46.64 0.0008635579    1.724    0.420
        52 -11.1171    129.1401     19.1319   5.0841200174e+01   5.0259850743e+01    0.3839869     0.269803  -0.25 0.0006835747    1.686    0.407
        53  -9.4991     87.2785      2.1526   5.3649728918e+01   6.1289955033e+01    0.2223724   0.09791518  28.06 0.0009363225    2.691    0.628
        54 -11.0629     74.2167     16.1385   6.3765103594e+01   6.2540512630e+01    0.2790715    0.2377758  66.36 0.0009019934    1.595    0.373
        55  -9.5171    211.5775    188.2022   7.9715909151e+01   2.2013234728e+00    0.1939815    0.1192265 -24.29 0.0009443953    1.698    0.411
        56 -10.6007    250.0130    246.7984   8.3305031331e+01  -1.1679302235e+01    0.2462373    0.1523106  -5.04  0.001597724    1.470    0.320
        57 -10.3647     88.0330    250.0116   1.1364464808e+02   1.1519220329e+01    0.1763659     0.140192  56.53  0.000345472    1.018    0.017
        58 -10.1127     72.6930    249.8976   1.1644724743e+02   1.3626450976e+01    0.1822655    0.1661202 -44.85  0.001352415    1.600    0.375
        59 -11.0022      4.9391    235.7896   1.2742314955e+02   2.4037243716e+01    0.3092331    0.2381429  84.53  0.002051389    1.200    0.167
        60 -12.0978     28.8881    248.1987   1.2402648119e+02   1.9266309850e+01    0.7619759    0.2973863  66.43  0.004008119    2.428    0.588
        61 -12.3320     19.6888    238.0373   1.2503442947e+02   2.2136356050e+01    0.6551067    0.2633251  44.28   0.00381123    2.001    0.500
        62 -13.2310      5.9123    244.8176   1.2766561203e+02   2.2270295877e+01    0.9077629    0.5648024  42.25  0.004913379    1.590    0.371
        63 -11.1323     17.2791    247.4132   1.2592519343e+02   2.0652505009e+01    0.2089795    0.1434758  66.81 0.0005779775    1.041    0.040
        64  -9.4856      1.6193    188.1945   1.2551355226e+02   3.4017592238e+01    0.1585572    0.0830554 -72.28 0.0006237642    1.611    0.379
        65 -11.4524     15.9547    182.6637   1.2217326239e+02   3.3987479153e+01    0.4491159     0.213808  82.09  0.002284734    2.031    0.508
        66  -9.6382     58.8024    182.1893   1.1259608153e+02   2.9392534656e+01    0.1712554    0.1501101 -54.36 0.0008532791    1.333    0.250
        67  -9.5305      1.7713    180.5585   1.2499978821e+02   3.5680239059e+01    0.1496319   0.08948535  52.22  0.000618089    1.571    0.363
        68  -9.9016    244.3290    178.1881   7.1772769247e+01  -1.6522822943e+00    0.2556382    0.1049856 -28.69   0.00105496    2.467    0.595
        69  -9.3517    223.7211    178.3518   7.5457557626e+01   1.7436769165e+00    0.1260771    0.1077053 -61.72 0.0007010833    1.648    0.393
        70  -9.2270     69.5709    177.9808   1.0954894674e+02   2.8939801665e+01    0.1825954   0.09858838 -44.77 0.0006880985    2.363    0.577
        71 -10.4866     46.5181    177.6956   1.1491658088e+02   3.1942009640e+01    0.2568395    0.2161781  77.39  0.001637224    1.056    0.053
        72  -9.5119    200.5247    176.4815   7.9511432547e+01   6.2059555558e+00    0.1427945    0.1274031  -0.94 0.0002026596    1.031    0.030
        73 -11.1653     18.0368    173.3248   1.2096242178e+02   3.5917478656e+01     0.329391    0.2110671  66.25  0.001690004    1.430    0.301
        74  -9.2647     74.5377    171.4649   1.0745086148e+02   2.9777299785e+01    0.1370099    0.1234423 -88.97 9.748428e-05    1.030    0.029
        75 -12.0151     35.9227    164.7165   1.1597467373e+02   3.6178349852e+01    0.6706115    0.3480915 -87.78  0.003228166    1.957    0.489
        76 -11.9902     50.6601    162.3327   1.1208227062e+02   3.5096282833e+01    0.6808701    0.4923102  60.00  0.002563321    1.375    0.273
        77 -10.9801     36.8559    157.9297   1.1496672396e+02   3.7704485207e+01    0.2526689    0.1886824  72.22 0.0003776146    1.281    0.219
        78  -9.6037      4.6616    168.7066   1.2355523794e+02   3.8111988059e+01    0.1126138   0.07821161 -53.44 0.0003796519    1.649    0.394
        79  -9.7297     99.2715    164.9604   1.0029007387e+02   2.7502827988e+01    0.1971885    0.1783416 -71.65 0.0003265899    1.068    0.064
        80 -12.0592     40.7684    164.0486   1.1472651692e+02   3.5816777756e+01    0.5617372    0.4089766 -87.39  0.002110681    1.203    0.169
        81  -9.0068    200.3412    162.6804   7.6635176944e+01   8.7645348651e+00    0.1406191    0.1180999 -83.71 0.0007049773    1.717    0.418
        82 -10.0322      9.3893    162.4011   1.2199323477e+02   3.9184126515e+01    0.2714784   0.08625678  35.18  0.001247092    3.063    0.674
        83 -12.5163     21.8143    157.1579   1.1857523596e+02   3.9354883042e+01    0.5399024    0.4864749 -21.00  0.003688568    1.517    0.341
        84  -9.1993    115.6772    158.3201   9.4948873191e+01   2.6215977551e+01    0.1544997    0.1147918  78.02 0.0007045122    1.673    0.402
        85 -10.2416     11.3926    153.4390   1.2073026651e+02   4.1119246230e+01    0.2896541     0.180552  11.56  0.001643169    2.377    0.579
        86 -10.1204    177.6871    151.2439   7.8801508274e+01   1.5510591521e+01    0.2887427    0.2413342  72.82   0.00106028    1.503    0.335
        87 -10.5785     18.6897    146.6690   1.1824823525e+02   4.2131671289e+01    0.2457744    0.1726281 -48.47   0.00132793    1.563    0.360
        88 -10.9472     22.7641    144.1797   1.1692684883e+02   4.2380575355e+01    0.2362663    0.1897618 -89.20 0.0003900895    1.077    0.071
        89 -10.1123    207.1421    146.2166   7.1641010778e+01   1.0496792320e+01    0.2215252     0.193354   0.40 0.0009360957    1.158    0.137
        90  -9.7443     41.6164    146.4142   1.1227565939e+02   3.9996415779e+01    0.2106344    0.1218265  38.04 0.0005638314    1.867    0.464
        91 -10.4948     12.0670    146.6190   1.1990798880e+02   4.2680718924e+01    0.2720602    0.0893122  34.26 0.0008582886    3.094    0.677
        92  -9.7516    220.4771    143.9650   6.8645948827e+01   8.2843692731e+00    0.2193961    0.1307255 -37.10 0.0007217811    1.535    0.348
        93 -10.3756      2.7032    143.9964   1.2198203519e+02   4.3986985220e+01    0.1802983    0.1265381 -77.76  0.000967385    1.104    0.094
        94  -9.6698     49.2196    141.8360   1.0957340278e+02   4.0272803295e+01    0.1824426    0.1425342 -48.40 0.0003500994    1.336    0.251
        95 -10.7999      9.1787    137.4845   1.1971005020e+02   4.5074134898e+01    0.3294338    0.1085469 -66.34 0.0008882097    2.231    0.552
        96 -10.9681      2.8509    136.8980   1.2128206163e+02   4.5651450050e+01    0.3110177    0.1345782 -72.01  0.001209848    1.751    0.429
        97 -10.4513     21.0345    135.5174   1.1635047486e+02   4.4624861016e+01     0.258843    0.1588516 -74.06 0.0006411042    1.328    0.247
        98 -10.0477     13.9282    136.0078   1.1830535962e+02   4.5074690451e+01    0.1859553    0.1477968 -82.72 0.0002832797    1.037    0.035
        99  -9.5004    122.5522    135.4885   8.8320565217e+01   3.0274508933e+01    0.1535892    0.1482535 -60.72 8.457273e-05    1.007    0.007
       100 -10.1032    249.7137    134.0353   6.1539221690e+01   4.5300545332e+00    0.1962567    0.1572425 -29.18 0.0006063363    1.061    0.058
       101 -10.1848     55.4574    133.1975   1.0643431082e+02   4.1667628198e+01    0.3020568    0.2105968  53.15  0.001162023    1.577    0.366
       102 -10.0033    107.2016    133.1766   9.1885890551e+01   3.3729203057e+01    0.2324165    0.2105908 -20.05  0.001032098    1.230    0.187
       103 -10.4249     79.7935    133.1477   9.9505644415e+01   3.8337106498e+01    0.2166456    0.1893157  88.25 0.0005534219    1.175    0.149
       104 -11.3632     73.3190    129.2034   1.0056323394e+02   4.0271296732e+01    0.5117458    0.3033711  57.81  0.002232868    2.126    0.530
       105 -11.3250     37.5385    129.6644   1.1096306847e+02   4.4539969191e+01    0.4669892    0.2037181 -58.76  0.001729622    1.877    0.467
       106 -11.2813     21.7045    121.1513   1.1426354746e+02   4.8058981450e+01    0.3711599    0.2177485 -40.37            0    1.899    0.473
       107 -10.0601     26.1722    120.1183   1.1280421297e+02   4.7938779115e+01    0.2011726    0.1637358 -68.79 0.0005100455    1.012    0.011
       108 -11.4387     13.5648    126.1160   1.1723923518e+02   4.7483024962e+01     0.389922    0.2350957  22.53 0.0005281734    2.088    0.521
       109 -11.1203     10.8166    122.8477   1.1760671710e+02   4.8464927051e+01    0.2619862    0.2139785  83.62 0.0009261221    1.194    0.163
       110 -10.5972      2.1257    124.2230   1.2017847167e+02   4.8702527516e+01    0.3888858    0.1441467 -68.25   0.00185337    1.968    0.492
       111  -9.7395    220.1565    124.1994   6.4128182300e+01   1.1898844957e+01    0.1991996    0.1653449 -55.49 0.0005845435    1.301    0.231
       112  -8.9756     32.6139    121.7251   1.1115304287e+02   4.6968846729e+01    0.1341478   0.08850937 -37.64 0.0006997592    1.718    0.418
       113 -11.4031     17.1743    115.1315   1.1473762676e+02   4.9867258068e+01    0.3787666    0.2252109 -52.51   0.00117523    1.480    0.324
       114  -9.7353     72.1870    118.6087   9.8682444973e+01   4.3040715807e+01    0.1836237    0.1418221  13.40 0.0004762332    1.613    0.380
       115 -10.4487     86.0026    116.7074   9.4116717161e+01   4.1376475850e+01    0.2534119    0.1986594 -54.63 0.0007939868    1.181    0.153
       116  -9.7200    220.0185    116.5354   6.2326924995e+01   1.3301261311e+01    0.2040988    0.1462234  49.78 3.635809e-05    1.537    0.349
       117  -9.3273    179.4877    116.5176   7.0012292747e+01   2.2174422715e+01     0.155236    0.1485489 -32.55 5.758285e-05    1.002    0.002
       118  -9.5580    214.1517    115.6087   6.3116794662e+01   1.4705141223e+01    0.1968601    0.1369231  37.08 0.0006123377    1.634    0.388
       119  -9.9467     35.2034    114.2374   1.0912968174e+02   4.8555767042e+01     0.183261    0.1438972  87.40  0.001062493    1.335    0.251
       120 -11.0192    248.9980    112.3261   5.6806170635e+01   8.2379945304e+00    0.2640009    0.1964772 -45.11 0.0007021682    1.224    0.183
       121  -9.6966     94.6352    112.7318   9.0594704984e+01   4.0867524470e+01    0.2201075    0.1375152 -60.50 0.0009462392    1.675    0.403
       122 -12.4113     15.0812    108.8320   1.1444896844e+02   5.1533529619e+01     0.712385    0.3705468 -34.08  0.003527865    2.357    0.576
       123 -12.0562     55.1138    110.2908   1.0215492040e+02   4.7353016298e+01    0.3158356    0.2618692 -43.83 0.0004375779    1.160    0.138
       124 -11.5929     36.4281    109.4391   1.0788729353e+02   4.9606545227e+01     0.411849    0.2770385  78.61  0.001626658    1.868    0.465
       125  -9.9688     70.5902    108.2147   9.6818387279e+01   4.5794787612e+01    0.3090816     0.205134 -67.11 0.0008897643    1.574    0.365
       126 -11.0097     24.6336    107.6872   1.1129520498e+02   5.1083348065e+01    0.3235583    0.2112735  71.01  0.001719209    1.909    0.476
       127 -10.4401    243.9229    104.6897   5.5795351288e+01   1.0477438502e+01    0.1877248     0.175116 -39.78 0.0006748697    1.081    0.075
       128 -10.5498    247.1643    102.1604   5.4758547422e+01   1.0256697415e+01    0.1882052    0.1770051 -42.88 0.0006559538    1.098    0.089
       129 -10.1866     50.9163    104.9121   1.0234456797e+02   4.9158194837e+01    0.2599553    0.1683634 -63.93  0.001235377    1.406    0.289
       130  -9.2691    223.2501    103.9612   5.8759142111e+01   1.4838623721e+01    0.1902105    0.1132385 -37.92  0.000451598    1.505    0.336
       131 -10.8762     36.3995    102.5430   1.0657806200e+02   5.1276430619e+01    0.3846454    0.2670077  -3.38  0.001992827    1.912    0.477
       132 -11.7773      2.8029    106.5653   1.1788151423e+02   5.2848772871e+01     0.456152    0.2737104 -68.23  0.001178495    1.267    0.211
       133 -10.3737    119.8479    101.8338   8.0459436173e+01   3.8527613170e+01    0.3540765    0.2091982 -34.15  0.001371326    1.841    0.457
       134 -11.2008    162.5704     92.2331   6.7101525850e+01   3.0898474141e+01    0.4224352    0.2609456 -30.50 0.0008503533    1.730    0.422
       135 -12.9610    165.0177     85.8415   6.4750362606e+01   3.1530655005e+01     1.444795      1.04034 -12.59  0.006354139    1.793    0.442
       136 -10.3171     66.4977     98.0785   9.5659713864e+01   4.8788886787e+01    0.2311205    0.2036499 -51.26 0.0007891622    1.030    0.029
       137 -10.6023      2.0793     72.1877   1.1265140675e+02   6.0815495087e+01    0.4322298     0.200625 -66.41  0.002276328    1.711    0.416
       138 -11.5279     10.6397     62.7641   1.0726195740e+02   6.2416238731e+01    0.6202906      0.24829 -29.10  0.002714574    3.036    0.671
       139 -11.9609      4.9081     81.7996   1.1340098365e+02   5.8502100775e+01    0.9765245    0.3434235 -62.15  0.004199079    2.016    0.504
       140 -11.8468      4.2781     65.0835   1.1034543059e+02   6.2271884166e+01     0.443279    0.3539241  79.71  0.001992238    1.607    0.378
       141 -11.6405      4.9962     58.8473   1.0863620053e+02   6.3580611317e+01    0.2833518    0.2515627  84.51 0.0003346153    1.440    0.306
       142 -12.0096     13.3128     75.8367   1.0917522807e+02   5.9362309707e+01    0.6175603    0.2083658 -57.83  0.002788005    2.107    0.525
       143 -11.2383      8.4394     73.8267   1.1058436357e+02   6.0110564492e+01    0.3247894     0.226127  -9.61  0.001224719    1.695    0.410
       144 -11.7999     22.7528     67.5542   1.0360422968e+02   6.0528929418e+01    0.4304623    0.2846301  71.81  0.001602396    2.627    0.619
       145 -13.0350     16.3846     67.6027   1.0613187760e+02   6.0989107749e+01    0.5933434       0.2288 -53.82 0.0003715229    1.900    0.474
       146 -11.6559      3.1470     99.8830   1.1686537144e+02   5.4403452797e+01    0.2711575    0.2101542 -84.96 0.0002455369    1.214    0.176
       147 -11.3969      1.4811     96.0176   1.1684390517e+02   5.5397022138e+01    0.3301914    0.1352502 -69.90 4.140735e-05    1.870    0.465
       148 -11.3547    144.2208     98.5862   7.3179709233e+01   3.3897268065e+01    0.5167953    0.3910072  74.78  0.002041543    1.702    0.412
       149  -9.7703     50.9710     99.2862   1.0107698020e+02   5.0501086733e+01     0.177986    0.1677164 -50.05   0.00034962    1.089    0.082
       150 -11.4226     21.1253     95.5903   1.1030748950e+02   5.4249695934e+01    0.7256732    0.3269748 -75.28  0.003190144    2.349    0.574
       151 -10.8666     22.4890     86.9075   1.0815040475e+02   5.6181195780e+01    0.2973914    0.1795979 -48.70  0.001018039    1.370    0.270
       152 -10.8388     15.4763     98.0612   1.1261485282e+02   5.4073013059e+01    0.2639727    0.1862907  89.79 0.0007755954    1.509    0.337
       153 -10.3956     40.8471     97.5748   1.0407738455e+02   5.2022239619e+01    0.2426059    0.1619501 -56.21 0.0004805047    1.251    0.200
       154 -11.8815    156.8737     82.8334   6.5649271373e+01   3.4043553206e+01    0.8790067    0.5892707  24.15  0.003639497    2.054    0.513
       155  -9.5688    249.8890     95.8137   5.2942809021e+01   1.0750865719e+01    0.1882726    0.1435315 -56.65 0.0006389878    1.316    0.240
       156  -9.8511     91.4845    100.4995   8.8358596940e+01   4.4279036359e+01    0.1510938    0.1395433 -37.68 -4.118221e-05    1.026    0.025
       157 -11.0290     28.0212     95.9634   1.0806109538e+02   5.3607841069e+01    0.1917764    0.1556935 -56.58 -0.003769674    1.018    0.018
       158 -11.1751     97.1060     89.1231   8.3406616973e+01   4.5812924995e+01    0.5631987    0.2937026 -29.63  0.002070772    2.554    0.608
       159  -9.5461     31.4852     92.9727   1.0627698448e+02   5.4012795866e+01    0.1998223    0.1109278 -62.01 0.0003838116    1.509    0.337
       160  -9.5558     46.9626     92.4902   1.0084898349e+02   5.2567405623e+01    0.1768545    0.1075375  56.21 0.0006961116    2.355    0.575
       161 -10.4813     25.8615     90.9688   1.0780119606e+02   5.4965715672e+01    0.2673899     0.210594 -45.63 0.0009609433    1.139    0.122
       162 -11.4670     10.7045     90.8327   1.1297343038e+02   5.6083349604e+01    0.2878235    0.2451128  26.66   0.00196576    1.467    0.318
       163 -10.9662     57.4758     96.5539   9.8266158244e+01   5.0354162969e+01     0.254878    0.2286232 -65.80 0.0001806741    1.124    0.111
       164 -10.0128    108.5383     91.4894   8.0688078818e+01   4.3089887705e+01    0.1531031    0.1448237 -28.70 0.0001391148    1.010    0.010
       165  -9.0936     36.3104     91.6706   1.0433425355e+02   5.3870260352e+01    0.1294484   0.09862206  80.64 0.0007041582    1.666    0.400
       166  -9.6318     83.1371     88.8294   8.7721343065e+01   4.8351493154e+01    0.2019567    0.1622552 -23.45 0.0004964765    1.301    0.232
       167 -10.2544     78.3418     88.0835   8.9069304406e+01   4.9303981895e+01    0.3326167    0.2281232  86.00  0.001359787    2.745    0.636
       168 -11.1142     43.4491     82.8941   9.9724706509e+01   5.5172860724e+01    0.4738808    0.2530143  45.92  0.001626211    2.471    0.595
       169  -9.4407    138.9907     87.5334   7.1259165814e+01   3.7335771301e+01     0.224537    0.1544971  49.58  0.000995271    1.488    0.328
       170  -9.3519    120.6200     87.2091   7.5979906296e+01   4.1487111438e+01    0.2101885    0.1423928 -31.63 0.0005050554    1.539    0.350
       171 -10.2861     64.8770     87.3002   9.3364591336e+01   5.1507229401e+01    0.2505324     0.210336  -5.78 0.0007626409    1.309    0.236
       172 -10.4826     67.7574     84.0843   9.1477110104e+01   5.1818219535e+01    0.3179311    0.1937096 -16.15  0.001323032    2.486    0.598
       173  -9.7384    111.1432     85.7398   7.8204816682e+01   4.3781429237e+01    0.2554699    0.1744207 -87.77 0.0009550054    2.844    0.648
       174  -9.2081     51.5525     86.5677   9.7786812630e+01   5.3408963264e+01     0.137132    0.1196125 -46.92 0.0001031094    1.023    0.023
       175 -10.7775    132.9034     83.2070   7.1493411111e+01   3.9579491240e+01    0.2623386    0.2431212  88.56 0.0005449535    1.204    0.170
       176  -9.9761     88.3195     83.6373   8.4515683581e+01   4.8596792326e+01     0.273545    0.2089601 -84.78  0.001272048    1.965    0.491
       177 -11.1900     62.0009     99.0809   9.7383845259e+01   4.9167683811e+01    0.3453939    0.3101649 -29.40  0.001094565    1.131    0.116
       178  -9.3973    117.5579     83.2538   7.5618577031e+01   4.2950726689e+01    0.2223852    0.1433094 -29.51 0.0009487453    1.683    0.406
       179  -9.1691     56.4199     83.5494   9.5271248254e+01   5.3491592325e+01    0.1397357    0.1198592 -41.19 6.718655e-05    1.016    0.015
       180 -11.0935     30.6987     81.8501   1.0409324519e+02   5.6666983206e+01    0.2948977    0.2166778 -27.24 0.0002329065    1.409    0.290
       181  -8.9802    196.2817     82.3012   5.7749576865e+01   2.4686597689e+01    0.1440091    0.1178075  10.27 0.0002921846    1.549    0.354
       182 -10.6125     21.9003     81.2314   1.0716226541e+02   5.7534640469e+01    0.4122245    0.1719017 -41.97  0.001379068    2.209    0.547
       183 -10.9838     18.7212     79.0639   1.0785786131e+02   5.8264128937e+01    0.4911969    0.2487364 -30.76  0.002031609    2.228    0.551
       184  -9.6567     71.1978     79.2233   8.8867793809e+01   5.2373093125e+01    0.1800538    0.1631383 -73.00 0.0003653501    1.300    0.231
       185 -10.3933     90.4934     76.1842   8.1495792642e+01   4.9774004339e+01    0.4552798     0.191205 -46.96  0.001101327    2.325    0.570
       186 -10.6772     46.2007     56.9503   9.1045634683e+01   6.0426609960e+01    0.3516636    0.1941736  33.24 0.0009822871    2.015    0.504
       187 -11.8235     50.4561     68.4130   9.3069812965e+01   5.7552784855e+01    0.3463893    0.2489257 -22.41 0.0005334208    1.422    0.297
       188 -10.9910     51.3739     62.9617   9.1000159589e+01   5.8572867455e+01    0.3356082    0.2602955 -39.97  0.001344301    1.122    0.108
       189 -10.9883     54.0846     73.8184   9.3343865879e+01   5.5941422529e+01    0.2940986    0.2460798 -56.95 0.0006629206    1.233    0.189
       190 -11.6144     57.9827     74.2602   9.2050227346e+01   5.5337707801e+01    0.6554438    0.4376155 -86.43   0.00276219    3.029    0.670
       191 -11.7727     62.3108     71.5591   8.9652717699e+01   5.5319017307e+01    0.4312754    0.2862425 -39.44  0.001208266    1.348    0.258
       192 -12.5165     44.7357     75.2916   9.7229587980e+01   5.6736795653e+01    0.2529028    0.2498329 -54.29 0.0004142472    1.204    0.170
       193 -10.2221     40.1668     72.3601   9.8133956044e+01   5.7876962717e+01    0.2674872    0.1985448  19.00   0.00145236    1.528    0.346
       194 -10.9605     40.7366     68.3870   9.6784969460e+01   5.8678108081e+01    0.2987365      0.20663 -12.79 0.0008833626    1.640    0.390
       195 -10.9094     37.4920     67.4411   9.7772445755e+01   5.9221051746e+01    0.3383191       0.2228 -31.38   0.00105855    1.441    0.306
       196  -9.4685    122.2180     76.3560   7.2172432262e+01   4.3304487324e+01    0.2161583    0.1442802  57.20 0.0009478139    1.687    0.407
       197 -10.4882     74.4821     76.0271   8.6759479825e+01   5.2545578369e+01    0.2204379    0.1301509 -45.36 0.0006112852    1.549    0.354
       198 -10.4168    145.6039     73.7922   6.5488610131e+01   3.8399383346e+01    0.3764374    0.1841314 -34.83  0.001027492    2.074    0.518
       199  -9.9030    137.4898     74.0281   6.7499629174e+01   4.0270476838e+01    0.2311004    0.1497936 -35.98 0.0004059035    1.535    0.349
       200 -10.4221     83.9176     73.8639   8.2891557040e+01   5.1423988560e+01    0.3173433    0.2205376  33.34  0.001071537    1.523    0.344
       201 -10.4530    102.7504     73.2782   7.6741008322e+01   4.8008606426e+01    0.2613526    0.1822113  46.31 0.0008767513    1.509    0.338
       202 -10.8753    150.8365     71.7370   6.3664223124e+01   3.7512754513e+01    0.4321135    0.2475844  38.71  0.001151299    1.988    0.497
       203 -11.0537     77.3010     64.3471   8.1966538610e+01   5.4462336093e+01    0.8594607    0.3508713 -31.23   0.00291862    3.301    0.697
       204 -10.8783     77.6976     71.3476   8.4167372051e+01   5.2997079156e+01    0.3519911    0.2663776  52.11  0.001456019    1.622    0.383
       205 -10.5822     80.7099     70.6740   8.2924706402e+01   5.2627081402e+01    0.2351652    0.2109515  27.03 0.0008583345    1.174    0.148
       206 -11.3998    167.6812     69.9320   5.9578136676e+01   3.3723084771e+01    0.2554279    0.2245574  56.22 0.0003429258    1.146    0.127
       207 -10.0980     68.4531     68.3336   8.6412367761e+01   5.5085922395e+01     0.432464    0.1208834 -45.31  0.001434985    3.202    0.688
       208 -10.2870    200.5258     68.0883   5.3261045136e+01   2.6044902186e+01    0.2295701    0.1991932  69.94 0.0001499456    1.185    0.156
       209 -10.7859     31.4663     68.1121   1.0032029976e+02   5.9662294691e+01    0.2383943    0.1747923  -7.76 0.0005255361    1.516    0.340
       210  -9.9016    149.1846     67.1458   6.2614776210e+01   3.8710643452e+01     0.220217    0.2024097  13.70 0.0003257963    1.158    0.137
       211  -9.2279    163.4648     66.5230   5.9407730791e+01   3.5331329438e+01    0.1482119    0.1466196 -71.25 0.0001910259    1.009    0.009
       212 -10.4279     95.2912     65.0453   7.6275282023e+01   5.1063188674e+01    0.3499447    0.2432216   7.36  0.001599185    1.887    0.470
       213  -9.9827    109.6332     63.8002   7.1541472960e+01   4.8373614680e+01     0.378982    0.2102588 -52.75 0.0009149593    2.296    0.564
       214 -10.9867     84.0636     61.4880   7.8675847102e+01   5.3832158758e+01    0.4464881    0.3373749  19.50  0.002334807    1.414    0.293
       215  -9.7732    201.8835     62.1180   5.1467209130e+01   2.6659710105e+01    0.2257022    0.1871329 -74.04  0.001211061    1.230    0.187
       216 -10.3148    155.6743     60.9129   5.9289685526e+01   3.8167420736e+01    0.3198317    0.2247327 -11.25  0.001136342    1.814    0.449
       217 -10.6068    121.3152     61.3841   6.7501326849e+01   4.6240722944e+01    0.2892247    0.2487548  43.38 0.0009624793    1.155    0.134
       218  -9.6600    218.2886     61.3010   4.8931275869e+01   2.2941701257e+01     0.201142    0.1995673  13.38 0.0003881685    1.174    0.148
       219  -9.9054    215.3938     60.5189   4.9124139089e+01   2.3726608825e+01    0.2367164    0.1869702 -51.50 7.657551e-05    1.161    0.139
       220 -10.6111     33.0640     43.8898   9.1988021994e+01   6.4430420926e+01    0.5091966    0.2574313   1.49  0.002208204    3.132    0.681
       221  99.0000     40.3624     38.3970   8.6709070730e+01   6.4608416081e+01     1.027165    0.4902293 -29.91  0.004866421    2.106    0.525
       222 -10.2369     44.7886     51.0957   8.9596210367e+01   6.1741718680e+01    0.3876613    0.1687864 -40.07  0.001759695    2.008    0.502
       223 -11.0041     30.1170     60.7381   9.8763890615e+01   6.1360718397e+01     0.737834    0.3850846  -8.74  0.002572025    2.893    0.654
       224  -9.8517     27.6779     52.9746   9.7408937810e+01   6.3182640955e+01    0.3834705    0.2640482  10.43  0.001773255    1.610    0.379
       225 -10.8135     26.3863     48.6848   9.6579164277e+01   6.4156163784e+01    0.3146752    0.2354665 -42.03  0.002003094    1.112    0.101
       226 -12.4794     38.7066     50.3567   9.1861898583e+01   6.2589489934e+01    0.6251456    0.3884355 -38.87  0.002524375    1.350    0.259
       227 -11.5623     33.9300     49.5323   9.3601808001e+01   6.3260549001e+01     0.329995      0.24053 -18.74 0.0009305233    1.292    0.226
       228  -9.5218     98.4484     60.4729   7.3707841371e+01   5.1281653171e+01    0.1453964    0.1341207  -6.16 1.506024e-05    1.010    0.010
       229 -10.8942     63.6870     59.9408   8.5323649574e+01   5.7480897651e+01    0.2403043    0.1959038  47.20 0.0008295245    1.516    0.340
       230 -10.7237     59.0053     58.6449   8.6631367662e+01   5.8413201864e+01    0.3998716    0.3119643  84.99  0.001435282    2.300    0.565
       231 -12.1107    147.1299     56.7681   5.9793460010e+01   4.0921425702e+01    0.3106721    0.2596552 -32.04 0.0002419827    1.216    0.177
       232 -11.6274     75.2955     56.1450   7.9777559455e+01   5.6355101946e+01    0.2336618    0.2109796 -19.12 0.0002819232    1.053    0.050
       233 -10.2606     73.7556     51.3910   7.8572758438e+01   5.7473401771e+01    0.2994273    0.2390322   2.68  0.001685231    1.255    0.203
       234 -10.0488     78.0341     50.4979   7.6735726814e+01   5.6891256931e+01    0.2998334     0.132963  40.77  0.001251554    2.315    0.568
       235 -10.3373     78.4903     47.0685   7.5274178070e+01   5.7394944683e+01    0.2529694    0.1717556 -36.51 0.0003545187    1.424    0.298
       236 -10.1013     98.5137     55.9804   7.2092472419e+01   5.2060510783e+01    0.2720393    0.1884731  27.94 0.0006237117    1.545    0.353
       237 -12.5745    130.2494     49.7713   6.1307193054e+01   4.6061554619e+01    0.5850962    0.3772244 -30.68 0.0002722219    1.589    0.371
       238  -9.8740    119.9333     52.8551   6.4936784089e+01   4.7969601790e+01    0.2204844      0.18335  21.11 0.0002885007    1.250    0.200
       239 -10.9550     87.1508     51.6502   7.4097580854e+01   5.5028098774e+01     0.344731    0.3146615  15.76  0.001237075    1.076    0.071
       240  -9.9795     62.4500     53.0276   8.3327506802e+01   5.8981639207e+01    0.2018569    0.1208318 -40.78 0.0001409822    1.528    0.346
       241 -11.9771      8.8508     51.6017   1.0514780207e+02   6.4884171930e+01    0.5454749    0.2731201   9.36  0.001940399    2.403    0.584
       242 -10.7737     11.5183     44.7441   1.0196777421e+02   6.6104820443e+01    0.4587836    0.2383728 -50.89  0.001735492    1.491    0.329
       243 -10.5375    103.6923     49.3850   6.8156855872e+01   5.2086646414e+01    0.6107945    0.1698616 -36.80  0.001959012    3.506    0.715
       244 -10.1231     53.4732     50.2078   8.5769725221e+01   6.0791362133e+01    0.2290164    0.1766341  22.15  0.000829809    1.350    0.260
       245  -9.7292    166.8652     48.8751   5.3456284044e+01   3.7240806808e+01    0.2128523    0.1903068  33.95 0.0004097116    1.208    0.172
       246 -10.8564    156.0888     46.8394   5.4822388185e+01   4.0213443471e+01    0.4157943    0.3012686  -8.12  0.001466706    1.719    0.418
       247 -10.5129    151.7607     47.6847   5.5934191041e+01   4.1162575202e+01    0.2829883    0.2284188  27.68 0.0007130832    1.382    0.276
       248 -11.0678    112.9529     47.6781   6.4947959517e+01   5.0347630936e+01    0.4267361    0.3531415 -82.63  0.001299053    1.633    0.388
       249 -10.8458    143.2510     45.9691   5.7121275020e+01   4.3499655646e+01    0.3213221    0.2668276 -70.12 0.0006531028    1.389    0.280
       250 -10.7262     63.4474     46.8708   8.0642734683e+01   5.9940494612e+01     0.335666    0.1754425  29.03 0.0009883492    2.093    0.522
       251 -10.0582      3.9215     47.0617   1.0608447303e+02   6.6096550119e+01    0.1967938   0.09830553 -37.84 0.0006929772    1.641    0.391
       252 -11.2912     91.5033     42.6279   6.9280696200e+01   5.5647545266e+01    0.6672348    0.2833979 -45.05  0.002558845    2.853    0.649
       253  -9.0574    182.5245     45.4872   4.9858874638e+01   3.3829655756e+01     0.141372    0.1347823 -85.94 0.0008099421    1.022    0.022
       254  -9.6739    122.2889     45.3331   6.1698387777e+01   4.8584935988e+01    0.2233697    0.1891981  18.14 0.0004917819    1.219    0.180
       255 -10.5364    124.1442     41.0347   5.9726020358e+01   4.8770990958e+01    0.4499997    0.1932481 -32.78  0.001780615    2.353    0.575
       256 -10.7329     51.1055     44.9582   8.4751159732e+01   6.2071626527e+01    0.2167301    0.1789511 -12.49 0.0003671741    1.062    0.059
       257 -11.7584     51.8148     40.2160   8.2607282805e+01   6.2805126442e+01    0.5517086    0.3407443  34.02  0.001016012    1.719    0.418
       258  -9.2771    174.6065     43.7831   5.0624574348e+01   3.6032108107e+01     0.200176    0.1258161 -43.80 0.0009341402    1.588    0.370
       259  -9.1669    221.3043     43.3308   4.4100061732e+01   2.4828995919e+01    0.1284162    0.1055783  24.60  0.000465582    1.656    0.396
       260  -8.9495     73.7146     31.6291   7.0713544882e+01   6.0648143226e+01    0.2701893    0.1745758  20.39 0.0005614391    1.647    0.393
       261 -10.7277     65.1850     41.9055   7.8043254889e+01   6.0513623711e+01    0.3419764    0.2540302  30.43  0.001458912    1.359    0.264
       262 -11.7718     81.5564     35.1463   6.9505980795e+01   5.8695403341e+01    0.5069302    0.2668309 -27.54  0.001101701    1.913    0.477
       263 -11.3281     69.5214     37.6511   7.4717248204e+01   6.0481720681e+01    0.5547674    0.3219897 -14.35  0.001798099    2.109    0.526
       264 -11.7270     74.5136     36.6667   7.2529005178e+01   5.9763883223e+01     0.741486    0.4074603   5.16  0.002823299    3.354    0.702
       265 -10.1845     78.6624     31.6779   6.9038782854e+01   5.9734111459e+01    0.2677902    0.1608824  -3.95 0.0007906844    2.148    0.534
       266 -10.9385     23.8611     42.3375   9.5546065679e+01   6.5613506871e+01    0.3912327    0.2722225  57.12 0.0006007954    2.659    0.624
       267 -12.4036     27.6136     38.2273   9.2341443544e+01   6.6030588246e+01    0.3471988    0.2834686 -13.20  0.001314275    1.116    0.104
       268 -13.0674     24.3817     35.3050   9.2732090340e+01   6.6871194890e+01     0.544344    0.2673607   8.36 0.0004646726    2.652    0.623
       269 -10.1294      6.9739     41.6079   1.0310113861e+02   6.7014590265e+01    0.2842047    0.1043679 -47.95 0.0009931505    1.928    0.481
       270  -9.4019    244.6866     42.6717   4.1465067913e+01   1.9750547743e+01    0.1188321    0.1013375  20.03 0.0004409981    1.671    0.401
       271  -9.5011    163.1572     42.1897   5.2083966249e+01   3.9105284181e+01    0.1907223    0.1599262 -63.66   0.00046095    1.254    0.203
       272 -12.4159    233.8806    246.1277   8.5950014450e+01  -9.4996284667e+00    0.5163037    0.4282401  -7.63  0.003822565    1.246    0.198
       273 -11.1487    105.3267     35.2383   6.2391976232e+01   5.3825350230e+01    0.3331343    0.2296827 -51.16  0.001647255    1.843    0.457
       274 -11.5084    100.5757     37.5231   6.4594446452e+01   5.4532188691e+01    0.5361974    0.3230376  26.02 0.0007388726    1.941    0.485
       275 -10.3603    137.8132     40.9980   5.6620192744e+01   4.5520777168e+01    0.2410761    0.1970162  54.43 0.0005298935    1.170    0.145
       276 -10.4652     97.3014     41.6952   6.7153765063e+01   5.4612291323e+01    0.2463049    0.2340921  43.28 0.0007234768    1.172    0.147
       277  -9.8778    120.0025     40.0121   6.0365897193e+01   4.9874744315e+01    0.2275262    0.1754013 -75.41  0.000975219    1.794    0.443
       278  -9.2045    154.4695     38.5286   5.2505967401e+01   4.1759915912e+01    0.1419053    0.1349234  83.71 0.0001209221    1.043    0.041
       279  -9.2871     16.5647     26.5766   9.3087072242e+01   6.9112706632e+01    0.1502125   0.09725777 -47.66 0.0001604656    1.475    0.322
       280 -11.1554     17.7025     31.0210   9.4285035788e+01   6.8235266409e+01    0.3564196    0.2171795  15.35  0.002184521    1.758    0.431
       281 -10.3867     22.5393     25.6986   8.9748157628e+01   6.8718411796e+01    0.2811234    0.2302753  11.91  0.001397658    1.323    0.244
       282 -10.3767     14.4195     34.8414   9.7307262438e+01   6.7802936941e+01    0.3238469    0.2471704 -85.98  0.001935897    2.366    0.577
       283 -10.9928      7.9461     33.4761   9.9982579976e+01   6.8516654794e+01    0.3634234    0.2822877  34.25  0.002514788    1.752    0.429
       284 -10.0847      2.1106     37.0524   1.0400222483e+02   6.8183582002e+01    0.1916389    0.1389072 -20.14 0.0009868152    1.290    0.225
       285 -11.9615     57.7432     34.2773   7.7784476846e+01   6.2913649125e+01    0.3562714    0.3370714 -46.11 0.0007789533    1.433    0.302
       286 -10.8984    226.2829     33.8973   4.1282200319e+01   2.4941022399e+01    0.2428457    0.1783644 -74.90 0.0003690056    1.300    0.231
       287 -11.6077    192.8049     33.0010   4.4928773127e+01   3.2954863641e+01    0.2522482     0.228375 -71.02 0.0002877096    1.031    0.030
       288 -10.1115    247.0102     33.2947   3.9165042467e+01   2.0487401969e+01    0.1729957    0.1438407 -77.17 0.0003826533    1.110    0.099
       289 -10.7742    166.2742     31.9766   4.8456416123e+01   3.9653770702e+01    0.2875524     0.235218  81.21 0.0006733358    1.207    0.171
       290  -9.3218    119.6345     33.3176   5.8027999082e+01   5.0855513900e+01    0.1425073    0.1093682 -72.94 8.845785e-06    1.776    0.437
       291 -11.0996     48.4159     31.0556   8.0217636758e+01   6.4785536086e+01    0.4261532    0.2773964  -6.57 0.0006763715    1.629    0.386
       292 -10.9398    235.7210     29.9868   3.9449910445e+01   2.3334556300e+01    0.2806477    0.2126768  68.89 0.0009274621    1.384    0.277
       293  -9.1360    139.2231     30.6581   5.2835779986e+01   4.6516415129e+01    0.1360315    0.1021153 -56.03 0.0003068082    1.536    0.349
       294  -9.5951    151.4261     28.5120   4.9856777837e+01   4.3769542483e+01    0.1384066    0.1293469  53.41 4.663441e-05    1.042    0.040
       295  -9.2395    125.6954     18.2785   5.1226462769e+01   5.1170777602e+01    0.1824536    0.1530171 -63.36 0.0002360516    1.407    0.289
       296 -12.1491    225.8127    245.9804   8.7338102609e+01  -8.3841354028e+00    0.5384672    0.2994778  -2.84  0.002874829    2.261    0.558
       297 -11.8114     74.2029    233.3949   1.1471886250e+02   1.6467483587e+01    0.3389674    0.1941945  45.31  0.001348913    1.478    0.324
       298 -11.0231    124.0930     21.9863   5.2898002194e+01   5.1156527568e+01    0.2542542     0.179264  57.94  0.001346773    1.317    0.241
       299 -10.7309    132.4544     25.5398   5.2430731413e+01   4.8762000806e+01    0.4418155    0.2276056  32.08  0.001802964    2.494    0.599
       300 -10.4630    128.6077     24.2126   5.2750368086e+01   4.9835966374e+01    0.3987236     0.261517 -33.74  0.001816599    1.615    0.381
       301 -10.4233    119.0030     25.5896   5.5336600237e+01   5.1945445070e+01    0.2698058    0.1973897 -28.81  0.000358379    1.440    0.305
       302 -10.1451    120.5064     21.0185   5.3314879278e+01   5.2106103725e+01    0.3050987    0.2151198  12.38  0.001083308    1.640    0.390
       303 -11.5643    111.5372     25.3632   5.7012192059e+01   5.3686856981e+01    0.4586749    0.3273459 -34.13  0.001301128    1.499    0.333
       304 -10.8390     70.1036     26.3244   6.9709079760e+01   6.2029780685e+01    0.3333012    0.2091643  32.09  0.001254788    1.522    0.343
       305 -10.6688    218.5415     25.9276   4.0160573127e+01   2.7702303258e+01    0.2275772    0.1759732  79.55 0.0003449857    1.241    0.194
       306 -10.4555    195.6046     26.1232   4.2734837295e+01   3.3114589664e+01    0.3168554    0.1900565  41.01  0.001494182    2.123    0.529
       307  -9.6262    197.5620     21.9444   4.1404916852e+01   3.3129069623e+01    0.1839337    0.1639013 -60.23 0.0004088457    1.085    0.078
       308  -9.1637     80.6121     26.3083   6.6130507523e+01   6.0088052289e+01    0.1250915     0.107008 -77.67 0.0002812683    1.813    0.448
       309 -12.0155     74.8841    240.4625   1.1523234773e+02   1.5044870691e+01    0.5230672    0.4369113  -9.94  0.003410679    2.032    0.508
       310 -10.0062    179.3076    243.6808   9.5511183762e+01  -1.2481262838e+00    0.1142365   0.09097954  59.20  0.000703207    1.637    0.389
       311 -10.7686     98.6652     21.6686   5.8854066942e+01   5.6959951668e+01    0.4130175    0.2108863  -9.87  0.001480729    2.583    0.613
       312 -10.6821     10.2853     24.9238   9.5622239870e+01   6.9902075126e+01    0.2848882    0.1473008   8.18  0.001125516    2.161    0.537
       313  -9.3538      1.5019     25.5803   1.0044600738e+02   7.0369842939e+01    0.1153507    0.0835363 -33.03 6.131765e-05    1.024    0.023
       314 -10.8189    237.9817     22.7290   3.7611940539e+01   2.3730128391e+01    0.3559961    0.1494586 -28.25  0.001265648    2.594    0.615
       315 -10.9023    185.7680     21.4933   4.2684138063e+01   3.6051682966e+01    0.4216492    0.1986585 -49.55  0.001836775    2.211    0.548
       316  -9.9634     54.4677     23.5191   7.4377295076e+01   6.5015972370e+01    0.1281899    0.1043987  -1.51 6.463088e-05    1.013    0.013
       317  -9.7808     36.3435     22.9545   8.1942083804e+01   6.7631316739e+01    0.1662707    0.1274977 -19.97 0.0004031417    1.083    0.077
       318  -9.3346    227.2000     22.3806   3.8486420895e+01   2.6155306356e+01    0.1770718    0.1082456 -87.79  0.000502002    1.655    0.396
       319 -10.0798    168.4555     21.5751   4.5013745857e+01   4.0324957759e+01    0.2287015    0.1767161  80.57 5.669553e-05    1.244    0.196
       320 -10.9361    170.6770     18.5587   4.3814957751e+01   4.0101023311e+01    0.2996786    0.2165075 -82.29 0.0008811385    1.455    0.313
       321  -9.7820    155.8288     21.8778   4.7013556038e+01   4.3431717020e+01    0.2014393    0.1745903  47.79 0.0002790918    1.145    0.127
       322 -10.3903     88.8863    241.2299   1.1264986619e+02   1.2964877021e+01    0.2005439    0.1507817 -35.01  0.001221621    2.078    0.519
       323 -10.3629    156.4919    241.5095   9.9575199746e+01   2.6374301933e+00    0.1248296    0.1040229  32.76 -0.0001007123    1.023    0.022
       324 -10.3512     16.3585     18.8512   8.9895031119e+01   7.0421380530e+01    0.2455734    0.1144626 -36.88 0.0003816555    1.723    0.420
       325 -10.1149    195.4372    238.7313   9.1723632286e+01  -3.0099784579e+00    0.2486633    0.1702119  20.00  0.001502294    1.328    0.247
       326  -9.7863    135.2520    238.4868   1.0331983847e+02   6.4756675599e+00    0.2430495   0.08592898 -41.33 0.0008982958    4.459    0.776
       327  -9.6150    243.6533    237.3448   8.2826048693e+01  -9.7475832037e+00   0.09811363   0.09389464  44.44 0.0007044124    1.800    0.445
       328 -10.6615     29.4586    232.8420   1.2301859907e+02   2.2081385067e+01    0.2721982    0.1529328  62.28  0.001487304    1.427    0.299
       329  -9.2883    249.7030     21.2777   3.6340773195e+01   2.1407454241e+01    0.1273232   0.07468146 -62.77  0.000167785    1.534    0.348
       330 -10.9590     65.9040     20.8400   6.8776260598e+01   6.3487406664e+01    0.3743534    0.2628759  69.72   0.00186956    2.710    0.631
       331  -9.5841     59.5173     21.4725   7.1453073877e+01   6.4487987471e+01    0.1278782    0.1063392   2.61   2.3745e-06    1.014    0.014
       332  -9.9167    139.3447     20.2486   4.9291681038e+01   4.7672334350e+01    0.2331104    0.1648516  49.14  0.001234247    1.311    0.237
       333 -10.0087     46.5141     17.4625   7.4845160846e+01   6.7041841702e+01    0.3348934    0.1075448 -31.17  0.001364377    3.055    0.673
       334 -10.0438     24.2266    232.3629   1.2392147630e+02   2.2740135618e+01     0.182549    0.1544533 -75.56 0.0006969916    1.434    0.303
       335 -10.3602    160.0089    235.9875   9.8114489506e+01   2.9583503507e+00    0.1949029    0.1423031   7.93 0.0005002069    1.655    0.396
       336  -8.9574    115.6748    244.6808   1.0787705723e+02   8.4319701318e+00    0.1134901   0.09267979   6.98 0.0007045861    1.677    0.404
       337 -11.9195     36.7912    243.3183   1.2237765613e+02   1.9274310320e+01    0.6450853    0.2840404  88.58  0.003461896    2.399    0.583
       338  -9.9324    177.1590    235.0866   9.4642873098e+01   3.6921225558e-01    0.1967211    0.1526785  10.07 0.0007837269    1.309    0.236
       339 -11.5366    153.7701    233.5799   9.8999044683e+01   4.3504449996e+00    0.2480798    0.1811621 -53.33  0.001443881    1.645    0.392
       340  -9.5382    167.2976    233.6688   9.6348246985e+01   2.1621170544e+00     0.120008   0.09500212  64.84 0.0004590279    1.642    0.391
       341  -9.4872     38.4174    232.7374   1.2139286749e+02   2.1093757733e+01    0.1369657   0.09449781 -74.02 0.0005616632    1.467    0.318
       342 -11.7058     73.9761    237.0136   1.1509426276e+02   1.5811620052e+01    0.3241186    0.2298523  20.39  0.001919296    2.059    0.514
       343 -10.5375    165.1028     17.6774   4.4329199149e+01   4.1577892872e+01    0.2138233    0.1763978 -50.08 0.0002576504    1.255    0.203
       344 -12.1566     21.9763    248.8143   1.2521793230e+02   1.9904095516e+01     0.394304    0.2304149  49.35  0.001648643    1.394    0.283
       345 -10.0207    190.5362    227.1805   9.0817207134e+01  -5.5007306436e-01    0.3513059    0.1238936 -42.85  0.001466477    3.181    0.686
       346  -9.4805    130.6743    227.3425   1.0276913005e+02   9.1524453153e+00    0.1328912    0.0915212  66.77 0.0007051012    1.736    0.424
       347 -11.2587    120.5013    226.5101   1.0472974924e+02   1.0927487361e+01    0.2498106    0.1838909  63.60  0.000945792    1.398    0.285
       348 -10.7342      4.5818    226.1865   1.2703227920e+02   2.5910362482e+01    0.2768827    0.1099976  52.06   0.00145914    1.961    0.490
       349 -10.3068     77.5634     15.4292   6.2363388892e+01   6.1979804619e+01    0.2231729    0.1723697  25.54 1.614864e-05    1.136    0.120
       350 -10.0859     65.9931    226.0891   1.1564086262e+02   1.8991106092e+01    0.1822381    0.1530653  67.92 0.0005549407    1.066    0.062
       351 -10.3555    147.5073    245.5228   1.0184650844e+02   3.4076664822e+00    0.1234286    0.1020209  37.56 -6.855809e-06    1.008    0.008
       352 -11.0451     21.1543    222.1402   1.2385972567e+02   2.5073398865e+01    0.2104758    0.1244216  86.36  0.001348159    1.410    0.291
       353  -9.1305    229.7001     14.6821   3.6500518981e+01   2.6486660957e+01    0.1146711   0.09544877  39.10 0.0003377854    1.618    0.382
       354 -10.0810    123.5062    222.0415   1.0352467159e+02   1.1281801144e+01    0.2432763    0.1601633 -36.35  0.001273372    2.041    0.510
       355 -10.1741    142.1862    220.9017   9.9507777726e+01   8.4381651542e+00    0.2507781    0.1624313  16.91  0.001225479    2.083    0.520
       356  -9.2758     41.7583    220.9617   1.1991363936e+02   2.3041120328e+01    0.1460921   0.08633474 -77.83 0.0008716276    1.568    0.362
       357  -9.7153     55.0039     13.0285   6.9220521685e+01   6.6288550054e+01    0.1880514    0.1398339   7.91 0.0003538852    1.169    0.145
       358  -9.9454    109.8322    243.0677   1.0882208656e+02   9.5863909857e+00    0.2586263    0.1451919  66.14  0.001113659    2.233    0.552
       359 -11.7399      9.6149    217.1313   1.2567175903e+02   2.7228555309e+01    0.3028031    0.1726177  59.16  0.001436266    1.415    0.293
       360  -9.6469     37.9404    217.4999   1.2038487533e+02   2.4188487931e+01    0.1636052    0.1044383  41.15  0.000672735    1.547    0.353
       361 -11.3779     30.1672    215.8792   1.2176048762e+02   2.5387648696e+01    0.3386697    0.2445825  22.95  0.002181569    1.967    0.492
       362 -11.0407    235.7811    215.0173   8.0320057638e+01  -5.7515516872e+00    0.3616263    0.1907255 -15.82  0.001185159    2.229    0.551
       363 -11.0709    239.9911    210.8972   7.8831115951e+01  -5.7970941839e+00    0.4296043    0.2902634  50.04  0.002410781    2.157    0.536
       364 -10.7462     86.4717    233.0157   1.1229707299e+02   1.4832812852e+01    0.2511296    0.1352098  53.03 0.0009719339    1.625    0.385
       365  -9.5141    137.1861    215.6176   9.9768132829e+01   1.0244125069e+01    0.1927711    0.1163271  30.43 0.0009464527    1.704    0.413
       366  -9.6732     66.8299    215.4208   1.1445676911e+02   2.1041311336e+01    0.1573423     0.115215  30.83 0.0004878367    1.604    0.377
       367 -10.4780     21.6443    212.6233   1.2316393083e+02   2.6959751839e+01    0.2796514    0.1432916  56.85  0.001647507    1.646    0.393
       368 -10.1819    208.9548    212.0587   8.4703622337e+01  -1.1887896736e+00    0.1988902    0.1642389   6.61 0.0004976406    1.057    0.053
       369  -9.5240     76.3327    212.3066   1.1217041340e+02   2.0388902329e+01    0.1148922    0.1006661 -22.77 0.0006949037    1.665    0.399
       370 -12.1677      4.6846    207.5415   1.2604845554e+02   2.9645699016e+01    0.5326732    0.2542089  86.04  0.003087643    1.757    0.431
       371 -10.1478     10.6205    208.6331   1.2499992951e+02   2.8871930252e+01    0.1874869     0.161473 -49.04 0.0007178376    1.696    0.410
       372 -11.1847     19.6565    201.9270   1.2282534070e+02   2.9410042547e+01    0.4739763    0.1595112 -73.29  0.002188849    2.510    0.602
       373 -10.3270    175.4093    202.7122   8.9670643645e+01   6.0250033826e+00    0.2359921    0.1945771  38.53 0.0005338306    1.157    0.136
       374  -9.3475    243.3055    202.3094   7.6659168422e+01  -5.0778316380e+00    0.1297597   0.08353347   0.23   0.00025239    1.611    0.379
       375  -9.5484      9.5128    202.5028   1.2484144231e+02   3.0258507325e+01    0.1161879   0.08590325  79.21 0.0001568192    1.007    0.007
       376 -10.1205     23.6833    216.5757   1.2303793276e+02   2.5935893273e+01     0.189297     0.107634  31.70  0.001125405    2.058    0.514
       377  -9.3934     34.4538    201.4506   1.1981268689e+02   2.7965033551e+01    0.1193625   0.09770863  83.09 0.0008057851    1.070    0.066
       378  -9.9501    215.4215    194.7672   8.0264945729e+01   4.7136962693e-01    0.1817218    0.1162157 -22.72 0.0002793329    1.590    0.371
       379 -10.8537     15.9344    193.3473   1.2296812380e+02   3.1624396897e+01    0.2061713    0.2033826  61.55 0.0008055341    1.442    0.307
