#   1 NUMBER                 Running object number                                     
#   2 MAG_AUTO               Kron-like elliptical aperture magnitude                    [mag]
#   3 X_IMAGE                Object position along x                                    [pixel]
#   4 Y_IMAGE                Object position along y                                    [pixel]
#   5 X_WORLD                Barycenter position along world x axis                     [deg]
#   6 Y_WORLD                Barycenter position along world y axis                     [deg]
#   7 A_WORLD                Profile RMS along major axis (world units)                 [deg]
#   8 B_WORLD                Profile RMS along minor axis (world units)                 [deg]
#   9 THETA_WORLD            Position angle (CCW/world-x)                               [deg]
#  10 FWHM_WORLD             FWHM assuming a gaussian core                              [deg]
#  11 ELONGATION             A_IMAGE/B_IMAGE                                           
#  12 ELLIPTICITY            1 - B_IMAGE/A_IMAGE                                       
         1 -10.2293    180.4438     42.4016   6.1428685790e+01   3.5013068317e+01    0.4116348    0.2540312   1.30  0.001087525    2.379    0.580
         2 -11.5254     75.1549     21.8235   7.9951236146e+01   6.1336482731e+01    0.5455449    0.2822998 -46.18  0.002567834    2.295    0.564
         3 -10.9633     78.4980     21.5698   7.8728841579e+01   6.0825454597e+01     0.386393    0.1624537 -34.68  0.001313976    2.147    0.534
         4 -11.1103     41.6939     19.3528   9.1306629766e+01   6.6281076658e+01    0.5492845    0.2832606 -25.70  0.002904623    1.987    0.497
         5 -11.4901     40.2710      9.1793   8.7459303767e+01   6.8032995879e+01    0.5085564    0.1942342 -36.07    0.0019475    2.158    0.537
         6 -12.1803     35.0971     12.7931   9.1249481234e+01   6.8045016946e+01    0.3275313    0.2591482 -41.56  0.001973164    1.335    0.251
         7 -11.9033     30.1013      7.1187   9.0880934142e+01   6.9436557263e+01    0.3298842    0.2708198 -31.39  0.001380945    1.239    0.193
         8  -9.8077      2.3985      2.8279   1.0200430690e+02   7.2321726124e+01    0.1888444     0.133286  14.71  0.001188841    1.715    0.417
         9 -10.8035     14.4125     16.1356   1.0159694828e+02   6.9294037222e+01    0.3275856    0.2447706  34.04  0.002407729    1.852    0.460
        10 -10.5935     10.1318      2.0673   9.7884625464e+01   7.1937794216e+01    0.2711124    0.1444371 -32.66  0.001767761    1.439    0.305
        11 -11.2123      4.1800     10.0166   1.0396567509e+02   7.1009643497e+01    0.2587675    0.1911034   6.72  0.001730946    1.596    0.373
        12 -10.6488      2.3174      6.4350   1.0348484018e+02   7.1726258762e+01    0.3145626    0.1496044   0.42  0.001856088    2.811    0.644
        13 -10.7879     14.9259      8.8244   9.8497610150e+01   7.0493759712e+01    0.2861481    0.1962203 -18.60 0.0008593521    1.331    0.248
        14 -10.8734     11.0558      6.7501   9.9445914429e+01   7.1116236572e+01    0.2928109    0.2026719 -67.42  0.001898206    2.256    0.557
        15  -9.6798    199.6767     17.0425   5.0554544238e+01   3.3148525660e+01    0.1979232    0.1890011 -35.52 0.0005421657    1.087    0.080
        16 -10.7603     92.8530      9.0139   6.8801914556e+01   5.9886192992e+01    0.3642678     0.220701  -5.90  0.001405948    1.765    0.434
        17 -11.1580     89.0914     13.8847   7.2058151685e+01   6.0006801105e+01    0.4477531    0.3606808 -60.88  0.001858864    1.857    0.461
        18  -9.8326     88.6812      8.0768   6.9607354086e+01   6.0792169393e+01    0.2875511     0.134541 -29.78  0.001352817    2.005    0.501
        19 -10.7255    155.1759     14.7418   5.6726555687e+01   4.5062019602e+01    0.3485008    0.2121476  45.96  0.001003518    1.558    0.358
        20 -11.5269    190.9527     15.0703   5.1139696738e+01   3.5675729434e+01    0.5192304    0.2176896 -44.21  0.001948712    2.560    0.609
        21 -11.2220     55.5141      7.4682   8.0564881255e+01   6.6332967603e+01    0.3970789    0.2898486 -34.07  0.001922929    1.361    0.265
        22 -11.2735     57.8659      2.1411   7.7101150095e+01   6.6687358707e+01    0.3339597    0.2229003 -15.98 0.0003039953    1.276    0.216
        23 -10.8284     22.5282      9.5665   9.5342699096e+01   6.9758633516e+01     0.282056    0.1979492  -1.51  0.001434115    1.479    0.324
        24 -11.6732    151.6009      7.8628   5.4910855642e+01   4.6688243817e+01    0.4758314    0.3763906 -61.41    0.0025192    1.502    0.334
        25 -10.7277    210.2338      7.6456   4.6502357070e+01   3.1385593657e+01     0.193508    0.1728951 -56.58   0.00103348    1.106    0.096
        26 -10.9530     71.0281      5.8670   7.4208578195e+01   6.4174451480e+01    0.3419075    0.2705585 -30.71  0.002190869    1.341    0.254
        27  -9.9172     64.8072      7.1288   7.6973029273e+01   6.5008690514e+01    0.1782896    0.1465053 -21.99 0.0004839097    1.190    0.160
        28 -10.6355    145.0147      6.0233   5.5429167799e+01   4.8520301850e+01    0.2139107    0.1898851  36.10 0.0003324114    1.042    0.040
        29 -10.1872    235.5047      4.5229   4.3065783427e+01   2.5247534903e+01    0.1349752    0.1239581 -76.34 4.510556e-05    1.022    0.022
        30 -10.7040    194.4780      3.9815   4.7282519668e+01   3.5891020536e+01    0.2145955    0.1408483 -22.16  0.001044985    1.629    0.386
        31 -10.8995    130.4631      3.7172   5.7371975671e+01   5.2280214472e+01    0.2631401    0.1797747  57.92  0.001335999    1.400    0.286
        32 -10.1552    121.0695      4.1286   5.9536400635e+01   5.4428869495e+01    0.2103131    0.1597448  26.60 0.0004073209    1.239    0.193
        33 -10.6690    173.1393      3.1491   4.9848188253e+01   4.1587334252e+01    0.2559913    0.1655715  73.33  0.000643397    1.518    0.341
        34 -10.8132    160.8095      2.2640   5.1396195944e+01   4.4872511733e+01     0.284473    0.2012085   2.66  0.001433483    1.601    0.375
        35  -9.8714    104.5808      2.4316   6.2728827119e+01   5.8221926472e+01      0.29766    0.1187677 -23.92  0.001257917    2.422    0.587
        36 -10.0432     90.7649      2.5063   6.6475726543e+01   6.1012897826e+01    0.3690395    0.2204175  55.30  0.001618117    1.848    0.459
        37 -10.5967     20.1406      2.3689   9.3226989622e+01   7.1094298342e+01    0.2250145    0.1612751 -15.56 0.0008080756    1.196    0.164
        38  -9.9689     16.5410      3.4716   9.5430643272e+01   7.1227193102e+01    0.2309164    0.1486951 -64.89  0.001297689    2.997    0.666
        39 -11.5869     80.2473      1.7383   6.9252931913e+01   6.3062952746e+01     0.323314    0.1672244  46.70  0.001049398    1.927    0.481
        40  -9.9666     50.3754      1.9145   7.9866160604e+01   6.7777310377e+01    0.2338087     0.133676  19.32   0.00125869    1.933    0.483
        41 -10.1297    203.7929      1.3967   4.5426590285e+01   3.3693174222e+01    0.1998385    0.1155623  58.89 0.0002633503    1.610    0.379
        42  -9.7290     67.0670      1.6408   7.3540597701e+01   6.5326627431e+01    0.1679474    0.1349397  11.98 0.0004574878    1.106    0.096
        43 -10.0606     28.2188      1.3129   8.8988998628e+01   7.0489248192e+01    0.1291653   0.09636366  29.33 0.0003996124    1.662    0.398
        44  -9.3261    186.9967      1.0000   4.7298777310e+01   3.8145969588e+01    0.2232053   0.07550291  69.51 0.0003273125    2.749    0.636
        45  -9.5151    153.9201      1.0000   5.2055965892e+01   4.6749658587e+01    0.2266417   0.07501648  65.85 0.0004948862    2.825    0.646
        46 -10.9275     11.4464    129.1530   1.2438955027e+02   4.6386287182e+01     0.317229    0.1447975  68.56  0.001713413    2.435    0.589
        47 -10.4109     11.8314    250.0054   1.3165492289e+02   2.4222847252e+01    0.1244393   0.08539247 -68.48   0.00107704    2.017    0.504
        48 -11.2470      1.7103    248.4792   1.3292417436e+02   2.5429965125e+01    0.3086904    0.1522766  73.38  0.002519659    1.354    0.261
        49 -11.7078     11.4245    244.1864   1.3148128225e+02   2.5150838320e+01    0.1957755    0.1407339  49.74  0.001762301    1.616    0.381
        50 -11.7164      6.1678    245.8212   1.3224513025e+02   2.5410508977e+01    0.2961807    0.1299457 -87.74  0.002217859    1.839    0.456
        51 -11.7142      6.0843    241.4252   1.3209145603e+02   2.6095920971e+01    0.2016923    0.1425434  77.18  0.001686581    1.203    0.169
        52 -10.1086     28.9308    128.2724   1.2040849458e+02   4.5123388490e+01    0.1533223    0.1239203 -88.70 0.0003499267    1.077    0.071
        53 -11.7559     22.7111    120.5554   1.2094199658e+02   4.7317404778e+01    0.5115358    0.2363025  74.73  0.002337419    2.849    0.649
        54 -10.7198    248.5040    129.5015   7.3264046661e+01   4.9631037588e+00    0.1401113    0.1262834  -0.51 -0.0001246448    1.008    0.008
        55  -9.1942    119.2933    115.3671   9.6298673338e+01   3.5570817450e+01    0.1436797    0.1135494 -17.99 0.0007027959    1.716    0.417
        56 -10.9092     65.2765    111.0903   1.0902994310e+02   4.4999104461e+01    0.4549158    0.1280055 -59.04  0.001137938    2.962    0.662
        57 -10.8480     72.2793    113.0045   1.0759119384e+02   4.3665931504e+01    0.2023429    0.1770994  70.85 0.0002919594    1.187    0.157
        58 -10.8336     20.2283    112.9293   1.2061983566e+02   4.9156355806e+01    0.1834943    0.1461692  70.22 0.0005376469    1.298    0.230
        59 -10.2941    248.9815    112.0026   6.9062878689e+01   7.4396756714e+00    0.1765356    0.1618894  -5.95  0.001015041    1.008    0.008
        60 -11.5961      3.6823    109.0177   1.2414709695e+02   5.1163221699e+01    0.2759258    0.1880928  62.05  0.001989053    1.558    0.358
        61 -11.0011     57.5813    107.9791   1.1045777213e+02   4.6620998836e+01    0.2174995     0.181512  -2.33  0.001365426    1.703    0.413
        62 -10.2005     12.4886    108.5343   1.2197172568e+02   5.0676220441e+01    0.1133369     0.084135 -77.21 2.091104e-05    1.009    0.009
        63 -10.1708     40.1500    105.9749   1.1464893940e+02   4.8924456710e+01    0.2074765    0.1027745 -49.95  0.001081603    1.945    0.486
        64 -10.7881     88.4315    102.4412   1.0120968547e+02   4.3675460820e+01    0.3701183    0.2093141 -72.84  0.001108898    2.350    0.574
        65  -9.3949    187.1388    103.3741   7.7971651707e+01   2.3162558956e+01    0.2122651    0.1467982  64.08 0.0008348525    1.643    0.391
        66 -10.0222    113.5260    102.5114   9.4697708570e+01   3.9398374191e+01     0.143169    0.1344777 -60.93 9.416799e-05    1.010    0.010
        67 -10.6262     57.4651    102.0081   1.0939147908e+02   4.7955712346e+01    0.2360499     0.166409  59.58   0.00137991    1.629    0.386
        68  -9.9972     24.3039    101.6270   1.1810151636e+02   5.1274826467e+01    0.1785181    0.1137998  74.76  0.001088599    1.738    0.425
        69 -10.2027     62.2928     98.9717   1.0749655328e+02   4.8051579678e+01    0.1898119    0.1471496 -63.85 0.0005597176    1.092    0.084
        70 -10.6287    100.2190     95.9020   9.6533329964e+01   4.3184600178e+01    0.4062911    0.2701941  75.82  0.001820507    2.284    0.562
        71 -10.3147      3.6000     95.2257   1.2261290488e+02   5.4082775265e+01    0.1857396    0.1402542 -58.99 0.0003759235    1.258    0.205
        72 -10.3719     78.8691     94.8231   1.0206294335e+02   4.6768672831e+01    0.1909342    0.1660346 -43.01 0.0002690989    1.168    0.144
        73 -11.3970     18.2468     94.9032   1.1872803448e+02   5.3189349360e+01    0.2476606    0.1595208  34.55  0.001516565    1.935    0.483
        74 -10.2832     29.1934     92.3430   1.1536459044e+02   5.2891574580e+01     0.319307    0.1985303  26.94  0.001755059    2.081    0.519
        75 -10.6595     25.0188     89.7750   1.1609705709e+02   5.3785365530e+01    0.2249688    0.1775799 -88.22  0.001579222    1.229    0.186
        76 -10.7806     57.9569     91.7080   1.0720774986e+02   5.0167846862e+01    0.2404237     0.180223 -44.89  0.000735409    1.309    0.236
        77 -10.8245     10.9880     90.4722   1.2004613318e+02   5.4636465651e+01    0.4028902   0.09665898 -56.76  0.001470397    2.827    0.646
        78 -10.1938     10.9720     85.0232   1.1926771061e+02   5.5798655404e+01    0.2081458    0.1234948 -76.38 0.0007184398    1.362    0.266
        79 -10.8564     76.5258     89.2954   1.0142530937e+02   4.8307060341e+01    0.2345464    0.2306459 -38.41 0.0005802489    1.147    0.128
        80 -10.8819    107.8196     88.9891   9.2723712326e+01   4.3317956048e+01    0.2329591    0.2089639  47.68 0.0003705516    1.195    0.163
        81 -10.8527     99.0322     89.2934   9.5175375974e+01   4.4802852746e+01    0.1943945    0.1896579  83.95  0.001171877    1.094    0.086
        82 -10.8050     18.4261     87.2738   1.1753194078e+02   5.4816914265e+01    0.3195809    0.1800772 -57.18   0.00178324    1.409    0.290
        83 -11.7112     54.8085     84.5499   1.0657421054e+02   5.2091806084e+01    0.3268669    0.2138515 -72.43  0.001114664    1.547    0.354
        84 -10.2236     37.9047     84.7422   1.1153801279e+02   5.3779494561e+01    0.3571044    0.1865048  76.51  0.001445897    4.012    0.751
        85  -9.8372     72.9853     84.2069   1.0120770689e+02   4.9899953878e+01    0.3207192    0.2023837 -19.45  0.001455438    2.643    0.622
        86 -11.0989    146.1599     83.4395   8.1439934771e+01   3.6561162526e+01    0.2678387    0.2436315 -41.11  0.000268889    1.078    0.072
        87 -11.0942      3.8856     81.8959   1.2079551954e+02   5.6882988990e+01    0.3651737    0.1377382 -71.66  0.001922471    1.991    0.498
        88 -10.0324    100.0574     83.2706   9.3287472643e+01   4.5898920704e+01    0.1912141     0.188334 -72.25 0.0005867718    1.081    0.075
        89  -9.5252     42.3675     82.3527   1.0975577206e+02   5.3874682338e+01     0.237972    0.1028901 -70.31  0.001042235    2.506    0.601
        90 -11.2681     64.4410     80.0426   1.0269219751e+02   5.1917524022e+01     0.464103    0.2307202 -60.66  0.002002844    1.898    0.473
        91 -10.1838     89.1219     80.5465   9.5619550532e+01   4.8292279504e+01    0.2581905    0.1820587 -65.60 0.0007523936    1.562    0.360
        92  -9.1697    250.3319     80.7105   6.1110991580e+01   1.1777215792e+01    0.1453725    0.1076046 -62.69 0.0005066006    1.626    0.385
        93  -9.4830    124.4165     79.1517   8.5578576840e+01   4.2113453309e+01    0.2092995    0.1337718 -53.56 0.0004589518    1.669    0.401
        94  -9.9839     85.2609     78.5786   9.6197071998e+01   4.9312710471e+01    0.2415704    0.1482174 -57.11 0.0008634053    1.585    0.369
        95 -10.4652    176.9829     76.9978   7.2715217270e+01   3.0373393607e+01    0.2465449    0.2425778  12.87  0.001316591    1.012    0.012
        96  -9.5574     28.1753     77.1238   1.1293524771e+02   5.6258430963e+01    0.1484757    0.1170718 -82.90 0.0002823374    1.269    0.212
        97  -9.3378    170.4439     76.4617   7.3921751444e+01   3.2088105372e+01    0.1537203    0.1507773  -3.26 0.0008066971    1.013    0.013
        98 -11.0266     56.4513     75.3570   1.0395325182e+02   5.3883750510e+01    0.4051575    0.2430742  30.17   0.00221411    2.031    0.508
        99 -10.7536     15.9274     75.7077   1.1634237265e+02   5.7457462123e+01    0.2198558    0.1628862  14.08  0.001552254    1.837    0.456
       100 -11.6072      6.7945     75.0404   1.1893749940e+02   5.8162458294e+01    0.2864487    0.1046281 -54.58  0.001531857    2.016    0.504
       101  -9.3545    160.5634     75.4353   7.5759309666e+01   3.4683033805e+01    0.1517889    0.1498169 -20.85 3.754383e-05    1.008    0.008
       102  -9.8357     70.4769     75.5273   9.9746462263e+01   5.2094304730e+01    0.1327991     0.114067 -49.16 0.0007089264    1.011    0.011
       103 -11.9761     34.0636     72.8774   1.1027625441e+02   5.6673058179e+01    0.4634477     0.335699   9.50            0    1.863    0.463
       104 -10.2389     92.6835     72.6559   9.2377039661e+01   4.9349708564e+01    0.3022577    0.2058508  46.44  0.001478724    1.648    0.393
       105  -9.5484     81.4988     72.9897   9.5758634610e+01   5.1054430180e+01    0.1831843    0.1138245 -71.40 0.0008072028    2.343    0.573
       106  -9.4091    216.9891     72.0583   6.3922284838e+01   2.1102181166e+01    0.1835095     0.169953 -30.48 0.0005104738    1.052    0.049
       107 -10.1327    105.8762     71.7206   8.8344444834e+01   4.7219560809e+01    0.2444688    0.2143453  26.06 0.0004799738    1.240    0.194
       108  -9.4167     56.4003     69.0379   1.0237765357e+02   5.5225615280e+01    0.2854073    0.1513126 -21.20  0.001100453    3.947    0.747
       109  -9.6725    136.5974     74.2460   8.1022322904e+01   4.0464125664e+01    0.2061955    0.1420121 -28.65 0.0003978182    1.533    0.348
       110 -10.7605    134.1721     66.4761   7.9207376143e+01   4.2452966533e+01    0.3564857    0.2568012  80.58  0.001572182    2.035    0.509
       111 -11.3391     14.3405     64.0040   1.1466938232e+02   6.0020670899e+01    0.2635982    0.2182619 -81.17 0.0003162474    1.249    0.199
       112 -10.6358     34.4611     64.9638   1.0838121195e+02   5.8308340941e+01    0.2895201    0.1686409 -46.15 0.0006676475    1.451    0.311
       113 -10.9920     39.5101     62.0090   1.0601463320e+02   5.8465384292e+01    0.5276468    0.1733608 -45.66   0.00132185    2.605    0.616
       114 -11.0370      9.9954     60.1586   1.1531953090e+02   6.1081882265e+01    0.2500791    0.1371557 -50.80 0.0003021273    1.426    0.299
       115 -11.7252      5.4683     63.4598   1.1739524925e+02   6.0653199248e+01    0.2805787    0.2086012  57.34  0.001268683    1.730    0.422
       116 -10.8283      2.8501     60.3400   1.1767125066e+02   6.1433585990e+01    0.2043345    0.1582638 -88.10  0.001532676    1.359    0.264
       117 -10.8537     64.8513     61.3063   9.7551478939e+01   5.5782332704e+01    0.4054344    0.2723475  -4.47  0.001024509    2.184    0.542
       118 -10.0571    100.8066     62.0226   8.6760930807e+01   5.0045432397e+01    0.2067495    0.1818275 -59.34 0.0004427654    1.242    0.195
       119  -9.6183     53.0318     61.5451   1.0145182397e+02   5.7164445104e+01    0.1630447    0.1172707  45.52 0.0009683227    1.735    0.424
       120 -10.2239     56.2795     60.6676   1.0014531111e+02   5.6970263766e+01    0.1556081    0.1204632   9.83 0.0001538813    1.587    0.370
       121 -13.3610     20.2040     57.5629   1.1138587668e+02   6.0963535940e+01     0.421668    0.2280217 -63.19  0.002449298    1.472    0.321
       122 -10.2818     15.2832     58.0217   1.1313549588e+02   6.1198776355e+01    0.1743038    0.1493019 -76.34 0.0004854628    1.235    0.190
       123 -10.3861     60.1479     58.1777   9.8157506369e+01   5.7008104424e+01    0.2570984    0.1563364 -53.63 0.0007152415    1.465    0.317
       124 -11.4255     83.6606     56.9457   9.0251091580e+01   5.3936968624e+01    0.2501236    0.2338999 -87.98 0.0004976381    1.311    0.237
       125 -11.6116     88.2835     53.2129   8.7589472645e+01   5.3893537044e+01    0.4720536    0.3879722  28.22  0.001727103    1.321    0.243
       126  -9.1619     48.4528     58.4181   1.0209888275e+02   5.8305464183e+01    0.1241273     0.101419 -46.04 0.0001349605    1.011    0.011
       127  -9.5719     71.5749     56.7382   9.4002656866e+01   5.5785137978e+01    0.1809365    0.1143616 -54.45 0.0009356465    1.561    0.359
       128 -10.5683     34.1835     54.0576   1.0575715625e+02   6.0579113947e+01    0.3676039    0.1442224 -46.35  0.001798851    2.034    0.508
       129  -9.2772    158.3285     56.6525   7.0397126176e+01   3.8478385290e+01      0.16118    0.1191817 -67.80 0.0007049608    1.757    0.431
       130 -11.2794     26.8884     43.8514   1.0555674739e+02   6.3225003536e+01    0.3869232    0.2709292  45.01  0.002529928    1.966    0.491
       131 -11.6609     17.7682     32.9043   1.0582207700e+02   6.6013892035e+01    0.7417455     0.327628 -18.59  0.003075255    4.094    0.756
       132 -13.4662      5.9665     50.7674   1.1475916218e+02   6.3223756154e+01    0.4378849    0.2667674 -36.56 0.0007368101    1.616    0.381
       133 -11.5135     17.4782     44.7952   1.0925972194e+02   6.3729283912e+01    0.5161918     0.408578  80.27  0.003630323    1.733    0.423
       134 -10.6425     25.9261     29.7182   1.0155902610e+02   6.5989848799e+01    0.1986063    0.1446886 -49.54 0.0004688106    1.180    0.152
       135 -10.9995     22.8611     38.3823   1.0548319017e+02   6.4599816972e+01    0.2074089     0.175603 -62.19 0.0004754184    1.271    0.213
       136 -11.4025     26.6532     34.9854   1.0299075971e+02   6.4950133055e+01    0.3339389    0.1792966 -33.59  0.001089067    1.741    0.426
       137 -10.2914    225.5922     54.3273   5.7690347409e+01   2.1585755155e+01    0.3344472    0.2284212   8.18  0.001457587    2.023    0.506
       138 -11.2996    114.8381     54.0962   8.0178424425e+01   4.8808176931e+01    0.3300598    0.2964603 -10.79 0.0008969518    1.084    0.078
       139  -9.0713    162.3604     54.2923   6.8773056905e+01   3.7858047212e+01    0.1627982    0.1151769  24.78 0.0007029065    1.698    0.411
       140  -9.3202     54.3496     55.2616   9.9218928746e+01   5.8285948744e+01    0.1675603    0.1029589 -56.47 0.0003163846    1.508    0.337
       141 -11.8229     66.4661     52.6872   9.4383364669e+01   5.7278071592e+01    0.4641536    0.2192555  30.56  0.001800747    2.606    0.616
       142  -9.5441     97.9851     50.5238   8.3740073474e+01   5.2695636211e+01    0.1951757    0.1376792  41.98 0.0004783969    1.526    0.345
       143 -11.1545     77.2470     47.4548   8.9104477873e+01   5.6722659392e+01    0.4921794    0.2853036 -21.08  0.002248522    2.252    0.556
       144  -9.4464     45.3402     50.2770   1.0082020805e+02   6.0266487116e+01    0.1233855   0.08087651 -27.23 0.0002057356    1.618    0.382
       145  -9.6826     53.5387     47.9826   9.7259416044e+01   5.9810702707e+01    0.1918319    0.1033063 -47.29 0.0004849477    1.530    0.346
       146  -9.5219    154.5638     47.5466   6.8219195422e+01   4.0862028798e+01    0.1489179    0.1457082   2.36 5.174425e-05    1.017    0.017
       147  -9.4782    135.5138     46.4185   7.2190006371e+01   4.5602454637e+01    0.1456482    0.1408906   3.06 8.324764e-05    1.030    0.029
       148  -9.5133    104.4148     46.2295   8.0346645679e+01   5.2245754685e+01    0.2021015     0.124452 -44.88 0.0009504687    1.649    0.393
       149 -11.1573     18.3684    248.7430   1.3073378547e+02   2.3757488540e+01    0.1520896    0.1374552 -39.51  0.001346708    2.604    0.616
       150  -9.9305     95.0942     42.1968   8.1626574409e+01   5.4676198219e+01    0.2047053     0.169151  -6.81 0.0006955358    1.202    0.168
       151  -9.9598     69.8299     41.6496   8.9514572109e+01   5.8877617950e+01    0.2627823    0.1532347 -24.06 0.0009529115    1.944    0.486
       152 -10.1870     36.0401     41.5621   1.0150402442e+02   6.2880245855e+01     0.200821     0.150364 -17.88  0.001104329    1.417    0.294
       153 -10.4691      3.5046     41.8349   1.1365801670e+02   6.5134679456e+01    0.3082657    0.1498444 -21.95  0.001753634    2.718    0.632
       154 -10.8507    139.8862     40.4643   6.9067458305e+01   4.5501122752e+01    0.3744525    0.2681557 -43.68  0.001383283    1.479    0.324
       155  -9.2692     42.9767     40.7565   9.8694820416e+01   6.2353422502e+01    0.1296599    0.1017274  18.00 0.0004960522    1.495    0.331
       156 -12.2662    121.8241     37.3757   7.2360879254e+01   5.0090461848e+01    0.5152609    0.4952771 -46.66  0.001954404    1.169    0.145
       157 -10.4572    127.7021     38.7007   7.1359523085e+01   4.8584846484e+01    0.2225124    0.2018297  84.94 0.0003548338    1.333    0.250
       158  -9.2122    168.3954     38.5079   6.2397064527e+01   3.8692942160e+01    0.1482528    0.1438913  11.48 8.507707e-05    1.026    0.025
       159 -11.0496      3.3109     34.9435   1.1205440174e+02   6.6489816534e+01    0.3824017    0.1788104 -42.62  0.002350468    1.701    0.412
       160 -11.2210    134.1772     34.4490   6.8243125882e+01   4.7726596224e+01    0.2477605    0.2040125  10.57 0.0004329209    1.260    0.206
       161  -9.8205    145.2213     33.0687   6.5247365656e+01   4.5282019225e+01    0.1971413     0.181057 -14.93 0.0003433151    1.082    0.076
       162  -8.9499     50.2967     33.6152   9.3521092654e+01   6.2861801978e+01    0.1162882   0.09282244 -68.86  0.000701747    1.771    0.435
       163 -11.3600     38.8107     30.9545   9.6913082517e+01   6.4588544074e+01    0.2802222    0.2014175 -17.84 0.0008754767    1.391    0.281
       164 -11.5504     43.4773     29.4700   9.4569444232e+01   6.4365271619e+01    0.5438641    0.2661485 -35.23    0.0026842    1.791    0.442
       165 -10.5953    166.2452     31.0666   6.0323810659e+01   4.0255825249e+01    0.2706468    0.2234445 -33.97 0.0004124226    1.237    0.191
       166 -10.0652    205.1826     30.7679   5.3887940381e+01   3.0055751984e+01    0.2688862    0.1382308 -62.67   0.00095715    2.829    0.646
       167  -9.8076    129.4823     30.4827   6.7895308844e+01   4.9373106633e+01    0.2516387    0.1378614 -13.72  0.001016143    2.256    0.557
       168  -9.9512     88.8391     31.6103   7.9513936764e+01   5.7527324961e+01     0.164172    0.1290806  55.18 8.762116e-05    1.600    0.375
       169  -9.4311    110.7379     42.9871   7.7388429902e+01   5.1540481241e+01    0.1925835    0.1694767 -20.37 0.0002209508    1.057    0.054
       170 -11.3041      8.4878     29.0290   1.0838179430e+02   6.7336610394e+01    0.2301118    0.2010964  89.97  0.001806851    1.555    0.357
       171 -10.2595    147.1945     26.7285   6.2561834811e+01   4.5641496362e+01    0.3431861     0.192833 -42.71  0.001472656    1.948    0.487
       172  -9.9503     69.5462     28.8896   8.4779456562e+01   6.1108100951e+01    0.1965725    0.1100865 -36.27 0.0005838824    1.558    0.358
       173  -9.2289     96.8266     28.3701   7.5797724444e+01   5.6556959510e+01    0.1715259    0.1190464  31.88 0.0001239635    1.475    0.322
       174  -9.8427    229.6770    248.0580   9.8410014055e+01  -6.2662673137e+00    0.1448685    0.1156215  21.82 0.0006645549    1.146    0.128
       175  -9.4046    224.6891    246.6819   9.8998272441e+01  -5.3583615647e+00    0.1127277   0.06775948  22.66 0.0007034384    1.642    0.391
       176  -9.1230    140.3443     26.7130   6.4015015475e+01   4.7317486136e+01    0.1442231    0.1135756 -69.42 0.0005858093    1.648    0.393
       177  -8.7442     18.4422     26.4519   1.0350274062e+02   6.7166387094e+01    0.1167346   0.08092941 -38.59 0.0005153653    1.110    0.099
       178  -9.6811    153.7878     25.6119   6.0831277745e+01   4.4136708229e+01    0.2039232    0.1408819  74.02 0.0008436347    1.657    0.396
       179 -10.2501    113.8224     24.5907   6.9551528389e+01   5.3655420305e+01    0.2765227    0.2228711 -12.09 0.0009123929    1.187    0.157
       180 -10.4006     58.9858     24.4100   8.6735205582e+01   6.3333931744e+01    0.3183786    0.1963304   4.06  0.001657184    2.149    0.535
       181 -10.1085     38.6529     24.8858   9.4727109717e+01   6.5675351429e+01    0.1934286    0.1419934 -14.31 0.0006930453    1.331    0.249
       182  -9.3916    187.3118    246.3206   1.0488784185e+02   6.4178632913e-01    0.1101535   0.07354535  25.14  0.000282651    1.649    0.394
       183  -9.6713    136.4893    245.5709   1.1294834562e+02   8.8434883168e+00    0.1131307    0.0809702  57.20 9.827764e-05    1.081    0.075
       184  -8.9103     45.2777    244.3451   1.2677985974e+02   2.1511232680e+01   0.07984895   0.06963967 -85.47 0.0004342428    1.630    0.387
       185  -9.8836     60.5722    240.9936   1.2433940525e+02   2.0207637175e+01    0.2203358    0.1005117  42.32  0.001381979    2.102    0.524
       186  -9.5296     89.5832     23.2174   7.5885186148e+01   5.8654299497e+01    0.1894486    0.1160384 -19.25 0.0009463574    1.628    0.386
       187 -10.5460      1.9641     21.7026   1.0890729795e+02   6.9053243703e+01    0.2399882    0.1183638 -57.00 0.0009971592    1.526    0.345
       188  -9.5469    202.5677    240.2307   1.0163567533e+02  -1.1425470210e+00    0.1315666     0.103679  -3.57 0.0007690614    1.559    0.359
       189 -11.1403     13.5881     20.9252   1.0367061502e+02   6.8506074360e+01    0.2355131    0.2144989 -86.52  0.001210276    1.593    0.372
       190 -10.3031     20.1393     16.8006   9.9335304968e+01   6.8751211510e+01    0.1639447    0.1321587 -19.74 0.0004366019    1.181    0.154
       191 -11.9398     26.4203    235.8643   1.2903295509e+02   2.4930292182e+01     0.259871    0.1749356  85.77   0.00162173    1.217    0.179
       192 -12.0198      4.1785    232.5177   1.3200675555e+02   2.7680561185e+01    0.2888163    0.1271074  70.79 0.0002550677    1.625    0.385
       193 -13.3229      9.9376    228.6870   1.3104444285e+02   2.7751722477e+01    0.6036386    0.3074576  76.54  0.004619159    1.405    0.288
       194  -9.9663    249.2056    234.0930   9.3299683699e+01  -7.9470261504e+00    0.1675193    0.1155219  22.85 0.0004600292    1.149    0.129
       195 -11.1002     14.1850    238.8654   1.3088684617e+02   2.5706828132e+01    0.1479028   0.08210404  71.10 0.0004737148    1.207    0.171
       196 -10.4689    140.3044    227.7489   1.1037729838e+02   1.0770987423e+01    0.2334597    0.1717474 -83.10  0.001564049    1.642    0.391
       197  -9.6625     84.8073     21.3225   7.6583635993e+01   5.9779927466e+01    0.1814699    0.1100536  34.12  0.000518085    1.703    0.413
       198 -10.0432     30.9524     20.1978   9.6046492530e+01   6.7237440214e+01    0.2053653    0.1281518 -39.54 0.0006226413    1.237    0.191
       199  -9.8112    174.7716     20.6206   5.5357263672e+01   3.9323193606e+01     0.207864    0.1385709  77.84 0.0005489555    1.646    0.392
       200  -9.2941    132.2773     20.3633   6.3429398555e+01   5.0041684961e+01     0.150995      0.10183  19.34 0.0004109503    1.670    0.401
       201 -10.2552    100.3676     19.1700   7.1012726726e+01   5.7153900465e+01    0.2517945    0.1992115 -54.85  0.001389178    1.689    0.408
       202  -9.4724     68.9127     18.1906   8.0536482176e+01   6.2855265109e+01    0.1513982   0.09531835  39.90 0.0005468579    1.739    0.425
       203  -9.6842    109.7079    226.6651   1.1539530729e+02   1.5740578430e+01   0.09556907   0.08750108  25.26 0.0007024095    1.638    0.390
       204 -11.5111    108.5203     16.2585   6.7577546475e+01   5.5853516866e+01    0.2259045    0.2014405  12.49 0.0002784305    1.017    0.017
       205  -9.4059    229.4742     26.0417   4.9413041077e+01   2.4343625621e+01    0.1966415    0.1223031  10.53 0.0008092355    2.490    0.598
       206  -9.7371     26.8744     16.7016   9.6386392705e+01   6.8202239545e+01    0.1478844    0.1226033 -21.30 0.0004949407    1.144    0.126
       207 -10.0541     33.2189    225.4392   1.2748601685e+02   2.5903393995e+01    0.2360486   0.04377852  48.06   0.00114413    3.357    0.702
       208 -12.1164      8.0893    217.5533   1.3081798997e+02   2.9772760083e+01     0.302774     0.189079  86.55   0.00250385    1.190    0.160
       209 -10.3995     15.8276    213.1593   1.2945050492e+02   2.9780706288e+01    0.1897371    0.1557488 -24.66    0.0014167    3.011    0.668
       210  -9.9215     49.0680     16.0807   8.6984722670e+01   6.5934706138e+01    0.1649964    0.1425877 -57.03  0.000625134    1.668    0.400
       211 -10.2664    175.1776     14.8742   5.3402693004e+01   3.9864034578e+01    0.2270427    0.1972621 -71.69 0.0006647663    1.244    0.196
       212  -9.3197    209.6651    211.3223   9.6180375989e+01   1.1034626834e+00     0.115667   0.09245095  69.39 0.0007050389    1.708    0.414
       213 -10.4586    231.7988     14.1575   4.5958616834e+01   2.5138518329e+01    0.2118091    0.1712909 -62.89 0.0004082047    1.191    0.160
       214 -10.4526    162.4623     13.2016   5.4908938988e+01   4.3360268113e+01    0.2585759    0.1862268  60.89 0.0002314969    1.311    0.237
       215  -9.8229    118.9873     12.2437   6.3312524615e+01   5.4048253736e+01    0.1728814    0.1119708  54.09  0.000305365    1.520    0.342
       216 -10.3635     20.6308    209.9720   1.2854361218e+02   2.9858641302e+01    0.1771633   0.09376691  62.19  0.001273341    1.429    0.300
       217  -9.6866    246.7937    207.0818   8.9258086123e+01  -4.7905094885e+00    0.1462764    0.0909108 -26.80 0.0008701679    1.756    0.430
       218 -10.5206      3.2384    205.4416   1.3098584349e+02   3.2296339928e+01    0.1557964   0.08920341  36.61  0.001150726    2.193    0.544
       219  -9.6073    197.0117    203.9985   9.7198132259e+01   4.3355115947e+00    0.1852648    0.1479194  74.14 0.0008214476    1.674    0.403
       220 -11.0154      9.5394    203.7489   1.2993553363e+02   3.2020394515e+01    0.1712417    0.1111331  56.40  0.001040481    1.368    0.269
       221 -10.4406     22.9889    197.3283   1.2742813740e+02   3.1878767649e+01     0.180778    0.1180483 -80.92 0.0004762616    1.325    0.245
       222 -10.6245     13.7419    192.9767   1.2868217492e+02   3.3566569999e+01    0.1445877   0.09528049  85.18 0.0005219543    1.091    0.084
       223  -9.8712      6.1632    191.8132   1.2984952009e+02   3.4467444862e+01    0.1595613   0.09436464  73.84   0.00104409    1.227    0.185
       224  -9.6572     15.4690    185.4519   1.2794382842e+02   3.4799663912e+01    0.1860733   0.07326652  89.64   0.00102634    2.274    0.560
       225 -10.1212    249.4992    168.9851   8.1654535737e+01  -6.8912181148e-01    0.1707048    0.1069227 -51.19 0.0007992854    2.524    0.604
       226 -11.1809      5.4189    167.7137   1.2857708582e+02   3.9064893846e+01    0.2119246    0.1234103  79.41 0.0009210997    1.308    0.236
       227  -9.4044    226.5883    164.1771   8.4603813917e+01   4.3528761443e+00    0.1813664    0.1242071 -15.21 0.0005513635    1.615    0.381
       228 -10.0597     14.5009    163.9995   1.2667196240e+02   3.9020997459e+01    0.1487532   0.06095555 -58.29 0.0008106961    2.610    0.617
       229  -9.9676      3.3199    159.3306   1.2841572599e+02   4.0871044776e+01    0.0976428   0.06524403 -60.67 0.0007048458    1.692    0.409
       230  -9.9831    247.4962    155.5065   7.9193376915e+01   1.4834020058e+00    0.1362672    0.1165359  10.61 -1.695772e-05    1.027    0.026
       231 -10.7604      2.9108    153.7968   1.2811912847e+02   4.1997713654e+01    0.2143735    0.1158609  48.43  0.001483335    1.841    0.457
       232 -10.6470     24.0948    150.7108   1.2373878448e+02   4.0843965421e+01    0.1583909    0.1487272 -64.15  0.000437864    1.479    0.324
       233 -10.3188     22.4807    143.0139   1.2335692848e+02   4.2582777253e+01    0.1727335   0.08606122 -75.20 0.0007213459    1.565    0.361
       234 -10.6832      6.5182    142.3295   1.2656717614e+02   4.4033691519e+01    0.1465108   0.09504197  37.86 0.0007702429    1.863    0.463
       235 -10.1668     11.9982    141.4659   1.2538261789e+02   4.3784431589e+01    0.1333083    0.1004649  47.93 0.0003778991    1.522    0.343
       236 -10.0081      2.3192    138.6732   1.2712852338e+02   4.5089685836e+01    0.1119032   0.05991962  73.50 0.0007046594    1.681    0.405
       237 -10.8169      8.9871    135.5028   1.2549221736e+02   4.5250001651e+01    0.2029051    0.1129951  88.74 0.0003583842    1.461    0.315
       238 -10.4031    213.7921    134.5553   8.0484783440e+01   1.1603740238e+01    0.4536642     0.265079  70.58  0.001696331    3.033    0.670
       239 -10.3054      2.5886    132.9392   1.2661433968e+02   4.6245463547e+01    0.2437996    0.1032088  54.31  0.001416537    2.411    0.585
       240  -9.9076     35.2922    130.9051   1.1927760711e+02   4.3963006765e+01    0.1637989    0.1188983 -71.93 0.0004882767    1.143    0.125
