#   1 NUMBER                 Running object number                                     
#   2 MAG_AUTO               Kron-like elliptical aperture magnitude                    [mag]
#   3 X_IMAGE                Object position along x                                    [pixel]
#   4 Y_IMAGE                Object position along y                                    [pixel]
#   5 X_WORLD                Barycenter position along world x axis                     [deg]
#   6 Y_WORLD                Barycenter position along world y axis                     [deg]
#   7 A_WORLD                Profile RMS along major axis (world units)                 [deg]
#   8 B_WORLD                Profile RMS along minor axis (world units)                 [deg]
#   9 THETA_WORLD            Position angle (CCW/world-x)                               [deg]
#  10 FWHM_WORLD             FWHM assuming a gaussian core                              [deg]
#  11 ELONGATION             A_IMAGE/B_IMAGE                                           
#  12 ELLIPTICITY            1 - B_IMAGE/A_IMAGE                                       
         1 -11.7858    101.7132     15.9447   6.6737257785e+00   5.6663566917e+01    0.3162675    0.2161057  20.60   0.00140962    2.126    0.530
         2 -11.5382     89.0554     10.9771   7.0982318785e+00   6.0421639490e+01    0.1918685    0.1662475  76.95 0.0003136322    1.010    0.010
         3 -11.7194     92.2599      8.1619   5.2265811712e+00   5.9867270328e+01    0.2225384    0.1883954  54.70 0.0006462923    1.195    0.163
         4 -10.3476     55.4715      8.5968   1.5354365167e+01   6.9038865027e+01    0.1362614    0.1157606  56.79 7.928813e-05    1.023    0.022
         5 -12.1172     72.2387      6.6231   8.9788372508e+00   6.5117455067e+01    0.2020027    0.1533368  64.79 0.0003941816    1.121    0.108
         6 -10.3115    114.2739      6.2778   9.8299182609e-01   5.4386798970e+01    0.1257537    0.0924086  49.89            0    1.494    0.330
         7 -10.6962    140.2210      4.3957   3.5751314001e+02   4.8078804731e+01    0.1816906    0.1040007 -86.73 0.0005578183    1.566    0.361
         8 -11.4045     25.0686      2.0065   2.6544024303e+01   7.6444760607e+01     0.229505    0.1610737  42.79  0.001114082    1.221    0.181
         9 -11.0786      1.3093      2.1775   4.9800808977e+01   8.0145596699e+01    0.1451305    0.1128972 -52.76 0.0002639752    1.547    0.354
        10 -10.3053      4.4188      1.4418   4.5397836596e+01   7.9907622354e+01    0.2646447    0.1035154  32.77  0.000121286    2.272    0.560
        11 -11.5061    114.9299    249.4988   5.8294149486e+01   7.9870119449e+00    0.3955749    0.1810411  38.21  0.001597029    2.072    0.517
        12 -11.0690    171.6017    249.7465   4.6585872654e+01   2.0740119434e+00    0.2499387    0.1292153  -6.35  0.001367568    2.129    0.530
        13 -12.4373    139.6217    247.9589   5.2773508371e+01   5.5920183236e+00    0.3452042    0.2338691 -45.68  0.001793584    1.754    0.430
        14 -12.2350    143.0621    242.1944   5.1341858926e+01   6.1211225647e+00     0.253338    0.2009979 -11.43   0.00072862    1.171    0.146
        15 -11.1296    119.9341    249.0000   5.7133058653e+01   7.5299368541e+00    0.2467683    0.1085045  18.70  0.001193172    2.006    0.501
        16 -11.8848     57.5633    248.9701   7.1542677306e+01   1.4141352496e+01    0.2517442    0.2001362   0.08  0.001251113    1.355    0.262
        17 -12.6186     50.2641    246.2958   7.3106652246e+01   1.5371645047e+01     0.472508     0.326182 -77.02  0.002581642    1.801    0.445
        18 -15.3870     39.4412    206.7682   7.3166148912e+01   2.4790027498e+01     2.240697    0.9565145  54.03  0.004576075    2.440    0.590
        19 -14.6433      4.8869    182.3373   8.1709494509e+01   3.3750460222e+01     1.106554    0.9298357 -58.69  0.005536355    1.342    0.255
        20 -15.1980     26.9642    183.9359   7.5109182760e+01   3.1530147372e+01     1.306758     1.107986 -31.67  0.007409165    1.380    0.275
        21 -14.2422      4.5760    165.4746   8.1020811081e+01   3.8123769383e+01    0.9753494    0.5947404  89.42  0.004779731    1.606    0.377
        22 -14.7751     15.0489    164.9802   7.7553870564e+01   3.7484968912e+01     1.551206    0.6226527  69.47  0.005362097    2.936    0.659
        23 -14.2622     34.0811    246.9461   7.7014335351e+01   1.6791165862e+01     1.496135    0.4592231  36.69  0.006761774    2.200    0.545
        24 -13.8917      2.4164    220.1629   8.3736410035e+01   2.5017345356e+01    0.6358343    0.3052967  82.42   0.00193159    2.173    0.540
        25 -13.6128      5.6397    212.8839   8.2672836805e+01   2.6389842681e+01     0.664435     0.336789  52.72  0.001378527    1.674    0.403
        26 -16.3038      6.4435    241.3536   8.3357800352e+01   2.0270234530e+01     1.490207     1.295059  60.47   0.01073051    1.187    0.157
        27 -14.2212     15.8717    230.2616   8.0696189372e+01   2.1772339657e+01    0.6225542    0.3239478  31.79  0.003347585    1.486    0.327
        28 -13.5680     13.9451    224.4774   8.0952379278e+01   2.3164946555e+01    0.3433567    0.2802972  84.23  0.001957311    1.320    0.243
        29 -10.5356    132.2670    245.3711   5.4029287415e+01   6.7844758067e+00    0.1229442   0.07777619 -12.92 0.0006991236    1.666    0.400
        30 -11.9675    126.7281    242.2799   5.4868040982e+01   7.8904352139e+00    0.2340847    0.1658391  43.11 0.0008728909    1.663    0.399
        31 -10.5988     41.3360    243.2758   7.5073098603e+01   1.6822548034e+01    0.1179633    0.0881842  -8.44 0.0002271687    1.607    0.378
        32 -11.7166    117.3145    241.5083   5.6873788119e+01   9.0625387657e+00    0.2187908    0.1790492  22.03 0.0005518532    1.120    0.107
        33 -10.4792     76.2673    242.3236   6.6550252907e+01   1.3440422982e+01    0.1196492    0.0880921 -13.75 0.0005608152    1.566    0.362
        34 -11.9337    170.7512    240.4744   4.5528152497e+01   3.4684233506e+00    0.3550501    0.1499268  15.62  0.001263291    2.391    0.582
        35 -10.2584    158.6817    241.2924   4.8013549672e+01   4.5966077820e+00      0.10596   0.08347778  36.06 0.0006938961    1.603    0.376
        36 -10.6750    180.7669    240.3888   4.3617393266e+01   2.4746886228e+00    0.1424775   0.08544725   9.43 0.0001107517    1.407    0.289
        37 -10.8619    175.8113    238.7935   4.4331814150e+01   3.1956418238e+00     0.139561    0.1203419   9.65 0.0004106938    1.343    0.255
        38 -13.0926     69.3681    235.4194   6.7634124884e+01   1.5503436513e+01    0.4201141     0.327952   1.94  0.002577928    1.326    0.246
        39 -11.6780     73.7793    231.0067   6.6146364978e+01   1.5890242187e+01    0.3282747    0.1739907 -74.70  0.001067854    2.547    0.607
        40 -13.6902     36.0553    230.6870   7.5644052628e+01   1.9868539855e+01    0.7599221    0.3745351 -75.94  0.002512789    2.374    0.579
        41 -11.4179    210.3294    236.1188   3.7810064048e+01   2.4258410755e-01    0.1803486    0.1531343 -38.84  0.001069881    1.815    0.449
        42 -11.3238    137.8980    236.3202   5.1700461631e+01   7.6285819948e+00    0.1745295    0.1609372  10.37 0.0004786544    1.281    0.220
        43 -11.0832     47.7014    235.9190   7.3051379835e+01   1.7659285565e+01    0.1733348    0.1467816  43.10 0.0005465221    1.103    0.093
        44 -12.1394    165.6555    234.3541   4.5692878149e+01   4.9008746698e+00    0.2124002    0.1732463   8.87 0.0002406378    1.161    0.139
        45 -13.3084    243.2632    233.2955   3.2292484202e+01  -2.2125181176e+00    0.2057742    0.1449501 -13.24 0.0006391691    1.103    0.094
        46 -11.4079    158.6246    233.2916   4.6956692136e+01   5.8201731965e+00    0.1839569    0.1601401   2.88 0.0008052815    1.220    0.180
        47 -12.1392     61.6231    231.7587   6.9258791292e+01   1.7061181433e+01    0.3032846    0.2009539 -81.66  0.001283686    1.909    0.476
        48 -12.3997     57.6606    233.9068   7.0422238072e+01   1.7046745734e+01    0.3200811    0.1473244  46.35  0.001514878    2.018    0.504
        49 -13.3212     17.6674    237.6146   8.0544017553e+01   2.0100428686e+01    0.2993844    0.1948534  41.49  0.000636966    1.200    0.167
        50 -11.8324    222.7088    231.9456   3.5209136691e+01  -3.3189670138e-01    0.1533022    0.1026287 -19.00 0.0009826249    1.136    0.119
        51 -12.8984    149.9516    229.5458   4.8237997474e+01   7.3755014900e+00    0.3423608    0.2886804  51.04  0.002246025    1.751    0.429
        52 -11.8590    155.5066    227.4709   4.6793972092e+01   7.0821453593e+00    0.2026499     0.141036  23.44  0.001267554    1.287    0.223
        53 -10.8680    216.9216    231.4857   3.6068699024e+01   2.4062195927e-01    0.1444813   0.08701655  16.86 0.0003740735    1.505    0.336
        54 -12.5963    194.4993    228.1470   3.9392991504e+01   2.8174247869e+00    0.3712622    0.1822045 -42.30  0.001549241    2.113    0.527
        55 -11.5597    174.2583    228.0558   4.3130229325e+01   4.9278434514e+00    0.1614582    0.1259352 -13.62 0.0003871934    1.116    0.104
        56 -11.9659    127.7947    227.2474   5.2768262337e+01   1.0326748949e+01    0.2118064    0.1773961  -1.92 0.0002970472    1.089    0.082
        57 -11.1454    138.2789    227.0065   5.0400862169e+01   9.1379862264e+00    0.1697567    0.1461849  -6.41 0.0005389855    1.124    0.110
        58 -12.5493    117.0684    225.9743   5.5073042088e+01   1.1827130603e+01    0.2998313    0.2223702  53.15 0.0005671153    1.751    0.429
        59 -11.9399    106.4192    226.1897   5.7620758846e+01   1.3055709640e+01    0.3136084    0.1952491 -16.29  0.001595044    1.969    0.492
        60 -12.2805     80.6760    225.5847   6.3892936296e+01   1.6193336987e+01    0.3438185    0.2627348 -44.60  0.001093347    1.510    0.338
        61 -12.0883    181.6994    231.3019   4.2179942512e+01   3.6694405725e+00    0.3536685    0.1781015  40.33  0.001848001    2.778    0.640
        62 -11.3929    100.3082    224.7596   5.8930744370e+01   1.4054557701e+01     0.220336    0.1468255  30.37 0.0004350182    1.274    0.215
        63 -12.7750    161.0419    222.8676   4.5005993228e+01   7.1914674973e+00    0.3508179    0.1901431  31.26  0.001943163    1.744    0.426
        64 -11.9415     92.5587    223.7262   6.0721163540e+01   1.5175949045e+01    0.3281831     0.174801 -11.67   0.00131596    3.124    0.680
        65 -13.9473    124.8316    221.2069   5.2654169096e+01   1.1760736054e+01    0.6737546    0.4125176  50.12  0.003394955    2.229    0.551
        66 -13.2291    116.5760    215.0998   5.3785284613e+01   1.3918895375e+01    0.4588318    0.2647243   4.75  0.001470361    2.039    0.509
        67 -11.8182     57.3063    220.2919   6.9417897005e+01   1.9906364338e+01    0.3113572    0.2394806 -64.79  0.001217603    1.517    0.341
        68 -12.2920     40.6867    221.1411   7.3848610171e+01   2.1447715595e+01    0.4351693    0.2735814 -13.43   0.00215023    2.171    0.539
        69 -11.1911    246.5988    220.7965   3.0021965294e+01  -1.0063077685e+00     0.131122   0.07615815 -35.27 0.0005201488    1.571    0.363
        70 -12.7144    190.4267    219.9643   3.8919953791e+01   4.4027301355e+00     0.301174    0.1733633  -7.54 0.0004137469    1.768    0.434
        71 -11.6144    238.8564    220.1645   3.1041417114e+01  -2.7439642420e-01    0.1780961    0.1138303   5.44  0.001338303    1.384    0.277
        72 -12.2153     76.9291    219.8619   6.4266349058e+01   1.7793137757e+01    0.3578357    0.1665911  31.72  0.001224634    1.737    0.424
        73 -11.2550    165.8614    218.9565   4.3461486876e+01   7.2655986153e+00    0.1861898    0.1323499  -4.96 0.0003155254    1.243    0.195
        74 -12.3518    140.0515    208.5487   4.7399190564e+01   1.2167946739e+01    0.3886073    0.2851264  83.20  0.001903947    2.890    0.654
        75 -12.7274    145.1241    216.8673   4.7495234979e+01   1.0062837803e+01    0.3200212    0.2418368  37.65  0.001702329    1.485    0.327
        76 -12.3041    141.4975    212.9919   4.7730877174e+01   1.1187732016e+01    0.2798579    0.2107194 -78.77  0.001509509    2.384    0.581
        77 -12.6360    129.4128    217.1423   5.1049047293e+01   1.1939076073e+01    0.3106604    0.1845542  20.93 0.0008405822    1.486    0.327
        78 -11.9042     93.4039    217.2111   5.9765524729e+01   1.6374253038e+01     0.427739    0.1672831  30.31  0.001290487    2.081    0.520
        79 -12.1325     61.9476    216.1871   6.7832351168e+01   2.0279917613e+01    0.3713531      0.19843  57.80  0.001266124    2.205    0.547
        80 -10.8911    204.9999    216.9956   3.5912128076e+01   3.3170766170e+00    0.1370481    0.1023245  -9.25 0.0003302395    1.006    0.006
        81 -12.4698    107.9283    214.7210   5.5835990582e+01   1.5075772009e+01    0.3540607    0.2559229 -61.73  0.001777604    1.707    0.414
        82 -11.5753    233.2563    214.1493   3.0973305632e+01   9.7632629199e-01    0.2030994    0.1154673 -15.64 0.0008714675    1.484    0.326
        83 -11.9807     83.8645    214.0464   6.1847660680e+01   1.8183808366e+01    0.3842344    0.2325571  48.72  0.001525448    1.753    0.429
        84 -12.9378    173.7253    219.8215   4.2035699691e+01   6.2396205350e+00    0.3087962    0.2033674 -37.56  0.001225329    1.518    0.341
        85 -11.8622    156.5207    213.9650   4.4635791039e+01   9.1805624158e+00    0.1745418    0.1160417 -40.77 0.0005855801    1.552    0.356
        86 -12.6550    133.0285    213.5361   4.9715870689e+01   1.2146913381e+01    0.4252963    0.1646686  44.35  0.001572885    3.641    0.725
        87 -11.3552    250.5470    211.0660   2.8036862118e+01  -1.6413163675e-01    0.1501921   0.07414526 -32.30  0.000394994    1.537    0.349
        88 -10.8360    209.5009    211.4863   3.4312857574e+01   3.6286332071e+00    0.1131631    0.0857459 -11.63 2.659295e-05    1.028    0.027
        89 -12.3489    171.3269    210.2709   4.1061965428e+01   8.0239911162e+00    0.2807184     0.192767  48.91  0.001567668    2.293    0.564
        90 -10.0073     75.2865    211.6641   6.3840111289e+01   1.9719452979e+01     0.140195   0.09280232  53.17 0.0007016276    1.629    0.386
        91 -12.8000    161.5917    207.7829   4.2642571648e+01   9.6053054091e+00    0.3962181    0.2839349 -61.79 0.0008415867    2.174    0.540
        92 -11.1320     97.0455    209.5185   5.7905190842e+01   1.7495358348e+01     0.306061    0.1727052 -70.35  0.001405391    2.449    0.592
        93 -11.6183    225.9998    216.2417   3.2390386177e+01   1.3751733087e+00    0.1731129    0.1178032 -22.11 0.0003848961    1.134    0.118
        94 -13.0977     27.2160    206.6085   7.6544689556e+01   2.6007564396e+01    0.3686621    0.3088245 -39.63 0.0004986153    1.438    0.305
        95 -12.1202    180.2434    207.3052   3.8871332014e+01   7.4517857317e+00    0.2503145    0.1809915  14.64 0.0003578284    1.252    0.201
        96 -11.2223    242.6353    206.8164   2.8498658693e+01   1.0564398937e+00    0.1397254   0.07796613 -37.93 0.0006431893    1.644    0.392
        97 -11.6891    103.8133    205.5855   5.5666540018e+01   1.7439700228e+01    0.2701192    0.2077363  25.86  0.001228219    1.138    0.121
        98 -12.7779    145.1962    200.9937   4.5096174408e+01   1.2880524015e+01    0.4409954    0.3799996  88.28  0.001660525    1.836    0.455
        99 -10.9194     89.1614    204.2228   5.9295947859e+01   1.9614701312e+01    0.3087317    0.2404901  81.92  0.001431084    1.682    0.405
       100 -12.3699     91.1600    199.2477   5.8129790929e+01   2.0436363510e+01    0.4361081    0.3369933  13.03  0.001240276    1.236    0.191
       101 -12.4444     92.1512    193.4549   5.7089119628e+01   2.1582392271e+01    0.7032044    0.4349173  33.94  0.002600568    1.441    0.306
       102 -11.7550     82.9518    201.3378   6.0603563142e+01   2.1033547734e+01    0.7437707    0.5083039 -47.86  0.003798002    1.615    0.381
       103 -11.8699    225.8450    204.1043   3.0553852735e+01   2.9974867803e+00     0.155901    0.1296861 -20.79  0.001048299    1.314    0.239
       104 -10.8844    151.6679    203.7490   4.4109407154e+01   1.1545755710e+01    0.1301693   0.08708192  -3.52 0.0001287573    1.555    0.357
       105 -10.7626    110.4552    202.5044   5.3563819150e+01   1.7200554337e+01    0.1380455    0.1203338  12.07  0.000105281    1.016    0.015
       106 -11.6521    215.5725    200.4712   3.1591853758e+01   4.5465313059e+00    0.1851552    0.1345482  -0.07 2.979111e-05    1.204    0.170
       107 -11.1096    212.6694    200.3532   3.2042598385e+01   4.8708181483e+00    0.1929359    0.1502807 -56.19 0.0009241613    2.155    0.536
       108 -12.9544    136.3816    198.6862   4.6733049693e+01   1.4481966930e+01    0.4207347    0.3621839 -57.56  0.002552814    1.448    0.310
       109 -13.1533    121.9511    197.4239   4.9969987615e+01   1.6683960500e+01    0.4544699    0.3150598 -38.22  0.002435383    1.498    0.333
       110 -11.3436     45.3896    199.7934   7.0936117178e+01   2.5803497204e+01    0.3564414    0.1395137  23.74  0.001409117    2.252    0.556
       111 -13.0249    176.7394    197.7111   3.8006934912e+01   9.4170285516e+00    0.3581194    0.3467503  42.82  0.002511154    1.508    0.337
       112 -12.6557    172.5980    195.8834   3.8517295082e+01   1.0238128145e+01    0.2389602    0.2139764 -19.88  0.000364384    1.209    0.173
       113 -12.4988    149.2840    196.5601   4.3488960752e+01   1.3151183325e+01    0.2805236    0.2100568 -59.90  0.001573489    1.791    0.442
       114 -12.4074    192.6366    194.5614   3.4524873095e+01   7.9933649182e+00    0.3024426    0.2294562  11.39 0.0009865236    1.234    0.190
       115 -10.6690    188.5270    191.5690   3.4771204936e+01   8.9618703367e+00    0.1625995    0.1077879 -46.00 0.0001159809    1.670    0.401
       116 -12.0153    106.2113    195.5398   5.3653897453e+01   1.9223215038e+01    0.3444489    0.1337395  18.90  0.001140203    3.386    0.705
       117 -12.8221    132.6909    191.9317   4.6527618838e+01   1.6295104134e+01    0.3965425    0.2565728 -23.43  0.001961073    1.729    0.422
       118 -12.7809    110.6629    188.9094   5.1512771149e+01   2.0019094739e+01    0.3587337    0.2718042 -78.60  0.001363456    1.812    0.448
       119 -11.9131     51.2014    190.4538   6.8389526429e+01   2.7406545017e+01    0.3415829    0.2021023  35.27  0.001620926    1.462    0.316
       120 -10.7378     42.7595    191.3534   7.0966376653e+01   2.8110806517e+01    0.1943219    0.1261366  14.16 0.0009341188    1.572    0.364
       121 -11.3408    174.8535    188.9024   3.6907157905e+01   1.1127157549e+01    0.1936273    0.1464719  -9.32 0.0004456904    1.204    0.170
       122 -12.6397    155.8140    186.1000   4.0333340389e+01   1.4182066175e+01    0.3429382    0.2195444  -1.63  0.001607042    1.857    0.462
       123 -12.0369    197.9394    188.1523   3.2518601236e+01   8.3577874481e+00    0.2263365    0.1531914  18.83 0.0004439504    1.478    0.323
       124 -11.7344    186.1197    187.3352   3.4498797343e+01   9.9443640798e+00      0.20681    0.1539031 -31.53 0.0003293006    1.212    0.175
       125 -11.3907    227.6846    185.9761   2.7369474825e+01   5.2974585269e+00    0.2390016    0.1267117 -23.18   0.00142186    1.701    0.412
       126 -11.5456    210.0642    185.4254   3.0018122048e+01   7.3408921851e+00    0.2971102    0.1425898 -10.76  0.001151593    4.094    0.756
       127 -13.5451    126.2807    185.0675   4.6956849039e+01   1.8587691591e+01    0.6950989    0.3076778  41.25  0.002840089    2.349    0.574
       128 -11.8034    163.4435    184.7958   3.8500348001e+01   1.3366570115e+01    0.2176398    0.1999716  52.36 0.0007147816    1.471    0.320
       129 -13.0698    134.2976    182.0035   4.4503541843e+01   1.8043787957e+01    0.3196671    0.2974094  -6.07 0.0004604928    1.073    0.068
       130 -12.8785    138.2199    177.8656   4.2860218517e+01   1.8296368476e+01    0.3487554    0.3000984  67.89 0.0005278417    1.582    0.368
       131 -12.5442    105.0733    183.0055   5.2070153898e+01   2.2104762768e+01    0.3100518    0.2041971 -49.17 0.0006888214    1.599    0.375
       132 -12.1874     94.6579    181.5479   5.4690528072e+01   2.3928636841e+01    0.5155336    0.2332304 -58.67  0.002064015    2.408    0.585
       133 -10.5223    101.4214    183.4627   5.3124447429e+01   2.2528176646e+01    0.1436437    0.1304273   7.64  0.000481249    1.048    0.046
       134 -10.7431    249.0353    181.0246   2.3578862697e+01   3.7687819811e+00    0.1286236   0.09000158 -23.75  0.000305536    1.023    0.023
       135 -13.0218    115.8518    178.4630   4.8493341541e+01   2.1517317851e+01    0.4215469    0.2617714  18.20  0.001948649    1.696    0.410
       136 -13.1444    154.9046    177.1676   3.8970160857e+01   1.5973909402e+01     0.383033    0.2934765 -56.02  0.001413986    1.582    0.368
       137 -12.3049     49.1263    178.6244   6.7799711501e+01   3.0579965096e+01     0.242726    0.2421617  58.40 0.0002939795    1.098    0.089
       138 -11.4816    171.6292    178.1606   3.5677482623e+01   1.3416599669e+01    0.1901303    0.1675354  20.99 0.0004384225    1.214    0.176
       139 -11.7431    214.0938    176.6318   2.7875452970e+01   8.1823550020e+00    0.2060626    0.1358546 -28.68  0.000365559    1.229    0.186
       140 -11.6175    191.3666    177.1891   3.1786509715e+01   1.0927049453e+01    0.1709546    0.1047238 -45.99 0.0007094764    1.698    0.411
       141 -13.6554    128.9950    175.7962   4.4715478996e+01   2.0105633867e+01    0.4858462    0.4150154  57.24  0.001640107    1.435    0.303
       142 -12.9581    132.8548    168.6555   4.2492476547e+01   2.1000415447e+01    0.4218404    0.3666767  -9.62  0.001211638    1.117    0.105
       143 -12.1161     64.1865    176.4855   6.2904194865e+01   2.9294282922e+01    0.5415873    0.2825053   3.02  0.001931875    2.960    0.662
       144 -15.9666     19.9191    209.2388   7.8693784790e+01   2.6052773401e+01     2.513289     1.413036  83.41   0.01266988    1.927    0.481
       145 -11.2206    242.0039    175.5161   2.3615999727e+01   5.2174056066e+00    0.1422681   0.09887253  19.95  0.001032403    1.615    0.381
       146 -12.0298    106.7621    175.2062   5.0360210429e+01   2.3599650094e+01    0.3116528    0.1857089  30.14 0.0008134136    1.565    0.361
       147 -12.5307    145.5868    173.3966   4.0360621300e+01   1.8080450343e+01     0.278751    0.2341941  56.94  0.001185123    1.538    0.350
       148 -13.5024     81.0169    172.6006   5.7276117798e+01   2.7986444003e+01    0.7048988    0.3031488  32.54  0.002211246    2.064    0.516
       149 -12.4279     91.1412    170.7954   5.4019752170e+01   2.6956658759e+01     0.388117    0.3099214 -56.71  0.001316386    1.339    0.253
       150 -12.2725     87.7220    168.4443   5.4643851209e+01   2.8027093255e+01    0.3194863    0.2411905  -5.12  0.001107154    1.556    0.357
       151 -11.1715    208.5462    173.5221   2.8220801544e+01   9.3265275409e+00     0.119525   0.09509976 -20.73 7.713747e-05    1.011    0.011
       152 -11.9463    198.0638    170.2584   2.9383812143e+01   1.1175027354e+01    0.2616642    0.2382709  70.67   0.00176553    1.713    0.416
       153 -11.5342    123.0406    174.1648   4.5916288647e+01   2.1356447433e+01     0.218938    0.1979703   3.77  0.000373437    1.030    0.029
       154 -10.9956    163.5010    171.5375   3.6130564944e+01   1.5767865806e+01     0.131875     0.117792 -11.37 0.0008092138    1.037    0.036
       155 -12.2585    153.2660    170.1142   3.8047661257e+01   1.7559611775e+01    0.2330672    0.2256405   6.50 0.0006276321    1.174    0.148
       156 -13.0220    152.4848    164.8328   3.7232572508e+01   1.8701106909e+01    0.3286027    0.3043584  40.30 0.0005818242    1.241    0.194
       157 -12.6256     53.4585    170.6230   6.5529193393e+01   3.2117397935e+01    0.3274999    0.2722026 -43.52 5.793817e-05    1.323    0.244
       158 -11.7011     63.0049    170.3697   6.2475881172e+01   3.0987947858e+01    0.2215348    0.1732986  33.39 0.0008803179    1.174    0.148
       159 -11.5574    145.1679    169.1345   3.9677114343e+01   1.8987683599e+01    0.2069612    0.1723845 -10.38 0.0003039624    1.169    0.145
       160 -12.4947     40.7741    168.7633   6.9410266167e+01   3.4056661199e+01    0.4295791    0.1970794  17.56  0.001373242    2.278    0.561
       161 -12.0721    127.5551    166.2097   4.3350914877e+01   2.2353445381e+01    0.2860465    0.2239597 -21.00  0.001100507    1.347    0.258
       162 -12.7478    199.0988    164.4303   2.8153435081e+01   1.1977545673e+01    0.2409684    0.1885013 -42.21 0.0003724771    1.309    0.236
       163 -12.4765    111.3512    163.6985   4.7118905946e+01   2.5494994734e+01    0.4192342    0.2967797 -34.38   0.00160108    1.520    0.342
       164 -14.7576     10.5077    190.8714   8.0434916452e+01   3.1205352361e+01     1.123801    0.8498552  -5.58  0.005313044    1.558    0.358
       165 -13.4712     91.9695    163.0166   5.2493255806e+01   2.8701266682e+01    0.6670535    0.3513321  30.96   0.00181285    1.784    0.439
       166 -13.1501    119.5039    167.8816   4.5709623162e+01   2.3266270940e+01    0.6121303    0.3509078  30.69  0.002752059    1.680    0.405
       167 -12.6522     47.5836    162.1815   6.6422808302e+01   3.5025644595e+01    0.7069755    0.3372627 -24.09   0.00213093    4.266    0.766
       168 -12.2552     47.9506    156.4220   6.5579267886e+01   3.6518412334e+01    0.2652825     0.249306 -79.28 0.0004928414    1.101    0.092
       169 -10.5116    141.7459    162.9493   3.9306747975e+01   2.0769385583e+01    0.1726092    0.1158796 -43.10 0.0003394701    1.462    0.316
       170 -12.8667    169.5941    159.1250   3.2559028344e+01   1.7135725729e+01    0.4369844    0.3054623 -69.95   0.00210961    2.441    0.590
       171 -11.3497     40.1739    161.6152   6.8838617961e+01   3.6015812826e+01    0.2063891    0.1397596   7.38 0.0005342157    1.650    0.394
       172 -12.1023    192.4686    159.5387   2.8382306801e+01   1.3693990129e+01    0.2229163    0.1861537 -24.62 0.0005311021    1.023    0.022
       173 -12.2852    190.5474    156.5262   2.8149156493e+01   1.4473551365e+01    0.3795069    0.1846563 -52.74  0.001674136    2.679    0.627
       174 -12.1036    104.7472    158.5909   4.8014295911e+01   2.7737537420e+01    0.4281792    0.2465524  51.03  0.001760488    2.052    0.513
       175 -11.4192     68.9315    158.9129   5.8951619586e+01   3.3128955477e+01    0.2302975    0.2030416 -13.86 0.0004009363    1.242    0.195
       176 -10.6284    250.2396    158.0604   1.9635626374e+01   6.6904121230e+00    0.1421421   0.06833879 -34.83 0.0005111235    1.546    0.353
       177 -12.1498    137.8618    170.7921   4.1680856736e+01   1.9781087833e+01    0.2186124    0.1780663  -6.49 0.0006234642    1.240    0.193
       178 -12.7767    132.6215    156.4150   4.0228564651e+01   2.3618560855e+01    0.5175337    0.3419879  59.14  0.002159907    2.142    0.533
       179 -11.7606    213.0477    156.9828   2.4553411700e+01   1.1302897548e+01      0.18273    0.1486184 -26.92 0.0005021903    1.044    0.042
       180 -12.2025    118.5739    156.8126   4.3893274675e+01   2.5872216001e+01    0.2983868    0.2266753  -6.98   0.00140045    1.555    0.357
       181 -11.5017    113.1562    156.8829   4.5361589885e+01   2.6755137209e+01     0.231473    0.2024067  61.70   0.00122023    1.307    0.235
       182 -12.4176     32.0540    157.0792   7.1123788188e+01   3.8087370960e+01    0.2271398    0.2102372  54.89 0.0005355477    1.011    0.011
       183 -11.9140    141.2287    155.5376   3.7988961792e+01   2.2371466535e+01    0.2411416    0.1893887 -42.51 0.0003655039    1.251    0.201
       184 -13.5093     82.1471    152.5264   5.3674692709e+01   3.2813943855e+01    0.6695216    0.3662865 -36.90  0.002582503    2.292    0.564
       185 -11.6560     67.0704    153.9319   5.8784345647e+01   3.4684485997e+01    0.3153698    0.1942388 -25.33 0.0005754854    2.264    0.558
       186 -13.6293     74.6129    151.0325   5.5831905353e+01   3.4342242033e+01    0.7201468    0.3694375  30.57  0.002865069    1.839    0.456
       187 -11.2453     62.1337    154.7025   6.0543485111e+01   3.5165048752e+01    0.2624665    0.1713296  43.97    0.0011717    1.477    0.323
       188 -11.5560     20.1256    154.3932   7.5024370968e+01   3.9922302684e+01    0.2795429    0.2051529  60.31  0.001178153    1.316    0.240
       189 -13.9673     17.6768    131.8181   7.3843249226e+01   4.6392482126e+01    0.7360844    0.4510371  10.97  0.002498566    1.748    0.428
       190 -13.3010     20.3270    138.1685   7.3456773407e+01   4.4392802754e+01    0.4327137    0.3030566  76.63  0.001771284    1.465    0.318
       191 -10.9617     99.2667    153.6699   4.8675397936e+01   2.9798619360e+01    0.1493871      0.11788  71.51 0.0002216692    1.578    0.366
       192 -12.0764     52.4451    152.9985   6.3580216635e+01   3.6886070361e+01    0.3760342    0.1411168  41.60  0.001294569    2.495    0.599
       193 -12.8627      5.0059    150.0202   8.0030153435e+01   4.2245856067e+01    0.4740425    0.3025184  -0.63  0.001320977    1.798    0.444
       194 -11.6023    154.1035    150.8930   3.4153659411e+01   2.1168832042e+01    0.2010773    0.1893125 -19.18 0.0003906428    1.050    0.047
       195 -12.4120     27.5621    150.3154   7.2012420348e+01   4.0372102618e+01    0.3656462    0.2784065 -11.13 0.0008346975    1.530    0.346
       196 -11.7574    146.9260    149.1772   3.5396749087e+01   2.2714669958e+01    0.2481777    0.1902371 -41.08 0.0006771655    1.256    0.204
       197 -11.9676    109.3153    149.2638   4.4942433151e+01   2.9160424206e+01    0.3904577    0.2653832  37.64  0.001309352    1.428    0.300
       198 -11.7988     55.3261    150.5760   6.2240645423e+01   3.7167574470e+01    0.3089171     0.132301  31.20  0.001137326    2.104    0.525
       199 -11.9945     96.0818    149.0182   4.8736756353e+01   3.1449645251e+01    0.2305647    0.2213277  31.44 0.0004449452    1.017    0.017
       200 -10.7871    210.4505    148.4655   2.3373042245e+01   1.2977396598e+01    0.1212818   0.09876729 -29.34 -7.061495e-08    1.029    0.029
       201 -10.9773     20.3087    148.5568   7.4451089758e+01   4.1507834434e+01     0.261476    0.1310085  25.43 0.0006894235    1.872    0.466
       202 -10.4690    192.4864    147.4770   2.6074171602e+01   1.5715105712e+01    0.1279525    0.1080015 -24.93 0.0002599859    1.019    0.018
       203 -10.6614     87.6451    147.2387   5.0983490344e+01   3.3274353070e+01    0.2081876    0.1393305 -47.32  0.000267101    1.552    0.355
       204 -11.7021    157.3858    145.3850   3.2325487502e+01   2.1695631375e+01    0.2680345    0.2120068   4.49 0.0006196434    1.419    0.295
       205 -10.7677     55.9861    147.0000   6.1475143001e+01   3.8042323228e+01     0.255094   0.08501107  26.01 0.0006700503    2.892    0.654
       206 -11.1129    232.4820    145.4403   1.9695076094e+01   1.0531378816e+01    0.1150244   0.08809984 -27.36 0.0001668856    1.037    0.035
       207 -11.4717    171.4029    145.7951   2.9568459594e+01   1.9296080745e+01    0.2467342    0.1057669  43.64  0.001037259    2.583    0.613
       208 -11.5145    149.4032    145.2256   3.4026324954e+01   2.3088143990e+01    0.2394784     0.201189  74.13 0.0006295634    1.586    0.369
       209 -11.7522    150.8622    141.3601   3.2893282494e+01   2.3609328436e+01    0.2341633    0.1866191 -39.70 0.0003238271    1.192    0.161
       210 -12.2905    103.3548    143.7675   4.5545078514e+01   3.1484488359e+01    0.5419626    0.3594427  71.26  0.002176214    2.347    0.574
       211 -10.5579    186.9892    143.9689   2.6330913189e+01   1.7148772030e+01    0.1546098    0.1300131 -29.72            0    1.030    0.029
       212 -12.4847    143.0452    143.3407   3.5075953714e+01   2.4575887375e+01     0.363761    0.2378027 -30.62 0.0005275367    1.654    0.395
       213 -10.9691     85.5427    143.9267   5.1018522384e+01   3.4449827788e+01    0.2221759    0.1536995 -57.74 0.0003834035    1.498    0.332
       214 -12.6994      5.2709    153.9749   8.0169169341e+01   4.1153598894e+01    0.5468303    0.2652541   5.10  0.002249947    2.381    0.580
       215 -11.3218    178.6027    142.1768   2.7474313174e+01   1.8787498543e+01    0.1965431    0.1115792 -32.45 0.0009520593    1.713    0.416
       216 -13.7231     51.5708    138.1266   6.1671743333e+01   4.1032577177e+01    0.8123779    0.4055835 -40.66  0.002369091    2.449    0.592
       217 -12.1337     94.5496    140.0381   4.7426230956e+01   3.3910896523e+01    0.3985852     0.248702 -39.44  0.001684849    1.781    0.438
       218 -12.8013     59.4489    134.8565   5.8240271290e+01   4.0847332567e+01    0.5744309    0.3216262  68.85  0.002043314    2.678    0.627
       219 -11.1178    206.3394    139.1566   2.2222446717e+01   1.5035202809e+01    0.1630001    0.1400274  -8.80 0.0005202227    1.177    0.151
       220 -12.2625     72.6758    139.1579   5.4360119485e+01   3.7729417799e+01     0.264503     0.204436  43.25 0.0004427414    1.258    0.205
       221 -12.6577     40.7221    137.6891   6.5643293676e+01   4.2487554381e+01    0.4232655    0.2791212  43.83 0.0008132204    1.469    0.319
       222 -12.7736     66.5318    137.1928   5.6126163942e+01   3.9185400767e+01    0.5037465     0.250751  24.86  0.001886325    2.090    0.521
       223 -11.4897    183.9164    137.0695   2.5477068356e+01   1.8832436081e+01    0.1926592    0.1682142 -30.67 0.0003247895    1.009    0.009
       224 -12.2025     45.5950    135.6051   6.3500162617e+01   4.2483835400e+01    0.4237013    0.2718351  89.47  0.001528713    1.830    0.454
       225 -11.2010     31.8467    136.8862   6.8905891421e+01   4.3676747018e+01    0.2421146     0.194165 -36.05  0.001201975    1.369    0.269
       226 -13.2764    123.5751    134.6732   3.7999329547e+01   2.9949804983e+01    0.4979962    0.3452901  26.87  0.001207156    1.576    0.366
       227 -11.1717    192.7130    134.9485   2.3548010505e+01   1.7793326117e+01    0.1768546    0.1439549 -35.12 0.0002780021    1.058    0.055
       228 -11.7999     86.1963    135.0629   4.9047604971e+01   3.6583486981e+01     0.246004    0.2139975 -16.96 0.0009047859    1.278    0.217
       229 -14.4532     11.7223    142.9513   7.7117998471e+01   4.3733073904e+01    0.8326421    0.5447987 -53.21  0.002445199    1.588    0.370
       230 -11.1831    210.1329    133.8692   2.0627324473e+01   1.5319247895e+01    0.1802215    0.1494805 -44.34 0.0005324894    1.183    0.155
       231 -11.8784    174.8666    134.1921   2.6514403463e+01   2.0839026945e+01    0.2347028    0.1751811 -38.93  0.001318423    1.206    0.171
       232 -12.7219     77.9123    133.0392   5.1386951043e+01   3.8488306889e+01    0.3729798    0.2580529 -47.39  0.000474757    1.501    0.334
       233 -12.5787     81.8090    130.5771   4.9563209979e+01   3.8471396897e+01    0.4139923    0.2635107  56.12  0.001702958    1.838    0.456
       234 -12.2537     83.5380    127.4610   4.8318273148e+01   3.8969951182e+01    0.2745944    0.2490401 -18.27 0.0007003191    1.197    0.164
       235 -11.3107    102.3049    133.2982   4.3649945565e+01   3.4180715890e+01     0.155156    0.1210819 -12.39 0.0007003174    1.587    0.370
       236 -12.7224     49.5643    130.3160   6.1141158894e+01   4.3439369456e+01    0.5005795    0.2513797  39.34  0.001888243    1.889    0.471
       237 -10.1347     31.2925    131.6580   6.8447744531e+01   4.5197407388e+01    0.1638993    0.1056471  59.35 0.0005652838    1.655    0.396
       238 -11.7585    104.8540    129.8386   4.2127702540e+01   3.4539736373e+01      0.22247    0.2066525  -5.07  0.000260683    1.136    0.120
       239 -10.5190     34.4610    130.4859   6.7040469105e+01   4.5194181100e+01    0.1508325    0.1460008  64.80 5.534626e-05    1.003    0.003
       240 -11.2440    246.9870    130.0000   1.5142044134e+01   1.0894475252e+01    0.1422898   0.06418049  47.16 0.0008042849    2.955    0.662
       241 -11.0360    187.9611    129.5045   2.3222098837e+01   1.9483106504e+01    0.1676872    0.1296092  41.74 -0.0001398852    1.473    0.321
       242 -11.4885    122.3439    128.3444   3.6899516841e+01   3.1588565705e+01    0.3000546    0.2280719 -36.22 0.0008064756    1.363    0.267
       243 -11.4304    109.9353    128.3076   4.0304016395e+01   3.3950325557e+01    0.2931298    0.1827297 -70.22  0.001152874    2.245    0.555
       244 -10.6087    130.4883    128.5658   3.4858510031e+01   2.9990076268e+01    0.1449706    0.1434187 -78.42 0.0001222169    1.057    0.054
       245 -12.3070     56.3797    127.8962   5.8121524058e+01   4.3172456434e+01    0.4343108    0.2071224  35.83   0.00164337    1.953    0.488
       246 -12.4032      5.1275    127.3498   7.8449274707e+01   4.8522105172e+01    0.2560707    0.1911486 -65.44  0.001310625    1.301    0.231
       247 -11.4349      1.4093    127.6737   7.9961319798e+01   4.8640186666e+01    0.2727142    0.1324909 -88.24  0.001120117    2.017    0.504
       248 -11.8489    182.9976    126.8802   2.3515561932e+01   2.0764187507e+01    0.2101872    0.1672125 -38.58 0.0002698793    1.108    0.098
       249 -12.1434    177.7679    126.7993   2.4416229147e+01   2.1671732340e+01    0.3399515    0.2088695  35.68  0.001720814    1.895    0.472
       250 -12.0355     59.9889    140.4302   5.9008239640e+01   3.9266863008e+01    0.3212789    0.2173244 -52.06  0.001234732    1.521    0.343
       251 -11.5877     41.6914    126.3114   6.3547406394e+01   4.5538126007e+01    0.3718708    0.2213204 -76.48  0.001547143    1.803    0.445
       252 -11.6644     25.8217    159.2494   7.3476402208e+01   3.8098871547e+01    0.3957672     0.208212 -86.19  0.001656309    2.035    0.509
       253 -12.1684     26.7862    125.4920   6.9443147146e+01   4.7377249270e+01    0.2995416    0.2440316 -56.62 0.0005946071    1.232    0.188
       254 -12.9986     10.0705    125.6649   7.6305415535e+01   4.8684399868e+01    0.3083102    0.2062182 -69.37  0.001479665    1.430    0.301
       255 -11.8856    123.4644    123.1789   3.5404536871e+01   3.2516332883e+01    0.4715491    0.2965598  29.21  0.001129535    1.843    0.457
       256 -12.8873     73.7279    114.0918   4.8742129179e+01   4.4105325453e+01    0.4231731    0.3715452 -20.46 0.0001704558    1.269    0.212
       257 -14.0220     81.9052    115.9577   4.6267154714e+01   4.2177772500e+01    0.7666813    0.5818354  -7.80  0.001373761    1.744    0.427
       258 -11.9675     77.7791    113.1969   4.7063846172e+01   4.3620426876e+01    0.2640427    0.2086597 -38.02 0.0003024347    1.370    0.270
       259 -10.7463     59.6833    124.6968   5.6264501859e+01   4.3561038671e+01    0.1612777    0.1201526 -24.08 0.0006112826    1.622    0.384
       260 -10.5173     49.6536    124.2102   6.0041137354e+01   4.5109077119e+01    0.1594662    0.1067247  48.96 0.0002752051    1.531    0.347
       261 -12.6175     20.0003    110.5480   7.0335243264e+01   5.2205627074e+01    0.7320595    0.3130243 -65.29 0.0006882913    2.141    0.533
       262 -13.2067     11.1676    111.1833   7.4375280711e+01   5.2696085428e+01    0.6312161    0.3711682  -6.14  0.001859588    1.979    0.495
       263 -13.1494      8.7588    118.0208   7.6139062956e+01   5.0924690316e+01    0.4056981    0.2970786  -5.37  0.000582099    1.510    0.338
       264 -12.5213    193.3161    121.7010   2.0722290281e+01   1.9919742103e+01    0.2439187    0.2021847 -45.22  0.000810927    1.114    0.102
       265 -11.4930    189.1046    121.1697   2.1283745077e+01   2.0713873096e+01      0.18989    0.1620017 -18.15 0.0003211173    1.201    0.167
       266 -11.3143    104.9121    121.1660   4.0106464614e+01   3.6581140290e+01    0.2435839    0.2074969  66.17 0.0008274868    1.293    0.227
       267 -12.0289    100.4825    119.4887   4.1043398741e+01   3.7831016916e+01    0.4194479    0.1896118  34.99  0.001268927    2.310    0.567
       268 -11.7756     29.5055    117.8307   6.7234081703e+01   4.9268513472e+01    0.4361176    0.2065717 -56.24 0.0007597784    2.013    0.503
       269 -10.4466    116.9536    117.9439   3.5892032346e+01   3.4961345203e+01    0.1771624    0.1748113 -43.25  0.000314519    1.013    0.013
       270 -11.7690    100.0034    113.4770   3.9720256976e+01   3.9352558689e+01    0.2728743    0.2371308  12.82 0.0006245351    1.291    0.225
       271 -11.8020     96.6002    116.1659   4.1447522234e+01   3.9374070473e+01    0.2765043    0.2270414  19.79 0.0004022167    1.347    0.257
       272 -11.7391     93.4981    116.4676   4.2510289956e+01   3.9895180592e+01     0.274725    0.2070152  69.74 0.0005874903    1.633    0.388
       273 -12.8383     75.8778    123.6702   5.0128552858e+01   4.1257581431e+01    0.3747796    0.3050228 -38.03 0.0004137026    1.322    0.243
       274 -12.4516     67.8698    114.2346   5.0953405644e+01   4.5063543170e+01    0.3144644    0.2611293 -51.16 0.0003263946    1.230    0.187
       275 -13.6004     62.4216    111.4306   5.2413743031e+01   4.6692442211e+01    0.7952577    0.3682118 -54.11   0.00293765    2.129    0.530
       276 -14.2590     13.3656    119.4277   7.4317831575e+01   5.0215489726e+01    0.6651047    0.4766383  36.78  0.002470639    1.376    0.274
       277 -10.6814      1.3066    109.3104   7.8612836664e+01   5.3792534328e+01    0.1531582    0.0965412 -43.55 0.0007022083    1.616    0.381
       278 -10.9842    206.2944    111.6783   1.6715222313e+01   1.9411241581e+01    0.1233433   0.08627003 -59.93 0.0004680304    1.614    0.381
       279 -10.5917    108.0327    111.5235   3.6816305664e+01   3.8204217070e+01    0.2270712    0.1509155  43.59 0.0003653027    1.492    0.330
       280 -10.6938     36.4526    109.9870   6.2934637847e+01   5.0707754589e+01    0.2026082    0.1233137  70.89 0.0005674287    2.104    0.525
       281 -11.7048     76.4925    107.5137   4.6137458703e+01   4.5293500424e+01    0.2824221    0.2106649  72.79  0.000542195    1.677    0.404
       282 -11.0420    139.9912    107.3357   2.7503471673e+01   3.2532831585e+01     0.206616    0.1908529  54.59  0.000780063    1.121    0.108
       283 -10.8089    121.9736    107.2681   3.1871817978e+01   3.6282380689e+01    0.2051571    0.1926504  51.73            0    1.073    0.068
       284 -10.5185    109.5217    105.4883   3.4824622325e+01   3.9264849318e+01    0.1520783    0.1510242  71.70 0.0008100957    1.020    0.019
       285 -11.1271     20.8102    105.1964   6.9193932732e+01   5.3641488517e+01    0.1868679    0.1604163 -27.70            0    1.219    0.180
       286 -11.9484     12.1983    104.5242   7.3114334672e+01   5.4500735490e+01    0.3478423    0.2392372 -20.90  0.001075605    1.614    0.380
       287 -10.9628    104.2021    102.9795   3.5721259782e+01   4.0935040400e+01    0.2692712    0.1885273 -17.58  0.001100995    2.125    0.529
       288 -11.8247     78.7796    102.1009   4.3910727460e+01   4.6221978497e+01    0.3117301    0.2569164  57.81  0.001047387    1.267    0.211
       289 -12.0433     55.9606    101.4601   5.2706727538e+01   5.0354864149e+01    0.2974394    0.2267982 -60.58 0.0004706777    1.335    0.251
       290 -12.1742     57.7252     97.5828   5.1003503136e+01   5.1088566863e+01    0.3411479    0.2646338  39.94 0.0008736713    1.258    0.205
       291 -10.8908     29.0894    101.4301   6.4707456524e+01   5.3901045048e+01    0.3191637    0.2002074  83.12  0.001335184    1.952    0.488
       292 -13.1115      5.9003    100.0638   7.5571740622e+01   5.6144493156e+01    0.4924897    0.2870939  31.51  0.001628605    1.719    0.418
       293 -10.9909    209.1341    100.8306   1.4079283986e+01   2.0624494782e+01     0.159481    0.1325346 -21.01 0.0003405674    1.295    0.228
       294 -10.8294     85.5075    100.0688   4.0973906686e+01   4.5416819549e+01     0.234519     0.156347 -51.65 0.0005811231    1.531    0.347
       295 -11.7187    115.7870     98.9299   3.1314881657e+01   3.9377796573e+01    0.2868448    0.2244188  82.76 0.0003642379    1.573    0.364
       296 -12.1459     94.0853     98.5423   3.7671511051e+01   4.4045918443e+01      0.36028    0.2843544  60.12 0.0009417401    1.346    0.257
       297 -11.0252    190.5262     98.4961   1.6126201594e+01   2.4231744072e+01    0.1313778    0.1108516 -50.17 8.802248e-05    1.060    0.056
       298 -10.9520    201.6830    114.2944   1.7910067039e+01   1.9749862712e+01    0.1222664   0.09027502 -63.81 0.0002664361    1.605    0.377
       299 -11.0813     31.7148     97.4175   6.2703522269e+01   5.4724553265e+01     0.427192    0.1257039  37.99  0.001327607    3.164    0.684
       300 -11.7059      1.3769     93.8974   7.7120127286e+01   5.8091028669e+01    0.2078273    0.1308208 -79.44 0.0004539814    1.520    0.342
       301 -13.2309     75.2208     90.9238   4.2147828627e+01   4.9629838957e+01    0.6923493    0.3773919  63.45  0.002279831    3.106    0.678
       302 -11.9623     62.9740     92.6867   4.7513210029e+01   5.1456767451e+01    0.2274056    0.1997923  36.85 0.0007112511    1.109    0.098
       303 -10.9373     25.5744     91.8077   6.4590745772e+01   5.6914049504e+01    0.2091808      0.14394 -87.46 0.0009453638    1.635    0.388
       304 -11.7017    121.6899     90.9123   2.7547974977e+01   3.9762362300e+01    0.2559426    0.2127233  62.46 0.0001389274    1.225    0.183
       305 -12.4041      3.1892     88.0107   7.5520440621e+01   5.9631883309e+01    0.4325477    0.2277638  89.50  0.001829483    2.034    0.508
       306  -9.4967    125.3167     87.0005   2.5545241986e+01   3.9736215796e+01    0.2367048    0.1246569 -22.48 0.0007038953    4.196    0.762
       307 -12.1990     54.7567     85.4800   4.9043383088e+01   5.4673449330e+01    0.5505641    0.4368012   6.02  0.002622111    1.451    0.311
       308 -10.4081    134.5506     84.4548   2.2688309616e+01   3.8157498463e+01    0.1451864    0.1388493 -72.58 0.0001083871    1.023    0.022
       309 -12.1658     95.1137     83.5490   3.2967654860e+01   4.7188683367e+01    0.3061987    0.2577642 -63.25 0.0003915332    1.250    0.200
       310 -11.3553    215.9890     81.9537   9.3071524539e+00   2.2259288935e+01    0.1864145    0.1421083 -49.66 0.0002949587    1.081    0.075
       311 -10.6342    144.4909     82.5417   2.0070227558e+01   3.6295616562e+01    0.1437104    0.1336715 -69.72 0.0001542979    1.006    0.006
       312 -11.5122     65.0178     82.5130   4.3717269471e+01   5.3591936546e+01    0.2448895    0.1499029  37.77  0.000671852    1.580    0.367
       313 -12.1865      9.4899     79.0825   7.0794230477e+01   6.1712570620e+01     0.505735    0.2418761 -82.68  0.001810623    2.319    0.569
       314 -11.7764    111.5554     78.1589   2.6468482385e+01   4.4602561369e+01    0.4030147    0.2676024 -70.24  0.001153987    1.991    0.498
       315 -11.9200     88.5716     79.1695   3.3752959745e+01   4.9562951436e+01    0.3756586    0.2629314 -39.70  0.001328871    1.541    0.351
       316 -11.1147    163.6510     78.2820   1.5466447174e+01   3.2864112416e+01    0.1418153   0.09936985 -73.32 0.0003729403    1.648    0.393
       317 -10.9321     56.1482     78.1307   4.6231768169e+01   5.6250602600e+01    0.2355388     0.202264 -12.87 0.0006803789    1.308    0.235
       318 -10.8680    102.1524     76.8934   2.8729110434e+01   4.7008177410e+01    0.1916124    0.1775755  15.41 0.0002474478    1.237    0.192
       319 -10.9845     74.9508     77.5271   3.8150677754e+01   5.2807595414e+01    0.2318404     0.149151  41.42 0.0003222673    1.501    0.334
       320 -11.3460    106.1020     73.2246   2.6428107411e+01   4.6829215469e+01    0.2649152    0.2224303 -71.32 0.0007435611    1.267    0.210
       321 -11.5694     87.2529     74.1341   3.2568405122e+01   5.0925949837e+01    0.4056504    0.2242184  58.29  0.001570996    2.076    0.518
       322 -12.0668      1.7126     73.3502   7.4368767350e+01   6.3682651629e+01    0.3104917    0.1785945 -49.17  0.000712122    1.596    0.374
       323 -11.1576     45.3385     72.9453   4.9775181078e+01   5.9308600799e+01    0.2682008    0.1892796 -49.22  0.001256157    1.436    0.303
       324 -12.7823     55.0131     68.9719   4.3774745615e+01   5.8619705076e+01    0.5611973    0.3844341   5.05 0.0003668628    2.080    0.519
       325 -12.4911     61.6975     69.3323   4.0863643819e+01   5.7291142052e+01    0.3592457    0.2522355 -51.93 0.0007362805    1.493    0.330
       326 -12.1570     58.9563     66.1244   4.0964687634e+01   5.8535206550e+01    0.3495525     0.261928  57.25 0.0006760725    1.467    0.318
       327 -12.2680     78.4157     70.2259   3.4398867205e+01   5.3678363079e+01    0.5050328    0.1695033  42.27  0.001592083    2.940    0.660
       328 -11.6720      7.9201     67.8991   6.9679737286e+01   6.4792121466e+01    0.3452679    0.2049856 -83.64 0.0009529185    1.866    0.464
       329 -10.7404    154.4559     68.4703   1.4412258086e+01   3.6476320566e+01    0.1386465    0.1263869 -66.65 5.826141e-05    1.022    0.022
       330 -10.7647    121.1303     68.1822   2.0972311226e+01   4.4242196692e+01    0.2044222    0.1653199 -71.07 0.0004824687    1.293    0.227
       331 -11.9737     48.6560     66.9100   4.6142758676e+01   6.0211486541e+01    0.3736294    0.2428203  28.61  0.001681014    1.544    0.352
       332 -10.6441    228.4579     66.5244   4.8978835907e+00   2.2278062642e+01    0.1164661   0.08892722 -48.30 7.403734e-05    1.004    0.004
       333 -10.4200    124.6618     66.7288   1.9711703775e+01   4.3662962842e+01    0.1434027    0.1147861  28.35 0.0002512842    1.603    0.376
       334 -10.5455     88.8787     65.0126   2.8917975476e+01   5.2415994210e+01    0.1895404    0.1554605  52.83 0.0006231841    1.160    0.138
       335 -12.0219     14.2869     60.0170   6.3842092794e+01   6.6353447566e+01    0.4404994    0.2795371  -9.20  0.002070696    1.721    0.419
       336 -11.3065     46.2451     62.5800   4.5855124946e+01   6.1621500954e+01    0.2872278    0.1354035  38.29 0.0009514203    2.012    0.503
       337 -10.6993    136.3003     61.6487   1.5745729247e+01   4.1764276560e+01    0.1531293    0.1029064 -69.51 0.0005245194    1.695    0.410
       338 -11.2294     21.1885     60.9998   5.9708717486e+01   6.5452551011e+01    0.2010034    0.1896951  67.72 0.0004266361    1.185    0.156
       339 -10.5345    183.5457     60.4424   8.1783833776e+00   3.1439774193e+01    0.1294292    0.1093432 -59.10 0.0001432246    1.002    0.002
       340 -10.7921     27.5376     60.5615   5.5666184931e+01   6.4837962466e+01    0.1430706    0.1369648  11.03 7.535195e-06    1.042    0.041
       341 -13.2671     37.5555     53.9073   4.7392223129e+01   6.4999651065e+01    0.8686714     0.724478 -50.77   0.00366556    1.256    0.204
       342 -10.9511    197.0618     58.2491   6.1324538848e+00   2.9042458863e+01    0.1413885    0.1025485  72.03 0.0003482109    1.510    0.338
       343 -13.0135    153.3626     57.1915   1.1488251900e+01   3.8487860837e+01    0.2832008    0.2384288 -57.84 0.0005153008    1.084    0.078
       344 -11.8940    109.8537     55.8095   1.9678856072e+01   4.9105235976e+01    0.2262076    0.1963825  46.02 0.0008281252    1.223    0.182
       345 -10.4390     54.4498     56.5910   3.9520612801e+01   6.1469995769e+01    0.1486266    0.1383369  45.13  0.000189203    1.059    0.055
       346 -11.3262    150.9995     51.0005   1.0109753348e+01   3.9950900453e+01    0.2083067    0.1823017 -69.23 0.0003656027    1.018    0.018
       347 -12.1465    113.5069     50.7853   1.7088837724e+01   4.9033176048e+01    0.3948723    0.1917312  45.25  0.001550327    2.333    0.571
       348 -12.2029    106.7450     51.0699   1.8813603088e+01   5.0651633011e+01    0.3486192    0.2054605  61.93 0.0006369128    1.628    0.386
       349 -13.5126     29.6343     49.9634   5.0661352746e+01   6.7056087120e+01    0.3984329    0.3768774  -6.13   0.00232986    1.030    0.029
       350 -11.2168    173.6275     50.3055   6.8478607030e+00   3.4959026123e+01    0.2173907    0.1278001 -63.30 0.0008500614    1.721    0.419
       351 -12.0041     99.5574     49.3695   2.0075015822e+01   5.2694286620e+01    0.3010123    0.2148153 -88.66  0.001399983    1.703    0.413
       352 -10.9947     16.2905     50.0007   5.9567202737e+01   6.8633128999e+01    0.1887821    0.1690485 -43.91 0.0002891094    1.106    0.096
       353 -10.7051    129.5471     47.5250   1.2680139520e+01   4.5589644093e+01    0.1437475    0.1273664 -81.60 5.889696e-05    1.029    0.028
       354 -12.1719     43.5215     54.0038   4.4090978944e+01   6.4004584184e+01    0.4417459     0.343702 -29.20 0.0005354069    1.402    0.287
       355 -11.9558    194.1947     44.1526   3.1406882551e+00   3.1479018426e+01    0.2071368    0.1592151 -55.21 0.0002550655    1.057    0.054
       356 -11.4040     89.2924     44.9107   2.1310888439e+01   5.5929563874e+01    0.2469906    0.1907632  70.20 0.0004852746    1.282    0.220
       357 -11.5172     49.6973     43.9480   3.6597974544e+01   6.4951284668e+01    0.2528789    0.1920311  42.72 0.0001754613    1.233    0.189
       358 -10.6118    167.1840     41.8691   5.4151585742e+00   3.7515880383e+01    0.1553228    0.1538884 -42.27 0.0002679359    1.279    0.218
       359 -12.9789    154.9702     41.1889   6.7587306381e+00   4.0394020082e+01    0.2810245    0.2391147 -81.78 0.0005624514    1.055    0.052
       360 -12.6424    120.3336     39.6456   1.1839691641e+01   4.9003897029e+01    0.3595097    0.2956144  34.43 0.0007424894    1.506    0.336
       361 -13.1972     33.6813     40.3195   4.4059225076e+01   6.8530910623e+01     0.459687     0.265557  42.84  0.001807587    1.735    0.423
       362 -10.9558      2.2504     41.6431   6.7536549263e+01   7.1733314781e+01    0.2882181    0.1327628  65.21 0.0009728486    4.332    0.769
       363 -11.8814     79.9977     36.4963   2.0754039028e+01   5.9509881094e+01    0.3786701    0.2077361 -41.65   0.00109711    1.964    0.491
       364 -11.7169      9.9167     36.9455   5.9803545673e+01   7.2270429676e+01    0.2048525    0.1833307 -11.39 0.0004032943    1.008    0.008
       365 -11.5207    140.6363     34.1850   6.6768838117e+00   4.4721752820e+01    0.1767344    0.1309226 -21.33 0.0004508255    1.671    0.401
       366 -12.0798     85.5103     33.9601   1.7976140814e+01   5.8535878467e+01    0.2337206    0.1824541  62.14 0.0006833984    1.160    0.138
       367 -11.6007     42.2954     33.8128   3.5764485187e+01   6.8270887869e+01    0.2628919    0.2119469  30.57 0.0006443157    1.155    0.135
       368 -12.9242     30.6672     31.5454   4.1771904842e+01   7.0754622465e+01    0.4604973    0.2724083  41.80  0.002213072    1.642    0.391
       369 -10.4620    127.5159     32.5095   8.1601194878e+00   4.8166772387e+01     0.139821    0.1231995 -87.43 0.0004299646    1.011    0.011
       370 -11.2710    136.2073     31.3362   6.4328678322e+00   4.6163971545e+01    0.2084684    0.1588264  58.79 0.0005422229    1.363    0.266
       371 -11.7666      3.9297     30.2219   6.2371498484e+01   7.4270186742e+01    0.3098345    0.1655183   3.09  0.001283695    1.906    0.475
       372 -11.2024     96.6682     29.6768   1.3252202110e+01   5.6328104099e+01    0.1466778    0.1034056  36.15 0.0007050185    1.703    0.413
       373 -10.3205    116.6542     26.2694   7.8612581861e+00   5.1675546146e+01    0.1454423   0.09563604 -74.55 0.0002674054    1.615    0.381
       374 -11.8796     45.4274     24.9941   2.9382458713e+01   6.9136575390e+01    0.2779589    0.1858779 -35.72  0.001417694    1.654    0.395
       375 -11.2146      1.6218     25.9161   6.2833051580e+01   7.5388113472e+01    0.1789695    0.1554657 -45.13 0.0007449331    1.158    0.136
       376 -10.9625    124.7644     24.9624   6.0707513040e+00   4.9782982432e+01    0.1749359    0.1141996 -32.13 0.0008890934    1.657    0.396
       377 -12.3988     84.9832     24.4517   1.4027280480e+01   5.9950134997e+01     0.283196    0.1990558 -66.45  0.001001754    1.666    0.400
       378 -11.5861     73.7753     24.8422   1.7518175602e+01   6.2681889006e+01    0.2530366    0.1680431  50.68 0.0007117772    1.363    0.266
       379 -11.9853     66.6030     23.5073   1.9319778299e+01   6.4593049101e+01    0.3195471    0.2317795 -82.92  0.001413403    1.817    0.450
       380 -10.8539     19.0428     23.5006   4.6035727627e+01   7.4052772206e+01    0.1907063    0.1210417  28.70  0.000982772    1.444    0.308
       381 -11.3454     70.4337     21.2575   1.6882182150e+01   6.3960476405e+01    0.2286392    0.1432572 -24.58 0.0007096452    1.905    0.475
       382 -11.1581    138.2421     19.6387   2.4770415677e+00   4.7036458718e+01    0.2197998    0.1460346  67.37 0.0002772722    1.422    0.297
       383 -11.7398    190.1176    249.0331   4.3073358479e+01   4.1538385985e-01    0.1591905    0.1149879  -3.91            0    1.025    0.024
       384 -10.7715     65.7620     15.8169   1.5685512292e+01   6.5758912015e+01    0.1893532    0.1554032  89.47   0.00105866    1.331    0.249
       385 -11.7262     72.1505     14.1287   1.2804557814e+01   6.4378013753e+01      0.21347    0.1716457  39.78  0.001007131    1.282    0.220
       386 -10.9009    124.8215    249.2425   5.6090603875e+01   6.9660294824e+00    0.1663134    0.1178833  -3.59 0.0005268836    1.325    0.246
       387 -14.3601      4.8006    201.1976   8.2485308257e+01   2.9152628950e+01    0.6926025     0.609112  -5.03   0.00437465    1.334    0.250
       388 -11.4965    178.0353    247.4417   4.5071757577e+01   1.7672147466e+00    0.1617988    0.1193026  -6.68 0.0003344851    1.076    0.070
       389 -11.5508     68.7712    247.3720   6.8760214829e+01   1.3293720340e+01    0.3244878    0.1702766  55.86    0.0016347    2.290    0.563
       390 -11.6119     99.3175    246.8896   6.1553882609e+01   1.0119598804e+01    0.2318241    0.1502371  15.84 0.0005091379    1.298    0.229
       391 -10.8287     64.4745    247.0154   6.9755983809e+01   1.3803861871e+01    0.1578422    0.1257297 -69.43 0.0007138391    1.580    0.367
       392 -10.8312    246.1661    245.1909   3.3521061763e+01  -3.7882923845e+00    0.1175043   0.08666223 -14.15 0.0002296226    1.287    0.223
       393 -11.4980    205.8989    244.3415   3.9695465215e+01  -4.0821214007e-01    0.1615398     0.121232 -18.69 0.0004146897    1.250    0.200
