#   1 NUMBER                 Running object number                                     
#   2 MAG_AUTO               Kron-like elliptical aperture magnitude                    [mag]
#   3 X_IMAGE                Object position along x                                    [pixel]
#   4 Y_IMAGE                Object position along y                                    [pixel]
#   5 X_WORLD                Barycenter position along world x axis                     [deg]
#   6 Y_WORLD                Barycenter position along world y axis                     [deg]
#   7 A_WORLD                Profile RMS along major axis (world units)                 [deg]
#   8 B_WORLD                Profile RMS along minor axis (world units)                 [deg]
#   9 THETA_WORLD            Position angle (CCW/world-x)                               [deg]
#  10 FWHM_WORLD             FWHM assuming a gaussian core                              [deg]
#  11 ELONGATION             A_IMAGE/B_IMAGE                                           
#  12 ELLIPTICITY            1 - B_IMAGE/A_IMAGE                                       
         1 -11.6371     12.7841     11.1872   1.0070305075e+02   7.4230075486e+01    0.3515204    0.2216043  21.76  0.001017946    1.812    0.448
         2 -12.4601     17.9002     24.3794   1.0336817353e+02   7.1040663934e+01    0.6158749    0.3751365 -64.45  0.002280642    1.630    0.386
         3 -11.0992     14.6860     17.6620   1.0250827329e+02   7.2738569711e+01    0.4561195    0.2810731 -75.32 0.0009369018    2.229    0.551
         4 -12.1004      1.9942     25.0606   1.1334664026e+02   7.1990235575e+01    0.4133264    0.1694298 -70.06  0.001951039    2.166    0.538
         5 -11.6524      5.7822     17.4555   1.0828871179e+02   7.3447722825e+01    0.4522094    0.3213918 -54.45  0.002262269    1.134    0.118
         6 -11.5389    182.2340     18.9820   5.0130138789e+01   3.6609972730e+01    0.3423697       0.2767   4.70 0.0008685341    1.339    0.253
         7 -11.1715     31.7134     14.4355   9.0366543348e+01   7.1540672137e+01    0.4880441    0.2779476 -38.73  0.002568229    1.517    0.341
         8 -10.7426     76.1453     14.0895   6.9752034036e+01   6.3826702264e+01    0.4820867    0.2651347 -51.33  0.001600045    2.606    0.616
         9 -10.7078    116.7450     15.0082   5.9028790259e+01   5.4120077744e+01    0.3725956    0.2196698  28.46  0.001590598    1.973    0.493
        10 -10.3265     20.8979     11.5886   9.5460273573e+01   7.3361853142e+01    0.3609799    0.2176621  52.10  0.001790416    2.793    0.642
        11 -11.2859    128.2285     11.9578   5.5418920574e+01   5.1483890424e+01    0.5563065    0.1675122 -14.91  0.001465333    4.387    0.772
        12 -11.1829     50.8201      7.4993   7.6155699163e+01   6.9733088609e+01    0.5481047    0.3193996 -15.91  0.002632759    1.903    0.475
        13 -11.5280    210.0059     11.5225   4.5085964889e+01   3.0403984807e+01    0.5086128    0.2854217  15.07  0.002209489    2.497    0.599
        14 -11.8644    208.9118      4.7913   4.3229665534e+01   3.1256657318e+01    0.4033776    0.2633085 -62.37 0.0003815108    1.575    0.365
        15 -11.3216    148.3000     12.9865   5.2505011158e+01   4.6092813143e+01    0.4761116    0.2230002  50.15   0.00192154    2.064    0.516
        16 -10.6189    218.1049     12.1269   4.4599492660e+01   2.8428020476e+01    0.2025818    0.1775362  28.60 0.0009898007    1.278    0.218
        17 -10.1071     67.1925     11.7812   7.1750823823e+01   6.6003512859e+01    0.2474401    0.2133696 -12.55 0.0008976862    1.058    0.055
        18  -9.7388    229.4489     10.9808   4.3435985611e+01   2.5925404151e+01    0.1921499    0.1160363 -22.46 -4.268255e-06    1.508    0.337
        19  -9.5247     55.9793     11.2555   7.6075984766e+01   6.8244070141e+01    0.2047031    0.1356684 -10.54 0.0009908126    1.640    0.390
        20 -11.0566    165.8186      3.8456   4.6882985031e+01   4.2279322334e+01    0.2555567    0.2289109 -34.87 0.0003659538    1.110    0.099
        21  -9.4414    159.8425      9.4421   4.9590027011e+01   4.3370014505e+01    0.1985361    0.1814848  84.91  0.001115347    1.106    0.096
        22 -11.8211    160.7469      3.4269   4.7306929571e+01   4.3654053961e+01    0.5715827    0.4709949  47.65  0.002774362    1.217    0.178
        23  -9.8631      4.3653      8.8195   1.0559191496e+02   7.5364684700e+01    0.2576661    0.1363171 -69.68 0.0008517765    2.157    0.536
        24 -11.5086    194.4347      8.5072   4.5545836857e+01   3.4498380051e+01    0.3217744    0.2290711 -73.78  0.001124579    1.501    0.334
        25 -10.4165    185.1938      8.8871   4.6545528342e+01   3.6805815522e+01    0.2070525    0.1776791 -52.98 0.0003666798    1.142    0.125
        26 -11.1453    146.6158      8.1322   5.0885318427e+01   4.6998429189e+01    0.3524344    0.1990772  33.98  0.001503022    1.999    0.500
        27 -10.4702     35.3780      8.2650   8.4636763273e+01   7.2125049357e+01    0.3723964    0.2325506  55.83  0.001416071    2.628    0.620
        28 -10.3055    119.8344      8.0625   5.5303319415e+01   5.4051407918e+01    0.2165089    0.1939998 -53.94 0.0004676081    1.220    0.180
        29 -10.6469    111.9649      4.9975   5.5458301104e+01   5.6365030635e+01    0.2191848    0.2032698  20.62 0.0004437272    1.027    0.026
        30 -10.5494    107.5055      7.7020   5.7684488385e+01   5.7230774249e+01     0.447545    0.1913188  64.79  0.001736263    2.371    0.578
        31 -10.0809    106.4517      4.0162   5.6142510645e+01   5.7854584781e+01    0.2682632    0.1388023 -11.93 0.0005190225    2.068    0.516
        32  -9.7833     74.0160      8.4948   6.7403511234e+01   6.5011532936e+01     0.204434     0.128881  47.47  0.001011867    1.567    0.362
        33 -10.1728     87.6144      6.4742   6.2044656666e+01   6.2190643006e+01    0.2326323     0.214363 -22.38 0.0006141117    1.132    0.116
        34 -10.8951     39.9868      5.0196   8.0016303699e+01   7.1940681139e+01    0.3324556    0.2663501 -32.92  0.001960906    1.210    0.173
        35  -9.8662     38.0013      2.0358   7.9109170515e+01   7.2709213453e+01    0.1862313    0.1605973 -17.62  0.001193256    1.088    0.081
        36 -10.3298     24.7289      6.6741   9.0118632020e+01   7.3833812602e+01    0.2356839    0.1752547 -50.32  0.001339965    1.438    0.305
        37  -9.7278     19.6116      6.8014   9.3587789749e+01   7.4407151651e+01    0.2336296   0.09733916 -44.50 0.0008597323    1.984    0.496
        38 -10.6902    170.9804      6.4640   4.7224381132e+01   4.0700583438e+01    0.2102992    0.1372125  74.51  0.000467595    1.539    0.350
        39 -10.7354    134.1570      5.6946   5.1784401220e+01   5.0521616087e+01     0.243892    0.1930915 -34.37 0.0006490067    1.290    0.225
        40  -9.7705     61.7727      6.5576   7.0823280681e+01   6.7795226116e+01    0.1728272    0.1337409  62.95 0.0006076022    1.635    0.388
        41 -12.1875    196.1263      3.2274   4.3780413166e+01   3.4526735520e+01     0.649791    0.2593098  62.18  0.002684993    2.397    0.583
        42 -10.3207     48.5488      3.1731   7.4467438393e+01   7.0753528915e+01    0.3959987    0.2100196  28.07  0.001755579    2.245    0.555
        43  -9.8801     30.8532      3.5119   8.4245129272e+01   7.3560639814e+01    0.2406716    0.1501516 -49.97  0.001271906    1.894    0.472
        44 -10.3873    248.9406      2.8880   4.0147982782e+01   2.2391480313e+01    0.2046995    0.1537153 -28.45 0.0003651849    1.155    0.134
        45 -10.2371    218.0003      2.4952   4.1925194592e+01   2.9287890030e+01    0.2583473    0.1843186 -24.66 0.0007114651    1.302    0.232
        46 -10.6927     73.3829      1.8579   6.3775787046e+01   6.5922920809e+01    0.4461221     0.233916  63.43  0.001988225    2.220    0.550
        47  -9.6413     12.5181      2.5368   9.6059007419e+01   7.5935926953e+01    0.2895043    0.1707144  58.69  0.001206274    4.528    0.779
        48 -10.9350    180.2736      2.0413   4.4799989419e+01   3.8653077775e+01    0.3135336    0.2010302  76.55  0.001050915    1.566    0.361
        49 -12.1073    172.8357     11.1733   4.8624341028e+01   3.9794467062e+01    0.4232488    0.2462516  78.65  0.001912553    1.821    0.451
        50 -10.0993    115.7547      2.0592   5.3355103698e+01   5.5656677029e+01    0.1987822    0.1877339 -48.50 0.0004222908    1.146    0.128
        51  -9.9085    186.3017      1.3277   4.4024324331e+01   3.7163056614e+01    0.1428404   0.09816208  34.56 0.0002808952    1.643    0.391
        52 -10.2747    143.9306      1.4220   4.8637677093e+01   4.8288657367e+01     0.213641    0.1353458  70.90 0.0004409297    1.542    0.351
        53 -10.4313     90.6488      1.5147   5.8573372202e+01   6.1980310469e+01    0.2550403    0.1649604  68.84 0.0008188625    1.705    0.413
        54  -9.9165     55.3219    228.6323   1.2169590286e+02   2.3708723246e+01    0.1522591   0.09191885  41.54 0.0003588069    1.283    0.221
        55 -11.9573    186.7442    250.4901   1.0078345859e+02   4.5706682535e+00    0.1909857   0.09224839  34.02 0.0003658622    1.491    0.329
        56 -11.8373    127.6133    248.2272   1.1038052214e+02   1.2362261930e+01    0.2647572    0.2275824  65.03 0.0008996606    1.407    0.289
        57 -11.8681     39.0346    249.0392   1.2556563307e+02   2.2326684653e+01    0.2311282    0.2040011 -77.97  0.002186443    1.535    0.349
        58 -11.8765     31.1868    244.9059   1.2670911669e+02   2.3684318013e+01    0.4245729     0.346599 -62.59   0.00323584    1.756    0.431
        59 -11.0310     36.4593    243.6233   1.2576884840e+02   2.3365985543e+01    0.2750323    0.2032759  24.37  0.001338132    1.671    0.402
        60 -12.3356     22.5080    241.9612   1.2805546068e+02   2.4929258020e+01    0.7627011    0.2647837  76.90  0.004301063    3.266    0.694
        61 -12.0821      3.1426    233.7403   1.3106070711e+02   2.7864299465e+01    0.3779286    0.2363892 -82.54  0.003136219    1.706    0.414
        62 -12.7149     17.9328    246.9463   1.2897483248e+02   2.4605853637e+01    0.8803401    0.1557725  44.80  0.004878763    2.669    0.625
        63 -12.6877     11.7309    233.8509   1.2961381218e+02   2.7121409372e+01    0.5516454    0.2780964  70.56  0.004087775    1.651    0.394
        64 -11.9486     10.1651    225.9784   1.2964737641e+02   2.8494494201e+01    0.6561544    0.1833563  63.04  0.003473421    3.038    0.671
        65 -12.8787      4.5361    246.9896   1.3114616054e+02   2.5756432987e+01    0.5835262    0.1466907  42.96   0.00278037    2.191    0.544
        66 -11.5045      6.5272    240.9486   1.3067750649e+02   2.6484226736e+01    0.3096013    0.1621704  30.13   0.00133491    1.886    0.470
        67  -9.8057     30.8760    250.6789   1.2698007057e+02   2.2876527023e+01    0.1328649    0.0537487  43.59 0.0009054393    1.627    0.385
        68  -9.6190    138.4787    228.0446   1.0642257909e+02   1.3510188241e+01    0.1291555    0.1108507 -51.37 0.0005799967    1.535    0.349
        69  -9.5462    126.0901    228.4312   1.0870479148e+02   1.5122308217e+01    0.1663778   0.08475631  34.94 0.0005411815    1.560    0.359
        70  -9.1113    110.0203    221.0233   1.1091839216e+02   1.8301283856e+01     0.148476    0.1040461  53.33            0    1.310    0.236
        71 -11.4603    110.8161    227.2025   1.1137585450e+02   1.7301343335e+01    0.3244311    0.1897811  62.20  0.001465794    2.088    0.521
        72  -9.9053    112.5446    223.5650   1.1069983802e+02   1.7598279155e+01     0.161807    0.1298593  40.90 9.620707e-05    1.037    0.036
        73  -9.7666     93.7044    226.9870   1.1451611628e+02   1.9505093516e+01    0.1441222    0.1209455  58.75 0.0006864292    1.156    0.135
        74 -10.4684    234.0023    225.4881   9.0070239284e+01   9.0369975877e-01    0.1624431     0.137481 -16.24   0.00104354    1.596    0.373
        75 -10.6642    144.5172    232.3190   1.0582038241e+02   1.2145178346e+01    0.3673271    0.1239695  40.56  0.001864908    2.254    0.556
        76  -9.8787    164.4095    225.2000   1.0147239044e+02   1.0307951684e+01    0.1263874     0.107927 -59.74  0.000953572    1.747    0.428
        77  -9.6787    122.9836    225.4857   1.0896526669e+02   1.5942066695e+01    0.1667876   0.08544999  37.80 0.0004576012    1.506    0.336
        78 -10.0511     99.0033    223.9838   1.1326535520e+02   1.9286805577e+01    0.1962808    0.1461997 -66.70  0.001454516    1.671    0.401
        79  -9.9044     79.4656    223.9204   1.1691396872e+02   2.1702931495e+01    0.2667301     0.137037  66.95  0.001538442    2.375    0.579
        80 -10.2510      2.0695    224.8589   1.3102298829e+02   2.9350089221e+01    0.1684084    0.1007544  54.81 0.0004706705    1.158    0.136
        81 -10.7651     36.7079    223.4921   1.2480792013e+02   2.6446866458e+01    0.2708245    0.1357168  59.36  0.001244649    1.623    0.384
        82 -11.3933     40.1046    217.9553   1.2389702241e+02   2.7010577699e+01    0.2646889    0.1627316  38.86 0.0008705111    1.372    0.271
        83 -10.6104     47.0911    217.8723   1.2258181971e+02   2.6305392618e+01    0.2494181     0.146152  30.23  0.001294115    1.705    0.414
        84 -10.1492     63.8277    221.0840   1.1963774325e+02   2.3963531579e+01    0.2773837    0.1292889  67.98  0.001380128    2.573    0.611
        85 -10.0164     54.8530    221.5853   1.2135191704e+02   2.4874587443e+01     0.207241   0.08978197  60.14  0.001180925    2.226    0.551
        86 -10.6769    228.7154    220.1818   9.0103362348e+01   2.0754857550e+00    0.1871439    0.1311844  24.89 0.0002930472    1.150    0.130
        87  -9.7834     84.2383    220.9530   1.1577707800e+02   2.1587146912e+01    0.1384103    0.1139559  52.73 0.0003222163    1.074    0.069
        88  -9.5447     20.9461    217.7887   1.2743439003e+02   2.8877075136e+01    0.1277752    0.1220113 -39.50 0.0009206079    1.604    0.377
        89 -10.2851    135.4913    218.1554   1.0584355841e+02   1.5256992235e+01    0.2015182    0.1513101  16.90 0.0005819519    1.420    0.296
        90  -9.6399     14.3908    219.1212   1.2867463921e+02   2.9241609881e+01    0.1462348    0.1109074  38.23  0.001213652    1.349    0.259
        91 -10.5465    195.1914    216.8498   9.5043961960e+01   6.9744154311e+00    0.1629224    0.1305314  28.50 0.0008232339    1.185    0.156
        92  -9.5537    176.0052    216.8503   9.8345422548e+01   9.6891871847e+00    0.1963753    0.1070785  18.65  0.001081675    2.104    0.525
        93  -9.6794    101.5048    217.0612   1.1214187759e+02   2.0010924685e+01    0.1358867      0.10942 -71.62 0.0004249333    1.515    0.340
        94 -11.5593     67.1883    207.3647   1.1797522932e+02   2.5836326891e+01    0.2353586    0.1572893  48.00 0.0002167668    1.183    0.155
        95 -10.7015     68.3777    215.0756   1.1833816296e+02   2.4414390399e+01    0.1815917    0.1239488  42.38 0.0002947037    1.186    0.157
        96 -10.8764     72.9678    216.2763   1.1754760919e+02   2.3682057495e+01    0.1886329    0.1798068  68.03   0.00034407    1.273    0.215
        97 -13.0055     74.3690    211.0949   1.1686095855e+02   2.4361908829e+01    0.2656968    0.2576756  64.35 0.0005209209    1.283    0.220
        98 -10.3534     58.9988    215.6797   1.2018244713e+02   2.5380867681e+01    0.1609006     0.142163  87.15 0.0004886409    1.279    0.218
        99 -11.6401     24.7513    208.4968   1.2632724292e+02   3.0097875973e+01     0.410097    0.3109256  43.24   0.00262905    1.237    0.192
       100 -10.1780     34.2857    213.3671   1.2475146196e+02   2.8355983579e+01    0.2663729    0.1116941  39.52 0.0008614804    1.812    0.448
       101 -10.4972     31.7159    216.0365   1.2536677229e+02   2.8158514759e+01    0.1873982    0.1161757  55.04 0.0003430072    1.208    0.172
       102 -10.6087     28.6855    213.6714   1.2582186388e+02   2.8845809778e+01    0.1674806    0.1584006 -60.66 0.0009676802    1.515    0.340
       103 -11.2698     31.7613    210.4075   1.2508123980e+02   2.9104704800e+01     0.233101    0.1686401  28.80  0.001611762    1.539    0.350
       104  -9.6319    156.5334    215.5121   1.0164729472e+02   1.2640290128e+01    0.1141304   0.08984865  33.04 7.283934e-05    1.041    0.039
       105 -10.6619     84.9732    214.1974   1.1505908350e+02   2.2562902048e+01    0.2644511    0.2132854 -13.24  0.001544951    1.899    0.474
       106 -11.4613      4.1630    205.3924   1.3010222087e+02   3.2425960887e+01    0.2768738    0.1448866  41.96  0.001331803    1.504    0.335
       107 -10.7656     13.5137    212.9717   1.2861733800e+02   3.0343540685e+01    0.2669775     0.210618 -38.28  0.001750975    2.095    0.523
       108 -11.7034      8.1486    211.0500   1.2954086536e+02   3.1126471158e+01    0.3343776    0.1874729 -87.78  0.002439918    1.688    0.408
       109 -10.8189    165.4118    213.9769   9.9838519396e+01   1.1563854663e+01    0.2063422    0.1338727  36.50 0.0006035969    1.235    0.190
       110 -10.7121    111.8268    213.5766   1.0980821326e+02   1.9174606972e+01    0.2220648    0.1831914  19.77  0.001334476    1.332    0.249
       111 -12.4250    129.0205    208.0084   1.0586250112e+02   1.7627324986e+01     0.500016    0.3156326   5.54  0.002630755    2.723    0.633
       112 -10.1912    118.1356    212.0863   1.0843263168e+02   1.8540395564e+01    0.1990398    0.1338526  37.95 0.0004936124    1.198    0.165
       113  -9.6656     63.9420    212.3469   1.1899269269e+02   2.5375120484e+01    0.1528398    0.1103298  43.13 0.0008931355    1.154    0.134
       114 -10.1972     39.0565    210.9958   1.2371596281e+02   2.8282859408e+01    0.1612187    0.1261746  59.34   0.00080417    1.047    0.045
       115 -10.4740    144.8087    209.2872   1.0301420503e+02   1.5173640348e+01    0.2250083    0.1563815 -71.91  0.001361122    2.388    0.581
       116  -9.5174     96.8362    209.2068   1.1227512876e+02   2.1851011155e+01    0.1440978     0.116508  28.36 0.0005399305    1.277    0.217
       117  -9.4006     92.5294    216.4730   1.1380584148e+02   2.1254647709e+01    0.1111627   0.08670031  47.53 0.0001294149    1.014    0.014
       118 -10.5977     59.8378    208.6917   1.1952748051e+02   2.6455059982e+01     0.237007    0.1428524  53.21 0.0008126067    1.342    0.255
       119 -11.8401     17.7731    207.7935   1.2762357407e+02   3.0853628940e+01    0.1932843    0.1291211  60.82 0.0002810616    1.119    0.106
       120  -9.9955    196.3181    208.3472   9.3610212571e+01   7.7768525414e+00     0.119247   0.07315488  10.90 0.0007048596    1.729    0.422
       121 -10.2390    153.1561    205.4878   1.0094319702e+02   1.4483125769e+01    0.2210307    0.1469782 -19.64  0.001331658    2.019    0.505
       122 -11.7068     53.1555    199.5718   1.2020151989e+02   2.8783359168e+01    0.4426302    0.3090952  86.73  0.002534635    1.428    0.299
       123 -11.4475     52.7082    192.0690   1.1973508140e+02   3.0186179970e+01    0.3404385    0.1812528 -83.19   0.00201084    2.029    0.507
       124 -11.7088     34.7546    205.1784   1.2422841119e+02   2.9715448187e+01    0.2541031    0.1980738  63.60  0.001273417    1.051    0.048
       125  -9.6674     99.8219    205.5853   1.1131562426e+02   2.2040630831e+01    0.1653164   0.08443374  45.40 0.0006705117    1.610    0.379
       126 -10.0555      1.3372    213.1268   1.3084563644e+02   3.1334118566e+01    0.2147744   0.07587912 -82.42  0.001036243    2.709    0.631
       127 -10.7126    121.5887    200.6132   1.0641641320e+02   1.9819974401e+01    0.3178695    0.2171162 -80.69  0.001528399    2.192    0.544
       128  -9.7279    165.8605    202.1372   9.8107630080e+01   1.3047698743e+01    0.1733459    0.1343687  39.67  0.001176074    1.199    0.166
       129 -11.1927     97.8873    200.5191   1.1116986617e+02   2.3131503172e+01    0.3146564     0.293121  -0.22  0.001378207    1.342    0.255
       130 -10.4954     95.6619    194.8705   1.1101479598e+02   2.4385404533e+01    0.1998018    0.1486795  35.36 0.0003877381    1.228    0.185
       131  -9.2714     70.2850    201.2803   1.1685423177e+02   2.6513147443e+01    0.1567292    0.1327118  73.45 0.0005050203    1.150    0.130
       132 -10.0208     71.4819    197.8997   1.1631586297e+02   2.6959325133e+01    0.2040174    0.1079313 -69.71  0.001195149    2.113    0.527
       133 -10.3697     19.0864    200.5725   1.2706598630e+02   3.2001981924e+01    0.1714231    0.1297807 -86.56 0.0006130664    1.338    0.253
       134  -9.6970    190.6300    200.1913   9.3353036645e+01   9.5791999840e+00     0.148969    0.1004243 -16.40 0.0009400132    1.625    0.384
       135  -9.7009    169.8094    199.1217   9.6936969344e+01   1.2855982006e+01    0.2076932    0.1455051 -67.89  0.001150973    2.785    0.641
       136 -10.0201     90.7666    200.0479   1.1256812232e+02   2.4154658531e+01    0.2125337    0.1244692  47.91  0.001287387    1.433    0.302
       137 -11.3542      5.4586    200.0242   1.2968487113e+02   3.3261663453e+01    0.1656305    0.1142344  47.56  0.001295179    1.207    0.172
       138 -10.3430    223.4720    198.9704   8.7638384265e+01   4.9158327553e+00    0.2476317    0.1193096  31.13 0.0009899014    1.739    0.425
       139  -9.6777    149.9587    199.2656   1.0069205558e+02   1.5840681137e+01    0.1650989    0.1255947  32.56 0.0002360319    1.082    0.076
       140  -9.7941     13.7238    197.8540   1.2800138890e+02   3.2957786365e+01     0.201955    0.1337556  32.72  0.001481783    1.533    0.348
       141 -10.8187    128.4704    197.0936   1.0460162415e+02   1.9371877434e+01    0.2786244     0.139274  42.32  0.001498928    1.672    0.402
       142 -10.1870    105.4311    195.9993   1.0912866837e+02   2.2854288279e+01    0.2497953    0.1767607  42.49 0.0006830055    1.173    0.148
       143 -10.2420    108.6887    194.2977   1.0825954985e+02   2.2681739606e+01    0.2144154    0.1275806 -69.36   0.00111666    2.204    0.546
       144  -9.7153    140.5394    195.7519   1.0203205113e+02   1.7779798887e+01    0.1392243     0.117346 -74.16 0.0005077293    1.591    0.371
       145  -9.7510     82.6401    195.4777   1.1378043558e+02   2.5993760241e+01    0.1669235    0.1068488 -67.01 0.0007943292    1.768    0.434
       146  -9.7580     36.9751    196.5324   1.2328806878e+02   3.1031756027e+01    0.1566184   0.09075846  36.14 0.0005869718    1.550    0.355
       147  -9.7913     24.8525    194.9312   1.2565352962e+02   3.2492592743e+01    0.1838003    0.1080516 -84.91 0.0008630911    1.636    0.389
       148  -9.6329      6.7714    195.1668   1.2926315872e+02   3.4023808596e+01    0.1208676    0.1096824  43.62 0.0006376989    1.369    0.270
       149 -10.0682    217.5144    194.5009   8.7872453977e+01   6.2588801919e+00    0.1163301   0.09013564  15.19 3.910603e-05    1.028    0.027
       150 -10.7346    123.0992    193.2540   1.0518293084e+02   2.0773030825e+01    0.1802005    0.1693106  80.44 0.0003519535    1.224    0.183
       151 -10.6026    153.9646    192.3679   9.8928124856e+01   1.6232508966e+01    0.3098655    0.1951145  10.91 0.0007714914    2.158    0.537
       152  -9.8017     58.5578    191.5754   1.1846754079e+02   2.9618174154e+01    0.1953527    0.0973214  89.96  0.001029749    2.472    0.595
       153 -10.2286    188.7236    190.3531   9.2129131267e+01   1.1100832238e+01    0.3061086    0.1810131  -8.60  0.001625927    2.254    0.556
       154 -10.3536    165.9868    189.2116   9.6142163184e+01   1.4811773221e+01    0.2344926    0.1818287 -37.50  0.001125646    1.502    0.334
       155 -12.0301     91.7117    189.0883   1.1120328721e+02   2.5926238324e+01    0.2316809    0.2043613  83.61 0.0004291426    1.195    0.163
       156  -9.7432     44.5609    194.5087   1.2160513920e+02   3.0619656105e+01    0.1098366   0.08682574  60.64 6.037771e-05    1.009    0.009
       157  -9.5520     68.3112    190.5954   1.1632259745e+02   2.8649879747e+01    0.1575612    0.1014168  27.80 0.0009565964    1.666    0.400
       158  -9.5312    127.2885    189.4244   1.0381918369e+02   2.0769537952e+01    0.1635953   0.09841503  44.99 0.0004579091    1.458    0.314
       159  -9.2899    184.9144    189.0000   9.2594813790e+01   1.1869315931e+01    0.2002024   0.05861039  40.56 0.0008010248    2.933    0.659
       160 -10.3791     74.6957    186.3538   1.1455373048e+02   2.8639495137e+01    0.3110551    0.1515952 -68.67  0.001674071    2.280    0.561
       161  -9.3021    205.3843    186.8572   8.8626705804e+01   8.9616959700e+00    0.1544553   0.09963226 -12.64 0.0004029517    1.624    0.384
       162 -10.3771    130.5639    185.3530   1.0258023007e+02   2.0934613417e+01    0.3044566    0.2209934  76.80  0.001319431    1.998    0.500
       163 -11.1914    104.9288    185.2086   1.0793423058e+02   2.4771625300e+01    0.3410107     0.289863  19.07  0.002117913    1.317    0.241
       164 -10.3816     43.3890    185.9474   1.2125215471e+02   3.2329998136e+01    0.2316563    0.1658206 -49.23  0.001466801    1.868    0.465
       165  -9.7475     43.3048    181.6837   1.2095820199e+02   3.3149954508e+01    0.1743453    0.0782144  73.84 0.0003965562    2.652    0.623
       166 -10.9596     32.1539    184.3749   1.2354365262e+02   3.3763835232e+01    0.3631376    0.1526944  37.62  0.001128636    1.976    0.494
       167 -10.6743    177.7210    183.5791   9.3025734890e+01   1.3736944571e+01      0.26092    0.1679663 -47.71   0.00130546    2.035    0.509
       168 -10.7777     15.9600    183.0629   1.2689604251e+02   3.5497728076e+01    0.2186517    0.1753567  72.93 0.0008456637    1.085    0.078
       169  -9.3679    249.6854    183.6766   8.0988799584e+01   2.7915547444e+00    0.1196789   0.06816967   9.71 0.0005620691    1.662    0.398
       170  -9.7174    225.7254    183.6425   8.4688776070e+01   6.2521236017e+00    0.1545748   0.09675423  39.52 0.0004252205    1.569    0.362
       171  -9.7106     88.2398    182.1960   1.1117005328e+02   2.7637168616e+01    0.1884657    0.1398281 -64.83 0.0007350239    1.496    0.331
       172 -11.2573     57.4119    180.8889   1.1780465138e+02   3.1748858233e+01     0.422474    0.2740036  21.79  0.002533488    1.896    0.473
       173  -9.0901      2.4976    183.6011   1.2970918360e+02   3.6495096063e+01    0.1033229   0.07860235  64.66 0.0001399431    1.034    0.033
       174 -10.1850    213.0630    182.2233   8.6524423234e+01   8.3342545728e+00    0.1766351    0.1266025  16.37 0.0002820602    1.174    0.148
       175  -9.4756    181.7800    180.7993   9.1805080639e+01   1.3466629398e+01    0.2124072    0.1202902   6.87 0.0009562459    2.816    0.645
       176 -10.0306    155.0210    181.0064   9.6973952714e+01   1.7765805861e+01    0.1818585    0.1526615  25.14  0.001188082    1.050    0.048
       177 -10.4003    131.3737    179.5113   1.0156213900e+02   2.1773363564e+01    0.2298317    0.1936208  72.78 0.0006142452    1.420    0.296
       178 -12.5286     32.2170    176.3746   1.2301307827e+02   3.5301383513e+01    0.2365559      0.19475 -82.83 0.0004413537    1.246    0.198
       179 -10.5339      3.9023    178.6256   1.2923532051e+02   3.7330504105e+01    0.2268778    0.1195491  59.02 0.0006736728    1.484    0.326
       180 -10.3559     92.0827    177.3454   1.0974975986e+02   2.8005431359e+01    0.1807752    0.1606697 -52.27 0.0002555289    1.316    0.240
       181 -11.3256     22.7749    176.2206   1.2507700534e+02   3.6216163021e+01    0.2772827    0.1550761  64.17 0.0009123473    1.521    0.342
       182  -9.1782    170.3766    177.2574   9.3355640487e+01   1.5825072066e+01    0.1294313   0.08540028  16.54 0.0006971149    1.658    0.397
       183 -11.2000    108.9008    176.5642   1.0594635784e+02   2.5725698098e+01    0.2095666    0.1935317  55.48 0.0003271287    1.068    0.064
       184 -11.6601     79.0512    174.3620   1.1231261677e+02   3.0333035496e+01    0.3604583     0.234661  67.24 0.0003199967    1.630    0.387
       185 -10.3814     74.2330    177.1359   1.1370257223e+02   3.0426022538e+01    0.1862692    0.1485542  44.79 0.0003911666    1.129    0.114
       186  -9.8358     46.1154    177.1264   1.1998725858e+02   3.3733124984e+01    0.1555602     0.142209  61.20 0.0003289234    1.175    0.149
       187 -10.0582     85.5279    187.0990   1.1230289847e+02   2.7107445500e+01    0.1839972    0.1515611  21.94 0.0006899736    1.397    0.284
       188  -9.3396    136.3441    176.3018   1.0003570259e+02   2.1520533453e+01    0.1261596   0.09314147   8.34  0.000428108    1.681    0.405
       189  -9.2938    200.5107    175.4640   8.7487891773e+01   1.1148363656e+01    0.1247674    0.1006251  15.27 -1.220447e-06    1.017    0.017
       190 -10.0982     17.4773    175.0653   1.2616929039e+02   3.6909978413e+01    0.1660153    0.1525342  -0.87 0.0007978598    1.549    0.355
       191  -9.8111    156.9637    173.5697   9.5366832972e+01   1.8595971028e+01    0.1965501    0.1096608  38.85  0.001016578    1.572    0.364
       192 -10.4550     87.7144    171.8063   1.1004550753e+02   2.9654612828e+01    0.2195297    0.1691587  68.29 0.0003475742    1.300    0.231
       193  -9.7173     62.6961    171.1102   1.1568961738e+02   3.3028966178e+01    0.1923802    0.1278309  32.75 0.0007199842    1.507    0.336
       194  -9.5710     41.2428    171.4205   1.2062833772e+02   3.5373946259e+01    0.1501491   0.08970203  46.79 0.0003029388    1.430    0.301
       195  -8.9753    166.2777    170.3027   9.2953092993e+01   1.7541900618e+01    0.1252338   0.09094515   7.55 0.0001968727    1.544    0.353
       196  -9.5081     54.9644    168.0197   1.1717154715e+02   3.4555090048e+01    0.1732501    0.1377953 -39.63  0.001119707    1.690    0.408
       197  -9.9171      2.5588    167.1263   1.2906999548e+02   3.9677783462e+01    0.2514353   0.06315197 -70.28  0.001133895    3.474    0.712
       198  -9.5160    122.6629    166.6597   1.0146548924e+02   2.5380981051e+01    0.1288853   0.09833094  -0.49 -0.0002434174    1.760    0.432
       199  -9.7202     61.0453    166.2329   1.1557172703e+02   3.4201254942e+01    0.1648818    0.1337593  48.89 0.0004661795    1.123    0.110
       200 -10.6664     37.5074    165.5962   1.2102614390e+02   3.6931269192e+01    0.2882832    0.1479263  54.34  0.001446051    1.723    0.420
       201 -12.2037     24.4326    163.5443   1.2391978798e+02   3.8602272381e+01    0.2864963    0.1869972  54.23 0.0004649238    1.297    0.229
       202 -10.2506     75.7711    162.0777   1.1161650759e+02   3.3182875267e+01    0.2051575     0.178076  69.78 0.0005611491    1.054    0.051
       203 -10.4227    126.3516    161.6214   9.9833829234e+01   2.5690375671e+01    0.2310617    0.1999618  30.36 0.0006949536    1.101    0.091
       204 -10.4437    140.4971    161.0257   9.6636079335e+01   2.3427169198e+01    0.2513693    0.1733857  40.39  0.000600514    1.309    0.236
       205 -11.1389     37.7075    159.9943   1.2052144033e+02   3.8063537507e+01    0.7011449    0.1754084  47.37  0.002831233    3.363    0.703
       206 -10.5363     30.1193    154.6342   1.2191878095e+02   3.9928660068e+01    0.3155082    0.1672996  43.85  0.001822508    1.670    0.401
       207 -10.0429     46.4064    166.5127   1.1902696103e+02   3.5813984030e+01    0.2573073    0.1236889  51.98  0.001002403    1.862    0.463
       208  -9.4950    114.0215    158.5072   1.0211308540e+02   2.8269002764e+01    0.1908157    0.1181449  38.81 0.0003599521    1.480    0.324
       209  -9.5282     66.1756    158.3904   1.1347969107e+02   3.5172135287e+01    0.1797246   0.09566986  46.39 0.0005475576    1.694    0.410
       210 -10.2240     99.8025    160.3803   1.0570439500e+02   3.0117573930e+01    0.1813274    0.1154159  28.62 0.0009484175    1.684    0.406
       211  -9.0038    183.3025    156.7358   8.7138449718e+01   1.6636361028e+01    0.1150439      0.10292  66.99 0.0002152363    1.521    0.343
       212  -9.7045    113.1758    153.8176   1.0154044759e+02   2.9300070176e+01    0.2006789    0.1650295  63.23 0.0007450214    1.271    0.213
       213  -9.1971     71.3245    154.2793   1.1171680606e+02   3.5365010729e+01    0.1151908   0.09802838 -18.53 0.0003154902    1.590    0.371
       214  -9.9136    207.1850    151.8912   8.1828081983e+01   1.3126690916e+01    0.1761468    0.1593906   7.92 0.0003410383    1.157    0.136
       215  -9.9909     10.2199    152.3581   1.2659191712e+02   4.2117013399e+01    0.1590441   0.08325417  41.82 0.0009525658    1.702    0.413
       216  -9.0384      1.4535    152.5602   1.2869357716e+02   4.2722075285e+01    0.1102687    0.0862876  74.31 7.832658e-05    1.014    0.014
       217  -8.8355     45.7007    151.7178   1.1780257790e+02   3.8969692487e+01    0.1087208   0.09128404 -38.86 0.0001702192    1.546    0.353
       218  -9.5025     86.0707    150.1701   1.0750266100e+02   3.4191448090e+01    0.1759174    0.1358647  65.53 0.0003291536    1.303    0.233
       219  -9.2822     14.9862    150.7253   1.2533878835e+02   4.2084009871e+01    0.1319561   0.09301816  35.87 0.0008771273    1.458    0.314
       220  -9.2429    159.5035    148.6320   9.0282607374e+01   2.2183950061e+01     0.133646    0.1180432  29.51 0.0001177185    1.043    0.041
       221  -9.9745     38.0708    148.1799   1.1938033303e+02   4.0528305486e+01    0.2906662    0.1500958  30.56  0.001559802    1.993    0.498
       222 -10.0716    201.7486    143.4338   8.1042014016e+01   1.5247250172e+01    0.2179537    0.1986641 -50.99  0.001023659    1.472    0.320
       223 -10.2133     15.3017    143.2681   1.2476969286e+02   4.3656152848e+01    0.2724175    0.1548043  16.97  0.001553926    2.278    0.561
       224  -9.5788      4.6789    143.1545   1.2744066687e+02   4.4481097073e+01    0.1543784   0.08408803 -74.59 0.0005730728    1.634    0.388
       225  -9.0815     21.2970    142.3253   1.2316704228e+02   4.3365460196e+01    0.1114924   0.08205169 -50.64 0.0006031212    1.627    0.386
       226  -9.7204    103.9794    139.7296   1.0133064701e+02   3.3593714826e+01    0.1801132    0.1671263  52.59 0.0003281054    1.019    0.019
       227 -10.5102     35.2255    138.9359   1.1922257254e+02   4.2832851981e+01     0.312115    0.1670021  51.11   0.00169169    1.750    0.429
       228  -9.3572     73.5168    139.0027   1.0905072867e+02   3.8320624332e+01    0.1827285   0.09742481 -41.54 0.0008097166    2.518    0.603
       229  -9.3752     25.4668    139.5618   1.2185808828e+02   4.3607963830e+01     0.118485   0.09890336  78.37 0.0001055032    1.009    0.009
       230 -10.4834    236.0136    137.7085   7.4187176460e+01   9.9658691864e+00    0.1761066    0.1451326  16.08 0.0006619744    1.119    0.106
       231  -9.3713     82.9790    138.4926   1.0649036225e+02   3.7096555659e+01    0.1770062    0.1184438   5.08 0.0007264774    2.532    0.605
       232 -10.1684     49.8485    136.2215   1.1499866660e+02   4.1890591602e+01    0.3046273    0.1675671 -47.06  0.001521838    2.186    0.543
       233  -9.3633     64.9797    135.0465   1.1074746507e+02   4.0320357985e+01    0.1495109    0.1349455  75.84 0.0003095426    1.008    0.008
       234  -9.2620     82.7548    134.6733   1.0592552338e+02   3.7951608463e+01    0.1252619    0.1001922 -33.15 0.0002553104    1.536    0.349
       235 -11.2433      9.5654    131.5033   1.2546047270e+02   4.6675329826e+01    0.3004197    0.1667565 -57.41 -9.912087e-07    1.890    0.471
       236 -10.9132     39.0922    131.5308   1.1738697045e+02   4.4100975345e+01    0.3740245    0.2052506  68.99  0.001220352    1.980    0.495
       237 -11.8518     27.9954    131.8059   1.2047519107e+02   4.5107879395e+01    0.3887604    0.2204074  53.77  0.002180147    1.670    0.401
       238 -10.2714    102.7257    132.1851   1.0025739615e+02   3.5359710334e+01    0.4540662    0.1851166  42.53   0.00183491    2.340    0.573
       239 -10.2062     57.0216    131.9498   1.1248190941e+02   4.2005273543e+01    0.2151522    0.1680585 -75.91 0.0006724899    1.208    0.172
       240 -10.4753     43.9472    132.2171   1.1612521575e+02   4.3437999088e+01    0.1967491    0.1490335  70.75 0.0006350008    1.235    0.190
       241 -10.3893     77.4913    129.2293   1.0643175951e+02   3.9904577045e+01    0.4105187    0.1263035  44.70  0.001471618    3.226    0.690
       242 -10.7718     20.3656    126.7974   1.2212451649e+02   4.6898366955e+01    0.2637623     0.226674 -19.89 0.0009217045    1.562    0.360
       243 -10.1205     92.0279    126.1193   1.0192210770e+02   3.8386964803e+01    0.2006568    0.1893093  68.77 0.0003161018    1.018    0.018
       244  -9.3568     30.1454    125.8325   1.1926962734e+02   4.6265161319e+01    0.1553441    0.1313345 -58.41 0.0003331694    1.284    0.221
       245  -9.6693    127.9909    124.8266   9.2404707157e+01   3.2377875593e+01    0.2051648    0.1825056   1.72 0.0004247731    1.229    0.186
       246 -10.1023     68.8253    123.1821   1.0783171581e+02   4.2465390792e+01    0.2920194    0.1269016  52.63  0.001163869    2.735    0.634
       247 -10.0055      5.5466    121.4293   1.2586781418e+02   4.9212829842e+01    0.1955377    0.1071061  75.28 7.615257e-05    1.645    0.392
       248 -11.3707      9.0803    118.4089   1.2463167281e+02   4.9661373608e+01    0.2952434     0.199573 -41.43 0.0008929101    1.850    0.460
       249 -10.8790      1.4090    115.9640   1.2667626070e+02   5.0714825573e+01    0.1736891    0.0940265 -84.59 0.0009909973    1.524    0.344
       250 -11.3451      5.9747    114.9967   1.2527333510e+02   5.0649982973e+01    0.2447033    0.1913366 -41.54            0    1.569    0.363
       251 -11.7203      5.0355    110.5539   1.2520854334e+02   5.1731927594e+01    0.4497617    0.2723632 -51.91  0.001846298    1.770    0.435
       252  -9.7789     21.7636    121.0118   1.2118345983e+02   4.8103575131e+01    0.2272918    0.1373288 -67.63 0.0006129034    1.484    0.326
       253 -10.3800     19.9885    118.2093   1.2142726521e+02   4.8893723551e+01    0.2425517    0.1620275  28.67  0.001085803    1.671    0.401
       254 -10.6084     92.2064    118.6729   1.0040887748e+02   3.9977957928e+01    0.3521525    0.2433544  58.97  0.001643833    1.606    0.377
       255 -10.2245     55.4005    118.2103   1.1091926696e+02   4.5329462762e+01    0.2132679    0.1750131  39.85 0.0005216599    1.274    0.215
       256  -8.9792    123.4411    121.4000   9.2765989130e+01   3.3910102123e+01     0.138721    0.1329405  51.50 0.0001014428    1.044    0.042
       257  -9.4177     30.4587    117.4961   1.1824748494e+02   4.8156284609e+01    0.1243525    0.1068809 -87.51 0.0002343943    1.025    0.025
       258  -8.7978    138.4871    115.5076   8.7739502957e+01   3.2146784125e+01    0.1423957    0.1378073  18.04 0.0008104934    1.008    0.008
       259  -9.3320     61.3831    115.2314   1.0865185116e+02   4.5267435246e+01    0.1907341    0.1193998 -77.88  0.000946221    1.688    0.407
       260  -9.6232     35.0399    115.2629   1.1659744076e+02   4.8242334027e+01    0.2217478     0.112653  55.58  0.001070242    2.100    0.524
       261  -8.9280    129.0469    114.0000   8.9664900689e+01   3.4306677387e+01    0.2459143   0.08034259  43.77 0.0002023554    3.012    0.668
       262 -11.3866    149.8610    111.1433   8.4038022389e+01   3.0645485845e+01    0.2324817    0.2140803  10.40 0.0002487223    1.069    0.065
       263  -9.9440     48.7012    111.5842   1.1189714881e+02   4.7659245446e+01    0.3204793    0.1242071  30.52  0.001344396    2.737    0.635
       264 -10.6642     20.2015    109.7216   1.2048560141e+02   5.0850771732e+01    0.2829221    0.1903451 -48.24  0.001283319    1.638    0.389
       265  -9.7636     92.4410    109.8055   9.8460217164e+01   4.1885763904e+01    0.2266036    0.1664925  33.25 0.0008424682    1.444    0.307
       266  -9.4022     84.0558    108.9494   1.0070337804e+02   4.3441603280e+01    0.1631061    0.1546745  61.68 0.0003513349    1.059    0.056
       267 -10.6526     36.8423    108.5200   1.1512992047e+02   4.9647011135e+01    0.2831117    0.1779314 -46.54   0.00127765    1.749    0.428
       268  -9.0262     13.3004    109.7195   1.2261662448e+02   5.1371684732e+01    0.1228681   0.07656452  65.04  0.000222678    1.545    0.353
       269  -9.9970     63.6342    106.2610   1.0633632685e+02   4.7048917525e+01    0.3951505    0.2149873  86.18   0.00105864    3.270    0.694
       270 -10.1770    237.4944    121.4904   7.0449289527e+01   1.1678115322e+01    0.1304447    0.1073536  -2.84 0.0008105818    1.007    0.007
       271  -9.5400    123.9664    104.7369   8.8664860464e+01   3.7154093282e+01    0.1936232    0.1816799  42.26 0.0003163487    1.065    0.061
       272 -10.8818     19.0576    103.0229   1.2009535398e+02   5.2517029754e+01    0.2351742    0.1633926  70.40  0.001407255    1.396    0.283
       273 -11.1219     43.3687    102.8803   1.1217919390e+02   5.0303148220e+01    0.2352753    0.1963351 -58.09 0.0007283436    1.174    0.148
       274 -11.4911     38.6971    100.5968   1.1333631066e+02   5.1337082763e+01    0.6202061    0.3129197   8.97  0.002573082    3.435    0.709
       275 -11.3489     50.6707    102.1250   1.0968169336e+02   4.9655401424e+01    0.4630719    0.1314384  41.66  0.001666024    3.491    0.714
       276  -9.1932    134.6901    101.7301   8.5197440366e+01   3.5563115789e+01    0.1453165    0.1141421   9.04 0.0002398113    1.544    0.352
       277  -9.7662      9.1513     99.8149   1.2296620326e+02   5.3975917714e+01    0.1917796    0.1351889  68.70 0.0009937177    1.345    0.257
       278  -9.7593     78.9723    100.0000   1.0025760614e+02   4.6263451675e+01     0.220087   0.07965885  36.62 0.0007935241    2.881    0.653
       279 -10.2301     74.9025    103.4942   1.0228490073e+02   4.6088413694e+01    0.2095504    0.1349314  38.58  0.001035778    1.604    0.377
       280 -11.4730     55.7857     96.5731   1.0695024946e+02   5.0340871381e+01    0.4640423    0.3118338  -8.40  0.001806947    2.397    0.583
       281 -10.0636     59.1074     90.2833   1.0450461102e+02   5.1390639673e+01    0.2323976    0.1679863 -52.41 0.0002961965    1.299    0.230
       282  -9.0323      3.6185     97.7473   1.2457920996e+02   5.4800326672e+01    0.1163153   0.07877683 -45.11 0.0006959774    1.659    0.397
       283 -10.3271     62.9701     96.0737   1.0447971838e+02   4.9514013076e+01    0.1988313     0.184842 -76.81 0.0002989409    1.014    0.014
       284  -9.8404     22.9514     95.7181   1.1788722457e+02   5.3945204300e+01    0.2424652    0.1498692  63.36  0.001095728    1.722    0.419
       285 -10.6491     38.4466     95.0332   1.1249969774e+02   5.2689027561e+01     0.237925    0.1904144  28.50  0.001434116    1.423    0.297
       286 -10.4680    117.4814     92.8727   8.7232903135e+01   4.0854374778e+01    0.4641242    0.3004444 -54.69  0.001256325    1.688    0.408
       287 -11.1496     48.0896     93.2386   1.0887897305e+02   5.2063828615e+01    0.3895249    0.2804864 -20.35  0.002052577    1.898    0.473
       288 -10.8419      1.4658     92.8958   1.2485860626e+02   5.6061334704e+01    0.2435359    0.1106972 -85.87 0.0003883256    1.892    0.471
       289 -10.4629     20.0756     81.9400   1.1690368175e+02   5.7475139766e+01    0.3414436    0.1728848  47.86  0.000516149    2.194    0.544
       290 -11.1564     26.9350     88.6889   1.1546633592e+02   5.5295281773e+01    0.5412883    0.2961304 -63.57  0.002465461    1.546    0.353
       291 -10.1948     17.7179     91.5841   1.1913488773e+02   5.5338894167e+01    0.2007118     0.182492  62.54 0.0007883257    1.182    0.154
       292 -12.1622     21.1815     87.9697   1.1741127727e+02   5.5941317359e+01    0.2436246    0.2266401 -80.19 0.0003313607    1.112    0.100
       293  -9.8177    104.6634     91.1373   9.0326318199e+01   4.3740334505e+01    0.2467767    0.1921583  52.97 0.0005401597    1.361    0.265
       294 -11.0449      7.0854     90.4335   1.2269373438e+02   5.6324298830e+01    0.2602604    0.1703186 -82.91 0.0006434447    1.272    0.214
       295 -10.5931     88.0427     88.9187   9.4706421796e+01   4.7257923035e+01    0.2230374    0.2094623 -38.73  0.000678619    1.069    0.064
       296  -9.9865      2.8052     87.6710   1.2389993253e+02   5.7223806216e+01    0.1933855    0.1328572 -73.25 0.0004039125    1.194    0.163
       297  -9.7290     64.1326     86.8422   1.0199590536e+02   5.1505419758e+01    0.1927582    0.1618839 -27.06  0.001076737    1.357    0.263
       298 -10.6778    155.1114     85.3647   7.5921872670e+01   3.4099971341e+01     0.248832     0.205612 -36.06 0.0003475327    1.194    0.162
       299  -9.7259    128.3221     85.9347   8.2411460696e+01   3.9960854169e+01    0.2559605    0.2027043  57.22 0.0007331064    1.365    0.267
       300  -9.8278     10.6643     85.2990   1.2083278367e+02   5.7326978165e+01    0.2228666    0.1698005  67.67  0.001056161    1.315    0.240
       301 -12.0867     14.5823     83.6999   1.1919566432e+02   5.7450745468e+01    0.2433455    0.2010379  76.18 0.0002592838    1.187    0.158
       302 -10.1958     51.0987     76.5613   1.0414413843e+02   5.5650977702e+01    0.3050885    0.1861609 -39.91  0.001482267    1.763    0.433
       303 -12.0374     50.9348     83.1982   1.0577251745e+02   5.4106355429e+01    0.4464212    0.2898206  14.82   0.00150399    2.042    0.510
       304 -10.6360     55.0673     77.9915   1.0303224455e+02   5.4806849983e+01     0.230777    0.1920923 -50.19 0.0003857274    1.124    0.110
       305 -11.3207     73.0910     81.3021   9.7529311563e+01   5.1441252150e+01    0.4612594    0.2404065 -48.32  0.001654414    1.802    0.445
       306 -10.4824     43.7233     81.1716   1.0795082137e+02   5.5435300942e+01     0.317649    0.2257873 -18.82  0.001250496    1.887    0.470
       307  -9.1159    120.7451     80.3329   8.2721168725e+01   4.2675842558e+01    0.1471628    0.1171935 -70.58 0.0006944504    1.563    0.360
       308  -9.8661     89.9592     78.9889   9.1322642157e+01   4.9089373781e+01    0.2401157    0.1818217  84.92  0.001135415    1.836    0.455
       309  -9.7056     18.4110     77.5056   1.1682972302e+02   5.8666206259e+01    0.2109286    0.1323661 -80.81  0.000450512    1.439    0.305
       310 -10.1709     17.7229     74.1520   1.1654536766e+02   5.9522673239e+01    0.3148835    0.1891581 -28.45  0.001648745    2.129    0.530
       311 -11.2323     62.6718     75.3466   9.9569378801e+01   5.4373104441e+01    0.3538232    0.2519152  48.32  0.001140853    1.556    0.357
       312  -9.9469     28.5620     75.2003   1.1247630264e+02   5.8393351363e+01    0.3536037    0.1270704 -56.24  0.001501125    2.253    0.556
       313  -8.9626    173.4560     75.5041   6.9318132345e+01   3.1461961900e+01    0.1481479    0.1403072 -15.16 0.0001006345    1.022    0.022
       314 -10.6552     69.6128     74.2663   9.6779872585e+01   5.3577757828e+01    0.2472433    0.2235412 -64.43 0.0005474484    1.084    0.078
       315  -9.5015     80.9592     74.2483   9.2853978221e+01   5.1717515512e+01    0.1878728    0.1857449 -89.75 0.0003284666    1.066    0.062
       316  -9.2291    142.7829     72.9511   7.4935198123e+01   3.9095124556e+01    0.2024368    0.1213397 -33.49 0.0008532153    1.643    0.391
       317 -10.2335     89.1815     71.8180   8.9386110146e+01   5.0767381219e+01    0.2585451    0.1803565 -33.64  0.000595544    1.503    0.335
       318  -9.8201     89.3642     67.8135   8.8038811003e+01   5.1575830271e+01    0.2531124    0.1697623 -20.32  0.001107324    1.989    0.497
       319 -11.0577     42.0397     70.9914   1.0624961791e+02   5.8040043315e+01    0.2702198    0.2011394 -47.58            0    1.258    0.205
       320 -10.9236     45.3320     68.8575   1.0441106544e+02   5.8162268029e+01    0.5761657    0.2551175 -33.05  0.001966665    3.999    0.750
       321 -10.4941     79.7594     70.0161   9.1962993606e+01   5.2847856927e+01    0.2151461    0.2050267  33.36 0.0003930166    1.114    0.102
       322 -10.8347     52.6178     69.6452   1.0177233629e+02   5.7071281009e+01    0.2567679     0.218154 -87.77 0.0008471434    1.290    0.225
       323 -11.4431     56.0870     66.2160   9.9460509483e+01   5.7394462783e+01    0.3437554    0.2908043 -80.19  0.001286437    1.289    0.224
       324 -10.3966      1.4172     69.9934   1.2243186949e+02   6.1502365430e+01    0.1900151   0.09770164 -76.40 0.0006300096    1.568    0.362
       325  -9.8020      1.3413     66.1435   1.2196261158e+02   6.2424015856e+01    0.2582366    0.1002987 -82.38 0.0004938461    2.338    0.572
       326 -10.7783      1.7622     61.1531   1.2108415411e+02   6.3593171698e+01    0.3562559     0.154686 -59.55  0.001171732    1.803    0.445
       327 -10.8872      9.6088     62.5439   1.1791580553e+02   6.2842253902e+01    0.2713131    0.2531052  56.28  0.001075687    1.242    0.195
       328 -11.5030      5.7741     58.1904   1.1885128705e+02   6.4097038834e+01     0.440996    0.3090008  66.71  0.002114438    1.590    0.371
       329  -9.7971     36.1440     68.6050   1.0803006261e+02   5.9239585697e+01    0.2211873    0.1317414 -58.15 0.0005431993    1.433    0.302
       330 -10.1761    105.9851     67.0733   8.2628274137e+01   4.8407733579e+01    0.2219793    0.2147551   5.38 0.0004916457    1.042    0.040
       331  -9.6981     75.3642     66.3097   9.2320495679e+01   5.4406161943e+01     0.231111    0.1727861  23.87 0.0003613664    1.553    0.356
       332  -9.4956    101.4820     64.0628   8.2953111149e+01   4.9937241880e+01    0.2199048    0.1422328 -39.37  0.000429626    1.493    0.330
       333  -9.8785     31.1311     64.2713   1.0906864336e+02   6.0764697194e+01    0.2416157    0.1772555  53.72  0.001375732    1.585    0.369
       334 -12.2828     23.7865     58.1555   1.1079127356e+02   6.2872256193e+01    0.4632265    0.2638749 -57.70 0.0007649243    1.445    0.308
       335 -10.3191     98.1429     60.8579   8.2864351791e+01   5.1254425677e+01    0.2171946    0.2028517 -75.41  0.000577995    1.197    0.164
       336 -10.4766     73.5238     61.4183   9.1372611765e+01   5.5773262358e+01    0.2930282    0.2155275  27.03 0.0006483331    1.542    0.351
       337 -10.1552     70.6377     59.7205   9.1858723614e+01   5.6622226911e+01    0.3567846    0.2124846  30.23  0.001553454    1.958    0.489
       338  -9.9008     38.6091     60.7081   1.0499472666e+02   6.0835052465e+01    0.2051038    0.1489662  55.16 0.0003909653    1.656    0.396
       339 -11.0252     32.3274     59.1642   1.0728167396e+02   6.1852413643e+01    0.2967508    0.2069005  26.21  0.001672151    1.652    0.395
       340  -9.4144     16.4558     60.4593   1.1454274511e+02   6.2893073198e+01    0.1265101    0.1067768 -74.91 0.0001770862    1.073    0.068
       341  -9.1119    238.4599     58.5787   5.5131425305e+01   1.9072279610e+01     0.131979    0.1151603 -21.29 0.0001079587    1.010    0.010
       342 -10.7166     53.3607     56.1457   9.7431505031e+01   6.0043652593e+01    0.3788822    0.2358455 -75.69  0.001093211    2.329    0.571
       343  -9.0384     48.2805     58.3632   1.0024256745e+02   6.0223327422e+01    0.1435921    0.0940425 -33.06 0.0007014183    1.677    0.404
       344  -9.7782    105.7486     56.9663   7.9165384920e+01   5.0390940090e+01    0.2892852    0.2189275 -70.98  0.001342645    1.791    0.442
       345 -10.2049    225.9044     55.8727   5.5848541355e+01   2.2057129973e+01    0.2016612    0.1772113 -20.18 0.0003875983    1.016    0.015
       346  -9.3816    249.7818     55.0656   5.3065619893e+01   1.7159348240e+01    0.1749924   0.08973437 -25.85  0.000396181    1.627    0.386
       347 -10.1594    118.5912     55.1825   7.4921002795e+01   4.7832970260e+01    0.2140039    0.1426042 -21.43 0.0003961457    1.663    0.399
       348 -11.1742     94.5268     49.3952   7.9758063584e+01   5.4189845992e+01    0.4913148    0.3474017 -32.95 0.0009877566    1.372    0.271
       349 -10.3411    151.2267     53.3151   6.6653505465e+01   4.0255945578e+01    0.2429329    0.2139662  20.95 0.0003523157    1.174    0.148
       350 -11.0657     72.2513     52.4183   8.8659516221e+01   5.7884519110e+01    0.5101635    0.1780633 -46.92  0.001484255    2.683    0.627
       351 -10.2997     32.9384     54.4875   1.0573953963e+02   6.2881464740e+01    0.2404796     0.168876  -3.14  0.001300685    1.836    0.455
       352 -10.0434     28.8822     53.1916   1.0721733845e+02   6.3581400855e+01    0.1866363    0.1656418 -85.72  0.000578966    1.205    0.170
       353 -11.6243     42.4820     51.1055   1.0043796220e+02   6.2588362286e+01    0.5567461    0.2923977 -35.03  0.002393776    2.192    0.544
       354  -9.8387     22.6202     48.7624   1.0893833789e+02   6.5172486720e+01    0.2949775    0.1544254 -74.49  0.001160555    2.041    0.510
       355 -10.6123     19.6243     40.9450   1.0818966330e+02   6.7221830740e+01    0.4166198    0.2768892  42.86  0.002369669    1.828    0.453
       356 -10.5350      3.5861     33.6426   1.1479839669e+02   6.9962677906e+01     0.565846    0.2450116 -22.00  0.002532688    3.161    0.684
       357 -10.1786     16.4740     51.5591   1.1258205041e+02   6.4999991567e+01    0.2357761    0.1519174 -66.32 0.0005015151    1.301    0.231
       358 -11.1414     17.2840     47.0523   1.1107487257e+02   6.5995567441e+01    0.2656502    0.2219185 -20.26  0.000421472    1.329    0.247
       359 -11.3974      5.9257     39.3925   1.1495529944e+02   6.8513069580e+01    0.4691086    0.4498531 -14.45  0.002315934    1.238    0.192
       360 -12.9794     12.3426     44.3943   1.1286003448e+02   6.6962935453e+01    0.6150925    0.2283942 -48.60 0.0007854076    2.237    0.553
       361 -11.9650     13.6121     36.7854   1.1012502682e+02   6.8629712663e+01    0.4734824    0.2485399 -73.83  0.001640482    1.955    0.488
       362 -11.1025     65.7247     49.5873   9.0112275658e+01   5.9577568648e+01    0.3304211    0.2365571 -47.71  0.001356307    1.301    0.232
       363  -9.4394     79.9730     49.4632   8.4706644926e+01   5.7078059296e+01    0.2009408    0.1434206  44.05 0.0003024799    1.494    0.331
       364 -10.3734    114.3381     47.3033   7.3117546208e+01   5.0165275078e+01     0.257943    0.2125108 -23.34 0.0002458732    1.198    0.166
       365 -10.0264     60.5483     52.1271   9.3114502911e+01   5.9868777155e+01    0.2273386    0.1957809  33.26  0.001304326    1.268    0.211
       366  -9.2229     31.4810     47.9356   1.0447278215e+02   6.4536669811e+01    0.1820973    0.1122486 -56.55 -0.0001067338    1.378    0.274
       367  -9.4641    165.0200     46.0009   6.1590813786e+01   3.7839305342e+01    0.1758274    0.1649081 -19.27            0    1.032    0.031
       368  -9.8594    124.0820     45.8548   7.0049230437e+01   4.8089157118e+01    0.2283389    0.2040746 -71.84 0.0006832099    1.289    0.224
       369 -10.7377     61.8796     44.8563   8.9835332179e+01   6.1182379130e+01    0.2988316    0.2037919 -36.18 0.0006372202    1.389    0.280
       370  -9.9737     42.7848     44.6719   9.8094686363e+01   6.3977856641e+01    0.2327698    0.1555429 -44.38 0.0005380871    1.320    0.243
       371 -10.4655    141.4749     42.7659   6.4946891790e+01   4.4253355148e+01    0.3347755    0.2435108 -20.22  0.001142635    1.398    0.285
       372 -12.2001     70.7942     38.4288   8.3608428935e+01   6.0908069090e+01    0.5959808    0.2673305 -35.15 0.0005867459    2.255    0.557
       373 -10.1406     33.1985     43.9324   1.0236126353e+02   6.5261593581e+01    0.2025629    0.1727525  68.10 0.0008540183    1.454    0.312
       374  -9.5427    199.9801     43.5056   5.5558007981e+01   2.9479440481e+01    0.1999759    0.1407429  62.45 0.0004318955    1.506    0.336
       375  -9.5172    151.6300     41.2427   6.2382321448e+01   4.1889672612e+01    0.2170259    0.1417009 -12.23 0.0008940958    1.712    0.416
       376  -9.4480     91.3454     41.2876   7.7516207370e+01   5.6321993232e+01    0.1506179    0.1115068  11.49 0.0005866702    1.652    0.395
       377 -11.8036    103.5866     38.9922   7.2799834530e+01   5.4015460351e+01    0.2599285    0.2482868 -31.70 0.0003532407    1.075    0.070
       378 -11.2677     41.5715     38.0719   9.6176162002e+01   6.5554425022e+01    0.3971278    0.2994524 -27.20 0.0009489654    1.334    0.251
       379 -10.1602     82.2011     39.1568   7.9706447079e+01   5.8585366523e+01    0.2235055    0.2059311  26.55 0.0004254033    1.117    0.104
       380 -10.1787     85.9750     37.2118   7.7562912588e+01   5.8158722685e+01    0.2382244    0.1945365 -29.14 0.0004982315    1.159    0.137
       381  -9.9764     86.9119     33.1721   7.5462151236e+01   5.8646761246e+01    0.2481769    0.1946646 -41.69 0.0005950767    1.289    0.224
       382  -9.7801    156.1556     36.8847   6.0015003423e+01   4.1308259397e+01    0.2132721    0.1976828 -60.53 0.0003045982    1.141    0.123
       383  -9.4136     90.9916     37.4759   7.6014693267e+01   5.7055487291e+01    0.2025051    0.1438897  47.60 -1.285228e-05    1.460    0.315
       384 -10.1737    208.4806     36.0288   5.2339963302e+01   2.8303000736e+01    0.3027959    0.1337402  33.96  0.001048117    3.523    0.716
       385 -12.2184    193.8596     35.2711   5.3857891524e+01   3.1931030344e+01    0.2709873    0.2597608 -32.54 0.0003267621    1.019    0.018
       386  -9.8374    198.4967     35.4519   5.3339200934e+01   3.0772208668e+01    0.2501329    0.1556075  41.56 0.0006561807    1.778    0.437
       387  -9.0807    176.3380     36.2841   5.6563050631e+01   3.6208473476e+01    0.1529182    0.1064776  30.68 0.0007013637    1.628    0.386
       388  -9.9329    142.4773     36.0233   6.2256141927e+01   4.4935874984e+01    0.2404226    0.2014636  41.20 0.0003966724    1.198    0.165
       389 -10.8728    142.5044     31.4261   6.0525658547e+01   4.5530585773e+01    0.4596296    0.2828334 -13.93  0.001134599    1.787    0.440
       390 -10.0411    131.4777     36.2483   6.4635948895e+01   4.7699021877e+01    0.3077803    0.1984609  60.99 0.0004150312    1.606    0.377
       391 -10.6601    119.2601     33.8983   6.6525512737e+01   5.1073517940e+01    0.3717983    0.2857551 -77.35  0.001766618    1.722    0.419
       392 -11.3094     76.7587     33.7407   7.9276290279e+01   6.0627412577e+01    0.3491583    0.2911339 -74.01   0.00184916    1.617    0.381
       393 -10.9029     55.7453     33.8652   8.7839298257e+01   6.4365213488e+01    0.5119261    0.3596264 -59.90  0.001723106    1.724    0.420
       394 -10.1809     60.5519     32.9996   8.5362615177e+01   6.3738162733e+01    0.3686243    0.3090239 -82.21  0.002018218    1.685    0.406
       395 -10.6139    116.9221     37.9438   6.8750169236e+01   5.1045690477e+01    0.5079087    0.3493958  85.04  0.001618173    2.138    0.532
       396  -8.8234     66.3104     33.3008   8.3109251549e+01   6.2675226979e+01    0.1416299    0.1048831  -3.83 0.0002464722    1.604    0.376
       397  -9.1778     29.2997     33.7136   1.0065404552e+02   6.7927789710e+01    0.1185459   0.09959015  83.73 0.0003118921    1.555    0.357
       398 -11.7689    107.7093     29.1074   6.7440976637e+01   5.4561748684e+01    0.3955747    0.2616552 -21.41 0.0004009111    1.534    0.348
       399 -10.2381    206.4040     31.3877   5.1219943137e+01   2.9304732529e+01     0.237112    0.1721314  73.80 0.0005793301    1.500    0.333
       400 -10.3126    158.8826     30.1804   5.7180689907e+01   4.1435407540e+01    0.2517719    0.2239707  19.31 0.0006836476    1.162    0.139
       401  -9.4835     48.6104     31.3778   8.9981321457e+01   6.5952108527e+01    0.2464959    0.1125343  51.00 0.0009338638    3.452    0.710
       402  -9.9969     33.5676     30.1284   9.6950064107e+01   6.8211799194e+01      0.36947    0.2013473 -70.00  0.001526889    3.008    0.668
       403 -10.2234    200.9404    249.0656   9.8359976731e+01   2.9193552535e+00      0.15979    0.1094056  23.28 0.0005559606    1.029    0.028
       404  -9.9228     24.2586     30.9239   1.0229826556e+02   6.9043646512e+01     0.217969    0.1819274 -65.68 0.0005845781    1.246    0.197
       405 -10.4444     23.0717     27.0234   1.0141930589e+02   6.9997580584e+01    0.2074004     0.153888 -50.59 0.0002822541    1.144    0.126
       406 -10.9716    197.9075    240.4836   9.7774812251e+01   4.1290148836e+00    0.1987768    0.1447352  28.16 0.0003763928    1.121    0.108
       407  -9.8392     10.2074     22.4302   1.0732350804e+02   7.2071882945e+01    0.1902481    0.1176335  27.54 0.0004326288    1.905    0.475
       408 -11.3544    201.2976    244.8685   9.7785595034e+01   3.2701331950e+00    0.2651951    0.1462917  33.38  0.001094077    1.338    0.253
       409  -9.6196    163.5304     30.0080   5.6381547016e+01   4.0248734011e+01    0.2208725    0.1427987 -22.63 0.0004166685    1.527    0.345
       410 -10.3571    221.0498     28.8213   4.8991802789e+01   2.6131021965e+01    0.2216803    0.1683407 -52.98  0.001236321    1.317    0.241
       411 -10.5653     71.5396     29.0485   7.9059584082e+01   6.2456586695e+01    0.3172522    0.1945442  45.42  0.001521269    1.729    0.422
       412  -9.7607     45.6672     24.3325   8.8069080276e+01   6.7746542707e+01    0.1754714    0.1294025 -50.69 0.0009651849    1.405    0.288
       413  -9.8845    181.5143     27.9942   5.3145841406e+01   3.5845816952e+01    0.2297378    0.1383088 -22.15  0.001041302    1.617    0.382
       414  -9.7413     38.6789     27.3753   9.3060708567e+01   6.8136858491e+01    0.2659138    0.1892003  73.23  0.001163444    2.633    0.620
       415 -10.8697    204.7560     26.9515   5.0093383875e+01   3.0171360168e+01    0.3070597    0.1538516 -37.22  0.001037595    1.802    0.445
       416 -11.2303     49.3084     27.3606   8.7781547575e+01   6.6623442301e+01    0.3560747    0.2745409  81.36 0.0009535197    2.229    0.551
       417 -11.8064    204.2722    240.5229   9.6763532600e+01   3.3062293081e+00    0.2803826    0.1650912  19.35 0.0002684174    1.424    0.298
       418  -9.8246     77.8757    248.2726   1.1894051898e+02   1.8331590083e+01    0.1754205    0.1128677  77.29 0.0008934097    1.794    0.443
       419  -9.6639    243.1766     24.8746   4.6041852303e+01   2.1629561496e+01    0.1680628    0.1416356   8.13 0.0004324576    1.306    0.234
       420 -10.5175    153.5142     23.1828   5.5519195297e+01   4.3646839602e+01    0.2681343    0.2191747  41.72 0.0005458334    1.236    0.191
       421  -9.3487    188.3297     23.3193   5.0809172379e+01   3.4615960776e+01    0.1500185    0.1024701  30.91 0.0003330448    1.688    0.407
       422 -11.5215    176.3790     22.1018   5.1872355988e+01   3.7796701834e+01    0.4431631    0.2439424  40.44   0.00135158    2.040    0.510
       423 -11.2374    134.0895    240.9481   1.0856118521e+02   1.2437772207e+01    0.1861178    0.1698978 -71.60 0.0003893877    1.506    0.336
       424 -10.2436    169.7878     23.1585   5.3101367591e+01   3.9392801042e+01    0.2161831    0.1893289 -49.88 0.0003833871    1.154    0.133
       425 -12.0055    116.9203     22.6115   6.2329169648e+01   5.3174945785e+01    0.2613509    0.2252155 -16.17  0.000226953    1.143    0.125
       426 -10.2574    121.7457     20.8336   6.0488456625e+01   5.2174655265e+01    0.2979678    0.2076148  79.44  0.001183837    1.719    0.418
       427 -10.8817    131.8397     21.3399   5.8630243356e+01   4.9522044636e+01    0.3357304    0.2583233 -78.34 0.0007795134    1.580    0.367
       428  -9.9933    101.8636     20.0775   6.4923993985e+01   5.7190994352e+01    0.3956068    0.1716733 -25.20  0.001496745    2.304    0.566
       429 -10.0956     93.0332     19.7727   6.7254360661e+01   5.9306811082e+01    0.3371975     0.237269 -47.26  0.001176375    1.617    0.382
       430 -10.6327     89.4700     19.4400   6.8161380058e+01   6.0165901580e+01    0.4117347    0.2264715 -37.59   0.00182967    1.816    0.449
       431 -10.8787     37.9549     21.4436   9.0585565943e+01   6.9393760714e+01    0.4547641    0.2145782  35.79  0.002121864    2.355    0.575
       432 -10.0391     27.3641     20.9252   9.6241834228e+01   7.0812281608e+01    0.3527217    0.1762249 -31.31  0.001622077    2.224    0.550
       433 -11.7597    136.9740    245.4312   1.0850930201e+02   1.1514166828e+01    0.2321428    0.2037399  -4.22  0.001980417    1.412    0.292
       434 -10.3767    225.4286     21.2164   4.6509102186e+01   2.5885893680e+01    0.1943887    0.1048676 -34.33 0.0006135947    1.595    0.373
       435 -10.7397    219.5096     19.9975   4.6679506148e+01   2.7364667738e+01    0.2129094    0.1210839 -23.76  0.001035194    1.599    0.374
       436  -9.4537    190.4362     20.4316   4.9660220767e+01   3.4379479059e+01    0.1379084     0.132454 -35.65 6.445042e-05    1.006    0.006
       437  -9.8947    140.8071     20.6394   5.6687796909e+01   4.7265071019e+01    0.2033744    0.1405892  80.43 0.0004276743    1.644    0.392
       438 -11.1280    199.2307     17.7798   4.7919899078e+01   3.2445734135e+01    0.2985429     0.256889  24.63  0.001707521    1.269    0.212
       439  -9.9542     65.5285     19.2398   7.6498635796e+01   6.5225978894e+01    0.1901163    0.1244997 -20.62 0.0003195217    1.545    0.353
       440 -10.0580     80.7919     17.5537   6.9990101714e+01   6.2350346837e+01    0.2633853    0.2425717 -76.24 0.0009144362    1.357    0.263
       441 -10.6673     97.0570    246.1833   1.1547835879e+02   1.6385058448e+01    0.2473039    0.1612346 -56.66  0.001874146    2.046    0.511
       442  -9.5989     61.5378     18.0287   7.7494117936e+01   6.6172163916e+01    0.1977879    0.1246674 -29.64 0.0003076712    1.478    0.323
       443  -9.3584     57.9675     18.7672   7.9426930110e+01   6.6705367872e+01    0.1681331    0.1120399  40.53  0.000645354    1.586    0.370
       444 -10.2242     46.9288     17.8572   8.4078699764e+01   6.8726294075e+01    0.3606769    0.2494937  72.29  0.001624912    3.060    0.673
       445  -9.4034    157.7883     17.5803   5.2821610884e+01   4.3123298304e+01    0.1910536    0.1400145  87.94 0.0002956277    1.516    0.340
       446 -10.0305    229.9932     16.0356   4.4745581780e+01   2.5344008544e+01    0.2160967    0.1275975 -49.91  0.000570579    1.626    0.385
       447 -10.5675    112.8084     15.6456   6.0185481697e+01   5.5042585845e+01    0.3151405    0.2472879  37.27 0.0008199131    1.251    0.201
       448 -10.2242    210.7013    247.0169   9.6581740436e+01   1.8897498432e+00    0.1880855    0.1275033  35.07  0.000698915    1.359    0.264
       449  -9.9617     23.5196     16.4522   9.6348954367e+01   7.2129149438e+01    0.1822406    0.1509726 -31.74  0.001045984    1.027    0.026
       450 -10.8183    207.0563    245.7154   9.6985432858e+01   2.4640225336e+00    0.1868884    0.1365689   9.72 0.0006908294    1.192    0.161
       451 -10.6261     46.1249    245.8873   1.2423225649e+02   2.2075282620e+01    0.2529129    0.1235227  65.84  0.001740179    1.924    0.480
       452  -9.5424     89.0005     13.7730   6.5458209634e+01   6.1014514802e+01    0.1927846    0.1715896  37.36            0    1.107    0.096
       453 -11.4297     73.5106    244.4004   1.1944315517e+02   1.9363502509e+01    0.1925372    0.1046215  46.46 7.789373e-05    1.333    0.250
       454 -11.9036     76.0381    241.9922   1.1884387575e+02   1.9419799946e+01    0.2521861    0.1694675  52.16 0.0004892429    1.158    0.137
       455 -10.6865    191.0098    240.9039   9.8941581550e+01   4.9810656099e+00    0.2291979    0.1587536 -43.23  0.001619272    2.139    0.532
       456 -10.9846    145.9518    242.9404   1.0671633132e+02   1.0653349010e+01    0.1839387    0.1451107  26.80 0.0004093423    1.126    0.112
       457 -10.1550    132.8913     12.8747   5.4964444763e+01   5.0170673374e+01    0.2481123     0.215638 -87.66 0.0007085922    1.256    0.204
       458 -11.4439    144.7030    238.2376   1.0643356161e+02   1.1384967843e+01    0.2353968    0.1521898  30.18 0.0002551565    1.242    0.195
       459 -10.8370     91.7192    242.3273   1.1611454251e+02   1.7547384948e+01    0.1940042    0.1321495  45.75  0.000417586    1.088    0.081
       460  -8.8007     83.3306    243.7027   1.1768532616e+02   1.8341469292e+01    0.1064306   0.05674256  54.69 0.0007028402    1.640    0.390
       461 -10.3358    110.9097    241.8496   1.1270211199e+02   1.5272196887e+01    0.1511279    0.1163388  30.31 0.0005348334    1.218    0.179
       462  -9.9203     55.5274    241.6680   1.2240374396e+02   2.1717641418e+01    0.2310108    0.1166694  75.41  0.001166341    2.259    0.557
       463 -11.3024    116.0731    249.4311   1.1246386048e+02   1.3650263584e+01    0.2979209    0.1786282  39.65  0.002122105    1.205    0.170
       464 -10.8882    119.8533    239.0199   1.1087023778e+02   1.4517742561e+01    0.2825815    0.1887411 -49.30  0.001657152    1.992    0.498
       465 -11.2136     96.1692    238.4422   1.1502251988e+02   1.7552353845e+01    0.3245442    0.1498982  46.01  0.002024784    1.660    0.398
       466 -10.7421    246.4363    239.7805   9.0248641803e+01  -1.8326344045e+00    0.1963848    0.1426823  44.30  0.001482917    2.184    0.542
       467  -9.4880     63.3764    238.7955   1.2086566517e+02   2.1295683261e+01    0.1558509   0.09463934  37.21 0.0005384734    1.348    0.258
       468  -9.5016     84.0007    237.9953   1.1715540223e+02   1.9070617864e+01    0.1729372   0.09134941  55.74   0.00112855    1.722    0.419
       469 -10.0254    225.9322    240.4899   9.3392924057e+01   5.8277889507e-01    0.1486937   0.07426448  32.23  0.000397582    1.490    0.329
       470  -9.4507    217.5025    237.0196   9.4223381153e+01   1.9484592809e+00    0.1283294   0.09075985 -13.98 0.0003489429    1.492    0.330
       471 -10.8591    103.4357    235.1309   1.1344451087e+02   1.7120173475e+01    0.4228576    0.2227644  30.83  0.002651988    1.716    0.417
       472 -10.4281     43.1445    235.7762   1.2425881574e+02   2.3878051577e+01    0.2218363     0.143471  61.28   0.00143036    1.238    0.192
       473  -9.5483    160.4952    236.1567   1.0347175081e+02   9.5344950951e+00    0.1218708    0.1052139 -25.83 0.0004678194    1.466    0.318
       474  -9.8593     30.8187    236.2427   1.2642596948e+02   2.5017205995e+01    0.1192074    0.1025651  43.55 0.0008207902    1.340    0.254
       475 -10.0412    249.8757    235.1704   8.9105165453e+01  -1.8690963238e+00    0.1422232    0.1056128  15.79 0.0005029279    1.222    0.182
       476 -10.1914    246.2469    233.3719   8.9377863600e+01  -1.2897820330e+00    0.1623672   0.08029949  41.51 0.0002896058    2.190    0.543
       477  -9.9125    242.2706    233.9866   9.0049096987e+01  -8.6085696904e-01    0.1108182   0.07408304  -9.95 0.0003210806    1.418    0.295
       478  -9.8071    197.1861    233.6290   9.7008279935e+01   4.9115399541e+00    0.1594829    0.1045765  38.47 0.0006824355    1.393    0.282
       479  -9.4964    156.7962    233.6667   1.0382209182e+02   1.0326161652e+01     0.124752    0.0869193 -59.46  0.000524119    2.258    0.557
       480 -10.5410    168.0446    238.6356   1.0247441106e+02   8.2443348186e+00    0.1935265    0.1530501  45.06 0.0007906615    1.387    0.279
       481  -9.6891    229.7675    233.3824   9.1838169146e+01   7.3159185174e-01    0.1856958   0.09395537  26.69  0.001008748    1.497    0.332
       482 -10.2077    174.8285    232.8088   1.0062284080e+02   7.9914929915e+00    0.2397407    0.1035009  23.81  0.001170611    2.816    0.645
       483  -9.6628    143.3875    228.7473   1.0562104468e+02   1.2753036055e+01    0.1319563    0.1140609 -51.43 0.0004557187    1.542    0.352
       484 -10.5160     74.9364    231.8259   1.1833864405e+02   2.1031583640e+01    0.1980214    0.1422863 -64.55 0.0009681783    1.742    0.426
       485 -11.2756     72.9463    226.1942   1.1829866989e+02   2.2118197633e+01    0.2980071    0.1197434  44.56  0.001118141    1.840    0.456
       486 -10.0785     47.9777    231.4973   1.2318312233e+02   2.4039568172e+01      0.17165    0.1025432  65.10 0.0003101175    1.465    0.318
       487 -10.5422     45.6087    228.2193   1.2343374999e+02   2.4795325821e+01    0.2204415    0.1579299 -74.74  0.001186886    1.625    0.385
       488  -8.9262     34.6672    232.7236   1.2560471498e+02   2.5187764545e+01   0.08136194   0.07363531  15.33 0.0002549708    1.601    0.376
       489 -10.6660     29.4706    231.1873   1.2645203434e+02   2.5926563882e+01     0.178722     0.129393  80.45 0.0004406934    1.324    0.245
       490 -10.5939     24.1427    231.4753   1.2739634883e+02   2.6380726177e+01    0.2032283    0.1400051  54.82 0.0008137682    1.024    0.023
       491  -9.5216     24.1714    227.4471   1.2723562429e+02   2.7013022117e+01    0.1431256   0.07397606  39.70 0.0005134139    1.502    0.334
       492  -9.4358    186.6825    230.6634   9.8354450069e+01   6.6275331860e+00    0.1109629    0.0678779  12.96 0.0007048638    1.700    0.412
       493 -10.9912    153.1319    226.9646   1.0367864083e+02   1.1647964555e+01    0.2416865      0.20951 -25.41  0.001080253    1.428    0.299
       494  -9.9475    149.5220    225.5202   1.0415072559e+02   1.2328204680e+01    0.1563611    0.1412954  61.54 0.0005060486    1.402    0.286
