#   1 NUMBER                 Running object number                                     
#   2 MAG_AUTO               Kron-like elliptical aperture magnitude                    [mag]
#   3 X_IMAGE                Object position along x                                    [pixel]
#   4 Y_IMAGE                Object position along y                                    [pixel]
#   5 X_WORLD                Barycenter position along world x axis                     [deg]
#   6 Y_WORLD                Barycenter position along world y axis                     [deg]
#   7 A_WORLD                Profile RMS along major axis (world units)                 [deg]
#   8 B_WORLD                Profile RMS along minor axis (world units)                 [deg]
#   9 THETA_WORLD            Position angle (CCW/world-x)                               [deg]
#  10 FWHM_WORLD             FWHM assuming a gaussian core                              [deg]
#  11 ELONGATION             A_IMAGE/B_IMAGE                                           
#  12 ELLIPTICITY            1 - B_IMAGE/A_IMAGE                                       
         1 -11.8528     51.6579     88.8214   1.2389376987e+02   5.3290985294e+01      2.13902    0.4303592 -53.32  0.006930635    3.664    0.727
         2 -12.1853     14.4721     60.7599   1.3087012915e+02   6.2863149121e+01     1.408672     1.109754  49.71   0.00929574    1.640    0.390
         3 -10.4802    107.2287     30.1883   8.5897619090e+01   5.4927048895e+01     1.114943    0.9372194  50.64  0.006341835    1.187    0.157
         4 -11.2819    163.7506     25.5183   7.2147776210e+01   4.1561620416e+01     2.018947    0.5440793  67.24  0.006000207    3.829    0.739
         5 -11.9224    148.1252     19.2318   7.2706027291e+01   4.6325506227e+01      1.48932    0.6117733 -17.13  0.005335513    3.173    0.685
         6 -12.2251     75.1366     76.0555   1.1255521453e+02   5.2926419009e+01     2.571001      1.79174  85.93  0.006352004    2.503    0.601
         7 -11.5010    113.3488      8.9411   7.5780367615e+01   5.5948942629e+01     1.269376    0.6365332  47.37  0.005713186    1.757    0.431
         8 -11.9269    130.4233     20.2023   7.6459690024e+01   5.0681533440e+01     1.168916    0.4705751  58.87  0.003184672    2.216    0.549
         9 -12.6620     92.3108     17.0247   8.4622028012e+01   5.9783835664e+01     0.631861    0.3396809  -2.56  0.002703213    2.608    0.617
        10 -12.3849    112.3155     21.9034   8.1257641210e+01   5.4814610671e+01    0.7437501    0.6195351  84.08  0.004156987    1.471    0.320
        11 -11.9405    125.8672     12.9000   7.4651201878e+01   5.2569273632e+01    0.9967149     0.744766  73.73  0.004050832    1.404    0.288
        12 -11.9088    117.0819     15.6934   7.7643607023e+01   5.4394026045e+01    0.3028669    0.2951048 -56.53 0.0004853984    1.168    0.144
        13 -12.9913     71.0322     30.9169   9.7741043960e+01   6.1983097790e+01     3.684395     1.337912  51.34    0.0132992    3.922    0.745
        14 -11.7632     68.2418     20.4286   9.4111909732e+01   6.3969297008e+01     1.300512    0.5305592  32.34  0.005289255    2.959    0.662
        15 -13.3799     99.8929      6.7392   7.8060734844e+01   5.9224442367e+01    0.7616395     0.411073 -31.46 0.0009666981    1.970    0.492
        16 -11.9485     93.2259      8.4976   8.0591805941e+01   6.0505474101e+01    0.5648177    0.3654951  43.64 0.0006052562    1.375    0.273
        17 -12.8229     86.4815     54.6850   1.0167586656e+02   5.5262262827e+01     2.156298     1.119376 -29.16  0.009067884    2.200    0.545
        18 -11.7548     97.3674     62.2715   1.0084003615e+02   5.1792997535e+01     1.767831     1.099273  -9.66   0.00703122    2.670    0.626
        19 -11.7614    111.0259     64.6674   9.7552469336e+01   4.8549414120e+01     2.725005     1.553339   3.13  0.006957757    6.511    0.846
        20 -11.8735     57.8301     69.1526   1.1654874780e+02   5.6877717568e+01     1.929808    0.8349018 -64.13  0.006868467    3.580    0.721
        21  99.0000     40.8324     64.4593   1.2152663789e+02   5.9866534567e+01     4.112548     2.171948  61.11   0.01512285    4.815    0.792
        22 -12.1764    135.1400      4.8626   6.9889495580e+01   5.1024961505e+01     1.503618     0.652369  72.69  0.006052826    2.422    0.587
        23 -10.0929     54.4777     18.1770   9.8440383282e+01   6.6510746105e+01    0.5604461    0.3248705  19.02  0.002679571    1.972    0.493
        24 -11.1776     78.3768      7.1686   8.4365194277e+01   6.3678084377e+01    0.6760749    0.4586947   1.90  0.002880982    1.498    0.332
        25 -13.3600      5.7377     11.8999   1.1951240697e+02   7.2832065951e+01     1.416191    0.6844693 -44.24   0.00736904    1.565    0.361
        26 -12.1115     19.0394     13.6579   1.1302642822e+02   7.1496301101e+01    0.7539471    0.5497313  -9.15  0.005328116    1.231    0.188
        27 -11.8830     29.6925     25.6202   1.1294693964e+02   6.8494233213e+01     1.821163    0.5290022 -39.87  0.007579496    2.964    0.663
        28 -12.0008     50.1094     11.0669   9.6787424264e+01   6.8126833732e+01    0.6797033     0.501875  57.06  0.003869843    2.127    0.530
        29 -11.5670     69.4413      4.1798   8.5853439430e+01   6.5682694027e+01    0.7480905    0.3759199  36.20  0.003817141    1.854    0.461
        30 -12.0551     57.1126      4.0900   9.0326098044e+01   6.7857409587e+01    0.9163406    0.4170692  52.56  0.004365883    2.692    0.628
        31 -12.7267     20.3721     42.8461   1.2355164837e+02   6.6137052502e+01    0.5617428    0.4063877 -74.84 0.0007149216    1.759    0.431
        32 -10.5226     15.2697     31.6787   1.2222636415e+02   6.8661721660e+01    0.7659808    0.2793305 -36.52  0.003611276    2.547    0.607
        33 -11.7215     42.0925     14.7798   1.0217726104e+02   6.8750513358e+01    0.6882702    0.5037984  43.32  0.004369569    1.768    0.434
        34 -12.1920     52.2532     37.0434   1.0762901177e+02   6.3856187661e+01     1.688641     1.229151 -51.19  0.009922261    1.549    0.355
        35 -10.6288    161.9783     38.7066   7.6713880137e+01   4.0356593244e+01    0.4891193     0.302453 -23.20  0.001773332    1.806    0.446
        36 -11.6204    184.7117     26.2785   6.9230738237e+01   3.5980936942e+01    0.7093295      0.47454  11.81   0.00166697    2.206    0.547
        37 -10.1495    230.5306     18.8796   6.2053884221e+01   2.5287192128e+01     0.500855    0.4149408 -21.32  0.002984442    1.420    0.296
        38 -10.8834    243.9230     19.5280   6.1033843444e+01   2.2070575655e+01    0.7045762    0.3290533  78.64  0.003258535    2.195    0.544
        39  -9.6029    221.7907     11.3465   6.0987038983e+01   2.8247300836e+01    0.4624784    0.2241809 -55.57  0.001208375    2.026    0.506
        40 -11.7462    232.7880     11.2115   6.0003101562e+01   2.5615712588e+01     1.289585    0.5320691 -58.46  0.002652097    2.544    0.607
        41 -10.2136    214.5773     21.1411   6.4190782144e+01   2.8927311816e+01    0.4173706    0.3262021 -71.74  0.001337839    1.189    0.159
        42 -10.5272    212.4881     14.7285   6.2732960860e+01   3.0176202953e+01    0.6692863    0.3904592 -26.34  0.003285591    1.860    0.462
        43  -9.9649    217.5621     14.3328   6.2133884915e+01   2.8958753625e+01    0.3597082    0.3213161  -8.95  0.001542116    1.390    0.281
        44 -10.7943    223.9917      1.4783   5.8370737739e+01   2.8744949014e+01    0.2891237    0.1884747  77.68 0.0003623652    1.405    0.288
        45 -10.3614    220.6874      1.6853   5.8685776020e+01   2.9523952272e+01    0.2253331    0.2062278  13.90 0.0007765604    1.432    0.302
        46 -10.7272    202.3312     18.9731   6.4945501402e+01   3.2269681580e+01    0.5244069    0.3814406  44.20  0.001695667    1.585    0.369
        47  -9.7760    197.5587     16.9825   6.4939901010e+01   3.3714663033e+01    0.4445865    0.2330021  88.55  0.001898336    2.132    0.531
        48 -10.2736    156.7427     16.4748   7.0323432372e+01   4.4394656184e+01    0.7021642    0.3200907 -27.08  0.002940882    2.313    0.568
        49 -10.4077    162.9884     16.6670   6.9412805331e+01   4.2749297483e+01    0.4764253     0.420198  67.15  0.002036874    1.040    0.039
        50 -10.2522    169.9280     13.8326   6.7504290913e+01   4.1233286163e+01     0.380125    0.2113256 -47.04 0.0002751643    1.913    0.477
        51 -11.6084    164.3998      7.0244   6.6121735991e+01   4.3341472146e+01    0.9265327    0.4737807 -23.60  0.004204637    2.153    0.536
        52  -9.4351    185.4872     14.2415   6.5592679438e+01   3.7132444401e+01    0.4161967    0.2064323  67.41  0.001674039    1.813    0.448
        53 -10.3631    243.0237     12.7005   5.9525703153e+01   2.3061086827e+01    0.3649583    0.2704055 -39.96  0.001124638    1.292    0.226
        54  -8.4296    193.0018     12.2468   6.4134574105e+01   3.5396707465e+01    0.3823394    0.1140571  55.21  0.001342608    3.088    0.676
        55  -9.3104    241.7203      1.4526   5.7050641758e+01   2.4576371053e+01    0.2866527    0.1563541 -83.59  0.001042019    1.774    0.436
        56 -10.6911    248.3828      7.3037   5.7898452807e+01   2.2439486893e+01    0.5530322    0.3335144 -39.35  0.001827936    1.498    0.333
        57  -9.5085    245.6589      3.6743   5.7277419275e+01   2.3445237514e+01    0.3463644    0.1907548  40.45  0.001603855    2.984    0.665
        58 -10.0332    190.0518      8.2620   6.3339681923e+01   3.6564455004e+01    0.3498354    0.2141207  58.83  0.001315938    1.547    0.353
        59  -9.8532    196.6678      3.7603   6.1388832886e+01   3.5310032679e+01    0.5057906    0.3284311 -19.53  0.002141064    1.813    0.448
        60 -10.1695    200.4234      6.2926   6.1701377765e+01   3.4105935071e+01    0.4762859     0.254376 -15.58  0.001843752    2.421    0.587
        61 -11.1179    204.2533      6.4327   6.1361338923e+01   3.3122035283e+01    0.3843316    0.3511023 -17.70 0.0004968651    1.308    0.235
        62 -11.8286    209.4581      3.6298   6.0138148770e+01   3.2096247892e+01    0.5701019    0.3375885 -88.74 0.0006238684    1.627    0.385
        63  -9.2084    171.2843      1.2516   6.3444176925e+01   4.2077674871e+01    0.2913841     0.121513  80.80  0.001123303    2.542    0.607
        64  -9.1783    180.5606      7.0777   6.4085993078e+01   3.9136198751e+01    0.4438161    0.2387708 -25.23  0.002072597    2.030    0.507
        65  -9.8861    173.7025      8.8463   6.5461437145e+01   4.0747721444e+01     0.260684    0.2219781 -78.48 0.0006094073    1.143    0.125
        66  -9.7287    175.1307      4.3475   6.3920438302e+01   4.0802582829e+01    0.4720322    0.1857074  60.18  0.001944132    2.165    0.538
        67 -10.8594     26.2404      4.9371   1.0487107708e+02   7.2072871920e+01    0.6128528    0.2290358 -27.02  0.002724471    3.036    0.671
        68  -8.1685    184.3086      8.7248   6.4127231270e+01   3.8003147705e+01    0.1413751   0.09495356 -68.38 0.0001861701    1.551    0.355
        69  -8.9385    158.1871      6.3348   6.6764993435e+01   4.5015889922e+01    0.3119049    0.2046139 -16.53  0.001578948    1.761    0.432
        70  -8.3285    189.7612      1.3626   6.1425192269e+01   3.7301659374e+01     0.189764    0.1080677  64.22 0.0009251281    1.578    0.366
        71  -7.8510    146.2492      1.2400   6.6805231001e+01   4.8525756161e+01     0.129101   0.09038137  43.19 0.0006695544    1.400    0.285
        72 -11.0659     36.0862     92.0685   1.2978421327e+02   5.4190488863e+01     1.129835    0.5163933  42.41  0.005346424    2.568    0.611
        73  -8.7031    183.5022    249.9989   1.2042365227e+02  -1.0581415636e+00    0.1361005    0.1027141 -85.96 0.0008096849    2.464    0.594
        74 -12.0022     27.5246     84.5767   1.3117414547e+02   5.6660950910e+01    0.9021888     0.731042 -45.51  0.005947336    1.175    0.149
        75 -11.8414      4.9717    116.0749   1.4279863011e+02   5.1058129824e+01    0.7363368    0.2411242 -67.99  0.003492037    2.200    0.546
        76 -10.7363     10.9982    106.1212   1.3992418863e+02   5.2944000293e+01    0.4763875    0.3350513 -64.96   0.00246311    1.159    0.137
        77 -11.0133     21.8699     96.3016   1.3516548835e+02   5.4428414960e+01    0.4141566    0.2996188 -41.67  0.001474105    1.439    0.305
        78  -8.3132     25.5072    248.5437   1.4787072909e+02   2.1808098862e+01    0.1049891   0.07129978  67.07 0.0001660918    1.014    0.014
        79 -10.6824     15.3758     98.9592   1.3761707468e+02   5.4290745700e+01    0.3833956    0.2570938 -65.50  0.001560922    1.177    0.151
        80  -9.8754    106.9046    119.8405   1.1444225337e+02   3.7591827096e+01    0.3452359    0.2407893  52.47  0.001635273    1.494    0.331
        81 -10.5890    105.6787    116.2114   1.1392475175e+02   3.8656423432e+01    0.6066024    0.1969926  37.74  0.001890605    3.545    0.718
        82  -9.8862     97.8599    114.9800   1.1581826676e+02   4.0366841825e+01     0.338724    0.3077025  28.68  0.001400566    1.228    0.185
        83 -10.3042     40.1320    116.6571   1.3292223956e+02   4.8041077141e+01    0.4579121    0.2345185  70.71  0.001938031    2.930    0.659
        84  -9.6233     12.8615    117.2888   1.4076264519e+02   5.0249600393e+01    0.2403827    0.1866396  53.35 0.0009910668    1.419    0.295
        85  -8.9943     27.8835    115.8967   1.3634359902e+02   4.9381350330e+01     0.181031     0.136494 -60.64 0.0002998067    1.191    0.160
        86  -9.9883    132.7476    111.2604   1.0544504539e+02   3.4281179423e+01    0.4650007    0.4164966 -23.35  0.001765379    1.232    0.188
        87  -9.9926    133.5487    104.4337   1.0342737596e+02   3.5579344557e+01    0.6193315     0.259663 -44.16  0.002178957    2.369    0.578
        88  -9.3187     92.7195    111.6691   1.1650655070e+02   4.2034454299e+01    0.3880563     0.309038  18.76  0.001982175    1.562    0.360
        89 -10.9141     57.2271     85.4898   1.2121270615e+02   5.3371437989e+01    0.4427452    0.3762186  28.31   0.00267483    1.336    0.252
        90  -9.1151    194.7914    112.2181   9.1667953174e+01   1.9707110903e+01    0.2533872    0.1112505  42.64 0.0008854673    2.502    0.600
        91 -10.1121    105.4765    109.6114   1.1237164957e+02   4.0205220174e+01    0.3571085    0.2936044 -41.52  0.001835893    1.238    0.192
        92 -10.2495     73.9812    108.0330   1.2119467486e+02   4.5878716858e+01    0.4026743     0.280965  38.95 0.0007491343    1.556    0.357
        93 -10.3106     66.1837    109.5246   1.2386620887e+02   4.6633156580e+01    0.5543374     0.273522 -52.23  0.002485212    1.826    0.452
        94  -9.5254     69.7532    105.2270   1.2185116921e+02   4.7147533112e+01    0.2791732    0.2177843  38.56  0.001521552    1.409    0.290
        95  -9.1621     34.7947    109.4650   1.3333214272e+02   5.0260509824e+01    0.2997352    0.2058499 -65.34  0.001759784    1.207    0.171
        96  -8.6844     38.6371    107.2157   1.3179158266e+02   5.0416355205e+01    0.2575153    0.1145314 -46.00 0.0009102615    2.338    0.572
        97  -9.5544    120.2800    109.0088   1.0814052900e+02   3.7415405401e+01    0.2627407    0.2273121  48.06 0.0007169121    1.175    0.149
        98 -11.1013     18.5875    104.4325   1.3743360427e+02   5.2800106587e+01    0.3556756    0.3062938  16.78  0.001265575    1.487    0.327
        99  -8.8612     97.6162    103.9119   1.1318460815e+02   4.2956089839e+01    0.3055839    0.1892955  59.13  0.001312318    2.013    0.503
       100 -11.2548    116.6010     98.4420   1.0631943135e+02   4.0498991286e+01    0.7774363     0.615379 -70.73  0.002708326    1.446    0.308
       101  -9.2585     34.1966    246.5756   1.4637009137e+02   2.1173766336e+01    0.1311488   0.08898338  39.60 0.0009463411    1.661    0.398
       102 -10.5695     73.2830     53.2601   1.0571858850e+02   5.7803941158e+01    0.9629124    0.7541057 -36.32  0.003845947    1.175    0.149
       103 -10.1191    141.9001    243.8985   1.2716354918e+02   6.4565963705e+00     0.265751    0.2119675  21.08 0.0006881456    1.503    0.335
       104  -8.5317    205.6708    244.6763   1.1577538357e+02  -3.8686399037e+00    0.1209307   0.07656454  15.76 0.0007049701    1.697    0.411
       105  -9.4561    211.0552    241.0154   1.1429434557e+02  -4.2611577306e+00    0.2048617     0.159012 -25.18  0.000923467    1.492    0.330
       106 -10.0292     13.1680    238.6918   1.4939630397e+02   2.4820289749e+01    0.1715821    0.1395102  65.35  0.001142337    1.331    0.249
       107 -12.1733     37.9809     46.7363   1.1719144897e+02   6.3775693841e+01     1.157251    0.7581496  56.04  0.006100721    2.548    0.608
       108  -9.0777     24.2265    235.5694   1.4743973817e+02   2.4214713207e+01    0.1314725   0.09260885  37.77 0.0009590081    1.715    0.417
       109  -9.6447     12.5805    232.4117   1.4921377769e+02   2.5997806890e+01     0.249606   0.09485741  61.26  0.001463431    1.990    0.497
       110  -9.4045    136.5810    225.9035   1.2594891068e+02   1.0193313973e+01    0.3076153    0.1244372 -53.77  0.001406509    2.979    0.664
       111  -8.8878     26.3168    212.3172   1.4577269962e+02   2.8337246556e+01   0.09574656   0.08074123 -62.05 0.0004208194    1.653    0.395
       112  -8.8269    244.7995    204.4047   1.0236203698e+02  -5.0110920844e+00    0.1717661   0.09788322  28.48 0.0009382223    1.611    0.379
       113  -8.7669    234.3705    200.8116   1.0349921552e+02  -2.8588044685e+00     0.179787    0.1080324 -19.71 0.0009616176    1.770    0.435
       114 -10.3873     26.5678    191.9833   1.4437569216e+02   3.2404445907e+01     0.347165    0.2396028  82.08  0.002075174    1.127    0.112
       115 -11.3212     17.9879    186.3356   1.4569029779e+02   3.4440655590e+01    0.3741437     0.319814 -35.05  0.001492061    1.880    0.468
       116 -10.7996      6.3715    186.0479   1.4796042756e+02   3.5567213252e+01    0.4716106    0.1504077  55.79  0.002022195    2.680    0.627
       117  -9.4977     11.8612    184.6692   1.4679988320e+02   3.5362764944e+01    0.1949954    0.1246213 -77.24 0.0007571185    1.362    0.266
       118 -10.0132    140.9145    100.6155   1.0051022894e+02   3.4730561160e+01    0.3402952    0.2411939 -42.15   0.00153875    1.409    0.290
       119  -9.0190      2.5894     75.0770   1.3812031616e+02   6.0423208971e+01    0.2126339    0.1401289 -28.28 0.0009780284    1.728    0.421
       120 -10.8642      4.0800    100.0966   1.4121591681e+02   5.4744153256e+01    0.4439792    0.2715856 -74.74  0.001778314    1.270    0.212
       121  -9.4292      9.3104     99.3244   1.3953314985e+02   5.4606832818e+01     0.230208    0.1945753 -88.67  0.001045394    1.148    0.129
       122 -11.0850      3.2847     89.4076   1.4005452281e+02   5.7200229283e+01    0.5784648    0.2358386 -58.47  0.002659586    1.827    0.453
       123 -11.2244      4.3306     80.7756   1.3843353344e+02   5.9074074102e+01    0.5141567    0.2499838 -45.55  0.001899457    1.881    0.468
       124 -11.3688     13.4098     88.9405   1.3670144984e+02   5.6707894193e+01    0.3684305    0.2607892 -70.71 0.0007971957    1.139    0.122
       125  -9.5007    151.0694     99.8668   9.7821301794e+01   3.2526717847e+01    0.3695628    0.2066597 -51.07  0.001442724    1.930    0.482
       126 -10.0664    159.0946     96.7636   9.5080743578e+01   3.1235376651e+01    0.4119439    0.3863176 -76.07  0.001269308    1.103    0.093
       127  -9.3623     39.2819    176.5838   1.4047274044e+02   3.4319616178e+01    0.2860842    0.1416996  78.71  0.001415809    2.126    0.530
       128  -9.4411      9.1191     94.3187   1.3889622182e+02   5.5757646657e+01    0.3900071    0.1186777  38.48   0.00171966    3.681    0.728
       129  -9.6603    188.0371     92.8374   8.7879812674e+01   2.4891046612e+01    0.4892484    0.2328287 -45.25  0.001822414    2.135    0.532
       130  -9.2489    206.6208     91.7967   8.4185309901e+01   2.0542615972e+01    0.3618689    0.2117502 -46.41  0.001171754    1.709    0.415
       131 -10.4381    114.7805     50.9123   9.1678410165e+01   5.0145253788e+01    0.7363001    0.4634873 -17.46  0.003229455    1.956    0.489
       132 -11.9219    119.2250     86.2900   1.0210062500e+02   4.2531281074e+01     1.311972    0.8233465  54.83  0.004589622    1.742    0.426
       133 -11.7770    123.7095     68.6494   9.5340787819e+01   4.5017819421e+01     1.407431    0.6571165 -38.65  0.005406772    2.132    0.531
       134 -11.5109    117.6915     64.7465   9.5690288882e+01   4.7086314023e+01     2.037767     1.160639  -2.14  0.005520271    5.614    0.822
       135  -9.2652      1.6889    177.9584   1.4841495576e+02   3.7644133183e+01    0.1639797    0.1091113  86.33  0.001022534    1.113    0.102
       136 -10.8135    105.7361     53.7687   9.5294772826e+01   5.1628155097e+01    0.6297881     0.392505  38.29   0.00291884    1.655    0.396
       137 -10.5706    130.5140     40.3942   8.3842280333e+01   4.8088651826e+01    0.9010412    0.3423427 -25.88  0.003071164    3.132    0.681
       138 -10.9152    134.7346     34.3496   8.0705005824e+01   4.7888453700e+01    0.5533656    0.2968896  44.72 0.0005192452    1.832    0.454
       139 -10.5038    102.4053     70.7123   1.0211694754e+02   4.9168958334e+01    0.6158484    0.3405917 -51.86  0.002300363    1.987    0.497
       140  -9.8119     62.7878    167.8281   1.3422942208e+02   3.3403193929e+01    0.2941832    0.2078577 -85.09 0.0009241224    1.287    0.223
       141 -11.3947    141.7717     40.6794   8.1394926602e+01   4.5265912575e+01    0.8330724    0.6315082  59.89  0.003618417    1.278    0.217
       142 -10.6650    147.6578     35.0790   7.8242313254e+01   4.4538942264e+01      1.19897    0.2097082  57.53  0.003230472    4.398    0.773
       143 -11.3708    105.3469     87.2103   1.0634000397e+02   4.5191619368e+01    0.8239537    0.5224602 -47.03  0.003209035    1.523    0.343
       144 -12.2274    100.4566     78.9955   1.0533495677e+02   4.7874236115e+01     1.307525    0.9205864  53.32  0.006299488    1.581    0.368
       145  -8.4374     69.5033     89.4850   1.1815134800e+02   5.0812832118e+01    0.1785342    0.1379442  17.32 0.0001425157    1.559    0.358
       146  -9.5885     74.1858     88.8693   1.1646983659e+02   5.0261027253e+01    0.3844668    0.2880013   1.24  0.001951624    1.797    0.443
       147  -9.0725      9.0780    167.5155   1.4623370308e+02   3.9251535489e+01    0.1723509    0.1144925  26.20 0.0007397876    1.990    0.497
       148 -10.3522      9.3054     85.5953   1.3752243455e+02   5.7718014513e+01    0.2592761    0.1650428 -72.50 0.0007532389    1.276    0.216
       149  -9.7058    161.8537     87.8547   9.1924141194e+01   3.2288273498e+01    0.4667526    0.2954066 -73.34  0.001430633    2.612    0.617
       150  -9.8459    161.1644     82.1035   9.0398809664e+01   3.3537394271e+01     0.569693     0.429774 -85.36  0.002534528    1.716    0.417
       151 -10.0171    152.9807     87.4322   9.3823315905e+01   3.4537481821e+01    0.3613577    0.2885146  39.97 0.0009109816    1.302    0.232
       152  -9.3145    238.0987     86.1805   7.7811127879e+01   1.4140831530e+01    0.2177457    0.1983729   4.11  0.001246761    1.238    0.192
       153 -10.6561    134.4320     81.0465   9.6450787453e+01   4.0189850872e+01    0.7266086    0.4067736 -33.32  0.002611209    1.929    0.482
       154 -10.8330    139.3023     76.3498   9.3771749564e+01   3.9947549582e+01    0.8028981    0.2925037 -49.59  0.002391028    3.531    0.717
       155 -10.6348    143.8613     76.7158   9.2768820317e+01   3.8786063992e+01     0.496561    0.3171814 -25.09  0.002073295    1.850    0.460
       156  -9.2495    155.1273     71.3560   8.8495118889e+01   3.6992221754e+01    0.3537807    0.2382622 -29.62  0.001310091    1.582    0.368
       157 -10.6516    150.1000     75.1320   9.0802636688e+01   3.7559004643e+01    0.7832649    0.4139022 -27.94  0.002940663    2.253    0.556
       158 -10.4856    152.0177     67.0991   8.7863390220e+01   3.8516157052e+01    0.7990344    0.2783115  49.77  0.002610729    2.768    0.639
       159 -11.0201    140.5874     68.5283   9.0985633060e+01   4.1078574935e+01    0.8016682    0.5628715  64.26  0.003634428    1.563    0.360
       160  -9.7883    218.6524     77.9023   7.8585964087e+01   1.9958258395e+01    0.5356529    0.3055959  -4.51  0.001761692    3.863    0.741
       161  -9.6889    132.2778     68.2624   9.2967814410e+01   4.3110330825e+01    0.4770952    0.3114314  68.10  0.001855064    1.922    0.480
       162  -9.3017     37.0960     75.5206   1.2580536186e+02   5.7838943470e+01    0.2429292    0.1602216 -39.50 0.0008372538    1.443    0.307
       163  -8.8079    192.5540     73.9567   8.1815728076e+01   2.7051485576e+01    0.2397794    0.1475265 -35.27  0.001031892    1.605    0.377
       164  -9.4785    215.0298     71.8008   7.7541218898e+01   2.1805400654e+01    0.3124379     0.218241 -20.11   0.00081825    1.647    0.393
       165  -9.3528    194.2648     90.3712   8.6027696094e+01   2.3800066729e+01    0.3212533    0.2505387 -12.51  0.001093725    1.530    0.346
       166 -10.4174    250.2362     67.1698   7.1647480740e+01   1.4329115403e+01    0.5628988    0.1889934 -29.56  0.001983656    3.092    0.677
       167  -8.7848    202.1790     68.1814   7.8581104632e+01   2.5564060847e+01    0.2119122    0.1668877 -62.72 0.0004558416    1.323    0.244
       168 -10.4421    188.6278     48.8601   7.5288382326e+01   3.1976295635e+01    0.9903001    0.5422571  -4.16  0.003269484    3.796    0.737
       169 -10.8741    172.4291     49.0911   7.8098105956e+01   3.6163941805e+01     1.098818     0.540016  76.11   0.00386259    2.793    0.642
       170 -10.7262    164.6460     57.0668   8.2043455384e+01   3.6967454577e+01    0.6289325    0.4415713  -7.75  0.002065676    1.888    0.470
       171 -10.2384    178.1621     60.2202   8.0433455758e+01   3.2974283276e+01    0.6372812    0.3965317  32.14 0.0005827796    2.145    0.534
       172 -11.3396    174.0869     57.3017   8.0306126159e+01   3.4488370158e+01    0.7128909    0.5673128  43.52  0.002050966    1.314    0.239
       173  -8.9850    189.1073     64.8456   7.9836026920e+01   2.9417717641e+01    0.2365837     0.199833 -71.51 0.0005657835    1.238    0.192
       174  -9.1069    135.5136     63.5084   9.0597572314e+01   4.3190530344e+01    0.2879885    0.1495005 -36.53 0.0005362122    1.938    0.484
       175  -9.4240     13.4342    164.9879   1.4511429517e+02   3.9428162565e+01    0.2130119    0.1609137  52.13  0.001303966    1.355    0.262
       176  -9.2126    219.0498     60.7405   7.4046798676e+01   2.2523061799e+01    0.3155062    0.2519145  59.24 0.0006633925    1.300    0.231
       177 -10.1686    222.3911     57.1249   7.2649843699e+01   2.2242923410e+01    0.4172909    0.3407669 -59.42  0.001644724    1.167    0.143
       178 -10.4985    201.2065     57.5424   7.5791904341e+01   2.7458530674e+01    0.5808359    0.4065303  16.33  0.002554747    2.131    0.531
       179  -9.4204    158.4937     58.4698   8.3734017191e+01   3.8323094502e+01    0.4810846    0.3431312  -5.20  0.002119801    1.872    0.466
       180  -9.4665    149.2767     59.4448   8.6031785419e+01   4.0499400098e+01    0.5238722    0.2676713 -53.36   0.00190589    2.548    0.607
       181 -10.0011    157.9680     50.6243   8.1333578766e+01   3.9685623625e+01    0.5037475    0.4696721   1.40  0.002536321    1.162    0.139
       182  -9.5016    152.8037     56.2368   8.4221537042e+01   4.0130963612e+01    0.3212588    0.2893677   3.04 0.0009653108    1.223    0.182
       183  -9.9864    134.6035     52.5275   8.7125991378e+01   4.5252059741e+01    0.4692546    0.3246015   9.46  0.001943825    2.019    0.505
       184 -11.4156    141.3977     51.5950   8.5213216141e+01   4.3731544792e+01    0.8456302    0.3858331  43.71  0.002746999    2.313    0.568
       185 -10.5016    150.1991     51.5688   8.3256004521e+01   4.1526208491e+01    0.5637172    0.4531151  21.31   0.00185624    1.439    0.305
       186  -9.9220     60.7244     54.3313   1.1072116655e+02   5.9503140102e+01    0.3746138    0.2493121 -49.93  0.001332441    1.455    0.313
       187  -9.7692    237.5425     52.4743   6.9587088409e+01   1.9302246080e+01    0.2323804    0.1796684  -2.05 0.0009023001    1.742    0.426
       188  -8.4500    192.8357     53.8509   7.6060304903e+01   3.0155796854e+01    0.2058962    0.1653946 -75.04 0.0003590317    1.313    0.238
       189 -10.4979      2.5372    159.8082   1.4710673408e+02   4.1446998348e+01    0.5617754     0.198933 -85.47  0.002694504    2.420    0.587
       190 -11.2848     26.9633     51.9672   1.2347581105e+02   6.3775774351e+01    0.5666687    0.2467701 -35.71  0.002669436    2.366    0.577
       191 -10.4465     16.7819    158.6398   1.4386893203e+02   4.0534248193e+01    0.3901018    0.2548621 -41.71   0.00233248    2.203    0.546
       192 -12.0495     19.6185    147.9814   1.4226086515e+02   4.2678641371e+01    0.6868485    0.5130813 -64.19  0.004015748    1.325    0.245
       193 -10.4082     11.8097     41.6672   1.2703335199e+02   6.6968831211e+01    0.4121344    0.2804591 -16.00  0.002370888    1.559    0.359
       194 -11.5702     37.0783     27.3712   1.1023254539e+02   6.7400645442e+01    0.3343776    0.2463446  12.36 0.0004973483    1.390    0.280
       195  -8.5859     82.9985    154.5096   1.2747962743e+02   3.3567375705e+01    0.1724789    0.1263276   2.14 0.0007387143    2.395    0.582
       196  -8.9227     52.7564    151.5812   1.3457767365e+02   3.8402826109e+01    0.1978498    0.1794013  70.79 0.0006324789    1.157    0.136
       197 -10.0378     23.6743     34.0126   1.1906931604e+02   6.7560656938e+01    0.2276661    0.2045237 -37.49 0.0009654802    1.204    0.170
       198 -10.7847     34.9421    150.4083   1.3881371655e+02   4.0668618526e+01    0.3748555    0.2626367  59.40  0.002190257    1.374    0.272
       199 -11.0622     39.0697    145.8655   1.3727023935e+02   4.1287028230e+01      0.56997    0.3371789  87.52  0.002544713    1.657    0.397
       200 -10.0346     67.0740    148.3793   1.3053395271e+02   3.7304948434e+01    0.2625663    0.1839385 -80.43 0.0009194568    1.343    0.255
       201  -9.4055     60.3540    147.8159   1.3215756941e+02   3.8329798145e+01    0.2065996    0.1874177  63.11   0.00065008    1.167    0.143
       202  -9.4472      1.1773    145.7682   1.4640980708e+02   4.4626561769e+01    0.4805675   0.09871684 -79.11  0.001706955    4.207    0.762
       203  -9.8331      4.8186    147.2226   1.4567914701e+02   4.4041216237e+01    0.2164154    0.1635605 -71.57  0.001111652    1.237    0.192
       204 -11.6316      4.7233     27.0051   1.2582445525e+02   7.0214570480e+01    0.4757362    0.3098972  20.25  0.003261022    1.830    0.454
       205 -11.2878     13.3679     25.1034   1.2077812506e+02   7.0006049960e+01    0.5346268     0.245002  14.52  0.001599583    2.590    0.614
       206 -11.1645     41.0955     20.9457   1.0555883888e+02   6.7959290522e+01    0.2984046    0.2011381 -32.75 0.0008501539    1.291    0.226
       207  -9.8646      6.7640    142.7681   1.4486128000e+02   4.4891523581e+01    0.3928214    0.2563201  55.34  0.002430785    1.517    0.341
       208  -8.5691    213.2523     50.4343   7.2112801015e+01   2.5461142814e+01    0.2659119     0.130958  59.77  0.001011344    1.998    0.500
       209 -11.7091    164.2324     62.8124   8.3911308965e+01   3.6146354720e+01    0.8730501    0.7220724  33.50  0.004343219    1.321    0.243
       210  -8.7902     65.1321     50.1402   1.0757201383e+02   5.9659918561e+01    0.2553526    0.1656604  31.74   0.00101248    1.650    0.394
       211  -9.6504    221.4294     46.4525   7.0002604160e+01   2.3995756393e+01    0.4126139    0.2050642  47.17  0.001701509    2.396    0.583
       212 -10.2320    210.8361     32.6333   6.7651496786e+01   2.8468528829e+01    0.4836119    0.4101928   3.90  0.001836564    1.503    0.335
       213 -10.0738    194.6701     30.8235   6.9196534006e+01   3.2833426705e+01    0.3578872    0.3137102  23.94  0.001325349    1.370    0.270
       214 -10.1034    207.7268     44.4744   7.1249454342e+01   2.7687035113e+01    0.6589819    0.4377986 -83.19  0.003084109    1.718    0.418
       215 -10.9114    202.9463     37.7133   7.0031094860e+01   2.9816770530e+01    0.5518577     0.411244  42.93  0.002382764    1.536    0.349
       216 -10.5053    200.1527     31.7866   6.8749188897e+01   3.1297489364e+01    0.5101524    0.2965425 -67.66  0.001171938    2.028    0.507
       217  -8.6432    152.6143     45.6933   8.0809987303e+01   4.1794188240e+01    0.2611614    0.1839678 -42.70 0.0006728549    1.470    0.320
       218  -9.6986     33.7674    155.8992   1.3968594680e+02   3.9533597986e+01    0.1753502    0.1467179 -71.09 0.0005316542    1.225    0.184
       219  -8.9116    249.1855     43.9483   6.6267167930e+01   1.7805743231e+01     0.380756    0.1937756 -14.29  0.001447675    3.426    0.708
       220  -9.6010    231.0168     44.5862   6.8381044144e+01   2.1930672295e+01    0.4814358    0.2181011  44.35  0.001836546    3.088    0.676
       221  -9.2223    234.8740     39.6368   6.6721385034e+01   2.1676705818e+01    0.3249115    0.1743567  49.20  0.001467831    2.214    0.548
       222 -10.8596    118.5135     41.8474   8.7358359368e+01   5.0720748593e+01    0.5314597    0.4391155 -39.20  0.002097567    1.266    0.210
       223 -10.0586    124.9144     37.3858   8.4092128436e+01   4.9862852074e+01     0.394959    0.3037196  -4.34  0.001182329    1.469    0.319
       224 -10.2139    125.1518     32.3629   8.2173299375e+01   5.0488938555e+01    0.5648556     0.288877 -18.52  0.002288493    2.392    0.582
       225  -8.5066      1.5615     44.3793   1.3233414859e+02   6.6987257720e+01    0.1156984   0.08077337 -45.33  0.000181912    1.129    0.115
       226  -8.9278    214.9866     42.0574   6.9654175721e+01   2.6191185658e+01    0.4125433     0.244065  17.96  0.001514817    3.516    0.716
       227  -8.8331    223.8457     41.8612   6.8523779420e+01   2.4030398854e+01     0.206129    0.1507718 -65.35  0.001071891    1.344    0.256
       228  -8.8980    196.7502     41.9717   7.2078683482e+01   3.0838730370e+01    0.2277804    0.1829827 -66.95 0.0004441306    1.247    0.198
       229  -8.5542    188.5084     34.5861   7.1136609137e+01   3.3958129546e+01     0.201201    0.1261572  58.31  0.000131955    1.527    0.345
       230  -9.4695    190.9753     40.4194   7.2473963506e+01   3.2545619741e+01    0.3143138    0.2242203 -12.09 0.0009872694    1.750    0.429
       231  -9.6238    193.1876     37.2074   7.1226952897e+01   3.2399383640e+01    0.4635144    0.3085534 -80.78  0.002147464    1.718    0.418
       232  -9.9624    180.5382     39.4174   7.3776619820e+01   3.5405152494e+01    0.4380447    0.3623599 -61.86  0.001713471    1.230    0.187
       233  -9.1767     97.5046    140.5137   1.2133485091e+02   3.4469947566e+01    0.1459592    0.1315667  86.47 -9.10556e-05    1.041    0.039
       234  -8.6923    173.3053     38.8770   7.4789766984e+01   3.7372771086e+01    0.2507416    0.1911628  89.12 0.0005977739    1.405    0.288
       235  -9.4069    168.4829     36.4238   7.4837291761e+01   3.8962589037e+01    0.3309518    0.2580856 -35.45  0.001318897    1.326    0.246
       236  -8.8656    113.9536     36.7980   8.6662083405e+01   5.2502359009e+01    0.2206322    0.1835478  23.16  0.000811099    1.207    0.171
       237 -10.3449    246.5970     33.0788   6.3963864105e+01   1.9804902256e+01    0.4361187    0.2537791  54.14 0.0009505344    1.963    0.491
       238 -11.1187    237.4933     32.4805   6.4700447205e+01   2.1984601705e+01    0.6784595    0.3624098  64.87  0.003278042    1.880    0.468
       239  -8.7218    221.9916     35.5268   6.7109101075e+01   2.5319778104e+01    0.2042333    0.1316074  72.03 0.0006468344    1.532    0.347
       240 -10.7943    177.1486     29.6019   7.1324677820e+01   3.7558984471e+01    0.5092192    0.4109932 -21.68  0.001438011    1.375    0.273
       241 -10.0038     47.1490    137.1923   1.3406377892e+02   4.2430424724e+01    0.5985925    0.2388412  58.41  0.002239529    3.586    0.721
       242  -8.8364     37.7936     33.2772   1.1232987980e+02   6.6299819794e+01    0.2251225    0.1272871   3.74   0.00081889    2.446    0.591
       243  -9.4279     77.0683     41.3803   9.9873965819e+01   5.9270862823e+01    0.2486764    0.2127879  53.86 0.0008650056    1.427    0.299
       244 -10.6563    226.4535     28.5143   6.4840322135e+01   2.5116758847e+01    0.6281589    0.2895299 -49.20  0.002736662    2.051    0.512
       245  -9.5508    220.0210     29.4667   6.5766835228e+01   2.6573389455e+01    0.2035078    0.1294926  74.27  0.001001192    1.532    0.347
       246  -9.5191    219.7290     25.1258   6.4680585765e+01   2.7176358510e+01    0.5816765    0.1770294  63.85  0.002021469    2.944    0.660
       247 -11.0284     54.4333    137.7299   1.3221767731e+02   4.1446832559e+01    0.4951108    0.3500215  64.70  0.002784864    1.444    0.308
       248  -9.7096    241.1252     23.7100   6.2257088548e+01   2.2219397923e+01    0.3112777    0.1868007 -51.62 0.0008069321    1.481    0.325
       249 -10.8867     55.4277    132.2887   1.3111618361e+02   4.2614068814e+01    0.8013908    0.2607778 -60.17  0.003153101    2.571    0.611
       250 -10.4556     55.4816    128.4974   1.3049226971e+02   4.3507905731e+01     0.513392    0.2209493 -54.66  0.002258705    2.106    0.525
       251  -8.4437     81.0000    138.9854   1.2538078715e+02   3.7502388092e+01    0.2301787   0.07461841 -59.82 0.0005171716    2.903    0.656
       252  -9.2711     22.0986    138.1616   1.4065994958e+02   4.4706588588e+01    0.1808841    0.1444027 -62.42 0.0008870301    1.273    0.215
       253  -9.7099     19.6077    119.2733   1.3913223699e+02   4.9283353335e+01    0.4857534    0.2587286 -51.74   0.00265356    1.820    0.451
       254  -9.3056     28.3122    121.4327   1.3699136140e+02   4.8047747355e+01     0.392731    0.1544254 -71.58  0.001773402    2.153    0.536
       255 -10.3114      3.5835    135.2085   1.4498785119e+02   4.6815771232e+01    0.4183184     0.261292  79.51  0.002481207    1.398    0.285
       256 -10.5596     21.4696    128.3860   1.3972847596e+02   4.7018480310e+01    0.5357056    0.3085007  56.66  0.003023274    1.841    0.457
       257  -9.0065    192.8412     25.0442   6.7786818863e+01   3.4010684104e+01    0.4037202    0.2160194  28.73  0.001438702    3.286    0.696
       258 -10.1573     98.0323     22.3026   8.5235013577e+01   5.7944410116e+01      0.25516    0.2386242  38.99 0.0006322904    1.126    0.112
       259 -10.4503     26.7257    127.9918   1.3827798031e+02   4.6656627122e+01    0.3776514    0.3196883  42.01  0.002417315    1.380    0.276
       260  -9.9534      9.0116    134.7442   1.4360281895e+02   4.6535527994e+01    0.2293706    0.2084142  13.34 0.0009235087    1.521    0.343
       261  -9.7398    177.8387     20.0794   6.8326872158e+01   3.8494720218e+01    0.3088853    0.2511742 -45.76  0.001331155    1.260    0.207
       262 -11.2376     13.8318    130.7685   1.4198876644e+02   4.7080727778e+01    0.5285424    0.3597424  75.92   0.00261566    1.366    0.268
       263 -10.3809     11.7769    125.4950   1.4197129548e+02   4.8442869010e+01    0.2635751    0.2457519 -23.10 0.0008715616    1.437    0.304
       264  -8.9454     98.5074    135.4935   1.2008774591e+02   3.5467751454e+01    0.1456878    0.1344943 -88.01 0.0008106077    1.006    0.006
       265  -9.6642     45.9388    132.5310   1.3372000365e+02   4.3666420299e+01    0.2709192    0.2293181 -49.82  0.001276343    1.318    0.241
       266  -9.0789     86.1665     16.0978   8.6057933593e+01   6.1152429133e+01    0.3209202    0.1712731  48.13  0.001064295    1.758    0.431
       267  -8.6958     61.3912     15.9533   9.4603825670e+01   6.5718905125e+01    0.1651073    0.1332829 -10.87 0.0005051851    1.094    0.086
       268  -8.8067     23.8156    133.7653   1.3973449640e+02   4.5571756515e+01    0.1871534    0.1514473  33.98  0.001249925    1.499    0.333
       269  -8.6825    178.2814     15.1752   6.6785449709e+01   3.8911417228e+01    0.2290198     0.120659  35.61  0.000921609    2.575    0.612
       270  -8.6812     78.7691    127.5974   1.2387264180e+02   4.0537339995e+01    0.2435634    0.1619597  58.90 0.0007042605    1.656    0.396
       271 -10.9648     64.8124    130.2207   1.2820842642e+02   4.1902853149e+01    0.6890125    0.3054731  47.02  0.002949606    2.404    0.584
       272 -10.8628     67.5121    122.8029   1.2611690546e+02   4.3302158475e+01    0.7229563    0.3222365 -44.00  0.002859191    2.686    0.628
       273  -9.6300     67.6698    115.3095   1.2461401741e+02   4.5060893360e+01    0.2578863    0.1522992  53.47 0.0008628282    1.943    0.485
       274 -10.0997     64.1230    114.3581   1.2546800641e+02   4.5767338740e+01    0.3813242    0.1758155  50.47  0.001574708    2.610    0.617
       275 -10.4746     72.4809    128.9730   1.2587175035e+02   4.1136930651e+01    0.4006614    0.3476531 -74.88  0.001479142    1.035    0.034
       276  -9.6871     74.1987    125.3335   1.2471034826e+02   4.1753713264e+01    0.3466196    0.2037916  40.20  0.001199472    1.795    0.443
       277  -8.9575     95.7347    130.5969   1.1983354629e+02   3.7090744894e+01    0.2692199     0.166474 -47.65 0.0009635517    1.651    0.394
       278 -10.3023     38.5065    127.0154   1.3494717205e+02   4.5761526169e+01    0.2629404    0.1795395 -44.42  0.001032945    1.663    0.399
       279 -10.4061     47.6403    125.6646   1.3221591304e+02   4.5101624724e+01    0.4736119     0.193383 -63.01  0.002092945    2.056    0.514
       280  -9.7583     92.2473    120.5099   1.1865064571e+02   4.0050780471e+01    0.4968215    0.2465977 -40.36  0.001924313    2.476    0.596
       281  -9.9362     41.1695    122.2675   1.3350413950e+02   4.6607928426e+01    0.2611194    0.1069338  32.78  0.001173624    2.685    0.627
       282  -9.8286     17.6599     82.2746   1.3412597095e+02   5.7928737474e+01     0.282912    0.1996254  -0.20  0.001768967    1.844    0.458
       283  -9.9405     18.5783     74.1383   1.3222437576e+02   5.9680569186e+01    0.7782939    0.4302762 -37.12  0.004319109    1.855    0.461
       284 -10.1118     23.4070    108.5403   1.3658839040e+02   5.1474443904e+01    0.7344977     0.436805  -2.55  0.003820686    2.738    0.635
       285  -9.5267     36.5511     98.5671   1.3088514876e+02   5.2641814603e+01    0.8383436    0.4932159  31.70   0.00456214    1.968    0.492
       286 -10.1715     28.2083    101.9694   1.3410813801e+02   5.2604523348e+01    0.7901917    0.3723864  47.17  0.003844106    2.530    0.605
       287 -10.4352     42.0763     86.9681   1.2670501920e+02   5.4768177374e+01     1.208978    0.3600743 -56.52  0.004747835    2.602    0.616
