#   1 NUMBER                 Running object number                                     
#   2 MAG_AUTO               Kron-like elliptical aperture magnitude                    [mag]
#   3 X_IMAGE                Object position along x                                    [pixel]
#   4 Y_IMAGE                Object position along y                                    [pixel]
#   5 X_WORLD                Barycenter position along world x axis                     [deg]
#   6 Y_WORLD                Barycenter position along world y axis                     [deg]
#   7 A_WORLD                Profile RMS along major axis (world units)                 [deg]
#   8 B_WORLD                Profile RMS along minor axis (world units)                 [deg]
#   9 THETA_WORLD            Position angle (CCW/world-x)                               [deg]
#  10 FWHM_WORLD             FWHM assuming a gaussian core                              [deg]
#  11 ELONGATION             A_IMAGE/B_IMAGE                                           
#  12 ELLIPTICITY            1 - B_IMAGE/A_IMAGE                                       
         1 -12.0524      2.0068     24.6666   1.0498883765e+02   7.0278585340e+01    0.3906881    0.1451986 -57.19  0.001482795    2.239    0.553
         2 -12.1720      5.7633     16.1826   9.9818410930e+01   7.1578049620e+01    0.3784525    0.2559935 -47.49  0.001367473    1.322    0.243
         3 -12.4294    116.9497     22.2875   5.9096411502e+01   5.3208590384e+01    0.2920477    0.2441513 -12.36 0.0004817599    1.229    0.186
         4 -11.5646    166.3832     17.9113   4.8118753841e+01   4.1420756009e+01    0.3536725    0.2497819  47.82 0.0003505296    1.405    0.288
         5 -10.9315     70.3778     11.9638   6.8185934789e+01   6.4107491734e+01    0.2789263    0.1750429  47.79 0.0005814419    1.655    0.396
         6  -9.5057     63.0254     12.2736   7.1009080849e+01   6.5360056034e+01    0.1695838    0.1358128  18.69            0    1.103    0.094
         7 -10.9516    116.6993     15.1081   5.6352966895e+01   5.4057117158e+01    0.3169745    0.2297977  38.27 0.0007575374    1.276    0.216
         8 -11.3602    133.1787     12.8910   5.2058334867e+01   5.0323008930e+01    0.2717881    0.2419192 -15.40 0.0003089894    1.208    0.172
         9 -11.8100    173.1662     13.0034   4.5642651518e+01   4.0198484494e+01     0.522328    0.2731399  58.54  0.002404846    1.723    0.420
        10 -10.2727     88.6335     13.5685   6.3028847187e+01   6.0400865874e+01    0.2655523    0.1626123  47.31 0.0001542043    1.515    0.340
        11  -9.3098     26.4636     13.4882   8.7747542739e+01   7.0258428986e+01    0.2543593   0.09555028 -40.74  0.001238204    2.274    0.560
        12 -11.1697    176.0482     10.3368   4.4464052778e+01   3.9731880354e+01    0.2481551    0.2388822  19.40  0.000636905    1.181    0.153
        13 -11.2662    148.1804     12.3574   4.9185552692e+01   4.6634012640e+01    0.5192785    0.2140908  53.91  0.002141208    2.095    0.523
        14  -9.8615     51.5279     12.5675   7.5720150846e+01   6.7167149355e+01    0.2488559    0.1073805 -31.75  0.001201968    2.140    0.533
        15 -10.2481    219.2094     11.4978   4.0072536617e+01   2.8856199644e+01     0.240468    0.2083231 -73.50 0.0003820116    1.010    0.010
        16 -10.0593     97.8044     10.9208   5.9295488172e+01   5.8745880708e+01    0.3284922    0.1780386 -39.23  0.001234332    2.169    0.539
        17 -10.8982     14.5090     10.1072   9.2375606950e+01   7.1924253766e+01    0.3948782     0.181097 -34.90   0.00138381    1.727    0.421
        18 -10.5418     65.8856     15.4486   7.1461439103e+01   6.4480379030e+01    0.3457998     0.253607  37.12  0.001458693    1.350    0.259
        19 -10.6246    165.0216      8.6616   4.5422897958e+01   4.2710958944e+01    0.3459155    0.2048215 -56.43   0.00162783    1.939    0.484
        20 -10.7177    107.1961      3.6013   5.3892178486e+01   5.7340483615e+01    0.3945714    0.2091639  24.78  0.001809056    2.169    0.539
        21 -10.6008    111.7588      6.0328   5.3857717511e+01   5.6081911661e+01    0.2728132    0.2192682 -19.86  0.001610749    1.333    0.250
        22 -10.8931    103.9882      7.7044   5.6355285401e+01   5.7696876775e+01    0.3692344    0.3120601 -72.59  0.002177923    1.575    0.365
        23 -10.5012    108.2104      7.3820   5.5214538841e+01   5.6773670732e+01    0.2940916    0.2127086  55.76 0.0009929945    1.286    0.223
        24  -9.8753      5.1672      8.9604   9.7027756852e+01   7.2830150517e+01    0.2125341    0.1420506 -37.12  0.001497675    1.166    0.142
        25 -10.1243    185.3363      8.8750   4.2901247860e+01   3.7515247356e+01    0.1767218    0.1692894 -70.90 0.0004500624    1.101    0.092
        26 -11.4035     87.3833      6.3627   6.0162210359e+01   6.1398067948e+01    0.2601107    0.2536023  26.03 0.0001690565    1.244    0.196
        27 -10.7519     88.7813      1.6890   5.7650845426e+01   6.1534681366e+01    0.3983722    0.1392765  52.11  0.001695027    2.382    0.580
        28  -9.2786     37.7127      9.6314   8.0357726467e+01   6.9493540318e+01     0.137656    0.1041397  29.16 0.0007738445    1.448    0.309
        29  -9.8437    128.4498      8.4316   5.1329778696e+01   5.1904074906e+01    0.1344572    0.1224664  53.38 1.524968e-06    1.041    0.040
        30 -10.6836    119.9627      7.1390   5.2535110760e+01   5.4060859156e+01    0.2866701     0.189624 -34.76  0.001014488    1.672    0.402
        31 -10.3549     73.9128      8.2017   6.5183408777e+01   6.3872119019e+01    0.2454034    0.1439054  29.84  0.001040116    1.611    0.379
        32 -10.0096     61.9226      6.7491   6.8699316484e+01   6.6188240016e+01    0.2774331    0.1956418 -24.27  0.001697934    1.395    0.283
        33 -10.3160     49.3187      7.7279   7.4208811422e+01   6.8110468376e+01    0.4612563    0.1778403  29.19  0.001940605    3.129    0.680
        34 -11.5116    208.3582      3.9650   3.9182356323e+01   3.2270766512e+01    0.4857959    0.2680742 -56.46  0.002410825    1.781    0.439
        35  -9.6188    138.6483      7.1176   4.8991038667e+01   4.9516454750e+01    0.1791219    0.1252372   3.61 0.0004100749    1.689    0.408
        36  -9.9304     18.5230      2.4410   8.6299468293e+01   7.2689287989e+01    0.1742085    0.1407864 -35.91 0.0007531643    1.514    0.339
        37 -10.3633     24.3951      6.5682   8.5349260903e+01   7.1497328900e+01    0.2087087    0.1711819 -39.85  0.001479277    1.587    0.370
        38 -10.0923     20.5215      6.0234   8.7105625075e+01   7.1979188180e+01    0.2488023    0.1494527 -29.56  0.001014976    1.332    0.249
        39 -11.2483    139.7410     13.4956   5.1048347322e+01   4.8638779374e+01    0.4905619    0.1945812  45.88  0.001918807    2.422    0.587
        40 -11.0408    131.1675      1.8805   4.8415677209e+01   5.1810547754e+01    0.3626981    0.2112264  77.61 0.0009468841    1.868    0.465
        41  -9.3841     79.2184      9.2219   6.3940576395e+01   6.2748451790e+01    0.1966828    0.1490385 -63.03   0.00105947    2.226    0.551
        42 -11.1424     38.2425      3.8583   7.7085806220e+01   7.0171985253e+01    0.3616009    0.2751987 -30.84  0.001707416    1.452    0.311
        43 -11.6273    195.2466      3.4244   4.0310319711e+01   3.5558736568e+01    0.5319811    0.2115867  64.92  0.002282029    2.187    0.543
        44 -10.0348    184.8070      4.1835   4.1631113277e+01   3.8105810694e+01    0.1802135    0.1448797  48.58 0.0003493363    1.321    0.243
        45 -11.2258    160.3288      2.7920   4.4222567931e+01   4.4442454890e+01    0.3743582    0.2880385  71.48 0.0008757793    1.166    0.142
        46 -10.2715     30.9537      3.3209   8.0296166972e+01   7.1181456885e+01    0.1874113     0.138355 -32.89 0.0005157551    1.467    0.318
        47  -9.8055    248.8908      2.9245   3.5719585212e+01   2.2979603604e+01    0.1704323    0.1600208  74.89 0.0003539859    1.307    0.235
        48 -10.2269    218.2060      2.3254   3.7905544871e+01   3.0060347809e+01    0.2358949    0.2018072 -86.56 0.0006984704    1.055    0.052
        49 -11.3913    115.6999      1.9736   5.1393506251e+01   5.5511444266e+01    0.2439944    0.1778413  54.49 0.0003044319    1.209    0.173
        50 -11.0618     74.8438      2.2096   6.1996954772e+01   6.4293513764e+01     0.405982    0.2148358  55.27  0.001766315    1.979    0.495
        51 -10.4799     49.7359      2.2432   7.1164518843e+01   6.8684003064e+01    0.2082745    0.1550987  19.77  0.000302439    1.158    0.136
        52 -10.2414     11.3425      1.6901   8.9921104402e+01   7.3470926845e+01    0.2020719     0.157965  43.86 0.0006850957    2.265    0.559
        53 -10.4341    180.5234      1.8240   4.1438766196e+01   3.9406726366e+01    0.2688501    0.1712731  72.67  0.001402408    1.401    0.286
        54  -9.4619    167.5000      1.4169   4.2862836855e+01   4.2742791088e+01    0.1350037    0.1184224  76.59 4.113941e-05    1.015    0.015
        55  -9.8155    148.2245      1.4217   4.5494526675e+01   4.7616249132e+01    0.2434833    0.1136202  64.25 0.0007019744    1.835    0.455
        56  -9.5098     81.7002      2.0804   5.9837173950e+01   6.2954949652e+01    0.2666999    0.1513546  52.55  0.001014216    1.663    0.399
        57 -10.2688    141.9958      4.2708   4.7433869658e+01   4.8934299664e+01    0.2452805    0.1719587   6.97   0.00128721    1.699    0.411
        58 -10.6385     14.3495    216.2411   1.2776141390e+02   2.7532313460e+01    0.4187672    0.1328002 -76.22  0.002118404    2.687    0.628
        59 -11.3402    187.1677    250.3618   9.9167800932e+01  -2.7951696623e+00    0.1985556    0.1290971  37.32 0.0006701094    1.222    0.181
        60 -11.4516    127.4584    248.1471   1.0980793963e+02   6.8442469923e+00    0.3234076    0.2739778 -64.91  0.001376586    1.446    0.309
        61 -10.8813    115.8740    249.3331   1.1205023707e+02   8.4193063984e+00    0.2784397    0.2061677  62.26  0.001522027    1.226    0.184
        62 -10.2483    111.9572    246.3186   1.1245353748e+02   9.4961659117e+00    0.1938363    0.1695375 -86.45 0.0004062276    1.292    0.226
        63 -10.3732     38.8836    249.0566   1.2543462483e+02   1.8828776086e+01    0.2057847    0.1447683 -80.98  0.001469414    1.449    0.310
        64 -10.0827     30.9243    250.3678   1.2679749111e+02   1.9506577493e+01    0.1594173   0.09554292  63.04  0.001148885    1.196    0.164
        65 -10.2004     26.3715    249.6454   1.2748873148e+02   2.0133507109e+01    0.1658241    0.0788834  64.96 0.0006457706    1.616    0.381
        66  -9.6014     16.4760    250.5120   1.2908710596e+02   2.1038161657e+01    0.1440922    0.0968021  68.63  0.000703987    1.002    0.002
        67 -10.8433     10.9395    250.3166   1.2993408419e+02   2.1639016380e+01    0.2994987    0.1240628  32.72 0.0007475036    3.042    0.671
        68  -8.8841    117.2693    218.6719   1.0828231529e+02   1.3492028109e+01     0.127381   0.08796836  70.46 0.0002186034    1.579    0.367
        69  -9.6169     47.3762    218.0488   1.2188827360e+02   2.3559449221e+01    0.1754337    0.1452129  44.15  0.000636071    1.409    0.290
        70  -9.7208     39.0649    217.9372   1.2342167187e+02   2.4560300627e+01    0.1501966    0.1273156 -61.01 0.0005178517    1.596    0.374
        71  -9.7030    136.7335    217.2698   1.0417524749e+02   1.0534658099e+01    0.2561215    0.1480018  23.61  0.001162753    2.446    0.591
        72 -11.4402     90.8520    216.2544   1.1329306538e+02   1.8052337253e+01    0.5810654    0.2344793  49.62  0.002447526    2.165    0.538
        73 -10.5554     58.3613    215.7723   1.1962117661e+02   2.2644847629e+01     0.195461    0.1600965  69.35  0.000327956    1.085    0.079
        74 -11.4663      8.4349    210.2997   1.2848742895e+02   2.9266014271e+01    0.3506322    0.1600856 -69.19  0.002106699    2.047    0.511
        75 -10.5477    111.6822    213.3749   1.0874441912e+02   1.5387723258e+01    0.2250903    0.2038918  49.63  0.000245834    1.142    0.124
        76  -9.8678     29.2093    212.7696   1.2488194190e+02   2.6681340444e+01    0.1379618    0.1173323 -83.49 0.0004432017    1.332    0.249
        77  -9.7714      1.5848    212.7221   1.2980346937e+02   2.9421198702e+01    0.1962537   0.07879634 -77.96  0.001110081    2.057    0.514
        78  -8.7071    165.0162    213.0000   9.7841964664e+01   6.4099403263e+00    0.2179444   0.06637444  41.09 0.0007892923    2.852    0.649
        79 -11.1660    126.2195    210.4890   1.0537679454e+02   1.3549065137e+01    0.4225731    0.3172988  -0.83  0.001017247    2.171    0.539
        80  -9.8099    117.8607    211.7625   1.0727052375e+02   1.4693884450e+01     0.188211    0.1662621  39.87 0.0005955416    1.179    0.152
        81  -8.6736     52.6536    212.7260   1.2046083434e+02   2.3971810217e+01   0.09916379   0.09346055 -36.44 0.0006201898    1.626    0.385
        82  -9.8178     46.9632    210.2098   1.2135009898e+02   2.5173359047e+01    0.1922593    0.1223975  65.07 0.0005937645    1.303    0.233
        83 -10.0408     39.2798    209.7773   1.2278678342e+02   2.6161872938e+01    0.2112884    0.1801132 -36.54  0.001464094    1.907    0.476
        84  -8.7466    177.7274    209.3250   9.4705962719e+01   4.7927279362e+00    0.1224035    0.1027026  73.42  0.000285951    1.579    0.366
        85  -9.4989    155.5219    209.4839   9.9206733692e+01   8.6801950817e+00    0.1335389    0.1170017  38.87 2.686263e-05    1.014    0.014
        86  -9.9373    144.3960    208.1832   1.0128830293e+02   1.0862977667e+01    0.2517197    0.1668302 -71.07  0.001270977    2.061    0.515
        87 -11.0348     67.0298    207.4264   1.1715022158e+02   2.3190912995e+01    0.3021064    0.2018599 -74.76 0.0005238095    1.450    0.310
        88  -9.9264     63.5701    207.5024   1.1785117662e+02   2.3635275761e+01    0.2107038    0.1083487  66.45  0.000900309    1.981    0.495
        89 -10.3608     60.2804    208.8844   1.1863491059e+02   2.3782600590e+01    0.1912535    0.1255399  82.91 0.0006222474    1.395    0.283
        90 -10.9813     22.7932    208.3865   1.2578061042e+02   2.8235373458e+01      0.27632    0.1660955  32.29  0.001745163    2.017    0.504
        91 -10.7577     18.2120    207.7317   1.2658242528e+02   2.8831322871e+01    0.2672317    0.1487161  72.00 0.0008936127    1.452    0.311
        92  -9.1988    196.2770    208.3158   9.0895709403e+01   1.7118076123e+00    0.1304677   0.09347554   6.10 0.0002018111    1.568    0.362
        93 -10.5045     72.7135    215.5313   1.1681093782e+02   2.0788741297e+01    0.3231659    0.1874741 -86.89  0.001231319    1.823    0.451
        94  -9.4378     80.0130    209.0000   1.1468880967e+02   2.1071402524e+01    0.2024172   0.06361783  38.31 0.0008029851    2.946    0.661
        95  -9.9575     57.8648    204.1418   1.1867836252e+02   2.5067312317e+01    0.3404695   0.09075026 -59.65   0.00135175    3.628    0.724
        96  -9.6231     40.2141    204.8170   1.2222611337e+02   2.7066913782e+01    0.1470575    0.1252076 -79.48 0.0009707997    1.304    0.233
        97 -11.1298     35.1872    203.6896   1.2311355529e+02   2.7866664786e+01    0.2979684    0.1746809 -78.28  0.001241727    1.506    0.336
        98 -11.0619     32.9722    199.0690   1.2319501685e+02   2.9069071498e+01     0.292693    0.2155303  57.15 0.0008890689    1.227    0.185
        99  -9.9474    142.0639    203.4436   1.0104592985e+02   1.2148738470e+01    0.2141461    0.1861368 -24.65  0.000611288    1.394    0.283
       100  -9.4815     11.5019    203.4881   1.2756233545e+02   3.0337979128e+01    0.1779984   0.07778695 -68.32 0.0006577536    2.101    0.524
       101  -9.6101      1.4013    204.2780   1.2942918364e+02   3.1099827527e+01    0.1473419    0.0757907  84.46 0.0004121057    1.512    0.338
       102 -10.7196    121.6351    200.2029   1.0487906725e+02   1.6314545394e+01    0.3756675    0.2353342 -71.04  0.001386292    1.933    0.483
       103 -10.8436     97.0278    200.0778   1.1010792633e+02   2.0353154082e+01    0.4078741    0.1717911  39.92  0.001307992    2.193    0.544
       104  -9.5582     87.5210    200.4781   1.1217065496e+02   2.1720657728e+01    0.1291028     0.110598  69.50 2.378379e-05    1.024    0.023
       105 -10.5193     39.9057    198.4252   1.2177327484e+02   2.8432107774e+01    0.4178171    0.1577141  60.19  0.001874499    2.741    0.635
       106  -8.6689    170.3078    199.7139   9.4570646153e+01   7.7562915293e+00     0.130353    0.1039685  68.07 0.0001871647    1.570    0.363
       107 -10.3108     62.3710    198.3038   1.1719352283e+02   2.5706907671e+01    0.1929486    0.1656509  65.04 0.0002548628    1.137    0.120
       108 -10.6730     12.6400    197.4489   1.2699491470e+02   3.1464016219e+01    0.2713217    0.1633921 -65.76  0.001329305    1.703    0.413
       109 -10.8939    108.3555    194.2050   1.0688156924e+02   1.9755000218e+01      0.40218    0.2047374 -63.96  0.001844973    2.163    0.538
       110 -10.5418     82.6249    195.3448   1.1259663868e+02   2.3523134210e+01    0.2330742     0.197824 -74.75 0.0002086421    1.208    0.172
       111  -9.2910     24.9807    196.9807   1.2460188444e+02   3.0350015279e+01    0.1409159    0.1037378  82.87 0.0003971302    1.048    0.045
       112 -10.4413     95.5427    194.5449   1.0971173090e+02   2.1737718170e+01      0.21863    0.2025207  62.85 0.0009831981    1.137    0.120
       113  -8.9172      1.7025    195.2498   1.2891107371e+02   3.2897942939e+01      0.10994   0.05921371  66.20 0.0001670516    1.490    0.329
       114 -10.2286     63.7453    193.4044   1.1639996319e+02   2.6571031989e+01     0.281222    0.2361948  14.92  0.000728427    1.742    0.426
       115  -9.3459     44.6987    194.0295   1.2042886402e+02   2.8810503203e+01    0.1623512    0.1248268  88.57 0.0002029165    1.093    0.085
       116  -9.5611      6.0146    193.5307   1.2801172142e+02   3.2876475765e+01    0.2531303   0.09917529  80.76  0.001263336    2.411    0.585
       117  -9.6903    100.1317    192.3668   1.0842075300e+02   2.1473173053e+01    0.2017274    0.1669896 -62.12 0.0003248187    1.292    0.226
       118 -11.0626     59.0109    190.5359   1.1710350770e+02   2.7807500737e+01    0.3300584    0.1781278 -68.49 0.0008429649    1.735    0.424
       119  -9.0051     52.4661    193.4502   1.1877161969e+02   2.8001324541e+01    0.1225102    0.1010759  79.93 0.0008070879    1.050    0.047
       120 -10.0583     37.9284    192.1421   1.2164871450e+02   2.9988701903e+01    0.1734467     0.140216  83.18 0.0004281423    1.069    0.065
       121 -11.3780     91.1749    188.6987   1.0989506378e+02   2.3661856181e+01    0.3291345    0.2467332  76.06 0.0008814158    1.303    0.233
       122 -10.7487    105.4049    185.9677   1.0634481418e+02   2.1980636908e+01    0.2640263    0.2204523  73.43 0.0004465551    1.134    0.118
       123 -10.8898      5.9521    200.0134   1.2838546168e+02   3.1553393691e+01    0.1708306    0.1176955  84.69 0.0003646319    1.085    0.078
       124 -10.5584     15.7831    182.9222   1.2542993887e+02   3.4233776603e+01    0.2515702    0.1594801 -76.60 0.0008903742    1.339    0.253
       125  -9.8936     44.0352    182.8892   1.1953676427e+02   3.1309400675e+01    0.2851325     0.130044  77.84  0.001239596    2.727    0.633
       126 -10.1801     55.1990    180.6118   1.1687523299e+02   3.0476037828e+01    0.2826287     0.166827  73.56   0.00141387    1.719    0.418
       127 -10.7712     30.1201    179.6031   1.2220417532e+02   3.3555561632e+01      0.27061    0.1310207  48.13  0.001471036    1.910    0.476
       128 -11.0223     32.4687    175.8577   1.2137129121e+02   3.4142824955e+01    0.2294315    0.1852543 -72.07 0.0003864903    1.257    0.204
       129  -9.2054    131.6418    179.3278   9.9363462428e+01   1.8819720831e+01     0.151227    0.1063525  73.15 0.0001546305    1.784    0.440
       130  -9.3757    120.7861    178.9660   1.0176706969e+02   2.0852646707e+01    0.1864036     0.174098 -86.72 0.0003332706    1.075    0.070
       131 -10.0098     92.1190    177.3438   1.0810231111e+02   2.6010581943e+01    0.2203778    0.1733858 -60.12 0.0006409634    1.309    0.236
       132 -10.6129     46.9121    177.3318   1.1835612785e+02   3.2213139592e+01    0.3082235    0.1594853  53.52  0.001043944    1.831    0.454
       133  -9.3208      3.4384    178.1583   1.2759372945e+02   3.6335333949e+01    0.1711863   0.07875825  84.07 0.0009326956    1.857    0.461
       134  -9.1779    199.4244    175.4470   8.4067021151e+01   6.5719418816e+00     0.139302    0.1286932  10.41  6.58249e-05    1.031    0.030
       135 -11.8780     78.8469    174.0298   1.1070696810e+02   2.8766772967e+01    0.2602187     0.217104  78.98 0.0003275348    1.073    0.068
       136 -10.6869     76.5243    170.5621   1.1077231143e+02   2.9895253132e+01    0.2292055    0.1970037  82.99 9.923656e-05    1.020    0.020
       137 -10.0569     17.5095    175.0385   1.2449334979e+02   3.5791380100e+01    0.1760178    0.1597797 -62.54 0.0007487991    1.429    0.300
       138 -10.7276     46.7135    166.3731   1.1721789009e+02   3.4731532500e+01    0.2783409    0.1838017  43.54 0.0007534262    1.552    0.356
       139  -9.6763      4.9981    168.7154   1.2665708554e+02   3.8257382316e+01    0.1481717    0.1183576  73.82 0.0003227871    1.150    0.131
       140  -9.6019      2.7163    165.6795   1.2692874829e+02   3.9104132303e+01    0.2311995   0.06844127 -70.06 0.0007826893    2.537    0.606
       141  -9.8145     44.5275    169.4562   1.1805970740e+02   3.4274250004e+01    0.2126595     0.155085 -38.52 0.0001299689    1.953    0.488
       142  -9.3806    185.8195    164.8473   8.4644299676e+01   1.1164503202e+01    0.1839481    0.1732535 -83.72 0.0002616204    1.266    0.210
       143 -10.1958     24.6336    162.7938   1.2190686691e+02   3.7871290369e+01    0.1831564    0.1555523  61.91 0.0003151585    1.234    0.190
       144  -9.6181     75.3120    161.9565   1.0983542149e+02   3.2064810322e+01    0.1948818    0.1604756 -77.69 0.0005217534    1.106    0.096
       145  -9.6606    139.9038    160.8460   9.4017704717e+01   2.1200491763e+01    0.2127373    0.1964147  17.12 0.0004092029    1.181    0.153
       146 -11.5246     36.8349    158.9589   1.1870393342e+02   3.7538134267e+01    0.5531573    0.2369355  51.09  0.002116356    2.373    0.579
       147 -10.9519     29.9004    154.3212   1.1984793809e+02   3.9318053775e+01     0.394427    0.2093574  50.15  0.001766223    1.894    0.472
       148  -9.0541     99.5450    159.4942   1.0349909028e+02   2.8879458121e+01     0.142595    0.1311218  86.44 -6.75997e-06    1.005    0.005
       149 -10.0114    113.9741    158.1263   9.9710390927e+01   2.6692291021e+01    0.2103509    0.1971756  73.03 0.0002861124    1.018    0.017
       150  -9.3258     66.1724    158.3341   1.1154791247e+02   3.4184129254e+01    0.1902447    0.1098253  48.13 0.0004706715    1.728    0.421
       151  -8.8988    144.2356    153.3357   9.1456765462e+01   2.1968493908e+01    0.1454252    0.1170509 -17.47 0.0002803589    1.540    0.351
       152  -9.1880    113.4365    153.4874   9.8966057948e+01   2.7853390641e+01    0.1474135    0.1364567  85.44 0.0001139909    1.039    0.038
       153  -9.4833     45.8775    151.6093   1.1565352991e+02   3.8280823855e+01    0.1682939    0.1441964  78.04 0.0003734916    1.098    0.089
       154 -11.7943      5.5952    147.7623   1.2494263692e+02   4.2900412973e+01    0.2926062    0.1953417  77.80  0.001896971    1.295    0.228
       155 -10.6069      2.0841    139.9710   1.2511480462e+02   4.4925429447e+01    0.2073919     0.140299  78.86  0.000693201    1.289    0.224
       156 -10.0291     28.4279    147.5060   1.1946801887e+02   4.1052289488e+01    0.1885512    0.1263808   4.99   0.00103285    2.416    0.586
       157  -9.7083     24.2680    144.4133   1.2015279393e+02   4.2159688753e+01    0.1876218    0.1242885  25.54  0.001108392    1.920    0.479
       158 -10.6951     13.6769    143.7113   1.2266763736e+02   4.3214721141e+01    0.3857048    0.2273449  75.66  0.002223641    1.623    0.384
       159  -9.9597     17.1477    140.6223   1.2151164889e+02   4.3654605725e+01    0.1941832    0.1462763 -57.49 0.0006419883    1.359    0.264
       160 -10.4346     34.1630    136.9044   1.1675099870e+02   4.3014703692e+01    0.3420476    0.1783157  54.78  0.001346694    2.123    0.529
       161  -9.9297     24.0168    137.4848   1.1944248767e+02   4.3813095155e+01    0.2863023    0.1320947  87.55  0.001267749    2.491    0.598
       162 -10.5152    236.1475    137.1667   6.8853526634e+01   6.0019301833e+00    0.2156027    0.1822126  -2.82 0.0005929909    1.168    0.144
       163  -9.6132     50.0841    136.1436   1.1243143014e+02   4.1507168211e+01    0.2002082    0.1651965 -50.36 0.0006086858    1.292    0.226
       164 -10.4596     42.1019    131.1946   1.1384844628e+02   4.3581600593e+01    0.4251484    0.2120443 -51.12  0.002034589    1.944    0.486
       165 -12.1720     28.2543    131.8450   1.1765733562e+02   4.4776237084e+01    0.3052282    0.2480741  73.85  0.001978737    1.217    0.178
       166 -10.2685      7.7899    133.4251   1.2312127559e+02   4.6039570542e+01    0.1382524    0.1145024 -18.50 0.0009456846    1.703    0.413
       167  -9.5218     12.7637    131.0126   1.2161019457e+02   4.6242679574e+01    0.1669808    0.1219636 -78.94            0    1.064    0.060
       168 -10.6446      3.2114    130.8534   1.2402460551e+02   4.6944744961e+01    0.1811317    0.1269171  85.30 0.0006163614    1.218    0.179
       169 -10.3546     33.8709    129.4123   1.1582914552e+02   4.4836818459e+01    0.2392449     0.169454 -58.80 0.0008494221    1.279    0.218
       170  -9.2964     18.8179    130.8281   1.2001887563e+02   4.5819524573e+01    0.2681729   0.07943033  29.08 0.0009091065    3.661    0.727
       171  -9.3823     38.8149    126.5635   1.1406586883e+02   4.5037009706e+01     0.199087    0.1286947 -76.01 0.0002229387    1.354    0.261
       172  -9.3638     91.5740    126.4931   9.9245353446e+01   3.8045533227e+01    0.1470221    0.1350742 -55.90 7.111772e-05    1.067    0.062
       173 -10.5516     30.0856    125.3459   1.1630189515e+02   4.6163818121e+01    0.2056996    0.1413531 -64.55 0.0002280347    1.213    0.176
       174  -8.8892     69.4505    123.3893   1.0485913635e+02   4.2159799234e+01     0.138545    0.1251485 -75.33 9.076892e-05    1.028    0.028
       175 -10.2555      6.5069    122.4024   1.2232575567e+02   4.8689654462e+01      0.32745    0.1462495  70.75   0.00148864    2.856    0.650
       176  -9.2583      2.6108    122.8643   1.2340131721e+02   4.8829829813e+01    0.1626739   0.08951634 -85.69 0.0009188894    1.515    0.340
       177 -10.6546    237.8392    121.1316   6.4862470590e+01   8.3494477769e+00    0.2206542    0.1909826 -50.19 0.0009477577    1.229    0.186
       178  -8.7099     83.6786    124.6130   1.0106049502e+02   3.9768622608e+01    0.1534821    0.1075748 -29.60 0.0002340604    1.850    0.460
       179 -10.9330     10.4193    117.2182   1.2068197908e+02   4.9641860100e+01    0.2648688    0.2244834  35.41  0.001864197    1.469    0.319
       180 -11.1377     19.6707    110.0607   1.1711138323e+02   5.0669997350e+01    0.4203543    0.2191266 -46.85  0.002206449    1.889    0.470
       181 -11.0051     14.7261    113.8925   1.1906247866e+02   5.0125985629e+01    0.3652685    0.2447837  56.68  0.002216422    1.679    0.404
       182 -10.0442     24.6184    117.2234   1.1669938081e+02   4.8577919263e+01    0.2495374    0.1631362 -60.81 0.0008493006    1.275    0.215
       183 -10.1732     21.9710    120.7375   1.1792325294e+02   4.7957262759e+01    0.2452817    0.1447888 -64.32 0.0003528113    1.358    0.264
       184 -11.1821     19.8154    117.6390   1.1811550355e+02   4.8863053785e+01    0.3409133     0.182331  26.55  0.001847749    2.282    0.562
       185  -9.4674     93.2140    118.8660   9.7098894854e+01   3.9598526722e+01    0.2009987    0.1716099 -28.19 0.0004860943    1.320    0.242
       186 -10.9329     55.1117    117.8189   1.0795355758e+02   4.5362953913e+01    0.2221063    0.2090597 -48.82 0.0003547174    1.158    0.136
       187  -9.0892    123.3078    120.9680   8.9315049157e+01   3.3495164258e+01    0.1799582    0.1381416 -51.44 0.0004014111    1.272    0.214
       188 -10.5739      3.6736    116.3472   1.2243331673e+02   5.0276240008e+01     0.286663    0.2103036  16.95  0.001918657    1.828    0.453
       189  -9.5249    108.7295    114.7494   9.1739479803e+01   3.7788315597e+01    0.1976705     0.172037 -88.79 0.0004101057    1.273    0.214
       190 -11.1180     61.3025    113.1634   1.0521527823e+02   4.5724113643e+01    0.3220274    0.2066681 -48.28  0.000947521    1.464    0.317
       191  -9.4427     47.1332    111.6274   1.0917818330e+02   4.7773883930e+01    0.1792507    0.1294516   3.88 0.0009567863    1.916    0.478
       192 -10.5332     31.7072    111.0697   1.1370551102e+02   4.9438568047e+01    0.1817729    0.1374235 -67.70 0.0001717502    1.080    0.074
       193  -9.5138     93.2433    108.7424   9.4685356216e+01   4.1994419694e+01    0.1989629    0.1654714 -30.69 0.0005254878    1.295    0.228
       194 -10.4716     36.5521    106.1565   1.1140592565e+02   5.0167234805e+01    0.5028826    0.3280771 -77.82  0.002738278    1.470    0.320
       195  -9.5208      8.4587    106.9217   1.1996461082e+02   5.2178358971e+01    0.1877342   0.09620933 -74.80  0.001008646    1.554    0.357
       196 -11.1660      3.7731    109.4721   1.2162625994e+02   5.1866893897e+01    0.5523652    0.1514573 -74.11  0.002222848    2.900    0.655
       197 -10.4782     47.2318    103.0738   1.0749866243e+02   4.9817130424e+01    0.4442009     0.223648 -70.25  0.001987641    2.004    0.501
       198 -11.7780     41.9497     98.8086   1.0831849669e+02   5.1388302498e+01    0.5202435    0.2629013  29.43  0.000333233    2.304    0.566
       199 -10.0905     29.2966    103.3549   1.1315632779e+02   5.1488913350e+01    0.2438388    0.1428506 -64.64 0.0005999964    1.374    0.272
       200 -11.6287    174.8742    102.8758   7.2029005109e+01   2.5820381553e+01    0.2524445    0.2461923 -23.23            0    1.018    0.018
       201 -10.4977      8.7889     99.1316   1.1881658263e+02   5.3972798831e+01     0.253501    0.2024639  80.72 0.0008336061    1.306    0.234
       202 -10.2388      3.8995     97.9946   1.2015123777e+02   5.4518095384e+01    0.2493684    0.2015671 -76.84 0.0009231223    1.084    0.078
       203  -8.5310    110.6504     99.6703   8.7247870512e+01   4.0870776553e+01     0.159776    0.1212398  -7.95 0.0007048548    1.766    0.434
       204  -8.7170    103.3142     96.7022   8.8555161855e+01   4.2952989891e+01    0.1494811    0.1203285  88.59 0.0003182872    1.606    0.377
       205 -10.2787     53.2867     94.7647   1.0377266928e+02   5.1102937326e+01    0.3393795    0.1764428  45.11  0.001349261    2.318    0.569
       206  -9.3978     23.1008     95.5625   1.1376707900e+02   5.3829384049e+01    0.1522819    0.1255443  26.19 0.0003298256    1.497    0.332
       207 -10.2860     46.4418     94.0090   1.0585052960e+02   5.2052199539e+01    0.2313969    0.1994422  26.04 0.0006258719    1.363    0.266
       208 -10.2079     30.6248     93.5748   1.1096238381e+02   5.3684784866e+01    0.3067251    0.1774849  56.35  0.001271453    2.336    0.572
       209 -10.0624      1.6635     92.9337   1.2015580207e+02   5.5800854765e+01    0.2118184    0.1321086 -85.61 0.0006688779    1.470    0.320
       210 -10.7837    105.4177     90.8415   8.6270265343e+01   4.3852469609e+01    0.3074349    0.2386436  34.32  0.001512006    1.374    0.272
       211  -9.1210     17.4754     91.4571   1.1487922346e+02   5.5196318856e+01     0.125627   0.09904902 -63.58 0.0006514989    1.003    0.003
       212 -10.4165      7.1074     89.6518   1.1795196066e+02   5.6261808077e+01    0.2723264    0.1650622 -66.34 0.0006415015    1.250    0.200
       213  -9.6392     88.0186     88.5306   9.0917007795e+01   4.7538179455e+01     0.235463    0.1823697 -47.24 0.0005302044    1.195    0.163
       214 -10.8828     21.2757     87.7066   1.1295318498e+02   5.5795882130e+01    0.2117834    0.1715677 -62.69 0.0002798389    1.026    0.025
       215  -9.8395     17.6630     85.0805   1.1368574096e+02   5.6656953284e+01    0.2037366    0.1617682  39.11  0.000411829    1.554    0.357
       216 -10.9617     27.1922     87.2832   1.1087695188e+02   5.5438091743e+01    0.4340645    0.2076451 -48.96  0.001104567    1.752    0.429
       217  -9.8737     30.8573     84.1607   1.0897931348e+02   5.5853723820e+01    0.2289228     0.151843 -47.91   0.00043646    1.285    0.222
       218 -10.5743    123.6772     86.7054   7.9835782317e+01   4.0979998037e+01    0.2969166    0.2480832 -50.34 0.0005318581    1.208    0.172
       219  -9.2717     43.5408     88.4792   1.0558724492e+02   5.3651913287e+01    0.1337009    0.1130819 -57.34  0.000206281    1.029    0.028
       220  -9.2733     63.9458     86.9615   9.8324977860e+01   5.1571365728e+01      0.16083     0.153534 -23.11 0.0004733791    1.110    0.099
       221  -9.7825      2.4138     86.2473   1.1895960178e+02   5.7290392821e+01    0.2259142   0.08625927 -67.47  0.001106184    1.905    0.475
       222 -10.0953     10.9969     85.2133   1.1595634396e+02   5.7053831357e+01    0.2374078    0.1488741 -75.87  0.001398787    1.407    0.289
       223  -9.7517    155.0907     84.9866   7.1367379513e+01   3.4075236931e+01    0.2274071      0.22524 -32.15 0.0004088333    1.004    0.004
       224 -11.2671     50.7497     83.1092   1.0183085719e+02   5.4100120036e+01    0.3830621     0.250944   7.90  0.001144023    2.028    0.507
       225 -10.0107     73.2606     80.3960   9.3382785517e+01   5.1718682164e+01    0.4266481    0.1852163 -35.70  0.001544291    2.838    0.648
       226 -10.0860     95.3563     81.9433   8.6680162803e+01   4.7682928547e+01    0.2158759    0.2010386  57.18 0.0004712949    1.202    0.168
       227  -9.7508     19.9042     81.1545   1.1216603950e+02   5.7400516096e+01     0.180036    0.1518762 -83.22 0.0007263971    1.250    0.200
       228 -10.5419     44.4762     80.0019   1.0324707200e+02   5.5500731559e+01     0.289935    0.1939245  34.35 0.0008693393    1.741    0.426
       229  -9.3307      2.5357     80.5414   1.1803526680e+02   5.8577869680e+01    0.1191222   0.09237838 -69.13 2.928211e-06    1.069    0.064
       230  -9.5836     29.4655     73.4643   1.0706774208e+02   5.8400744864e+01    0.2001494    0.0918684 -52.10  3.36328e-05    1.692    0.409
       231  -9.6035     83.1901     74.9758   8.8436653732e+01   5.1307929278e+01    0.3594508    0.1751098 -28.25  0.001061075    3.121    0.680
       232 -10.3895     64.2303     75.7233   9.5119674312e+01   5.4049541232e+01    0.2956744    0.2121298  60.16  0.001488927    1.962    0.490
       233 -10.9748     52.7812     75.2983   9.9052542608e+01   5.5618411527e+01    0.2722745    0.2183439 -16.53 0.0003610046    1.344    0.256
       234 -10.3418     18.4981     73.5764   1.1111342097e+02   5.9212803332e+01    0.3534343    0.2131268 -35.13    0.0019466    1.654    0.395
       235  -9.4871    174.9716     75.0335   6.4122580674e+01   3.1007946587e+01    0.2639632    0.2050323  64.43            0    1.348    0.258
       236  -9.7786    170.4060     72.9745   6.4438656724e+01   3.2512206202e+01     0.467481    0.2659935  81.26 0.0007977029    3.236    0.691
       237  -9.0775     93.1727     74.1980   8.4954373780e+01   4.9715952974e+01    0.1886633      0.16874 -66.04 0.0003528052    1.279    0.218
       238  -9.4528     68.9854     73.4986   9.2800267613e+01   5.3856665597e+01    0.1833459    0.1390076  30.76 -0.0006576949    1.450    0.310
       239  -9.4451     44.8086     73.2137   1.0136990208e+02   5.6986570219e+01     0.183405    0.1286968 -38.33 0.0006237688    1.289    0.224
       240 -10.0618    199.9234     71.5773   5.8551114432e+01   2.5377844452e+01    0.2292971     0.201663 -25.74 0.0003320427    1.175    0.149
       241  -9.8049    137.8357     72.1015   7.1560432825e+01   4.0649000311e+01    0.2240782    0.2037782 -70.81 0.0003596201    1.221    0.181
       242  -9.8424     89.1044     71.9405   8.5535400101e+01   5.0917210351e+01    0.2169398    0.1951465 -28.64 0.0003381466    1.025    0.024
       243 -11.8123     79.7996     69.8644   8.7948621135e+01   5.2941993028e+01    0.2373109    0.2208213 -13.93 0.0002737064    1.055    0.053
       244 -11.4591     52.7439     69.4633   9.7405951106e+01   5.6899247832e+01    0.2417661    0.2070539 -47.82 0.0003295802    1.084    0.078
       245 -10.5619     44.8127     69.0964   1.0023761637e+02   5.7889942767e+01    0.3810569      0.21418 -20.61  0.001731252    2.472    0.595
       246  -9.6030      1.2988     69.2901   1.1655072849e+02   6.1149032064e+01    0.1203451   0.09392617 -65.82  0.000248273    1.086    0.079
       247 -11.7067      1.5961     63.4247   1.1533206535e+02   6.2420778197e+01    0.5655103    0.1188027 -65.00  0.002202835    3.212    0.689
       248 -11.8586      5.8489     59.5071   1.1287058718e+02   6.3062263196e+01    0.4143757    0.3926283 -85.46 0.0009923208    1.305    0.233
       249  -8.9309     10.2710     68.3302   1.1305060373e+02   6.0897948859e+01    0.1273547   0.06685157 -44.92 0.0004460086    1.586    0.370
       250  -9.4330    106.1337     66.7324   7.8489792100e+01   4.8689290555e+01    0.2247081    0.1870672  58.67 0.0008605627    1.384    0.277
       251 -10.0814     91.5828     66.4592   8.2925256882e+01   5.1573906148e+01    0.2911524      0.21113  47.50  0.001453727    1.530    0.346
       252  -9.6180     56.7729     66.8162   9.5130412082e+01   5.6962299785e+01    0.2090507    0.1587489  80.63  0.001065486    2.130    0.531
       253  -8.9193     17.6732     66.7668   1.0991662270e+02   6.0780372039e+01    0.1461411    0.1298994 -82.80 0.0002542102    1.294    0.227
       254  -9.9415     14.7038     64.9375   1.1063521086e+02   6.1375893523e+01     0.216502    0.1655426 -20.65  0.001435831    1.416    0.294
       255 -10.2609     16.8043     60.5098   1.0876922018e+02   6.2199890665e+01    0.2956975    0.1984704 -84.93  0.001369255    1.932    0.482
       256  -9.0779    144.0336     66.0074   6.8092821788e+01   4.0269056100e+01    0.1823974    0.1768419 -21.61 0.0004256086    1.028    0.027
       257  -9.6147     75.3028     66.0722   8.8254341407e+01   5.4449701744e+01    0.1945989       0.1635 -37.93 0.0001565934    1.086    0.079
       258  -9.3835    202.3444     64.1530   5.6111875705e+01   2.5978930710e+01     0.326675    0.1454604 -24.46  0.001127551    2.854    0.650
       259 -11.0135     32.1717     64.6188   1.0380713930e+02   6.0113178220e+01    0.2770658    0.2232121   6.63  0.001775712    1.424    0.298
       260 -10.7890     29.8301     53.5357   1.0158279699e+02   6.2664607363e+01    0.4580153    0.2500876  25.55  0.001965593    2.118    0.528
       261 -10.2948     21.9109     63.8482   1.0758877576e+02   6.1118452018e+01    0.3063956    0.1665321 -42.14 0.0008879545    1.562    0.360
       262 -11.9821     24.0164     57.5128   1.0510161045e+02   6.2317469306e+01    0.3776546    0.2731923 -48.63  0.001183592    1.093    0.085
       263  -9.4829     63.9662     69.3221   9.3292305032e+01   5.5466232798e+01     0.182271    0.1671603  -0.69  0.000380909    1.142    0.125
       264 -10.8629     71.2685     60.4736   8.7798486589e+01   5.6210422105e+01    0.4436288    0.2542588  42.68  0.002103329    1.982    0.496
       265  -9.5175     59.4869     58.8838   9.1577363016e+01   5.8243899743e+01    0.3016298    0.1949406  -6.59  0.001456503    2.055    0.513
       266 -10.2380     31.3557     58.5942   1.0245205002e+02   6.1473480094e+01    0.2278353    0.1885226  85.56 0.0004214978    1.672    0.402
       267  -9.0291    238.4540     58.4534   4.9597338281e+01   1.8265374403e+01    0.1379621    0.1241497 -52.01   7.2061e-05    1.030    0.029
       268  -9.0171     85.7583     57.6335   8.1784844578e+01   5.4335025705e+01    0.1453374      0.10259 -14.60 0.0006929905    1.608    0.378
       269  -9.9935     38.7401     57.1284   9.9063186470e+01   6.1072945785e+01    0.1901016    0.1685031  29.09 0.0006220633    1.362    0.266
       270  -9.1131    249.9713     56.0145   4.7677645470e+01   1.6070824999e+01    0.1662976    0.1349007 -45.32 0.0003634915    1.077    0.072
       271 -10.0074    118.8442     54.9362   7.0765428827e+01   4.8091328890e+01    0.2677511    0.1982882 -10.83 0.0003625784    1.543    0.352
       272 -10.2478    122.6181     51.9385   6.8696119042e+01   4.7733563014e+01    0.3805537    0.2016847  44.58  0.001320396    1.864    0.464
       273 -10.9884     93.0626     54.6664   7.8319347399e+01   5.3525307947e+01    0.3090989    0.2141752 -27.28 0.0002399386    1.427    0.299
       274 -10.8384     94.3986     49.5633   7.6010612711e+01   5.4162983417e+01    0.4216596    0.2450677  32.41  0.001163101    1.874    0.466
       275  -9.6842     52.1996     53.9188   9.2690102409e+01   6.0191147383e+01    0.1943866    0.1711092 -53.02 0.0006349407    1.272    0.214
       276  -9.1575    191.5241     53.5346   5.4869678047e+01   3.0329336516e+01     0.145529    0.1428158  89.17 0.0008086776    1.049    0.047
       277  -9.8164    151.1813     53.1688   6.2300393397e+01   4.0646053887e+01    0.2313878    0.1964691  30.00 0.0005666068    1.243    0.195
       278  -9.5755     75.3635     52.8672   8.3648990587e+01   5.7017134065e+01    0.1983697    0.1580796 -27.44  0.001067508    1.138    0.121
       279 -11.2406     41.9554     51.6273   9.6003649162e+01   6.1852976178e+01    0.4159264     0.207013 -37.16   0.00124564    1.817    0.450
       280  -9.7624     39.0299     47.0142   9.5645072206e+01   6.3079734339e+01    0.1841583    0.1657442 -47.15 0.0007798432    1.248    0.199
       281 -12.4252     12.3937     43.7653   1.0612788280e+02   6.5979111661e+01    0.9552791    0.2824869 -45.80 0.0003822208    2.397    0.583
       282 -11.1275     14.1012     39.5055   1.0406596207e+02   6.6715855256e+01    0.2358422    0.2052484 -31.23 0.0005920552    1.163    0.140
       283 -11.4003     14.9715     35.6727   1.0241746260e+02   6.7400952308e+01     0.417433    0.3079164  35.33  0.001668541    1.811    0.448
       284  -9.9705    199.6826     51.7979   5.3106462604e+01   2.8530325050e+01    0.2574781    0.2092838  34.86 0.0007985872    1.436    0.304
       285 -10.0719     60.9072     51.9496   8.8637545652e+01   5.9409903909e+01    0.1991532    0.1775169 -21.89  0.000562883    1.060    0.056
       286 -11.8225     62.0047     44.2739   8.5366627667e+01   6.0675877055e+01    0.3451518    0.2404168 -39.73 0.0004595973    1.328    0.247
       287 -10.6470     65.7937     49.2165   8.5794379774e+01   5.9208838500e+01    0.3391361    0.2175123 -24.55  0.001582639    1.584    0.369
       288  -9.9734     67.5567     44.3052   8.3272079273e+01   5.9825321693e+01    0.2416617    0.2039574 -13.53 0.0006210231    1.047    0.045
       289  -9.8375    145.2827     54.1496   6.3923838033e+01   4.1957617016e+01    0.2452215    0.1984943  39.04 0.0006473578    1.247    0.198
       290 -11.2295     17.1293     47.0845   1.0502761046e+02   6.4991701933e+01    0.3094768     0.198322 -38.97 0.0009260366    1.262    0.208
       291  -9.4781     21.9091     46.1159   1.0266326412e+02   6.4834465487e+01      0.17181     0.113023 -32.85 -0.0006383859    1.313    0.239
       292  -9.4729      1.3234     48.2020   1.1212420238e+02   6.5672153831e+01    0.2519181   0.05634914 -56.91  0.001084577    2.617    0.618
       293  -9.7232     46.7987     47.4654   9.2593793634e+01   6.2114025504e+01    0.2041849    0.1276763 -38.77   0.00111492    1.355    0.262
       294 -10.0813     31.8930     47.8553   9.8934488211e+01   6.3628729782e+01    0.1803444    0.1501985 -29.29 0.0009783749    1.064    0.060
       295  -9.5222    114.4963     46.9136   6.9071864760e+01   5.0380796618e+01    0.2120406    0.1415225 -29.78 0.0004074249    1.501    0.334
       296  -9.1415    165.0374     45.9892   5.7206443436e+01   3.8216305747e+01    0.1745276    0.1697346 -43.95 0.0003755236    1.053    0.050
       297  -9.7596    123.6585     45.0746   6.5974553123e+01   4.8578071175e+01    0.3488648    0.1787136  45.46  0.001447056    1.895    0.472
       298  -9.4417     42.3748     44.5836   9.3387061284e+01   6.3180769716e+01    0.1649141    0.1511371 -81.53  0.001068149    1.551    0.355
       299  -8.7110    192.6399     44.7261   5.2176952540e+01   3.1327518633e+01    0.1492773    0.1082948  35.47 0.0007003739    1.655    0.396
       300  -9.7357    102.7273     43.8507   7.1291128608e+01   5.3413232889e+01    0.2642778    0.1922825 -12.71  0.001324854    1.472    0.321
       301 -11.7751    103.6110     38.7301   6.9063386859e+01   5.4013041597e+01    0.2533921    0.2341772  -1.61  0.000280687    1.042    0.040
       302 -10.1446     38.0902     40.6563   9.3774108903e+01   6.4396411274e+01    0.3618675    0.2002903   3.84  0.001756768    2.485    0.598
       303  -9.7936    200.0609     43.1706   5.0652572622e+01   2.9668807504e+01    0.2066914     0.191473  41.03 0.0003700047    1.203    0.169
       304  -9.1409     53.1463     42.6319   8.8229067747e+01   6.2216094391e+01    0.1576602    0.1143183  11.01 0.0001953719    1.459    0.315
       305 -10.2864     20.7297     40.6867   1.0144811673e+02   6.6002561433e+01    0.3305621    0.1595222   9.26    0.0016756    2.653    0.623
       306  -9.2440    152.2667     40.3326   5.7845890784e+01   4.2274037882e+01    0.1488124    0.1113147  21.89 0.0002636291    1.583    0.368
       307  -9.8039    127.9479     40.1735   6.3140440918e+01   4.8292735431e+01    0.2205343    0.2012761  84.70  0.001212848    1.250    0.200
       308  -9.6800     91.9247     40.3717   7.3268134664e+01   5.6158910163e+01    0.1988734    0.1652271  29.33 0.0005638973    1.166    0.142
       309  -9.9457      4.7260     32.1648   1.0612836538e+02   6.8715719655e+01     0.287212    0.1249933 -38.11  0.001040091    1.827    0.453
       310  -9.9920      8.3332     39.6647   1.0674317017e+02   6.7046011052e+01    0.2668949    0.1629831 -79.63  0.001309963    2.445    0.591
       311 -10.7622      4.0930     38.4712   1.0833349662e+02   6.7515863721e+01    0.3168138    0.2497985 -82.11  0.001631258    1.641    0.391
       312  -9.6757     82.4973     38.9962   7.5825976229e+01   5.8170631475e+01     0.195369    0.1722791   7.02 0.0004191226    1.045    0.043
       313  -9.9110     85.9853     36.9935   7.3847625840e+01   5.7833032858e+01    0.2031088    0.1763952   0.23            0    1.038    0.036
       314  -8.5834     31.2767     39.6801   9.6394433991e+01   6.5276776760e+01    0.1078887   0.09487211 -72.25 0.0002357657    1.576    0.365
       315  -9.7403    118.7587     38.6253   6.4868767014e+01   5.0667147255e+01    0.1991938    0.1369922  63.44 0.0006536175    1.636    0.389
       316 -11.2388    136.1851     35.8085   5.9675033736e+01   4.6907078939e+01    0.3136176    0.2311935  34.09 0.0002408923    1.400    0.285
       317  -9.5847     33.0454     43.2249   9.6876083799e+01   6.4426881717e+01    0.2175658    0.1968917  57.17  0.001465923    1.585    0.369
       318 -10.6739     41.2178     34.4521   9.0030567811e+01   6.5173143711e+01    0.4538928    0.2514774 -35.90  0.001456827    1.533    0.348
       319 -10.1620    208.4335     35.3094   4.7391177354e+01   2.8635978506e+01     0.267436    0.1416566 -22.82 0.0009647264    2.210    0.547
       320 -12.2012    194.1632     35.0142   4.9195887971e+01   3.2256563277e+01    0.3231294     0.253865  67.43 0.0003560758    1.231    0.188
       321 -10.7981    142.6767     31.6538   5.6839777253e+01   4.5843446793e+01    0.4575933    0.3217944  -2.50  0.002193009    1.734    0.423
       322 -10.7098    128.8330     35.1497   6.1111054104e+01   4.8780797717e+01    0.2693888    0.2161001  68.13 0.0006298843    1.347    0.258
       323 -10.0272     58.2903     35.2786   8.3237647712e+01   6.2780778519e+01     0.398011    0.2343187   4.74  0.001736529    2.378    0.580
       324 -10.8388     54.9999     33.0699   8.3643769059e+01   6.3622630058e+01    0.2968824    0.2183739  12.77 0.0003191888    1.359    0.264
       325  -9.7756     78.4963     34.5404   7.5384316972e+01   5.9595703757e+01    0.1354481    0.1194407  -2.35 -2.489024e-06    1.025    0.025
       326  -9.4443    153.6762     33.3559   5.5257612008e+01   4.2850600969e+01    0.1547412    0.1083203 -65.45   0.00070458    1.767    0.434
       327  -9.2232    118.3946     33.1500   6.2906204109e+01   5.1511986692e+01    0.1860414    0.1291342 -39.90 0.0003816548    1.551    0.355
       328  -9.1327     66.6313     32.8445   7.8980713243e+01   6.1889238948e+01     0.178784    0.1137183 -41.63 0.0004681188    1.634    0.388
       329  -9.6398    233.1430     31.9115   4.3720926225e+01   2.3134826976e+01    0.2071234     0.156648 -64.22  0.000375564    1.214    0.176
       330  -9.5245    176.5276     36.4916   5.2268928685e+01   3.6577689139e+01    0.2650523    0.1405795  78.97  0.001033805    2.327    0.570
       331 -12.1213    107.6946     28.8774   6.4046920538e+01   5.4501360546e+01    0.4016299    0.3132733 -21.98  0.002203193    1.292    0.226
       332 -11.5817    221.3472     28.9526   4.4229878846e+01   2.6296061142e+01    0.4853954    0.2488955 -34.68 0.0009853988    1.841    0.457
       333 -10.1148    206.0785     31.0721   4.6547336907e+01   2.9765579330e+01    0.2103226    0.1879125 -72.39 0.0003593044    1.029    0.028
       334 -10.1835     25.2030     30.5869   9.5770200838e+01   6.7526541105e+01     0.263689    0.1685263  25.25  0.001309112    1.773    0.436
       335 -10.1002     31.9115     28.6519   9.1860972711e+01   6.7215611086e+01    0.3197302    0.2201473 -10.35  0.001984601    1.403    0.287
       336 -10.2637     71.7511     29.4725   7.5642114698e+01   6.1549353990e+01    0.2136085     0.191902  17.75  0.001069379    1.158    0.136
       337 -10.1190     19.1791     29.0505   9.8051929872e+01   6.8321867339e+01     0.174304    0.1367927 -35.25 0.0005124909    1.084    0.077
       338 -10.1573    211.9562     28.0695   4.5050526154e+01   2.8687797418e+01    0.2048481    0.1846406 -72.05 0.0003913841    1.011    0.011
       339  -9.9405    181.7659     27.7479   4.8850951074e+01   3.6338953526e+01    0.2447927     0.182275 -24.67  0.001229011    1.461    0.316
       340  -9.6779    113.9104     28.3955   6.2223124066e+01   5.3165172864e+01    0.3473212    0.1416624  62.77  0.001228312    3.093    0.677
       341 -11.0484     48.4093     26.1223   8.3403416076e+01   6.5659386211e+01    0.3479682    0.3109146  70.41  0.001802838    1.894    0.472
       342  -8.6418     13.9924     29.0000   1.0055042754e+02   6.8727266099e+01    0.1661492   0.06356405  20.05 0.0008101271    2.996    0.666
       343  -9.8535     99.1279     26.6787   6.5551413038e+01   5.6646025109e+01    0.2756763    0.2176989  76.76 0.0006987888    1.749    0.428
       344 -10.3219    159.0234     29.9491   5.3163585974e+01   4.1915887388e+01    0.2104358    0.2027962  64.35 0.0003295815    1.020    0.020
       345 -10.0461    164.7371     25.6200   5.0806260721e+01   4.0973090755e+01    0.2486268    0.1570862 -49.99 0.0006567253    1.726    0.420
       346  -9.3469    139.7742     26.1829   5.5517129163e+01   4.7241635248e+01       0.1951    0.1507702  37.57 0.0004148897    1.283    0.221
       347 -11.0523    165.6541    248.4369   1.0282106457e+02   8.2223853734e-01    0.2747222    0.1974247  62.11  0.001706443    1.716    0.417
       348 -10.4319      7.7102     21.6799   1.0096860879e+02   7.0485880754e+01    0.2815056    0.1557221  20.40  0.001755459    2.064    0.515
       349  -9.7574    138.1467    248.6497   1.0790239726e+02   5.1110810826e+00    0.1651478    0.1329889  56.70  0.001135107    1.164    0.141
       350  -9.0081    130.3109     25.6415   5.7306015252e+01   4.9633820950e+01    0.1453252    0.1076349 -63.80 0.0002558214    1.739    0.425
       351 -11.3286     18.5552     23.7173   9.6262835262e+01   6.9323931093e+01    0.2531886    0.1694131 -40.01 0.0006314663    1.206    0.171
       352  -9.0276    159.2659     24.6502   5.1401147177e+01   4.2490433636e+01    0.1458874     0.103439 -60.56 0.0006883687    1.617    0.382
       353 -11.0876    153.6548     23.0799   5.1848810787e+01   4.4104693936e+01    0.2528638    0.2292722  45.07 0.0003120457    1.081    0.075
       354 -11.3491      4.4916    246.7781   1.3078098441e+02   2.2887983431e+01    0.2491278    0.1479384  75.61  0.001439149    1.198    0.165
       355 -10.5722     62.0288     23.2867   7.6562710479e+01   6.4069094355e+01    0.3961454    0.2194409  25.07  0.001977006    1.960    0.490
       356 -10.1584    230.1142     22.9640   4.1851629623e+01   2.4952520127e+01     0.203767    0.1537838  38.60   0.00112291    1.742    0.426
       357  -9.6218    124.8476     23.1918   5.7606980376e+01   5.1239495814e+01    0.1954852    0.1860578 -81.06 0.0004096947    1.195    0.163
       358 -10.0249    109.4877     20.9121   6.0397873669e+01   5.5079289621e+01    0.3060822    0.1882303 -11.73 0.0009079868    1.819    0.450
       359 -11.0341    105.0158     20.9298   6.1567105392e+01   5.6076914700e+01    0.3521408    0.2741304 -86.71 0.0003464851    1.888    0.470
       360 -10.6940     26.7044     21.7454   9.1411609049e+01   6.8917267922e+01    0.3161019    0.1793208 -14.74 0.0009566282    1.898    0.473
       361  -9.1270    207.6799     22.7119   4.4127671438e+01   3.0391013865e+01    0.1341354    0.1013889  40.13 0.0002497153    1.598    0.374
       362 -10.1792    132.6216     21.6281   5.5349224179e+01   4.9535869798e+01    0.2824882    0.1931191 -68.32  0.001321424    2.030    0.507
       363  -9.8392     41.0537     21.4943   8.4554162627e+01   6.7342764590e+01    0.1650628    0.1123288  25.57  0.000392244    1.510    0.338
       364 -10.4598     36.1939     21.0552   8.6580523418e+01   6.8001607306e+01    0.2321032    0.1559261  23.82 0.0009486504    1.542    0.351
       365  -9.2048    190.1766     20.3334   4.5567004958e+01   3.5061609443e+01    0.1946487    0.1215447  82.45 0.0003228923    1.628    0.386
       366 -10.9274    182.3119     18.8410   4.6154916870e+01   3.7234405342e+01    0.3091108    0.2452227  -4.42  0.001476689    1.542    0.351
       367 -10.4006     22.6017    238.2616   1.2752190905e+02   2.2551154214e+01    0.1871243    0.1327443  66.75 0.0005274066    1.057    0.054
       368 -10.2545    163.0432     14.9823   4.7696312721e+01   4.2586542153e+01     0.204519    0.1872909  74.12  0.000296751    1.013    0.013
       369 -10.3454    217.9873     18.5043   4.1942000630e+01   2.8362661559e+01    0.2173443     0.174191 -41.56  0.001269934    1.229    0.187
       370 -10.1281    199.2623     18.0189   4.3828715825e+01   3.3029742660e+01    0.1914426    0.1795388 -72.28  0.001168635    1.070    0.066
       371  -9.2595     58.4501     18.4719   7.5746459514e+01   6.5311943069e+01    0.1276534    0.1046957  -2.26 0.0001734669    1.006    0.006
       372  -9.2310     61.5095     17.5411   7.4107852603e+01   6.4945026722e+01    0.1784535    0.1071925  29.82 1.343183e-05    1.615    0.381
       373 -10.9779     19.3004    246.5808   1.2846450144e+02   2.1423381539e+01    0.3044933   0.08335681  48.27  0.001643948    2.442    0.591
       374 -11.0865     15.5039    243.9914   1.2894702709e+02   2.2272259941e+01    0.1943088     0.124952  67.26 0.0008159049    1.076    0.071
       375  -9.7658    192.8566     17.1304   4.4336398612e+01   3.4741525597e+01    0.2036858    0.1682472 -74.61 0.0003653359    1.157    0.136
       376  -9.9627     45.7150     17.1296   8.0435128738e+01   6.7381207812e+01    0.2305462    0.1727069  47.07  0.001012649    1.885    0.470
       377  -9.6345    230.0210     16.0098   4.0185237778e+01   2.5792414906e+01    0.2095932    0.1276664 -61.99 0.0003124348    1.559    0.358
       378 -11.6273     20.9594    242.6923   1.2801241279e+02   2.1932525458e+01    0.3564603    0.1815388  61.39    0.0024106    1.446    0.308
       379  -9.5629    112.4529     15.5159   5.7505977905e+01   5.4999422439e+01    0.1855889    0.1273717  -3.83 1.246401e-05    1.603    0.376
       380 -10.0021    211.0116    245.7022   9.4225565729e+01  -5.8396134876e+00    0.1801738    0.1489055   3.75 0.0004682098    1.176    0.150
       381 -10.6093    148.5229    246.0161   1.0567137471e+02   3.8810648931e+00    0.2259566    0.1358247  50.77 0.0005649464    1.493    0.330
       382  -9.1534     66.5101    246.4368   1.2059438209e+02   1.5882511236e+01       0.1129   0.08435383  62.50 9.220906e-05    1.021    0.020
       383 -11.4285    201.9109    244.4072   9.5657354975e+01  -4.2981250529e+00    0.2336035    0.1860298   8.01 0.0003698654    1.199    0.166
       384 -11.2412     31.8903    244.1370   1.2630645510e+02   2.0486680517e+01    0.2981172    0.2042879  25.45   0.00025126    2.308    0.567
       385  -9.3922    154.9132     13.4724   4.8462873713e+01   4.4816146880e+01    0.2050382    0.1277885  67.53 0.0004206701    1.483    0.326
       386 -11.1236     34.1055    239.2280   1.2566052673e+02   2.1114701975e+01    0.2233996    0.1614047  47.53 0.0003622518    1.381    0.276
       387 -10.2098    209.4175     13.9042   4.1634774435e+01   3.0967551359e+01    0.2354092    0.1684554 -87.50 0.0006401657    1.330    0.248
       388  -8.8445     80.6550     13.7446   6.5568196805e+01   6.1974322548e+01     0.135785   0.08542836  23.85 0.0002222773    1.588    0.370
       389  -9.4002    179.6875    244.2944   9.9683801370e+01  -8.1666530127e-01    0.1135973   0.08541642  57.31 0.0002321202    1.595    0.373
       390  -9.6628     32.7519     12.6719   8.4246658941e+01   6.9678613498e+01     0.144238    0.1266059 -22.60 0.0007161434    1.346    0.257
       391  -9.8272     73.0154    243.9698   1.1926217569e+02   1.5452012160e+01     0.173591    0.1283475  64.66 0.0005249972    1.046    0.044
       392 -11.2304     76.1719    241.1342   1.1846700458e+02   1.5523729977e+01    0.3487626    0.1810112  64.75  0.000643219    1.841    0.457
       393  -9.7759     91.8356    242.1772   1.1572438912e+02   1.3151370885e+01    0.1776146    0.1249144  60.75 0.0004690708    1.163    0.140
       394 -10.5586    134.2016    240.7963   1.0770901804e+02   6.9590241024e+00    0.1545031    0.1315383  24.05 0.0004746854    1.328    0.247
       395 -10.5874    109.6880    239.7277   1.1218538502e+02   1.0938170427e+01    0.3014214    0.1954158  75.27  0.001196548    1.774    0.436
       396  -9.7794     55.1619    240.9511   1.2216810698e+02   1.8299304906e+01    0.1710144    0.1084194  71.09 0.0004635043    1.298    0.230
       397  -9.4542    206.8101    239.7591   9.4073951106e+01  -4.4580777159e+00    0.1474196     0.127941  35.06  0.001033617    1.275    0.215
       398  -9.4830    191.3088    240.6690   9.7029615339e+01  -2.1594093169e+00    0.1121318   0.08981828  60.23 0.0007040942    1.666    0.400
       399  -9.6875    119.5104    240.5623   1.1043922649e+02   9.2953364249e+00    0.1219276   0.09666283  51.64 8.174425e-05    1.008    0.008
       400  -9.9147    167.9490    237.9857   1.0098494790e+02   1.9641194200e+00    0.1876573     0.156932  38.34  0.000657738    1.052    0.049
       401 -11.5893    143.8311    237.7370   1.0551228973e+02   5.9100109053e+00    0.4271392    0.1711279  41.88  0.001314618    2.020    0.505
       402 -10.7396    104.3900    237.0150   1.1289220933e+02   1.2203207837e+01    0.2899654    0.2005111 -34.89  0.001660576    2.430    0.588
       403  -9.1365     84.6399    238.2642   1.1668007063e+02   1.4859310082e+01    0.1247395   0.06889702  61.21 0.0002925548    1.636    0.389
       404  -9.4496     44.9078    237.1152   1.2368627497e+02   2.0243911114e+01    0.3427515   0.09293283  54.29  0.001523041    3.079    0.675
       405 -11.6720      4.3412    236.5775   1.3039617000e+02   2.4701612045e+01    0.3654359     0.147397  74.98  0.001162626    2.056    0.514
       406  -9.2640     62.9035    237.4956   1.2054934483e+02   1.7937040662e+01    0.1535888   0.09106686  47.33 -0.0003458087    1.399    0.285
       407  -9.8833    133.0980    234.6440   1.0717076468e+02   8.1384742663e+00    0.1835775    0.1557262  79.22  0.001226967    1.298    0.230
       408 -11.1103     12.6510    234.6912   1.2897676972e+02   2.4227304295e+01     0.253244    0.1601181  67.52  0.001221558    1.120    0.107
       409 -11.9682     16.1975    232.6358   1.2829518622e+02   2.4244189741e+01    0.5731415    0.2016977  50.48  0.003075885    2.091    0.522
       410  -9.8226    230.8165    232.8166   8.8698449054e+01  -7.2216876978e+00    0.1802433    0.1281065  11.55 0.0004132792    1.207    0.172
       411  -9.2448    173.4935    233.4836   9.9297796120e+01   1.7270274234e+00    0.1258612    0.1028086  31.84 0.0004470313    1.028    0.027
       412 -10.6917    146.0693    231.7940   1.0431095926e+02   6.5020549415e+00    0.3801912     0.160105  40.17  0.001675269    1.983    0.496
       413  -9.3186    170.3030    229.3148   9.9296108669e+01   2.8830605878e+00    0.1238539   0.09035306  11.62 0.0002293512    1.618    0.382
       414  -9.2109     39.8365    229.1780   1.2405024365e+02   2.2310415811e+01    0.1330605    0.1177412  70.94 0.0004856949    1.329    0.247
       415 -11.5388     46.5847    230.1394   1.2291843593e+02   2.1332588815e+01    0.3328796    0.1626645  64.12 0.0008259456    1.778    0.437
       416 -10.1109     73.5171    226.2181   1.1765688638e+02   1.8612250108e+01    0.3247093    0.1500164  61.45  0.001390174    2.158    0.537
       417  -9.6662    175.0186    226.9571   9.8039596981e+01   2.4579659460e+00    0.1921104    0.1664033  33.88  0.001263405    1.054    0.051
       418  -9.4026     14.4925    227.4942   1.2832340939e+02   2.5370525371e+01    0.1088076   0.07568137  72.46  -3.8429e-05    1.006    0.006
       419 -10.8072      2.4782    225.2074   1.3021561817e+02   2.6960665232e+01    0.2623192     0.202679 -64.63  0.001803758    1.745    0.427
       420 -10.3591    164.7344    225.4163   9.9796581892e+01   4.4236831370e+00    0.2198294    0.1871644  26.97 0.0002216852    1.105    0.095
       421 -11.2176     29.2994    230.6634   1.2597817206e+02   2.3221718354e+01    0.2035088    0.1443559  78.61 0.0004229957    1.096    0.087
       422  -9.3890    206.3903    224.8726   9.1787167826e+01  -2.4092196191e+00    0.1486586    0.1097886 -65.20 0.0007997424    2.522    0.604
       423  -9.6317    108.9134    225.0285   1.1070825214e+02   1.3646943103e+01    0.1713719    0.1503669   1.06 0.0005574775    1.638    0.390
       424  -9.8758    125.1267    224.1147   1.0740460174e+02   1.1233618823e+01     0.180896    0.1596942  31.69 0.0004570174    1.239    0.193
       425  -9.4672     38.8096    223.2801   1.2383855714e+02   2.3551199686e+01    0.1333393    0.1198106  81.06 0.0006100357    1.348    0.258
       426 -10.2793     88.9417    221.6908   1.1425170065e+02   1.7288440388e+01    0.1782981    0.1323679  54.00 0.0005066061    1.124    0.111
       427  -8.8019    144.3194    221.7184   1.0327850328e+02   8.4777252034e+00    0.1279851   0.09008461  63.09 0.0002689263    1.584    0.369
       428  -9.2734    110.1465    220.8119   1.0996900870e+02   1.4230011981e+01    0.1552308    0.1414802  33.07 0.0003953713    1.287    0.223
       429  -9.5746     54.4672    221.0474   1.2079739829e+02   2.2101622674e+01    0.1619595    0.1006364 -79.33 0.0004078801    1.525    0.344
       430  -9.5800    228.7112    220.0048   8.6907778981e+01  -5.2870849119e+00    0.1646109    0.1356768   4.09 0.0002006423    1.078    0.073
       431  -8.9053     84.2359    220.6522   1.1506369592e+02   1.8169620906e+01    0.1226429   0.07832425  73.61 0.0006900223    1.563    0.360
       432  -8.6826    183.3123    219.6656   9.5305153290e+01   2.1795353351e+00    0.1220931   0.09860627  67.70 0.0007045045    1.683    0.406
