#   1 NUMBER                 Running object number                                     
#   2 MAG_AUTO               Kron-like elliptical aperture magnitude                    [mag]
#   3 X_IMAGE                Object position along x                                    [pixel]
#   4 Y_IMAGE                Object position along y                                    [pixel]
#   5 X_WORLD                Barycenter position along world x axis                     [deg]
#   6 Y_WORLD                Barycenter position along world y axis                     [deg]
#   7 A_WORLD                Profile RMS along major axis (world units)                 [deg]
#   8 B_WORLD                Profile RMS along minor axis (world units)                 [deg]
#   9 THETA_WORLD            Position angle (CCW/world-x)                               [deg]
#  10 FWHM_WORLD             FWHM assuming a gaussian core                              [deg]
#  11 ELONGATION             A_IMAGE/B_IMAGE                                           
#  12 ELLIPTICITY            1 - B_IMAGE/A_IMAGE                                       
         1 -14.0358    200.0689     38.7227   4.7038121954e+01   3.0408069838e+01     1.558204     1.352234 -10.59  0.004615763    1.363    0.266
         2 -12.6255    215.6412     25.6314   4.1785360591e+01   2.8316024861e+01    0.5946828     0.420613  36.93  0.001268165    1.887    0.470
         3 -14.0798    225.8206     15.2074   3.8266393471e+01   2.7165449108e+01      1.67272      1.14552  36.34  0.007223094    2.099    0.523
         4 -13.3958    208.1982     33.3427   4.4589585806e+01   2.9134078187e+01    0.9874808    0.7074017 -64.58  0.003395209    1.380    0.275
         5  -9.7332     49.1903      3.3652   6.8632724660e+01   6.8389090286e+01    0.1512489    0.1072334  46.87 0.0004486838    1.678    0.404
         6 -13.3957     35.0130    208.5163   1.2149427264e+02   2.6521287364e+01     0.654838     0.475625  23.15  0.002174265    1.959    0.490
         7  -9.8447    174.1144    249.9014   9.9052941223e+01  -1.0714807913e+00    0.2300062    0.1602336  65.66  0.001309301    2.235    0.553
         8 -13.1742     47.9581    220.3333   1.1992558109e+02   2.2611125119e+01     1.028218    0.8241838  47.66  0.007243339    1.306    0.235
         9 -15.1025     85.1612    247.1240   1.1527021005e+02   1.2719390941e+01     8.987909     3.015567  29.65   0.02613031    7.584    0.868
        10 -13.7961      4.0862    182.3643   1.2577677244e+02   3.5124599700e+01     1.670135    0.4084587 -78.90  0.001259969    3.440    0.709
        11 -15.1290      8.4215    238.8737   1.2804662898e+02   2.3358035589e+01     1.973754     1.160968 -79.82   0.01418607    1.549    0.354
        12 -14.5918      9.8794    207.5209   1.2619022687e+02   2.9296626212e+01     1.096318     1.038677  -2.83  0.003762452    1.710    0.415
        13 -15.9460     39.2796    192.9616   1.1935094833e+02   2.9364444319e+01      9.02808     3.370368  80.52    0.0287168    5.416    0.815
        14 -12.6934     40.0142    234.3277   1.2240793741e+02   2.0830228024e+01    0.6706455    0.3066579  78.24  0.001993336    2.298    0.565
        15  -8.5758    211.2411    202.6553   8.4392306041e+01  -2.1128404275e-02    0.1142828    0.1046013 -64.16 0.0003862058    1.564    0.361
        16  -9.5278     62.9464    201.6810   1.1523657560e+02   2.4589224151e+01    0.2479304    0.1508654 -61.94  0.001130508    1.673    0.402
        17  -9.0449     63.5247    197.5067   1.1467589685e+02   2.5412946950e+01    0.2286951    0.1473746  67.20 0.0009374244    1.469    0.319
        18  -9.9606     66.6889    195.9937   1.1383362532e+02   2.5322071436e+01    0.2677392    0.2226322  85.23  0.001370971    1.055    0.052
        19 -11.0604    193.1879    193.0027   8.6092295346e+01   4.6780687503e+00    0.7732767    0.4447112 -50.95  0.003586622    2.177    0.541
        20 -12.1610     61.7822    180.5728   1.1314385704e+02   2.9416972011e+01    0.4070252    0.3776855 -34.09   0.00127781    1.428    0.300
        21 -12.0379     66.9347    174.9386   1.1124961942e+02   3.0032257795e+01    0.3356355     0.248911 -56.45 0.0006706062    1.406    0.289
        22  -9.3301     99.5070    180.9606   1.0448724455e+02   2.3816683784e+01    0.2065018    0.1761669  51.88 0.0004745088    1.127    0.113
        23 -13.6110     64.1440    161.0396   1.1003193106e+02   3.3680842164e+01       0.5786    0.3895194 -43.05   0.00235681    1.795    0.443
        24 -11.7244     76.6719    165.0379   1.0752518127e+02   3.0996671663e+01    0.3342396    0.2834091  87.92 0.0003756199    1.085    0.079
        25 -13.6934     81.7963    158.3316   1.0519702903e+02   3.1839784671e+01     2.960914     1.178395  56.03  0.001022286    3.814    0.738
        26  -8.9187    162.4081    167.5018   8.7539652620e+01   1.5285796937e+01    0.1436766    0.1412041   8.34 7.700429e-05    1.027    0.026
        27 -10.5341     56.4559    235.4643   1.1952968978e+02   1.8632666395e+01     0.166655    0.1301138 -57.45 0.0005516961    1.679    0.405
        28 -11.3908     53.9047    231.0783   1.1965710906e+02   1.9781986392e+01    0.4018086    0.1781695 -87.38  0.001651051    2.641    0.621
        29 -13.2784     31.6894    248.0368   1.2468086175e+02   1.9258959734e+01    0.8059666    0.7181324  47.58  0.006631958    1.509    0.337
        30 -10.0321    134.0000    146.9903   8.9835518491e+01   2.5357173384e+01    0.5741782     0.171555 -53.50  0.001621877    3.902    0.744
        31  -9.8324    133.0000    141.4888   8.8863454700e+01   2.6805616145e+01    0.5400594    0.1757281 -51.88  0.001644336    3.255    0.693
        32 -13.1741     24.3070    225.0770   1.2461279614e+02   2.4347916950e+01     0.857018    0.4012886  55.78  0.005116728    1.720    0.419
        33  -9.3681    174.7655    148.8885   8.0775422892e+01   1.6587976237e+01    0.2882869    0.2108276 -59.27  0.001055704    1.619    0.382
        34 -10.3609     47.8779    145.8601   1.1201293164e+02   3.9352715631e+01    0.2104001    0.1687606 -52.72  0.001243182    1.297    0.229
        35 -10.8789     97.9038    143.8559   9.8412697624e+01   3.2753697677e+01    0.3269717    0.2966946 -34.75 0.0008553239    1.220    0.180
        36  -9.7371    101.1959    140.1931   9.6798957272e+01   3.3070552190e+01    0.3590093    0.2457828 -26.54  0.001571821    2.042    0.510
        37 -12.3680     86.2281    142.4007   1.0123573430e+02   3.5008130118e+01    0.3062732    0.2541247 -52.98 0.0004746005    1.179    0.152
        38 -10.0444     80.9230    141.3360   1.0246153725e+02   3.6084337356e+01    0.2900838    0.1998797  66.67 0.0009248152    1.702    0.412
        39 -10.7755     31.7897    143.3747   1.1586187023e+02   4.1647551334e+01    0.2512411    0.1868285 -69.76  0.001066131    1.137    0.120
        40 -14.2610     68.2598    144.5241   1.0642174070e+02   3.7126445048e+01     3.405645     1.616509 -85.13  0.002684597    4.067    0.754
        41 -12.0914     17.0164    131.5813   1.1830197024e+02   4.5774312179e+01    0.4640647    0.1899125 -72.85  0.002172841    1.971    0.493
        42 -10.7773    107.6778    131.5309   9.3192996164e+01   3.3989769856e+01    0.5758166    0.3412574  45.68  0.002491238    1.763    0.433
        43  -9.7648    230.2364    167.4426   7.3869753987e+01   2.3572961206e+00    0.2978409   0.09066863 -45.93 0.0008919298    4.547    0.780
        44  -9.6616    158.7547    131.0378   8.0165617199e+01   2.3736254652e+01    0.2111144    0.1306323 -44.20 0.0008811231    1.585    0.369
        45 -11.2140     45.9587    129.6735   1.1008535864e+02   4.3525425592e+01    0.3520504      0.17503  25.90  0.001610833    2.484    0.597
        46 -10.4785     96.6010    128.3098   9.5507921308e+01   3.6723359485e+01     0.314224    0.2532738 -19.09  0.001558692    1.551    0.355
        47  -9.8952    116.3645    126.2032   8.9619785270e+01   3.3616913746e+01    0.3436574     0.243065 -78.90  0.001476003    1.903    0.475
        48 -10.5747    135.2948    121.9634   8.3618617400e+01   3.0764077817e+01    0.5035109    0.1370418 -49.67  0.001346602    3.960    0.747
        49 -10.9974     44.3716    122.8592   1.0941288615e+02   4.5368249913e+01    0.2703889    0.2164498  -5.80  0.001026314    1.656    0.396
        50  -9.8319    106.5462    120.1561   9.0847281429e+01   3.6896649603e+01    0.2280307    0.2115198  36.96 0.0003103948    1.143    0.125
        51  -9.3699     83.8080    118.2123   9.6893405738e+01   4.1275580122e+01    0.2510062    0.1558924  77.38  0.000952354    2.824    0.646
        52 -11.2776     23.5262    117.0942   1.1457498019e+02   4.8738977931e+01    0.3055353    0.2129751 -87.88 0.0007909516    1.378    0.274
        53 -10.1311    205.1464    110.5199   6.5278856136e+01   1.7495152076e+01    0.3304126    0.2716537  32.50  0.001172898    1.337    0.252
        54 -12.2600    242.6610    101.7471   5.6991412340e+01   1.1011810898e+01    0.4444854    0.2421429 -46.77  0.002032249    1.746    0.427
        55 -10.3111    134.5075    104.2377   7.9121017904e+01   3.4850809807e+01    0.5293993    0.1519338 -43.90  0.001518212    3.375    0.704
        56  -9.7361    168.1921    113.4652   7.3534761172e+01   2.5321390561e+01    0.3142912    0.2448708 -73.00   0.00142377    1.628    0.386
        57 -11.3138    244.9973    109.5089   5.8459593981e+01   9.2670711762e+00    0.2671408    0.1745381 -43.97  0.001353489    1.393    0.282
        58 -10.8168    249.3591     88.0143   5.2861418686e+01   1.1869678155e+01    0.2051389    0.1611225 -39.14 0.0006431972    1.094    0.086
        59  -9.1610     73.1698     83.7966   9.1422008649e+01   5.0973725850e+01    0.2260413    0.1535911  78.76 0.0009296124    2.793    0.642
        60  -9.8390    159.9836     81.4915   6.6414064940e+01   3.3546884917e+01    0.2296133    0.1536358  51.63 0.0004761112    1.517    0.341
        61  -9.8094     47.0998     62.1116   9.4254395637e+01   5.9156985596e+01    0.1939734    0.1678676 -32.59 0.0004503534    1.040    0.039
        62 -10.4370     13.4260     60.2734   1.0716920222e+02   6.2593473097e+01    0.2136702    0.1732019 -57.88 0.0004001922    1.142    0.124
        63 -11.0230     52.8126    241.0812   1.2060475980e+02   1.8042944161e+01    0.3111612    0.2057475 -55.48  0.001024952    2.018    0.504
        64 -13.6731     88.6715    228.3750   1.1280035100e+02   1.5631973752e+01     1.098823    0.7474431  61.35 0.0004566076    1.304    0.233
        65  -9.9872     73.9214    231.4933   1.1594424914e+02   1.7102989780e+01    0.4695637    0.1161635  46.46   0.00187985    3.163    0.684
        66 -11.3871     62.7426    237.3187   1.1852817610e+02   1.7487621741e+01    0.3197691    0.1887034  86.28  0.001228027    1.714    0.417
        67 -10.2459    137.3453     43.6772   5.9395010416e+01   4.5344075505e+01    0.3130109    0.2178793 -87.74  0.001179284    2.081    0.520
        68  -9.4695    143.4365     40.5214   5.7018160936e+01   4.4301340734e+01     0.143314    0.1375461  38.68 0.0001147247    1.016    0.016
        69 -10.6099    189.6793     15.3106   4.1953823311e+01   3.5777388668e+01    0.2359138    0.1861948 -71.38 0.0006291949    1.225    0.184
