#   1 NUMBER                 Running object number                                     
#   2 MAG_AUTO               Kron-like elliptical aperture magnitude                    [mag]
#   3 X_IMAGE                Object position along x                                    [pixel]
#   4 Y_IMAGE                Object position along y                                    [pixel]
#   5 X_WORLD                Barycenter position along world x axis                     [deg]
#   6 Y_WORLD                Barycenter position along world y axis                     [deg]
#   7 A_WORLD                Profile RMS along major axis (world units)                 [deg]
#   8 B_WORLD                Profile RMS along minor axis (world units)                 [deg]
#   9 THETA_WORLD            Position angle (CCW/world-x)                               [deg]
#  10 FWHM_WORLD             FWHM assuming a gaussian core                              [deg]
#  11 ELONGATION             A_IMAGE/B_IMAGE                                           
#  12 ELLIPTICITY            1 - B_IMAGE/A_IMAGE                                       
         1 -10.3550    166.1127      5.5055   5.4877405800e+00   4.2785094329e+01    0.4830962    0.3938841 -56.69  0.003550503    1.196    0.164
         2 -10.5664    235.8614      2.6576   1.1926894181e+00   3.0249522028e+01    0.3738392    0.1690096 -69.45  0.002521275    1.810    0.447
         3  -7.5296    149.9630      1.0000   5.6114584777e+00   4.6633806720e+01    0.1929637   0.05609145  76.94 0.0008086282    2.986    0.665
         4  -9.3894    191.1639    217.8141   4.5048892661e+01   5.2604003851e+00    0.3666404    0.2483819 -48.89  0.002322818    1.702    0.412
         5  -9.5783    204.5382    210.9314   4.1688365391e+01   5.0060300722e+00     0.345148     0.133354 -38.55  0.001767824    2.141    0.533
         6  -9.2534    247.0396    206.5417   3.4604551046e+01   1.7604772778e+00     0.272938    0.1343387 -49.68  0.001605296    2.508    0.601
         7  -9.2952    199.0134    207.9900   4.2176834130e+01   6.0248410141e+00    0.1877405    0.1430028 -20.07   0.00130664    1.035    0.034
         8  -9.6278    211.1684    213.0815   4.0917637423e+01   4.0336314500e+00    0.5661261    0.1402825  29.46  0.002384187    4.396    0.773
         9 -10.7871    230.8906    200.4093   3.5956053808e+01   4.0498972984e+00    0.3678713    0.2678949  -1.73  0.002777006    1.341    0.254
        10  -9.9387    249.0733    197.1599   3.2945805736e+01   2.8714752037e+00    0.3331468    0.2030357 -26.44  0.001965472    1.252    0.201
        11  -9.4835    218.5948    196.6531   3.7219454902e+01   5.7980249765e+00    0.2101424    0.1172109 -38.25  0.001233266    1.436    0.304
        12 -10.7707    199.8944    193.4250   3.9730659276e+01   8.2782563311e+00    0.4367966     0.219114 -49.58  0.002317601    2.090    0.522
        13  -8.8971    245.1214    193.3204   3.2894044857e+01   3.7551016315e+00    0.1839986    0.1075816 -30.62 0.0007197811    1.273    0.214
        14 -11.1900    228.5078    191.1458   3.4874726999e+01   5.6391144429e+00    0.4802975    0.2342517 -29.29  0.002813337    1.809    0.447
        15 -10.3178    237.2479    188.8991   3.3287430563e+01   5.1181213778e+00    0.3539201    0.1786041 -51.08  0.002018098    2.374    0.579
        16  -8.0960    247.3092    187.3177   3.1693660118e+01   4.3979445704e+00    0.1070663   0.06224231 -20.52 0.0007032416    1.637    0.389
        17  -9.8768    228.6674    177.8660   3.2747171469e+01   7.6139342549e+00    0.2812087   0.08842142 -44.09  0.001320322    2.598    0.615
        18  -9.8708    245.2052    181.9226   3.1139759075e+01   5.3583110030e+00    0.1852054     0.133307 -15.92  0.001416726    1.283    0.220
        19  -8.8927    201.8956    181.2258   3.7397056236e+01   1.0055208871e+01    0.1894446    0.1201389  -5.82 0.0008920247    1.932    0.482
        20  -8.6729    249.8061    177.8758   2.9924488715e+01   5.4924560017e+00    0.1656568    0.1070168 -26.67 0.0008425429    1.244    0.196
        21 -10.1681    216.5193    176.6701   3.4329709121e+01   9.1188524586e+00    0.2359935     0.153481 -10.17  0.001460546    1.767    0.434
        22  -9.4932    217.5487    168.3079   3.2785647662e+01   1.0323516628e+01    0.1914288    0.1303297  -0.35  0.001202748    1.822    0.451
        23  -8.7215    124.0388    166.7760   5.0812131630e+01   2.3500064490e+01    0.2677481    0.1718376 -37.12  0.001061797    1.597    0.374
        24  -9.3517    198.0977    160.3042   3.4424610655e+01   1.4040028277e+01    0.2244681    0.1431117 -33.35  0.001321248    1.374    0.272
        25  -9.7839    242.6881    154.5808   2.7113115286e+01   9.5720449297e+00    0.3865756    0.1098485 -42.75  0.001814702    2.651    0.623
        26  -9.0794    229.0036    155.5002   2.9020783845e+01   1.0984750493e+01    0.1386564    0.1112529  32.79 0.0006578755    1.573    0.364
        27 -10.5844    219.8879    153.8369   2.9988371383e+01   1.2335105699e+01    0.3079359    0.1817639 -42.30  0.001907989    1.356    0.263
        28 -10.2734    216.5959    148.7690   2.9572919402e+01   1.3552271446e+01    0.2694138    0.1801862 -65.11  0.001569245    2.162    0.538
        29  -8.5783    229.5188    149.5115   2.7940996461e+01   1.1840517238e+01    0.1130803   0.08690511 -37.88 9.709307e-06    1.028    0.027
        30  -9.0155    246.4852    148.5143   2.5666271261e+01   1.0035940467e+01    0.1083924   0.07938821 -36.52  0.000178154    1.009    0.009
        31  -9.6847    218.2345    141.2948   2.8028418206e+01   1.4531167796e+01    0.2408299    0.1562067 -17.16  0.001411451    1.988    0.497
        32 -10.1577    231.7771    140.5300   2.6119877289e+01   1.2934279688e+01    0.3662006    0.2300001  80.42  0.001730007    4.658    0.785
        33  -7.9039    216.3373    138.3084   2.7757329800e+01   1.5256145188e+01    0.1144961    0.0815815 -16.34 0.0007042908    1.680    0.405
        34  -8.6860    236.8378    134.9103   2.4541122467e+01   1.3156245478e+01    0.2105897    0.1170179 -43.76  0.001337148    1.379    0.275
        35  -9.4018    225.9294    132.3322   2.5432358648e+01   1.4926292745e+01    0.2425921    0.1373284 -36.83  0.001477799    1.456    0.313
        36 -10.4823    240.7085    129.7865   2.3218940247e+01   1.3436674806e+01    0.4117635      0.22982 -38.89  0.002673325    1.369    0.270
        37  -9.3450     56.4007    128.1682   6.4231748847e+01   4.3415626586e+01    0.4664361    0.2436447 -38.41  0.001753029    2.298    0.565
        38 -10.4718    116.3723    121.3342   4.3482978785e+01   3.4955629459e+01    0.7701758    0.5778018 -35.22  0.003815555    1.434    0.303
        39  -9.6912    227.8790    124.6969   2.3842507238e+01   1.5835132868e+01    0.2330613     0.109663 -32.86  0.001226201    2.118    0.528
        40 -12.1852    243.9416    105.5598   1.8727276972e+01   1.6504727954e+01    0.9656937    0.4709417 -38.76  0.005851802    1.611    0.379
        41 -10.1121    241.2079     89.6455   1.6222244299e+01   1.9085259342e+01    0.6088608     0.186476 -45.18  0.003040954    2.377    0.579
        42  -9.8815    228.9729    110.6258   2.1204580658e+01   1.7796682841e+01    0.3674216    0.1997086 -35.37  0.002199592    1.643    0.391
        43  -8.8463    180.9190    100.8575   2.5606556821e+01   2.6912516875e+01    0.3170733    0.1747497 -39.41  0.001628897    1.677    0.404
        44  -9.7045    160.2494    100.0070   2.8843553352e+01   3.0841343630e+01    0.5318459    0.3068467 -47.34  0.002652823    1.585    0.369
        45  -9.2543    211.4857     90.4994   1.9441022817e+01   2.3404561478e+01    0.2835713    0.1847037 -44.03  0.001807286    1.253    0.202
        46  -9.8638    210.5062     85.9898   1.8674728697e+01   2.4229871298e+01    0.4281959      0.27315 -49.23  0.002718835    1.260    0.206
        47  -9.2621     83.5178     83.2930   4.3432113323e+01   4.9654092141e+01     0.454707    0.2966807  24.45  0.001969752    1.986    0.496
        48  -9.6032    213.6381     70.2563   1.5270471675e+01   2.5962772114e+01     0.432301    0.2094176 -49.14   0.00239503    1.646    0.392
        49 -10.6037    139.4329     64.6044   2.3942330581e+01   4.1098695185e+01    0.6295324    0.4570687 -73.39  0.003439796    1.447    0.309
        50  -9.4516    183.1822     65.6722   1.7669329270e+01   3.2019432582e+01    0.3190742    0.2490952 -71.37  0.001721118    1.159    0.137
        51  -9.7074    184.6920     61.8689   1.6652041330e+01   3.2278347517e+01    0.3582769    0.3242751 -87.56  0.002405979    1.182    0.154
        52  -9.1550     88.5092     64.5136   3.6051740122e+01   5.2311230724e+01    0.3515461    0.2431351 -59.74  0.001712171    1.661    0.398
        53  -9.4247    250.5277     61.1679   1.0526671589e+01   2.1490075564e+01    0.4617609   0.07844318 -38.02  0.001772264    4.601    0.783
        54  -9.1778     95.5960     54.0784   3.0591406833e+01   5.2553097046e+01    0.4099284    0.2864328  33.27  0.002026188    1.770    0.435
        55  -9.9865    234.5452     47.4779   9.2390604731e+00   2.5548599941e+01    0.3902988    0.2747446 -59.71  0.003007676    1.077    0.071
        56 -10.4705    199.3815     45.0400   1.1540578596e+01   3.1797235719e+01    0.5876163    0.3234573 -42.04  0.003557017    1.557    0.358
        57 -10.0625     81.6761     43.2419   3.0858430780e+01   5.7382213587e+01    0.5927238    0.4426447 -16.48  0.003108386    1.808    0.447
        58  -9.6687    140.6288     38.1867   1.6620614465e+01   4.4640398911e+01    0.4169725    0.2636983 -63.62  0.002276042    1.570    0.363
        59  -9.3186    172.5654     36.0964   1.2153996540e+01   3.8092146280e+01    0.3165491    0.2343387 -51.32  0.001933541    1.210    0.174
        60  -8.6301     40.3691     34.6878   4.3908509354e+01   6.7228809180e+01    0.2048767    0.1652809  77.24  0.001126268    1.738    0.425
        61  -9.5746    181.0708     26.0386   9.0454536392e+00   3.7579252710e+01    0.3309052     0.284417 -13.71    0.0023346    1.712    0.416
        62  -9.1156    108.8287     25.2317   1.7957174828e+01   5.3524397297e+01    0.4088791    0.1668879  42.48   0.00148928    3.831    0.739
        63  -8.3817     64.3367     21.6664   2.7791230349e+01   6.4232779574e+01    0.1328117   0.09855778 -84.40 0.0007052036    1.741    0.426
        64  -9.1304    202.5168     18.4299   5.8306255629e+00   3.4338960319e+01    0.2506616    0.2025918  88.45  0.001947397    1.284    0.221
        65  -9.4795    142.6506     18.1024   1.0868166532e+01   4.6560232730e+01    0.3545691    0.2573638  65.67  0.001992898    1.369    0.269
        66  -8.3262    119.4790     17.5256   1.3709287132e+01   5.1896734325e+01    0.2389417   0.08740753  59.11  0.001037586    2.392    0.582
        67  -9.7262    238.5762     15.6075   3.3368535393e+00   2.8511359997e+01    0.1744753    0.1610423 -85.59  0.001543136    1.513    0.339
        68 -10.4679    219.2653    220.9938   4.0793193799e+01   2.1252440163e+00    0.3580615    0.2281819  -2.73  0.002483543    1.478    0.324
        69  -9.6220    214.3148    218.6469   4.1237297323e+01   2.9112086009e+00    0.2208976    0.1272786  29.50  0.001431062    1.974    0.493
