#   1 NUMBER                 Running object number                                     
#   2 MAG_AUTO               Kron-like elliptical aperture magnitude                    [mag]
#   3 X_IMAGE                Object position along x                                    [pixel]
#   4 Y_IMAGE                Object position along y                                    [pixel]
#   5 X_WORLD                Barycenter position along world x axis                     [deg]
#   6 Y_WORLD                Barycenter position along world y axis                     [deg]
#   7 A_WORLD                Profile RMS along major axis (world units)                 [deg]
#   8 B_WORLD                Profile RMS along minor axis (world units)                 [deg]
#   9 THETA_WORLD            Position angle (CCW/world-x)                               [deg]
#  10 FWHM_WORLD             FWHM assuming a gaussian core                              [deg]
#  11 ELONGATION             A_IMAGE/B_IMAGE                                           
#  12 ELLIPTICITY            1 - B_IMAGE/A_IMAGE                                       
         1 -14.9444      6.5092     71.3111   7.7486331864e+01   6.2448642305e+01      1.21391       0.7444 -60.23    0.0057649    1.356    0.263
         2 -13.1905    187.8941     11.7235   2.2035761249e+00   3.6190520129e+01    0.9192184    0.5160703 -44.69  0.004760612    1.604    0.377
         3 -13.7583    188.6172     24.8135   5.6491861156e+00   3.4543283354e+01     1.605296    0.4813773 -53.00   0.00526727    3.854    0.741
         4 -12.4333    194.8031     23.3907   4.6447100584e+00   3.3230128552e+01    0.6808778     0.317746 -26.31  0.003025778    2.358    0.576
         5 -14.0628     41.7694      4.6854   3.1736771108e+01   7.1993919851e+01    0.9151098    0.5918499   4.06  0.004790864    1.774    0.436
         6 -13.0689      6.8252      3.0808   5.4481623992e+01   7.7071824040e+01    0.6755301     0.328508  21.15  0.003702156    2.039    0.510
         7 -15.9382     11.3371     23.1570   6.1360848430e+01   7.3012920555e+01     2.012794     1.002558 -33.55  0.009942356    1.899    0.473
         8 -14.5776    122.3491     36.7560   1.9813204924e+01   4.9831477250e+01     1.448671    0.7528708  49.73  0.006133446    1.855    0.461
         9 -13.2143    242.3851     35.8121   3.4815299355e+00   2.1318318122e+01    0.6418601    0.3445229  85.21  0.002706035    2.095    0.523
        10 -14.4537    166.6536     29.1441   9.4937832136e+00   3.9461346157e+01     1.060264       0.8074  72.55  0.003868009    1.239    0.193
        11 -14.6234    147.6956     29.6875   1.2475062408e+01   4.4251587143e+01     1.371262    0.7500138  68.78  0.004942856    1.726    0.421
        12 -14.7575    217.6989     13.8379   3.5490535579e-01   2.9075841184e+01     1.466112    0.9903338 -31.81  0.007792099    1.507    0.337
        13 -13.5581     58.0976     26.7432   3.6103896490e+01   6.5926505205e+01     1.098577    0.3583193  41.31  0.003241304    3.002    0.667
        14 -13.0384    120.4809     26.0092   1.6228638945e+01   5.1731726160e+01    0.7058052    0.5148228  38.74   0.00357815    1.480    0.324
        15 -15.4744     99.2968     11.6663   1.5141517849e+01   5.8687831905e+01     1.641225    0.9505125  56.07  0.004110591    1.509    0.337
        16 -11.9391     71.1003     16.1296   2.5519634177e+01   6.4775292338e+01    0.4245293    0.2377683 -18.71  0.001800021    2.090    0.521
        17 -12.4731     74.7182     10.2654   2.1305192904e+01   6.4656226047e+01     0.325857    0.2435084   6.33  0.001150658    1.485    0.327
        18 -12.2839     60.1488     15.3281   2.9353541613e+01   6.7165470928e+01    0.5204938     0.309055  30.05  0.002570712    1.779    0.438
        19 -12.4267     46.7805     13.0575   3.4202974794e+01   7.0012499565e+01    0.3241279    0.2662498  47.94  0.001489599    1.348    0.258
        20 -12.7325     85.3942     13.6844   1.9694569752e+01   6.1827756115e+01    0.4528584    0.3924794  24.05  0.002100685    1.159    0.137
        21 -12.1447    123.3673     10.7184   9.9031597267e+00   5.2685811983e+01    0.2869732    0.2227457 -82.49  0.001010612    1.317    0.241
        22 -11.9500    153.0345      8.4326   4.8459211715e+00   4.5243172507e+01     0.233776    0.1961139  16.08 0.0007229957    1.529    0.346
        23 -14.3552     26.6462     12.7265   4.5552984022e+01   7.3237214786e+01    0.8522241    0.5436236 -13.92  0.004145497    1.704    0.413
        24 -12.4505    120.3256      3.3124   7.5973300139e+00   5.4151352691e+01    0.5804596    0.2771741 -83.51  0.002217698    2.960    0.662
        25 -11.4259     67.8682      2.6158   1.9541416152e+01   6.6961130413e+01    0.3253395    0.1752584  36.93  0.001588423    1.808    0.447
        26 -11.5845    232.5337      1.8568   3.5673262277e+02   2.7176106115e+01    0.2200765    0.1553151  80.74   0.00138644    1.432    0.301
        27 -12.2476     79.8833      1.7869   1.5458116790e+01   6.4300938025e+01    0.7262984    0.1048869  58.74  0.002190145    4.279    0.766
        28 -11.5175     61.3481      1.5061   2.1206708259e+01   6.8482897345e+01    0.3798016    0.1184582  58.22  0.001434147    3.034    0.670
        29 -13.2103    124.6067    167.7910   5.5059940659e+01   2.2257154285e+01    0.6653123     0.310434 -52.24   0.00266955    2.269    0.559
        30 -12.2701    109.3802    249.0288   6.9600950013e+01   8.9064554861e+00    0.4135486    0.2252614  43.61  0.002363078    1.496    0.332
        31 -12.2593    109.5433    243.1190   6.8968228878e+01   9.8638554341e+00    0.3340765    0.2319094  48.05  0.001521482    1.282    0.220
        32 -12.4251     51.0815    248.5387   8.1509360372e+01   1.6389796659e+01     0.357272    0.3302024  64.97  0.002773197    1.277    0.217
        33 -12.7952     57.2288    246.7088   8.0145190276e+01   1.5995151235e+01    0.4786492    0.1995653  32.04  0.002445624    2.029    0.507
        34 -11.7837     41.1160    248.2627   8.3495100312e+01   1.7574925794e+01    0.4353039    0.1809953 -89.99  0.002192691    2.940    0.660
        35 -13.4031     28.3510    246.3368   8.5936127410e+01   1.9311033641e+01    0.4766506    0.3178041  71.15  0.002773693    1.315    0.240
        36 -12.2531      2.9076    249.5516   9.0940038465e+01   2.1240651049e+01    0.3603301      0.19246  48.68  0.001907184    1.303    0.233
        37 -13.9799      9.4466    245.5038   8.9583727936e+01   2.1362672225e+01    0.8434708    0.3477756  50.77  0.003628134    1.677    0.404
        38 -12.1117     89.5846    170.1220   6.4583780947e+01   2.7651260117e+01    0.2507004    0.1719338  30.69  0.001218862    1.469    0.319
        39 -12.2328     22.3137    166.2411   8.2620673384e+01   3.7170780575e+01    0.2414835    0.1852509  82.94  0.000767522    1.134    0.118
        40 -11.2147      1.8763    159.4547   8.7718131954e+01   4.0519740703e+01    0.2408324    0.1555417 -86.62   0.00137267    1.327    0.247
        41 -11.6007    201.0203    191.4074   4.2692230287e+01   4.8234906774e+00    0.2782465    0.2051787  14.17  0.001566551    1.275    0.216
        42 -12.2550     76.9966    156.9702   6.6063046709e+01   3.2780339174e+01    0.4861846     0.359393  20.68  0.001484848    1.566    0.361
        43 -13.5840     73.5901    153.3342   6.6483831042e+01   3.4196193485e+01    0.7091138    0.5461941  25.86  0.002402251    1.413    0.292
        44 -12.0195     85.7658    152.5857   6.2832537352e+01   3.2492543319e+01    0.5539848    0.2770463 -45.36  0.002179889    2.333    0.571
        45 -12.5063      7.6856    148.4538   8.5423975851e+01   4.2800852598e+01    0.5540023    0.2970743  67.47   0.00279313    1.747    0.427
        46 -11.8972    103.5312    149.7255   5.7284009891e+01   3.0174075530e+01    0.3917825    0.3000967 -20.94  0.001667535    1.733    0.423
        47 -12.2566    111.3758    155.4502   5.6220730604e+01   2.7420398362e+01    0.5506679    0.3426017  80.35  0.002065018    2.817    0.645
        48 -12.6382    208.7379    154.3518   3.4185662816e+01   9.6066173333e+00    0.5955924    0.3380312  38.69  0.002959801    1.849    0.459
        49 -13.6847     22.3813    181.0225   8.3667296061e+01   3.3622085532e+01    0.7884523     0.420877 -58.91  0.003438748    2.045    0.511
        50 -10.7264     63.3300    138.6714   6.7247572322e+01   3.9409405492e+01    0.1588858    0.1043439  66.48 0.0007051408    1.711    0.416
        51 -12.9988    246.4956    133.1808   2.3878885938e+01   6.7234404142e+00    0.4411892    0.3108544 -42.52  0.002682263    1.334    0.250
        52 -14.5978    232.5711    127.3723   2.4670570005e+01   9.8983922050e+00     1.223091    0.6443229 -42.38  0.006100111    1.714    0.417
        53 -12.5411     43.8539    132.8651   7.2596564621e+01   4.3415190656e+01    0.2541517    0.2069124 -10.04 0.0008749117    1.569    0.363
        54 -11.5089    138.0316    131.9958   4.4304355149e+01   2.7608271092e+01    0.2521852    0.1953392  -2.08  0.001143851    1.730    0.422
        55 -14.5455    104.4975    121.3893   5.1010247702e+01   3.6838344031e+01     1.645784      1.20664  46.44  0.007671854    1.353    0.261
        56 -14.8775    105.9767    105.1113   4.6499202903e+01   4.0416918106e+01      1.47623     1.206451  51.82  0.006472725    1.233    0.189
        57 -12.1214     78.7007    110.9591   5.6744096378e+01   4.4133629868e+01     0.411516    0.3061213  49.38  0.001965148    1.378    0.274
        58 -12.9705     84.7903    114.9277   5.5644502516e+01   4.2085848388e+01    0.9637091    0.5188105  26.49  0.003681015    2.301    0.565
        59 -12.0561     88.1531    108.8329   5.3086249226e+01   4.2993385313e+01    0.5469893    0.3143029 -65.40  0.002167796    2.021    0.505
        60 -12.7162     36.8580     92.8207   6.8284327203e+01   5.4617010762e+01    0.5138816    0.3442867   0.17  0.001842013    1.917    0.478
        61 -13.1438     20.7031     86.1867   7.3739153812e+01   5.7803376118e+01    0.6768546    0.4772162  11.72  0.003686924    1.628    0.386
        62 -13.6127      2.2842     96.9855   8.2801811997e+01   5.6220604910e+01    0.8778073    0.3300303 -78.68   0.00349952    2.320    0.569
        63 -14.1599     18.5897    111.2563   7.8366598320e+01   5.1509608493e+01    0.8426595    0.6678391 -40.09  0.003543024    1.373    0.272
        64 -14.1580     11.2236    102.9809   8.0067912863e+01   5.4173920400e+01    0.8810829    0.6403001  27.32  0.005051681    1.533    0.348
        65 -14.5359     23.3872     95.1928   7.4185430949e+01   5.5285345616e+01     1.494955    0.6857674  14.86  0.006352267    2.636    0.621
        66 -11.5439      7.9391    114.8196   8.2568178770e+01   5.1335722763e+01    0.2027698    0.1615112 -51.49 0.0005482988    1.289    0.224
        67 -12.0835    121.8745    111.9536   4.3682729757e+01   3.5504300229e+01    0.2421288    0.2178371  -3.82 0.0005771122    1.282    0.220
        68 -11.6123    177.1105    110.2566   3.0218149246e+01   2.3704646149e+01    0.3508296    0.2175529 -24.40  0.001486734    1.986    0.497
        69 -11.5589     62.6590    110.3067   6.2160470638e+01   4.6838768707e+01    0.3225164    0.2691828 -80.74  0.001676933    1.214    0.176
        70 -11.2536     45.8510    110.0997   6.8189251518e+01   4.9131434685e+01    0.2885408    0.1807592 -47.42  0.001347707    1.618    0.382
        71 -11.8928     32.6945    110.6812   7.3121757202e+01   5.0417963857e+01    0.3144499    0.2363205  46.90  0.001691865    1.385    0.278
        72 -12.4054    136.0322    102.8835   3.7522369550e+01   3.4389507947e+01    0.6088628    0.2732875  47.60  0.002131392    2.232    0.552
        73 -13.4961    119.9462    102.2107   4.1637724984e+01   3.8116220351e+01    0.6092932    0.3575135  39.59  0.002477714    1.778    0.438
        74 -10.7780     64.5181    101.5243   5.9516246227e+01   4.8801711148e+01    0.2402135    0.2283015  87.37 0.0006283597    1.053    0.050
        75 -12.1233     61.4890     97.7818   5.9747275704e+01   5.0202082352e+01    0.4693593    0.3336244  89.54  0.002059596    1.774    0.436
        76 -11.7757     46.4866     98.4979   6.5646434663e+01   5.2056707975e+01    0.2626728    0.2292985  29.46  0.001178481    1.226    0.184
        77 -12.2717     52.5022     97.5604   6.3114247555e+01   5.1525824378e+01    0.5213745    0.3119565 -25.38  0.001772176    2.445    0.591
        78 -13.2615    249.2508     97.6249   1.6154988868e+01   1.1542709412e+01    0.4932271    0.1682425 -38.52   0.00212065    2.310    0.567
        79 -11.9885    163.5310     97.7716   2.9780908924e+01   2.9127320169e+01     0.320315    0.2789242  80.85 0.0006167714    1.246    0.198
        80 -13.0799    137.3465     94.9988   3.5017898962e+01   3.5745777700e+01    0.5184926    0.3903003  63.86  0.001431776    1.439    0.305
        81 -11.9216     42.6853     90.2170   6.5349980513e+01   5.4625185424e+01     0.358743    0.2662748 -55.89 0.0007989124    1.240    0.193
        82 -12.8142     28.6732    122.0582   7.6198962125e+01   4.7830282863e+01    0.4868706     0.286042 -58.75  0.002378395    1.576    0.365
        83 -12.1778     49.2420     93.2807   6.3410847558e+01   5.3040432371e+01    0.3880329     0.263855  64.74  0.001804417    1.833    0.455
        84 -11.8752    181.0208    120.2942   3.1881373064e+01   2.0974086107e+01     0.202636    0.1982299  50.40 0.0009126898    1.080    0.074
        85 -13.2750    188.7903     83.7686   2.1365976276e+01   2.5872627380e+01      0.67604    0.3821093  42.80    0.0024246    2.115    0.527
        86 -12.6573     29.5709     89.3711   7.0592780892e+01   5.6229461270e+01    0.5206736    0.3224678  79.98  0.001859244    2.058    0.514
        87 -11.9848    158.6493     64.5963   2.1430495126e+01   3.6308066308e+01    0.7731184    0.2786508 -50.29  0.002401578    3.443    0.710
        88 -13.4401    164.1450     71.4888   2.2393661271e+01   3.3787679971e+01     1.399218    0.5249029  48.15  0.004804383    2.882    0.653
        89 -13.3095    160.5963     80.8487   2.5751755017e+01   3.2990514930e+01    0.8752919    0.5699764  18.75  0.002737991    2.744    0.636
        90 -14.4080    169.4439     76.8195   2.2903595439e+01   3.1584726569e+01     1.343366    0.6166964  53.72  0.004148343    2.198    0.545
        91 -13.8256     53.9188     66.8478   5.4218858141e+01   5.8790148314e+01     1.235476    0.9903363  41.41  0.006653203    1.326    0.246
        92 -12.9810     61.8667     58.7068   4.7991781678e+01   5.9315514256e+01    0.9498082    0.4910067 -26.33  0.003379871    3.185    0.686
        93 -13.4844     66.2685     48.8385   4.2367393788e+01   6.0533424184e+01    0.8142545    0.6539989 -53.17  0.004367502    1.368    0.269
        94 -13.8512     74.1733     73.6639   4.8123153142e+01   5.3889784932e+01     1.475837    0.7874817  16.95  0.004726141    3.835    0.739
        95 -13.3962     87.4431     65.1720   4.0384569122e+01   5.3122630166e+01    0.6319605    0.4912436 -18.50  0.001410527    1.526    0.345
        96 -13.7287     91.1070     57.3894   3.6321883949e+01   5.3879893712e+01    0.6228674     0.519371 -64.69  0.003196411    1.380    0.275
        97 -12.8396     55.1688     81.2083   5.7963569171e+01   5.5228452901e+01    0.6692061    0.4316573 -42.76   0.00266146    1.546    0.353
        98 -13.8037     61.1963     75.8413   5.3940810908e+01   5.5597469952e+01    0.7900773    0.4686421 -43.04  0.002128884    1.680    0.405
        99 -12.0909      4.1826    119.4434   8.4286009489e+01   5.0381309080e+01    0.5092325    0.2083873  10.37  0.002162413    3.149    0.682
       100 -13.8625    199.3888     69.6719   1.6117717811e+01   2.5771450466e+01     0.896611    0.4946303  47.85  0.003226589    2.109    0.526
       101 -13.0204    216.2691     72.7816   1.4615507631e+01   2.1605162486e+01    0.6408373    0.3502553 -69.25  0.002688742    2.682    0.627
       102 -13.5498    238.0043     80.5443   1.3771219291e+01   1.6088482237e+01    0.4566954    0.3066126  88.02  0.002494612    1.965    0.491
       103 -12.0246    114.1415     79.6296   3.6687626160e+01   4.4291218436e+01    0.4650266    0.3372587 -45.31  0.002148028    1.390    0.280
       104 -12.7726    135.1504     78.9969   3.0891364116e+01   3.9477838118e+01    0.8093928    0.4119233  56.83  0.003103562    2.052    0.513
       105 -11.3548     42.6676     79.3171   6.2737797104e+01   5.7346895651e+01    0.2482457    0.1628688 -54.96 0.0009899342    1.395    0.283
       106 -11.2082     41.5492     75.9450   6.2348366763e+01   5.8305203140e+01    0.3120728    0.2506524  77.75  0.001545508    1.506    0.336
       107 -11.3746    209.6496    249.6844   5.0348611098e+01  -4.3636144511e+00    0.1174766   0.06807231   4.33 0.0007047034    1.730    0.422
       108 -14.1378      5.0263     63.3812   7.6788259024e+01   6.4455067593e+01     0.643566    0.5960371  -9.36  0.003747377    1.199    0.166
       109 -11.4701     27.3981     76.1704   6.8758707564e+01   5.9747297991e+01    0.3267031     0.206009  73.68  0.001510889    2.190    0.543
       110 -12.9139    134.1599     65.8475   2.7033978663e+01   4.2175773867e+01    0.7194279    0.5910879  39.88  0.002796375    1.302    0.232
       111 -12.2931     40.3860     67.6078   6.0561260220e+01   6.0440865253e+01    0.8501305    0.3299437  26.78  0.003282851    2.782    0.641
       112 -11.8466    100.0451     65.0771   3.6152087081e+01   5.0421300234e+01    0.3378979    0.2739317  58.10    0.0016818    1.268    0.211
       113 -13.0924     78.8892     60.0729   4.1662715590e+01   5.5896077453e+01    0.7598073    0.5079288 -47.22  0.003581936    1.524    0.344
       114 -11.6481     85.5919     49.2689   3.5126239284e+01   5.6576976532e+01    0.3057861    0.2367584  13.25 0.0008098614    1.552    0.356
       115 -13.6929    213.2575     78.3797   1.6354018285e+01   2.1381074609e+01     1.019493     0.595653  89.21  0.004387062    2.686    0.628
       116 -13.7668    177.9450     56.8597   1.5875620683e+01   3.2791958549e+01    0.9093835    0.5476325 -49.51  0.003015965    1.603    0.376
       117 -12.2493     36.4614     54.1732   5.8258813708e+01   6.3988231581e+01    0.3193829    0.2020095 -27.40  0.001042931    1.750    0.429
       118 -11.1668     34.4679     60.5128   6.1280103465e+01   6.2783388338e+01    0.3441454    0.1729126 -44.53  0.001551775    1.852    0.460
       119 -12.0000     38.7693     59.7776   5.8947399498e+01   6.2450351152e+01    0.4590003    0.2701253  62.82  0.001855167    3.054    0.673
       120 -11.8581     24.7973     59.1644   6.5741982175e+01   6.4078528051e+01    0.4198029    0.2294267 -49.78  0.002037026    1.592    0.372
       121 -14.6761    119.3281     54.1254   2.6775363853e+01   4.7883098554e+01     1.073108    0.6935082  49.68  0.002334075    1.501    0.334
       122 -12.9172    248.1247     52.2639   6.5674439582e+00   1.8101350488e+01    0.6266637    0.2830518 -34.59  0.003138902    1.871    0.465
       123 -13.7570    103.2551     50.3498   2.9847577463e+01   5.2399305163e+01    0.9885473    0.5713507 -47.22  0.002008598    1.875    0.467
       124 -13.6628     97.9777     49.9703   3.1306287458e+01   5.3692440488e+01    0.7590934    0.4268567 -45.54  0.002393744    1.894    0.472
       125 -11.1120     17.6558     55.1619   6.8374077819e+01   6.5612422355e+01    0.3268173    0.1511891 -66.95  0.001469223    2.102    0.524
       126 -11.7812    231.0410     55.0293   8.7759224486e+00   2.1095398313e+01    0.2976038    0.1864206  84.75  0.001604569    1.843    0.457
       127 -12.6722    136.0010     51.2048   2.1831373192e+01   4.4193336446e+01    0.6268997    0.4680711 -31.28  0.002139857    1.433    0.302
       128 -10.5866     23.6276     50.1213   6.3680825072e+01   6.6257091869e+01    0.1860144    0.1019699 -47.87 0.0004540707    1.588    0.370
       129 -13.2566    157.1745     43.8360   1.5401744136e+01   3.9909314326e+01    0.9042767    0.5157744  40.11    0.0037869    2.259    0.557
       130 -11.3941     38.8624     46.1185   5.4140060814e+01   6.5425666861e+01    0.1936715     0.188054 -75.68  0.000885458    1.225    0.184
       131 -14.5020    212.5041     40.9532   7.3221589627e+00   2.6952606198e+01     2.094375    0.6969917  77.11    0.0071464    4.201    0.762
       132 -14.2999    170.8058    242.4596   5.6496739789e+01   1.5155446652e+00    0.9011881    0.5453933  19.59  0.005367134    1.493    0.330
       133 -14.3510     97.1675    239.3115   7.1190503353e+01   1.2208088709e+01    0.8151418    0.6513361 -83.53  0.005440204    1.519    0.342
       134 -12.7711     24.3597    216.6230   8.5318793282e+01   2.5535317624e+01     0.768963    0.2501726  48.77  0.003580743    2.291    0.563
       135 -13.2126      6.0763     42.9767   7.1610911610e+01   6.9164255251e+01    0.8890859    0.3739625  16.24  0.004205647    2.560    0.609
       136 -14.4287     26.5739    225.9850   8.5324244644e+01   2.3397590266e+01     1.244981    0.4232012 -64.88  0.005833903    3.177    0.685
       137 -13.9198     20.8860    224.1323   8.6440059058e+01   2.4352704658e+01    0.5044277    0.4421647 -89.70  0.002087981    1.302    0.232
       138 -12.8368    147.5039    238.6475   6.0612129009e+01   5.2914390674e+00    0.2104391    0.1852509 -79.41  0.001081236    1.618    0.382
       139 -12.7326    110.0270     42.0088   2.4796769730e+01   5.2132103334e+01     0.524618    0.2047226  55.12 0.0009236024    2.387    0.581
       140 -13.4884    113.7264     37.7915   2.2244855396e+01   5.1851136513e+01    0.4344636    0.3909151  47.51  0.001444662    1.087    0.080
       141 -13.2167    237.7460    230.2225   4.2720209849e+01  -5.3532852777e+00    0.3047952    0.2360832  38.58  0.002192229    1.853    0.460
       142 -13.2173    131.4040     33.3688   1.6671916931e+01   4.7981838804e+01    0.7007527    0.4769801 -37.93  0.002689102    1.519    0.342
       143 -12.0443     40.2505     40.2312   5.1070861111e+01   6.6439977869e+01    0.4939933    0.2589512  30.14  0.002328622    1.955    0.489
       144 -12.7342     32.9874     40.3545   5.5041009222e+01   6.7358172435e+01    0.3256914    0.2765338  -5.65 0.0005365564    1.130    0.115
       145 -12.6706     75.9911     37.0228   3.3538005146e+01   6.0722952907e+01    0.4790519    0.3166807  34.92  0.001368322    1.536    0.349
       146 -11.9011     70.9702     36.1630   3.5092024396e+01   6.1898141899e+01    0.3369793     0.274387 -83.63  0.001080125    1.763    0.433
       147 -13.1851     57.5568    201.7762   7.6596152603e+01   2.4930203528e+01     1.340167    0.4591085 -78.00  0.004919779    3.794    0.736
       148 -12.3084    104.7569     36.7349   2.4175683694e+01   5.4213010644e+01    0.3165766    0.1976826 -33.74  0.001268598    1.687    0.407
       149 -13.2967     46.0020     33.1698   4.4986325443e+01   6.6931137888e+01    0.9936036    0.4758892  32.35  0.004435136    2.152    0.535
       150 -14.0833     66.4028    223.0340   7.6409134687e+01   1.9352612235e+01     0.828628    0.6425877  45.92  0.005319073    1.063    0.059
       151 -13.6165     59.4684    212.5452   7.7093939515e+01   2.2378856858e+01    0.6281995    0.4060943  -7.81  0.002115936    3.107    0.678
       152 -13.0408    140.3694     21.4091   1.0898230086e+01   4.7144987972e+01    0.8619644    0.3592153  70.05  0.001426801    2.281    0.562
       153 -12.7774    223.3669     20.8951   1.5844892526e+00   2.7045158731e+01    0.3269732    0.2596118  62.37  0.001573207    1.487    0.328
       154 -13.5162    216.2389     28.4859   3.9473190955e+00   2.7701239122e+01    0.4449334    0.2411734 -46.31  0.001990165    1.551    0.355
       155 -10.4106      5.4873    219.4923   8.9491990337e+01   2.6764031419e+01    0.1173944   0.08692324  61.27 -2.563231e-06    1.000    0.000
       156 -12.2280     85.5593    215.5559   7.1345131531e+01   1.8287217891e+01    0.2753697    0.1814076  56.58  0.001524587    1.442    0.306
       157 -11.1270    136.5111    210.9924   5.9204344174e+01   1.1571657676e+01    0.1811366    0.1332475 -51.85   0.00103003    1.585    0.369
       158 -11.0470     97.9106     26.8404   2.2015668946e+01   5.7251944632e+01    0.2506862    0.2202524 -54.54  0.001412582    1.258    0.205
       159 -12.3156     30.8803     25.2305   4.9574621695e+01   7.0544129785e+01    0.3921299    0.2163935  14.72   0.00179175    2.206    0.547
       160 -12.3792     36.5784     22.3126   4.4762651090e+01   7.0263545114e+01    0.3286805     0.222599 -15.17 0.0004233807    1.594    0.373
       161 -11.2420     46.3084    209.6571   7.9915079300e+01   2.4592541489e+01     0.138877   0.07486565  59.95 0.0004333614    1.694    0.410
       162 -12.4937     46.1517     20.1817   3.8456032214e+01   6.9085159601e+01    0.4123034    0.2372521  28.62  0.002049468    1.804    0.446
       163 -13.8980     64.5241    214.2611   7.6073915264e+01   2.1377559272e+01    0.4931745    0.2969779  43.67  0.002506819    1.361    0.265
       164 -13.3382     94.1879    218.4592   6.9684238009e+01   1.6495510870e+01    0.3443736    0.2583347  41.15  0.001482113    1.111    0.100
       165 -13.4454     17.0053    195.7341   8.5875878521e+01   3.0766694540e+01     1.004914    0.1889341 -62.67  0.003416352    4.974    0.799
       166 -11.1755    175.9784     13.9145   3.9490245153e+00   3.8875976563e+01     0.199525    0.1675854 -73.99 0.0002909902    1.036    0.034
       167 -11.6838     41.1984    205.3906   8.0791118899e+01   2.6103588253e+01    0.1910266   0.08981523  42.82  0.000949265    1.717    0.418
       168 -13.0052     39.1925    194.8610   8.0479937747e+01   2.8665629195e+01    0.6252859    0.3225642  53.82  0.002758206    1.692    0.409
       169 -12.8633    164.1163    193.9980   5.0531782102e+01   1.0233758915e+01    0.5666916    0.3045494 -60.93  0.002338807    3.175    0.685
       170 -13.6264     30.0920    169.1886   8.0746224500e+01   3.5687913938e+01    0.9212651    0.6978467 -18.39  0.004969474    1.910    0.476
       171 -15.1645      8.6887    183.1521   8.7211794800e+01   3.4372188166e+01     1.195161     1.028569  62.04  0.008218846    1.122    0.108
       172 -11.8478     51.7123     20.4312   3.5842267434e+01   6.8068992198e+01    0.3665256    0.1954786  44.21  0.001775414    1.817    0.450
       173 -14.9993     15.6010    175.0289   8.5011411714e+01   3.5669084472e+01     2.009987    0.5871884  47.02  0.008210703    2.766    0.638
       174 -12.1517     48.8393    181.2625   7.6854448719e+01   3.0687767501e+01    0.3956724    0.2737198 -55.05  0.002144628    1.638    0.389
       175 -13.1849    197.6537    179.8955   4.1229607976e+01   7.1981829713e+00    0.5741256    0.3795329 -67.00  0.002517198    3.268    0.694
       176 -13.2855     85.1454    179.9209   6.7169222399e+01   2.6051382355e+01    0.4930603     0.290086  74.81  0.002100724    2.338    0.572
