#   1 NUMBER                 Running object number                                     
#   2 MAG_AUTO               Kron-like elliptical aperture magnitude                    [mag]
#   3 X_IMAGE                Object position along x                                    [pixel]
#   4 Y_IMAGE                Object position along y                                    [pixel]
#   5 X_WORLD                Barycenter position along world x axis                     [deg]
#   6 Y_WORLD                Barycenter position along world y axis                     [deg]
#   7 A_WORLD                Profile RMS along major axis (world units)                 [deg]
#   8 B_WORLD                Profile RMS along minor axis (world units)                 [deg]
#   9 THETA_WORLD            Position angle (CCW/world-x)                               [deg]
#  10 FWHM_WORLD             FWHM assuming a gaussian core                              [deg]
#  11 ELONGATION             A_IMAGE/B_IMAGE                                           
#  12 ELLIPTICITY            1 - B_IMAGE/A_IMAGE                                       
         1 -12.9969    188.0244     34.0233   6.8386377184e+00   3.3791849696e+01     1.534383      1.04951  56.27  0.004790048    1.553    0.356
         2 -11.3134    159.0740     27.1137   8.9678221300e+00   4.1238246199e+01    0.3775262    0.2710822 -23.05  0.002183347    1.820    0.451
         3 -12.7244    197.3431     48.9027   9.0070914806e+00   2.9773432870e+01     1.503768     0.970807   3.37  0.005659411    5.082    0.803
         4 -12.7544    208.8115     46.8056   7.2035487686e+00   2.7588008307e+01     1.214455    0.7766843  89.04  0.005860203    1.516    0.340
         5 -12.9377    157.3092     39.3618   1.2370805157e+01   4.0181532211e+01     1.630577    0.7062635  54.23  0.007227924    2.111    0.526
         6 -14.4448     11.1231     69.0587   6.8458649033e+01   6.1845733989e+01     2.608515     1.560639   1.41    0.0145039    1.745    0.427
         7 -13.8288     98.0522     75.8830   3.6623165877e+01   4.8102191445e+01     2.238823     1.704862 -72.45   0.00797106    1.864    0.464
         8 -13.2974     62.1192     44.4670   3.8371250798e+01   6.0163004235e+01    0.7058031    0.5608395 -76.37  0.001805049    2.302    0.566
         9 -12.8432     25.7165     40.7104   5.2821840966e+01   6.5922255092e+01     1.731452    0.7721844 -35.81  0.008577969    2.115    0.527
        10 -12.3614     48.5299     31.9044   3.8979182200e+01   6.4195720066e+01     1.316463    0.9639477  21.30  0.008188717    1.165    0.142
        11 -11.8595     42.1126     22.6831   3.7919551885e+01   6.6395337007e+01    0.8061767    0.5388603  17.06  0.004948166    1.335    0.251
        12 -12.2622     58.1322     25.7758   3.2676400092e+01   6.3385170552e+01     1.768209     1.272763 -75.67  0.008204243    3.744    0.733
        13 -13.4750     74.9216     20.5772   2.4843740947e+01   6.0820987508e+01     2.104605     1.542086 -78.05   0.01120262    2.535    0.605
        14 -13.9270     48.7766     56.4348   4.7997552729e+01   6.0314158204e+01     2.259362    0.7966983  37.54  0.007787112    2.777    0.640
        15 -13.3878     14.1932     34.9610   5.6525561645e+01   6.8031994651e+01    0.7309351    0.4900461 -47.76  0.003716373    1.636    0.389
        16 -12.5301    221.3184     39.0091   4.3200409658e+00   2.6027812531e+01     0.855099    0.4706154 -88.35 0.0007419556    1.865    0.464
        17 -13.9784      5.5100     42.9604   6.3809712776e+01   6.7336978118e+01     2.088766    0.8380184 -52.43   0.01049615    2.240    0.553
        18  99.0000     30.8951     20.1509   4.1984906865e+01   6.8328775849e+01    0.9535251    0.5086073 -45.56   0.00506836    2.643    0.622
        19 -10.8613    216.4008     24.4021   1.9087442378e+00   2.8856002222e+01    0.5207985    0.3737551  25.60  0.002876116    3.015    0.668
        20 -12.1751    210.7604     21.2378   1.7847155077e+00   3.0398074358e+01    0.4232929    0.2634455  57.98  0.002558775    1.811    0.448
        21 -12.6995    226.2166     22.9551   8.0253199117e-01   2.7037702032e+01    0.4801411    0.2745876  70.58  0.001836966    1.651    0.394
        22 -11.3088    201.9740     20.7161   2.4877130294e+00   3.2318682972e+01    0.3042611    0.1998346 -61.01   0.00104624    1.357    0.263
        23 -11.9425    243.6239     22.5103   3.5939788907e+02   2.3722736490e+01    0.5102614      0.26994  76.20  0.002068336    1.760    0.432
        24 -10.8120    204.2102     17.4367   1.6092639011e+00   3.2211402388e+01    0.5189106    0.2253881 -85.92   0.00234954    2.729    0.634
        25  -9.9942    125.2885     16.9099   1.1581577839e+01   5.0180520607e+01    0.3617011     0.142315 -47.08  0.001511275    3.281    0.695
        26 -12.5169    136.4482     19.2231   1.0332557707e+01   4.7363033595e+01    0.2621658     0.204329  58.55   0.00038898    1.144    0.126
        27 -10.3420    172.2297     16.4669   4.6757259309e+00   3.9367747204e+01    0.5079556    0.3324943  -7.85  0.002719477    2.666    0.625
        28 -12.5333    173.0119      6.6889   2.3275566228e+00   4.0169304945e+01    0.3187312    0.2591573  89.31 0.0004263884    1.044    0.042
        29 -11.9029    173.7844      2.9678   1.4029415679e+00   4.0345854471e+01    0.1810722    0.1580221 -59.99 0.0006827028    1.277    0.217
        30 -10.3327    118.5926     16.7758   1.2782202956e+01   5.1733603650e+01    0.4896483     0.193716  62.72  0.002182597    2.090    0.521
        31 -10.4601    108.8703     10.3307   1.2661915009e+01   5.4527203976e+01    0.4695061     0.232815 -29.51  0.002435622    2.380    0.580
        32 -11.3147    114.9766     12.9506   1.2293439083e+01   5.2914424438e+01    0.2359431    0.1872679  54.91 -0.002661949    1.078    0.072
        33 -11.7735    116.8113      9.3089   1.0822656445e+01   5.2817650180e+01    0.4939351    0.3235252 -66.21  0.002749979    1.974    0.493
        34 -10.7907    112.2021      4.0963   1.0045949517e+01   5.4291790237e+01    0.4977689    0.2068007  69.11   0.00230409    2.152    0.535
        35  99.0000    229.9480      1.4941   3.5662844231e+02   2.8688367555e+01     1.020014    0.2377516  79.42  0.003908141    4.572    0.781
        36 -12.3620    221.5032      9.0205   3.5856631699e+02   2.9559847461e+01    0.5354604    0.1931318 -50.58  0.002775578    2.325    0.570
        37 -12.0344    228.1888      9.9181   3.5825143689e+02   2.8133438477e+01    0.5893117    0.3378771 -84.65 0.0004991142    1.464    0.317
        38 -12.2219    249.5203     10.5031   3.5695494844e+02   2.4021054832e+01    0.2199857    0.1372358 -65.35  0.001274029    1.192    0.161
        39 -13.5018    244.2238      8.3888   3.5692505435e+02   2.5232699949e+01    0.9265825     0.388393 -84.82   0.00497561    2.398    0.583
        40 -10.2931    186.9265     13.5890   2.4436116232e+00   3.6375681915e+01    0.2627413     0.144378 -54.01     0.001378    1.748    0.428
        41 -11.6690    149.2932     13.2279   6.7775980168e+00   4.4966333472e+01    0.3711056    0.2038745  86.51  0.001356226    1.892    0.472
        42 -10.5435    124.5626      9.8829   9.6320217525e+00   5.0994379956e+01    0.3137408    0.2244824  -4.52  0.001875308    1.920    0.479
        43 -10.2162     88.3222     12.1542   1.7924307487e+01   5.8875095987e+01    0.2476563    0.1356821  52.27 0.0007069331    1.452    0.311
        44 -10.4179    102.1269      9.8517   1.3901435796e+01   5.6074174281e+01    0.2269576    0.1867014  23.93  0.001025384    1.338    0.252
        45 -11.2056     25.9860     10.0394   3.9799591189e+01   7.0223323501e+01    0.2318047    0.1534474  -1.04 0.0008818649    1.376    0.273
        46  -9.9214    130.8759      9.1842   8.3961144847e+00   4.9602090873e+01     0.271495    0.1469732  33.16  0.001316987    2.570    0.611
        47 -11.0980     72.1318      4.8763   1.9557682008e+01   6.2840287539e+01     0.350484    0.2660477 -22.51  0.002215643    1.567    0.362
        48 -11.3892     78.6540      9.9181   1.9666108805e+01   6.1092962198e+01    0.2330562    0.1461055  51.74 0.0003182392    1.298    0.229
        49 -11.7846     76.8166      5.3687   1.8431288088e+01   6.1852764786e+01    0.4018721    0.2180654  13.54 0.0001657189    2.544    0.607
        50 -11.6209    193.9251      7.9791   5.8896434584e-01   3.5426816032e+01    0.2622749    0.1962858  70.34  0.001455133    1.297    0.229
        51 -10.7640     45.6652      7.0294   2.9528137803e+01   6.7554331031e+01    0.4299674    0.3055454  43.07   0.00201459    1.324    0.245
        52 -11.0011     46.4042      2.4867   2.7170676368e+01   6.7845730543e+01    0.2024473    0.1340825  22.64 0.0005952718    1.306    0.234
        53  -9.8991    215.4955      8.1038   3.5884115734e+02   3.0874930019e+01    0.1473184   0.09763316 -49.38 0.0003178631    1.441    0.306
        54  -9.2988    156.4880      8.0166   4.5160456107e+00   4.3799299197e+01    0.1420348   0.09605404  32.48 0.0007521069    2.110    0.526
        55 -11.8612     84.7284      6.9625   1.6944640643e+01   6.0081061946e+01    0.2389972    0.2030119  57.87  0.001429827    1.145    0.127
        56 -11.3728     84.7858      2.0108   1.5108914645e+01   6.0458811888e+01    0.3801955    0.1616219  43.48  0.001572613    1.985    0.496
        57  -9.6912    143.0031      7.0331   6.0149627731e+00   4.6992267562e+01    0.1733735    0.1216912 -83.08 0.0003867464    1.416    0.294
        58 -11.2600      3.9161      5.6494   4.9949777685e+01   7.3288460815e+01    0.3520559    0.1719921   4.06  0.001172228    2.192    0.544
        59  -9.8696    210.6193      6.1183   3.5883316917e+02   3.2085858811e+01    0.1277015    0.1073034 -34.71 0.0005518091    1.599    0.375
        60 -10.8966    183.7878      3.5592   5.7245162615e-01   3.8073235011e+01    0.2651657    0.1796384  54.95  0.001678456    1.658    0.397
        61 -11.7063    217.3671      2.2646   3.5760777488e+02   3.1103175003e+01     0.246081    0.1609306 -80.48  0.001556514    1.185    0.156
        62 -10.4772    213.6900      2.3484   3.5788505095e+02   3.1841834311e+01    0.2236703    0.1433735 -68.65 0.0007962668    1.267    0.211
        63  -9.7350    218.5257    239.5184   4.4137553219e+01  -7.7320984847e+00    0.1243563    0.1000463  -4.67 0.0001816086    1.023    0.022
        64 -12.5977    190.2682     43.9473   8.7920014087e+00   3.2012022782e+01    0.7707461    0.4263774  70.53  0.001443816    1.674    0.402
        65 -13.9584    207.0009     67.6599   1.1851341353e+01   2.4945092448e+01    0.9894706     0.814213  79.06  0.006131421    1.173    0.147
        66 -11.9884    217.5097     55.8889   8.1031273600e+00   2.4497762205e+01      0.90151    0.6213133 -15.12  0.004618436    2.684    0.627
        67 -12.0561    208.9992     58.2354   9.5870859044e+00   2.5934152119e+01    0.4708191    0.2937269 -74.47   0.00101666    1.674    0.402
        68 -11.5509    142.8341     46.1741   1.6717881456e+01   4.2698053074e+01    0.4224625    0.2541614  33.77  0.001347972    2.292    0.564
        69 -10.1998     15.8868    238.7912   8.8564935288e+01   2.0709986896e+01    0.1708843    0.1548968 -82.25  0.000693535    1.277    0.217
        70 -12.5452    230.4101     48.0656   5.2018656030e+00   2.2995522247e+01    0.9379357    0.6309721  32.05  0.004749216    3.302    0.697
        71 -12.1299    238.5081     51.4297   5.0665217812e+00   2.0962564154e+01    0.3820402    0.2047055 -67.28  0.001115706    1.820    0.450
        72 -12.0379    172.7946     44.3146   1.1248967563e+01   3.5931589343e+01    0.6569692     0.352577  55.80  0.001774655    1.783    0.439
        73 -12.3673    178.4060     38.3294   9.0381486428e+00   3.5423296813e+01    0.5027351     0.395409  41.01  0.001743258    1.640    0.390
        74 -11.6436     11.5110     98.0461   7.4538783803e+01   5.5358236383e+01    0.3266508    0.2134416 -58.26 0.0008355115    1.303    0.232
        75 -10.0310    225.3106     97.6617   1.5686653412e+01   1.6359421424e+01    0.1383219   0.09021581 -68.80 0.0002892003    1.688    0.408
        76 -13.5719     61.1455     90.4902   5.3598169104e+01   5.1773448863e+01    0.9219497    0.5400679 -59.95  0.004084798    2.022    0.506
        77 -10.3546     70.9683     88.2221   4.9369175130e+01   5.0714823577e+01    0.3242692    0.2078322  38.04  0.001073148    1.560    0.359
        78 -12.6318     66.3385     81.6608   4.9138902555e+01   5.2835917436e+01    0.7130294    0.5719019 -73.66  0.003703117    1.727    0.421
        79  -9.4647      3.2805     96.2757   7.7373027407e+01   5.6268056906e+01    0.1305662   0.07677886 -40.06            0    1.501    0.334
        80  -9.4867    166.4122     95.4699   2.4998491483e+01   2.9193157983e+01    0.1453034    0.1375822 -77.71 4.137956e-05    1.016    0.016
        81 -10.2267    158.1064     95.4637   2.6714198695e+01   3.1077697317e+01    0.3713118    0.1431386  51.64  0.001315663    2.559    0.609
        82 -11.6448     54.5249     93.9894   5.7020948736e+01   5.1947257879e+01    0.2835424    0.2404779 -86.83  0.001529884    1.545    0.353
        83 -12.0424     49.5666     94.7273   5.9089556614e+01   5.2440110101e+01    0.2733592    0.2365814  60.64 0.0005967846    1.445    0.308
        84 -12.3938    213.8645     90.7809   1.5852496476e+01   1.9779543929e+01    0.4726513    0.3374382 -64.74  0.001365311    1.358    0.264
        85 -10.1699     89.0485     92.6367   4.4436281085e+01   4.6572738705e+01    0.2252229    0.2039819 -55.32 0.0002920016    1.203    0.169
        86 -10.5918    250.3218     93.8681   1.1810997281e+01   1.2427191901e+01    0.1842626    0.1340293 -57.50 0.0006576239    1.136    0.120
        87 -10.7847    226.8526     92.0251   1.4331746574e+01   1.7010162325e+01    0.2295399    0.1788335  83.33 0.0006790613    1.355    0.262
        88  -9.6427     79.5338     91.0991   4.7186792566e+01   4.8638826162e+01    0.1990561    0.1423881 -43.33 -5.911975e-05    1.402    0.287
        89 -11.1768    207.0750     89.6492   1.6596853732e+01   2.1361906167e+01    0.2185012    0.1609445 -87.64 0.0006220451    1.482    0.325
        90  -9.6931     86.0385     89.6867   4.4582707322e+01   4.7753891222e+01    0.2124239    0.1846037  22.69 0.0006401776    1.122    0.108
        91 -11.7010     51.8973     86.9656   5.6134228800e+01   5.3854964998e+01     0.330269    0.2220922 -20.79 0.0003224476    1.648    0.393
        92 -11.5892     48.1786     85.3866   5.7150861606e+01   5.4688665228e+01    0.2760504    0.2270945  21.83 0.0007914121    1.227    0.185
        93 -11.5125    223.9320     87.4049   1.3773627805e+01   1.8339651025e+01    0.3542705    0.2720389  31.79  0.001852577    1.974    0.493
        94 -12.5289    220.4597     69.5567   1.0555345034e+01   2.1867465984e+01    0.4264361    0.3126524 -55.52 0.0009005601    1.185    0.156
        95 -12.4870    219.0290     82.8846   1.3486223113e+01   2.0049749307e+01      0.40156    0.3230796 -28.85  0.002380722    1.528    0.345
        96 -12.9735    216.2945     77.8231   1.2790252231e+01   2.1418550480e+01    0.7039239     0.437351 -18.58  0.003081001    3.120    0.679
        97 -10.8844    105.3382     86.5065   3.7586315281e+01   4.4569245356e+01    0.4265853    0.2733623 -61.92   0.00181075    2.125    0.529
        98 -11.0490    248.6563     83.6135   1.0073233298e+01   1.4337122830e+01    0.3109028    0.2072616 -71.52  0.001188675    1.496    0.332
        99  -9.9629    245.2091     80.5877   9.8803605916e+00   1.5423635317e+01    0.2161749    0.1138721  59.14    0.0011661    2.144    0.534
       100 -12.0193    236.1342     85.8876   1.1941124138e+01   1.6254447618e+01    0.5849675    0.2837847  75.97  0.002576239    3.037    0.671
       101 -12.0040    161.4833     84.1782   2.3159535832e+01   3.2374222351e+01     0.912012     0.620665  43.75  0.004395052    1.585    0.369
       102 -12.3365    169.1322     80.8148   2.0845171130e+01   3.1204769494e+01    0.4708356    0.3500814 -70.04  0.001317411    1.459    0.315
       103 -11.0521    168.9815     76.4767   1.9796762591e+01   3.1975878348e+01    0.4334062    0.2533591  69.31  0.001166029    1.869    0.465
       104 -11.6978    148.0000     83.9784   2.5926602483e+01   3.5521469908e+01    0.3938109    0.3273605 -48.40   0.00132899    1.234    0.190
       105 -11.7482    147.1665     79.4339   2.4900623143e+01   3.6522078455e+01    0.5331702     0.397217 -43.50  0.001236128    1.394    0.282
       106 -13.1771    145.9235     67.0164   2.1821125214e+01   3.8896657200e+01     2.217292    0.8170096  43.85  0.005019181    3.243    0.692
       107  -9.8679    236.7141    145.9758   2.3689608856e+01   5.8146658072e+00     0.183323    0.1452902 -41.42 0.0003697817    1.065    0.061
       108 -11.7749     91.9492     33.8093   2.4638668382e+01   5.5825107503e+01    0.4842226    0.2970077  33.24  0.001785134    1.654    0.395
       109  99.0000     83.6015     29.5610   2.5548342857e+01   5.8072160394e+01     1.307046    0.2646739  43.48  0.003900736    4.674    0.786
       110  -9.3658    250.0550    131.7769   1.9014210003e+01   6.1634744230e+00    0.1335783    0.1058147  55.06 0.0003399806    1.544    0.352
       111 -10.8633     72.9965    118.9934   5.6689567396e+01   4.3350237964e+01     0.215402    0.2095994 -32.13  0.001188549    1.022    0.022
       112  -9.0069    249.2848    118.2865   1.6555828109e+01   8.5820568570e+00    0.1142019   0.09242748 -19.97 0.0003279472    1.527    0.345
       113 -10.0751    182.2841    115.5273   2.6650392417e+01   2.1849513596e+01    0.2677721    0.1450247  54.58  0.001130757    1.973    0.493
       114 -10.2973    172.1596    116.8235   2.8980065248e+01   2.3763758743e+01       0.3211    0.1846617  71.78  0.001168455    2.859    0.650
       115 -10.0025    204.1745    116.3089   2.2856526604e+01   1.7176979166e+01    0.3233469    0.1745291  72.67  0.001207485    3.271    0.694
       116 -10.9722    163.1814    115.1733   3.0491941835e+01   2.6053623270e+01    0.2145654    0.1795564 -82.37 0.0005949978    1.343    0.255
       117 -12.9787      3.3919     57.8966   6.9177801488e+01   6.4621352133e+01    0.9077917    0.4003474 -29.45  0.004484396    2.137    0.532
       118  -9.3474    241.9850    113.7876   1.6650289161e+01   1.0575716568e+01    0.1440006    0.1039961  57.44 0.0005360846    1.626    0.385
       119 -12.6704     51.1188     45.1159   4.2987741688e+01   6.1853552151e+01     1.234788    0.4126476  31.03  0.004581731    3.272    0.694
       120 -14.1889     76.8850     58.8831   3.8076537106e+01   5.5239845798e+01     1.228358    0.5804604  47.65  0.004919203    2.169    0.539
       121 -11.4760    137.7184    112.8465   3.5889104359e+01   3.2146406415e+01    0.3924279    0.2210975  41.21  0.001299394    1.817    0.450
       122 -13.4100     78.9340     49.8585   3.4281604365e+01   5.6284275245e+01     0.942853    0.5712971  32.06  0.001559442    1.605    0.377
       123 -13.1124     79.2807     41.3068   3.1144183697e+01   5.7449368402e+01      1.08299    0.3325379  41.74  0.003944331    2.995    0.666
       124 -11.0252    238.0794     80.9681   1.0753434232e+01   1.6671868247e+01    0.1905599    0.1653412 -55.36  0.000326963    1.154    0.133
       125 -11.7910    230.7421     77.7103   1.0970115166e+01   1.8572878909e+01    0.3264618    0.2504918  85.21  0.002041547    1.310    0.237
       126 -14.8644     51.4146     71.7583   5.1895301624e+01   5.7075770952e+01     3.519959      1.45255  30.94   0.01456416    2.399    0.583
       127 -13.7243    118.0229     62.0843   2.6817377129e+01   4.6134411117e+01     1.077147    0.8008847 -62.10  0.004951541    1.662    0.398
       128 -11.0378    106.4397     72.2848   3.3040320278e+01   4.6985683340e+01    0.3168263    0.2612146  79.20  0.001642273    1.505    0.335
       129 -12.1714    232.4129     73.0762   9.8603738065e+00   1.8969829525e+01    0.3600278    0.2612958 -23.53  0.001085958    1.998    0.499
       130 -10.9676    245.1333     50.4031   4.2687518854e+00   1.9857424835e+01    0.3032658    0.1366307 -44.12 0.0004074345    1.889    0.471
       131 -10.1684    155.6398     76.8558   2.2449194965e+01   3.4999138026e+01    0.2908148    0.1990184  64.20  0.001389044    1.444    0.308
       132 -11.2833    133.4697    110.1438   3.6280126695e+01   3.3652960990e+01    0.3173852    0.2370795 -75.02 0.0002692686    1.729    0.422
       133 -10.3493    209.8729    111.8282   2.0949232887e+01   1.6872311336e+01    0.3983576    0.1458241  55.66  0.001488789    3.146    0.682
       134 -10.7558    146.4570     57.6690   1.9172198738e+01   4.0216755886e+01    0.3738443    0.2587314   4.20 0.0008570351    2.540    0.606
       135 -10.2988    141.5991     61.6138   2.1241171486e+01   4.0760062158e+01    0.3684847    0.1548785  49.88  0.001456132    2.227    0.551
       136 -10.7282    136.4308     62.0307   2.2462605050e+01   4.1904661870e+01    0.2876014    0.2270151  61.95 0.0003684853    1.176    0.150
       137 -11.1551    137.3344     57.9792   2.1124751195e+01   4.2312017436e+01    0.4004075    0.2866304 -77.43  0.001241991    1.768    0.434
       138 -14.2258    195.0677     85.7229   1.7564953485e+01   2.4574263513e+01     1.689049     1.318786  28.82  0.008956631    1.825    0.452
       139 -10.9933    127.5136     58.6572   2.3498218718e+01   4.4495669326e+01    0.4644212    0.2564664  42.75  0.001605596    1.841    0.457
       140  -9.8077    155.5781     54.7194   1.6668078532e+01   3.8504183317e+01    0.4633218    0.1298098  54.39  0.001593552    3.118    0.679
       141 -10.9316    163.0600     57.1153   1.5974029215e+01   3.6401059140e+01    0.4638546    0.3535193  79.14  0.001983474    1.258    0.205
       142 -10.7630    165.7692     52.3358   1.4312474570e+01   3.6459247427e+01    0.3746082    0.1976161  49.09 0.0009128529    1.997    0.499
       143 -11.1599     98.2118     54.5684   2.9842091112e+01   5.1655372776e+01    0.4232402     0.234468 -27.33   0.00190306    2.181    0.542
       144 -10.5915    101.9880     53.5055   2.8419583428e+01   5.1005945655e+01    0.4893215    0.3133558 -19.52   0.00186033    1.996    0.499
       145  -9.8454    149.6907     48.6705   1.6125850220e+01   4.0743445704e+01    0.2311295    0.1825724  -1.89 0.0009700458    1.805    0.446
       146 -10.5072    142.6280     54.7159   1.9121497962e+01   4.1551546875e+01    0.2702028    0.2120211 -31.49  0.000626461    1.462    0.316
       147 -10.7148    146.0011     52.2978   1.7796776103e+01   4.1105292277e+01    0.2783315    0.1957055  41.66 0.0003868742    1.559    0.359
       148 -13.0494    104.4065     66.4986   3.1847316109e+01   4.8419291492e+01     0.827415    0.5254437  33.24 -0.0001541599    1.671    0.402
       149 -10.3927    179.5662     48.7311   1.1331710643e+01   3.3778174825e+01    0.2706414    0.1023889 -44.82  0.001121663    2.572    0.611
       150 -10.9675    184.6678     53.3030   1.1680451937e+01   3.1978012115e+01       0.2138    0.1681819 -75.91 0.0007199991    1.180    0.152
       151 -10.5536    181.5203     52.5150   1.1944636966e+01   3.2803524205e+01    0.2425151    0.1975122 -52.44 0.0007632822    1.233    0.189
       152 -10.2910    137.4362     52.8881   1.9665553703e+01   4.3034744039e+01    0.2364763    0.1753337  70.40 0.0003185663    1.308    0.236
       153  -9.0787    191.2803    112.3752   2.4245078761e+01   2.0559523163e+01    0.1419951    0.1140091  -8.62  0.000701068    1.705    0.413
       154 -10.6713    131.5031     52.4914   2.0808251389e+01   4.4479410940e+01    0.2560835     0.128929  67.97  0.001036216    2.300    0.565
       155  -9.6773     90.5274     51.6905   3.1184077192e+01   5.3697221429e+01    0.1589904    0.1340177 -47.26 0.0004549171    1.395    0.283
       156 -10.3976    161.4936     49.5545   1.4309955383e+01   3.7847971244e+01    0.3339782    0.2484663  -0.45  0.001705284    2.166    0.538
       157 -11.9087    247.8693     42.5210   2.6101229604e+00   2.0413666885e+01    0.3540571     0.225021 -72.76 0.0003774041    1.342    0.255
       158  -9.5999    250.2706     50.6294   3.8579523633e+00   1.8882370058e+01    0.1963191    0.1171605 -76.48 0.0005918731    1.599    0.375
       159 -10.3392    250.1491     47.1579   3.2475209287e+00   1.9376505780e+01    0.2567502    0.1795358 -82.67   0.00174653    1.264    0.209
       160 -10.2270    135.9913     43.4846   1.7288040643e+01   4.4663890519e+01    0.2817407    0.1941335  79.02  0.001218289    1.550    0.355
       161 -10.9473    133.2456     40.1727   1.6882551078e+01   4.5734440573e+01    0.3069392    0.2394598  68.57 0.0007294992    1.160    0.138
       162 -11.3554    133.2020     46.1894   1.8626974650e+01   4.4958152033e+01      0.34848    0.3172752 -57.69  0.001363203    1.197    0.164
       163 -11.7127    173.1824     56.2898   1.4104659467e+01   3.4170963024e+01    0.4355862    0.2809533  70.20  0.001006717    1.468    0.319
       164  -9.9354    106.1363     45.0279   2.4557371351e+01   5.1306586317e+01    0.3444684    0.2506756 -78.78  0.001121249    2.047    0.511
       165 -10.2216    121.0314     44.6903   2.0820252229e+01   4.7985340593e+01    0.2910016     0.200295 -79.93  0.001402515    2.072    0.517
       166 -10.1206    125.9475     45.0000   1.9817521648e+01   4.6808309734e+01     0.241348   0.07038856  57.42 0.0006636577    3.033    0.670
       167 -10.1485     94.0428     42.3368   2.6975844530e+01   5.4291426327e+01    0.3155566    0.2079741  26.04  0.001601467    1.705    0.413
       168 -10.7216    131.6555     33.7776   1.5343149939e+01   4.6890159223e+01    0.2965436    0.2042735 -58.68 0.0004154892    1.709    0.415
       169 -10.8559    172.9446     33.2119   8.5522013146e+00   3.7311291066e+01    0.4450677    0.2022185  77.86  0.001937504    2.370    0.578
       170 -10.1781    121.9827     32.9700   1.7048372144e+01   4.9233187084e+01    0.1928935    0.1687344  59.44 0.0005343244    1.019    0.019
       171 -10.3917    111.9357     32.6139   1.9145811692e+01   5.1573611625e+01    0.2877514    0.1713742  50.99  0.001024696    1.432    0.302
       172  -9.3968    241.8201     30.0432   8.6447998788e-01   2.3144321517e+01    0.2331364    0.1327588 -69.13 0.0008374066    1.499    0.333
       173  -9.9204    237.9642     30.5557   1.2599483726e+00   2.3814373109e+01    0.2138889     0.131783 -82.67 0.0008152541    1.427    0.299
       174 -10.5548    227.3611     30.5088   2.1296248095e+00   2.5892485186e+01    0.4240468    0.2234572  62.80  0.002440099    1.963    0.491
       175  -9.2934    137.5112     30.9539   1.3447980660e+01   4.5849061670e+01    0.1662813    0.1112224  16.78 0.0007772899    2.379    0.580
       176  -9.8426    152.2207     29.7720   1.0674343157e+01   4.2535071280e+01    0.1759268    0.1485107 -87.98 0.0004346851    1.107    0.097
       177 -10.4077    174.1831    112.0326   2.7435405671e+01   2.4280384494e+01    0.3940583    0.2017724  39.68 0.0007769418    2.345    0.574
       178 -10.0235    233.4189    109.0304   1.6870690955e+01   1.2904413492e+01    0.1769149    0.1614109 -72.94 0.0001434095    1.117    0.105
       179 -10.4272    219.0233     28.7285   2.5202946260e+00   2.7795714042e+01    0.2247737    0.2212233  34.39  0.001078442    1.550    0.355
       180 -10.7330    196.5161    107.9793   2.2331971680e+01   2.0293329686e+01    0.3983495    0.2826896 -72.15  0.001969493    1.648    0.393
       181 -12.0235    160.8296    105.3110   2.8592682076e+01   2.8556872346e+01    0.4112775    0.2837494 -69.69  0.000731581    1.823    0.452
       182 -10.4759    103.1089     28.3819   1.9861188673e+01   5.4034424954e+01    0.3426692    0.2333628 -51.05  0.001868274    1.868    0.465
       183 -10.9781     97.5313     21.4302   1.8881961555e+01   5.6002979131e+01    0.2441089    0.2099674  70.08 0.0008701023    1.220    0.180
       184  -9.2638    102.4897     22.4858   1.8043467188e+01   5.4803906517e+01    0.2170249    0.2006059  47.61 0.0007444903    1.104    0.094
       185  -9.7595    102.3198     19.6924   1.7148898804e+01   5.5123811198e+01    0.2185838    0.1740102  66.79 0.0008141713    1.202    0.168
       186  -9.8934    114.5601     28.2148   1.7164934522e+01   5.1477770284e+01    0.2237014    0.1246986  49.72 0.0003124383    1.545    0.353
       187 -10.8609    112.7852     23.4104   1.6030132147e+01   5.2397231604e+01    0.4210444    0.2797349  17.36  0.002221796    2.060    0.515
       188 -11.0780    134.8192     26.4025   1.2638258924e+01   4.6989703064e+01    0.2689264     0.201784  36.45 0.0008882302    1.523    0.343
       189 -10.4679     21.3507     25.7901   4.9183948779e+01   6.8733130791e+01    0.3410999    0.2309761  23.27  0.002210623    1.366    0.268
       190  -9.5442     19.5925     19.7992   4.7551555487e+01   6.9780066814e+01    0.2831831    0.1598848 -48.24  0.001579278    2.488    0.598
       191 -10.4053    234.6674     23.8166   2.9461540688e-01   2.5273526425e+01    0.2634597    0.2071908  88.68  0.001926568    1.199    0.166
       192 -10.8914    160.4431    100.2387   2.7416244331e+01   2.9634680719e+01    0.3002106    0.2227806 -50.34  0.001256953    1.343    0.256
       193 -13.3983    146.4957    103.7916   3.1435884458e+01   3.2076383974e+01      1.40299    0.7423784  65.62  0.004957129    2.806    0.644
       194 -10.6482    153.8717     25.1908   9.2304104802e+00   4.2665736573e+01     0.295691    0.2016493  68.95  0.001265065    1.241    0.194
       195 -10.5766    147.6490     25.2972   1.0201344557e+01   4.4108262783e+01    0.2690341    0.1803643  47.65  0.001380217    1.547    0.354
       196 -12.1864    176.5078     23.5567   5.8243716010e+00   3.7626396635e+01    0.3829239    0.2345343  54.20 0.0004885188    1.702    0.412
       197  -9.6568    119.3508     21.6671   1.4134591216e+01   5.1076868407e+01    0.1994121    0.1454732  85.00  0.001135994    1.487    0.327
       198 -11.9048    123.6174     23.5366   1.3868928383e+01   4.9900802203e+01    0.3241055    0.2680787  -3.33  0.001107021    1.533    0.348
       199 -11.7180    118.4582     93.0871   3.5709200802e+01   4.0462887395e+01    0.4383769    0.3161053  65.91 0.0008756523    1.656    0.396
       200 -10.2309    185.5430     22.7927   4.6138983722e+00   3.5678471569e+01    0.2242789    0.1471101  76.00 0.0009321444    1.301    0.231
       201 -10.7951    163.1545     21.0257   6.8890378897e+00   4.0963710881e+01    0.1991003    0.1511206  77.07 0.0003304696    1.097    0.088
       202 -12.4841    136.8815     82.1203   2.7956591717e+01   3.8419235755e+01     1.062469    0.7741535  78.61  0.005007187    1.685    0.406
       203 -10.1082    151.2701     20.0076   8.2636284871e+00   4.3827852701e+01    0.1578017    0.1441264  89.38  0.001058407    1.130    0.115
       204 -11.3305    132.5493     87.2524   3.0412508876e+01   3.8460472416e+01    0.5118061    0.2946781  53.25  0.001475677    1.702    0.413
       205 -13.3364    121.5824     98.6706   3.6389710969e+01   3.8651298269e+01    0.6969721    0.5605141 -24.80  0.002669467    1.411    0.291
       206 -13.0673    134.3843     95.2235   3.2120589900e+01   3.6509748251e+01     1.510922    0.4334809  48.75  0.001057264    3.395    0.705
       207  -9.5399    130.9273     19.4532   1.1329996832e+01   4.8624356854e+01     0.196062    0.1067416  63.80  0.000453895    1.520    0.342
       208  -9.7056    194.4101     17.7116   2.5886017229e+00   3.4290291369e+01    0.1337276    0.1157586 -37.88 0.0004433334    1.464    0.317
       209 -10.4772    126.9503     81.0532   3.0086599023e+01   4.0877578825e+01    0.3121133    0.2454676  16.04 0.0005156383    1.607    0.378
       210 -11.5570    127.4940     89.7261   3.2369994264e+01   3.9128065711e+01    0.4524272     0.314712  45.44 0.0006705662    1.390    0.281
       211 -12.7543    123.1238     86.4686   3.2600687635e+01   4.0727689560e+01    0.6776582    0.5611363  16.56  0.002408026    1.417    0.294
       212 -10.7714     26.5638    106.9864   7.0573214889e+01   5.2058424322e+01    0.2458243    0.1761399 -17.30 0.0006130126    1.507    0.336
       213 -11.2204     15.6985    106.2994   7.4464935275e+01   5.3104364578e+01    0.3075072    0.2145031 -31.61  0.001145111    1.406    0.289
       214 -11.2142     94.2742     15.9711   1.7793803020e+01   5.7246925961e+01    0.2835616    0.1396382  50.21  0.001225772    1.626    0.385
       215 -10.3741    210.5314    105.4739   1.9483764499e+01   1.7890416284e+01    0.3040697    0.2524025  51.04  0.001354064    1.358    0.263
       216 -11.0487    215.8915    100.3554   1.7583160560e+01   1.7729246116e+01    0.4229439    0.2191719 -36.22  0.001513656    2.009    0.502
       217 -10.8595    191.9064    101.8790   2.1755202783e+01   2.2391063290e+01    0.3654964    0.2103118 -43.77  0.001029078    1.643    0.391
       218 -11.5895    110.4306    103.7488   4.0912419218e+01   3.9954012991e+01    0.3812475    0.2480703  22.20  0.001569388    2.004    0.501
       219 -11.4685     74.7436     97.3844   5.0599160712e+01   4.8101768166e+01    0.3682291     0.252149 -54.46  0.001197682    1.547    0.353
       220 -11.6626    152.1948     98.1830   2.8693862159e+01   3.1899222086e+01    0.5792123    0.3945135 -67.91  0.001650054    1.851    0.460
       221  -9.3616    128.4339     15.4613   1.0604543639e+01   4.9592101173e+01    0.1271238    0.1054673  69.07 -1.077827e-05    1.017    0.017
       222 -10.2226    167.1686     13.9619   4.6770091418e+00   4.0778224539e+01    0.2258704    0.1427905 -84.21  0.001285261    1.518    0.341
       223 -12.4312    111.0410     93.3524   3.7872844474e+01   4.2001848210e+01    0.4626569    0.3630215  87.24  0.002173643    1.734    0.423
       224  -9.2503    102.2263     14.5893   1.5462777357e+01   5.5631837353e+01    0.1169632   0.09004573 -64.07 0.0006877267    1.673    0.402
       225  -9.9418     46.1740     13.8386   3.2359958128e+01   6.6778188885e+01    0.1581081    0.1098052  15.39 0.0002604808    1.295    0.228
       226  -9.4044    160.1787     13.6250   5.4467868767e+00   4.2413820849e+01    0.1709746   0.09166743  60.47 0.0003499287    1.614    0.380
       227  -9.2651    156.2197     12.6220   5.7001294348e+00   4.3423981729e+01    0.1215162   0.07974406 -64.62 0.0002827507    1.599    0.374
       228 -12.6838    102.9282     96.3088   4.1101092272e+01   4.3076208458e+01    0.6800909    0.5352216  50.28  0.001851119    1.298    0.230
       229 -12.2225     95.5200     90.5325   4.1754819055e+01   4.5759082728e+01    0.5569687    0.4663977  44.84  0.001260069    1.190    0.160
       230  -9.4654    179.2767     11.2723   2.7117031641e+00   3.8314134533e+01    0.1095606   0.08276267  55.11 0.0003594824    1.489    0.328
       231 -11.0559    110.6945     86.9826   3.6163081054e+01   4.3343367662e+01    0.3963605      0.27742 -42.14  0.001883307    1.490    0.329
       232 -12.7860    114.3889     80.5488   3.3261741462e+01   4.3767754348e+01    0.9230409    0.5047321 -45.77  0.003931598    1.956    0.489
       233 -11.5356     88.0043     97.5278   4.6152985747e+01   4.5724007341e+01    0.6175584    0.3984895 -19.30   0.00226609    2.165    0.538
       234 -11.5860     84.6752     97.6587   4.7289876803e+01   4.6306796522e+01    0.6302807    0.4349851  -8.98  0.002319182    2.004    0.501
       235 -11.0948    169.9008     98.1200   2.4952157221e+01   2.7911227397e+01    0.4026872    0.3249509 -25.41  0.001942635    1.469    0.319
       236 -12.1385     56.1774     99.3018   5.7780084190e+01   5.0513927039e+01    0.4268136    0.2019031  34.44  0.001773761    2.141    0.533
       237 -10.2068    244.5158     97.7869   1.3238408648e+01   1.2806996794e+01    0.3499194    0.1060479 -41.40  0.001384952    2.826    0.646
       238 -11.8974    199.7035     96.6757   1.9280829439e+01   2.1679538101e+01    0.4017313    0.2864309 -51.30  0.001033242    1.294    0.227
       239 -12.8208    175.1986     86.8070   2.1195225006e+01   2.8781320490e+01     1.143683    0.6608237  31.81  0.004448278    2.973    0.664
       240 -13.4006    186.5468     60.2381   1.3020617543e+01   3.0542606937e+01     1.784779     0.578301  54.25 0.0008225953    3.019    0.669
       241 -13.1050    206.0831     78.2906   1.4274102798e+01   2.3458961471e+01    0.8004509    0.4478477  74.24    0.0037884    2.073    0.518
       242 -13.5651    171.1625     68.9765   1.7553128980e+01   3.2700141985e+01     2.642698     1.216803  76.78  0.008693902    3.892    0.743
       243 -13.8296    240.6103     60.9294   6.6483467897e+00   1.9219504815e+01     1.695642     1.025627  76.18 0.0007682189    1.710    0.415
       244 -12.3244    234.5799     37.7070   2.8572359251e+00   2.3559082445e+01    0.6444845    0.3255021 -80.62  0.002539546    2.161    0.537
       245 -10.5969     36.5145    248.9870   8.4965766989e+01   1.6242694210e+01     0.168121   0.08688401 -49.66 0.0008104087    2.671    0.626
       246 -10.7742    180.9020    243.8031   5.2382647716e+01  -3.3710366003e+00    0.2193757     0.183621 -89.08  0.001249759    2.096    0.523
       247 -12.8966    195.2736     67.9801   1.3528811419e+01   2.7424182193e+01    0.7960117    0.5729463  59.83  0.004460028    1.413    0.292
       248  -9.8876    110.0000    240.9987   6.7760136381e+01   7.8457945642e+00    0.2013305    0.0792293 -57.93 0.0007947156    2.889    0.654
