#   1 NUMBER                 Running object number                                     
#   2 MAG_AUTO               Kron-like elliptical aperture magnitude                    [mag]
#   3 X_IMAGE                Object position along x                                    [pixel]
#   4 Y_IMAGE                Object position along y                                    [pixel]
#   5 X_WORLD                Barycenter position along world x axis                     [deg]
#   6 Y_WORLD                Barycenter position along world y axis                     [deg]
#   7 A_WORLD                Profile RMS along major axis (world units)                 [deg]
#   8 B_WORLD                Profile RMS along minor axis (world units)                 [deg]
#   9 THETA_WORLD            Position angle (CCW/world-x)                               [deg]
#  10 FWHM_WORLD             FWHM assuming a gaussian core                              [deg]
#  11 ELONGATION             A_IMAGE/B_IMAGE                                           
#  12 ELLIPTICITY            1 - B_IMAGE/A_IMAGE                                       
         1  -9.2556     97.5939     12.5703   8.5007059944e+00   5.9050380662e+01     0.326443    0.1785131 -10.06  0.001409259    2.316    0.568
         2 -10.0854     41.1124     13.7974   2.9122998378e+01   7.1692433062e+01    0.2250013     0.187601  13.06 0.0002292849    1.145    0.126
         3  -9.6504      3.4285     12.2562   5.5990773063e+01   7.7148874147e+01    0.1600064    0.1138031 -63.71 0.0009419222    1.563    0.360
         4  -9.6401      2.9599      3.0062   5.0551555398e+01   7.8967758800e+01    0.1960972    0.1392664 -20.19 0.0004671325    1.276    0.216
         5  -9.0705     67.5311      1.2883   1.0214276591e+01   6.7491162843e+01    0.2083678     0.109195  61.75 0.0001413605    1.752    0.429
         6  -9.0475    196.0410    248.3286   4.6762608857e+01  -1.7858573202e-01    0.1563023    0.1093321  16.36  0.001077562    1.115    0.103
         7  -9.3189    214.1634    250.3013   4.3990612096e+01  -2.3273723300e+00    0.1714879   0.09938592  10.91  0.001062848    1.413    0.292
         8  -9.0587    205.6956    250.3350   4.5393403356e+01  -1.4485687986e+00   0.08963226   0.07726127  28.17 0.0007038677    1.666    0.400
         9  -9.2582    173.7472    250.6112   5.0991740498e+01   2.0341164840e+00    0.1980309    0.1402915  41.82  0.001035547    1.736    0.424
        10 -10.7527    161.1394    247.1889   5.2886798630e+01   3.9439616598e+00    0.5149941    0.2901232 -57.67  0.002581579    3.043    0.671
        11 -10.4522    166.8610    248.3130   5.1962947672e+01   3.1239505613e+00     0.327177    0.2244873  23.55  0.001787424    1.154    0.133
        12 -10.7978    173.7754    244.7242   5.0239084293e+01   2.7869767845e+00    0.3719986    0.2849742  20.02  0.001641202    1.116    0.104
        13 -11.3057    166.9649    242.1421   5.1164315322e+01   3.9326477864e+00    0.4285285     0.224092  37.80  0.001693342    1.819    0.450
        14 -11.0794     53.4480    249.5172   7.4621038370e+01   1.6159435596e+01    0.4474211    0.2072929  26.55  0.001665209    1.930    0.482
        15 -10.1664     56.9672    247.0000   7.3748343747e+01   1.6217821837e+01    0.2869781    0.1068546  37.76   0.00125857    1.912    0.477
        16 -11.0675     36.9345    248.2698   7.7900995855e+01   1.8072171254e+01    0.9240016          nan  44.87  0.002710748    6.672    0.850
        17 -11.3315      7.8662    242.5342   8.3512451949e+01   2.1809587448e+01    0.4566154     0.317336  52.18  0.003366551    1.048    0.045
        18 -10.8222     12.9299    250.0402   8.2735613387e+01   2.0026327403e+01    0.4131579    0.1509414  43.41  0.001483375    1.807    0.447
        19 -12.1751     19.2958    247.9944   8.1418104430e+01   1.9810306519e+01     1.044185    0.2983338  46.38  0.005346735    2.269    0.559
        20 -10.1003      4.1478    249.0415   8.4411036828e+01   2.0966440404e+01    0.2642287    0.1340371  56.31  0.001051402    1.470    0.320
        21  -8.7626    148.3110    248.6566   5.5489568958e+01   5.2652842896e+00     0.106674   0.07865626  48.95 0.0003909428    1.701    0.412
        22 -10.8571     73.6482    244.4774   7.0124341414e+01   1.4806466090e+01    0.2432593    0.2139883  37.72 0.0006256292    1.127    0.113
        23 -11.1949    237.2788    241.0443   3.9045184418e+01  -3.6519637073e+00     0.350068    0.2519569  13.13  0.002833385    1.249    0.199
        24 -11.3298     97.9180    241.4155   6.4810689494e+01   1.2475579109e+01    0.4012128    0.2658393  28.58  0.001199953    1.252    0.201
        25  -8.8275    250.5094    241.5293   3.7133900804e+01  -4.9684595321e+00    0.1012923   0.06886677  -2.03 1.710806e-05    1.018    0.017
        26  -9.8080    220.9935    239.6053   4.1399349679e+01  -1.8417042082e+00     0.197124    0.1442844  -1.15 0.0005548766    1.056    0.053
        27 -10.4221    169.6245    224.8883   4.8334721016e+01   6.0211127880e+00    0.3612384    0.3172852  47.63  0.002160166    1.562    0.360
        28 -11.2865    169.3882    234.1729   4.9662002053e+01   4.7319068414e+00    0.5635865    0.4489923  34.00  0.003225557    1.362    0.266
        29 -10.9314    161.3445    231.1586   5.0789242977e+01   6.1576821267e+00    0.5647101    0.2378505  27.72  0.002596133    2.089    0.521
        30 -11.2923    162.2633    225.6927   4.9866179657e+01   6.8426474239e+00    0.4826108    0.2938471  15.25  0.002655158    1.584    0.369
        31 -10.7011    100.8997    233.5411   6.3415536332e+01   1.3438303076e+01     0.431548    0.2613212  61.95  0.001801298    2.162    0.538
        32 -11.6737     98.7759    225.4050   6.3033861990e+01   1.5131068316e+01    0.6110355    0.4183252  35.35  0.003632903    1.208    0.172
        33 -11.7988     95.1853    217.8208   6.3019500683e+01   1.6980829686e+01    0.6405415    0.4165134  17.04  0.002664665    1.662    0.398
        34 -10.5821     99.9939    217.4918   6.1904863088e+01   1.6417501993e+01    0.3253191    0.2598968  71.41  0.001055374    1.471    0.320
        35 -11.2502     90.7221    231.8069   6.5424202054e+01   1.4996295502e+01    0.5596098    0.2740758 -61.15  0.002401196    2.429    0.588
        36 -10.5947     87.4899    227.9991   6.5762652245e+01   1.6074734285e+01    0.2343025    0.2331841 -15.30  0.001009369    1.210    0.174
        37 -10.4161    231.2048    234.4313   3.9029934747e+01  -2.3213314512e+00    0.2313084    0.1674278   9.60 0.0007491245    1.154    0.133
        38 -11.3949    238.8587    230.0575   3.7201111737e+01  -2.6191308974e+00    0.4029103    0.2238772   5.69  0.002147863    1.632    0.387
        39  -8.9767    145.0030    227.5139   5.3532632888e+01   8.7913824530e+00    0.2106738     0.150924 -19.81  0.000702619    1.552    0.356
        40 -11.3639    126.5465    221.3530   5.6566808555e+01   1.2219470611e+01    0.5105361    0.3592818 -80.37 0.0008619999    2.293    0.564
        41  -9.6523    121.5977    222.2659   5.7735158056e+01   1.2719403058e+01     0.221621    0.1719643   8.39  0.001312609    1.319    0.242
        42  -9.4273    116.7014    227.0753   5.9351596148e+01   1.2538115037e+01    0.1606216    0.1472845  19.69 0.0005744311    1.109    0.099
        43  -8.2631    195.6749    227.7319   4.3958808427e+01   2.4257022013e+00    0.1148786   0.07095686   2.54 0.0002564665    1.571    0.363
        44  -9.1199    191.6711    226.9846   4.4560629177e+01   3.0017270163e+00    0.1537511    0.1210108  -2.63  0.000378245    1.079    0.073
        45  -9.4915    181.1551    226.1798   4.6354037402e+01   4.3925437008e+00     0.198722    0.1448529  21.13 0.0008921321    1.160    0.138
        46 -10.3435     26.5318    224.4237   7.8941565572e+01   2.3528915847e+01    0.3861681     0.163337  80.13  0.001890644    2.653    0.623
        47 -10.4449    107.8730    222.8662   6.0770466231e+01   1.4414700005e+01    0.4115227    0.2337505  26.37  0.002230868    1.590    0.371
        48  -9.1774     66.6492    223.5576   6.9981969116e+01   1.9407806936e+01    0.2062236     0.147509 -86.21  0.001185316    1.594    0.373
        49  -9.3716    157.5332    221.7934   5.0252237394e+01   8.0435158014e+00    0.2192569    0.1742304  -2.11 0.0009880265    1.186    0.157
        50  -8.2783    178.2974    222.6615   4.6375407387e+01   5.2423754452e+00     0.102679    0.0909342  50.05 0.0007032523    1.658    0.397
        51  -9.8585     16.2632    238.4269   8.1690487125e+01   2.1816984146e+01    0.3775417   0.08815713  55.42  0.001594989    3.397    0.706
        52  -9.1604    213.6848    220.9633   3.9849901119e+01   1.1842950827e+00    0.2708187    0.1246218  44.16  0.001315268    3.466    0.711
        53  -9.1081    115.0781    220.9453   5.8980022112e+01   1.3809987354e+01    0.1879299     0.160157  21.24 0.0006190487    1.072    0.067
        54  -8.7833    149.4564    219.9389   5.1615077945e+01   9.3994442769e+00    0.1627272    0.1171379 -40.39 0.0008950561    1.546    0.353
        55  -9.1148    151.5706    216.1493   5.0654685797e+01   9.7218832228e+00    0.2397908    0.1647678   5.65  0.001069167    1.530    0.346
        56  -9.9734     75.1757    219.2476   6.7685362770e+01   1.9221533462e+01    0.2632033    0.1891058  50.00  0.001128236    1.235    0.190
        57 -10.5843    190.5360    215.8620   4.3101570920e+01   4.6562951727e+00    0.4043286    0.2562855 -24.98  0.002525244    1.522    0.343
        58 -10.1196    130.6194    214.5808   5.4819316386e+01   1.2832151650e+01    0.4131102    0.2910895 -79.29  0.002261187    2.317    0.568
        59  -9.9313     84.6783    216.5096   6.5259921899e+01   1.8572264632e+01    0.2591138    0.1690696  64.91  0.001176949    1.768    0.434
        60  -9.2499     24.7623    216.8559   7.8965916173e+01   2.5213352946e+01     0.313743   0.09278667  41.08  0.001437824    2.334    0.571
        61 -10.5626     19.1948    214.8030   8.0120093268e+01   2.6155127781e+01    0.3510664    0.1181804  60.35  0.001545393    2.785    0.641
        62 -10.1173     21.0185    211.5080   7.9554254476e+01   2.6667446148e+01    0.3619693    0.1653574  22.49  0.001813895    2.282    0.562
        63  -9.0249    176.1811    215.4422   4.5704728580e+01   6.5589447872e+00    0.1739371    0.1325734 -35.51 0.0003207101    1.432    0.301
        64 -10.2723    170.7291    215.2346   4.6718590282e+01   7.3053385320e+00    0.2584983    0.1938938   9.49 0.0007033237    1.168    0.144
        65  -9.9048    112.8726    213.0888   5.8507812295e+01   1.5515872312e+01    0.5530778    0.3266151  -4.12  0.002418945    3.061    0.673
        66  -9.7441     64.5862    213.4625   6.9599714966e+01   2.1635130218e+01    0.4703323    0.1739764  43.61  0.002109565    2.222    0.550
        67  -8.9915    228.4937    214.0399   3.6357227194e+01   3.5376125869e-01    0.1600126   0.09070905 -28.93 0.0009977872    1.566    0.362
        68  -9.3017    202.4959    210.8755   4.0190805660e+01   3.8457222079e+00    0.3276798    0.1012471 -37.56  0.001446396    3.157    0.683
        69 -10.3308     77.8579    211.2322   6.6301073151e+01   2.0465197076e+01     0.281689    0.1798033  25.79  0.001558711    1.500    0.333
        70  -9.3829    237.8661    210.3254   3.4303941423e+01  -2.4090162724e-01    0.1543258    0.1260418  18.34  0.000836817    1.432    0.302
        71 -10.5674    212.0202    207.9208   3.8078946191e+01   3.0682931248e+00     0.399583     0.309982  -1.19  0.002856172    1.010    0.010
        72 -11.1120     12.5035    204.7905   8.1212690697e+01   2.8852144221e+01    0.5293446    0.2008973 -73.22  0.002549374    2.611    0.617
        73 -11.7516     16.1107    196.7702   7.9995367618e+01   3.0275724537e+01    0.6619297     0.334848 -48.74  0.001609286    2.742    0.635
        74  -9.5866    212.0411    203.4782   3.7350952764e+01   3.6614495036e+00    0.3887692    0.1499451  36.17  0.001901135    2.594    0.615
        75  -8.1013    224.2448    205.3320   3.5637402590e+01   1.9348615722e+00    0.1140814   0.06929553  -8.65 0.0002356428    1.546    0.353
        76 -11.0488    180.0821    178.2609   3.8773754663e+01   1.1865497675e+01    0.5722083    0.4123151  40.47  0.003308466    1.507    0.337
        77 -10.7295    166.7530    198.7607   4.4939995042e+01   1.0437720753e+01    0.5194261    0.2782629 -25.09  0.002161824    2.288    0.563
        78 -11.6650    175.6137    185.7221   4.0981244699e+01   1.1296543667e+01    0.7481422     0.511902 -48.74  0.004202772    1.720    0.419
        79 -11.2184    178.1761    196.9924   4.2403638880e+01   9.1056009060e+00    0.7013015    0.3801233 -15.71  0.002198012    2.587    0.614
        80 -11.2954    172.6605    195.4484   4.3222758706e+01   1.0133785883e+01    0.4588804    0.3276318 -34.07  0.001306058    1.403    0.287
        81  -8.5786    130.1473    200.9155   5.3018736373e+01   1.5338016181e+01    0.1809046    0.1449664  -7.20 0.0007302525    1.359    0.264
        82  -8.8572    212.6344    199.2163   3.6542868390e+01   4.1669486913e+00    0.1611689   0.09163991 -24.24 0.0003277334    1.615    0.381
        83  -8.5733     58.9637    200.0000   6.9745022713e+01   2.5106034558e+01    0.2203224   0.06575454  28.87 0.0004139446    3.032    0.670
        84  -8.2688    113.4961    198.5420   5.6462833392e+01   1.8182183541e+01    0.1319817    0.1158449  38.16 0.0001038359    1.063    0.059
        85  -9.3972    105.1920    197.4789   5.8263254156e+01   1.9573780061e+01    0.2375441    0.1903391 -21.08 0.0009857283    1.489    0.328
        86  -8.5971     43.8222    198.5817   7.3343390033e+01   2.7134863885e+01    0.1935222   0.09197743  41.22 0.0009487767    1.732    0.423
        87  -9.8367    126.6605    196.7366   5.3188596654e+01   1.6623565435e+01    0.2691272    0.1926733   4.16  0.001180619    1.644    0.392
        88  -8.3531    113.0708    194.3061   5.5971064377e+01   1.9077384512e+01    0.1815846    0.1504891  30.46 0.0003786772    1.090    0.083
        89  -8.3558     66.3292    194.6478   6.7406750829e+01   2.5372276781e+01    0.1446284   0.08495402  59.47 0.0007047246    1.772    0.436
        90  -8.9171    124.5149    192.9970   5.3121855539e+01   1.7654174948e+01     0.193025    0.1306804 -49.60  0.001036453    1.608    0.378
        91 -11.9591     98.1164    189.0777   5.8839559899e+01   2.2306777369e+01    0.6009801    0.3980782  65.66  0.001780752    1.897    0.473
        92  -9.0428    185.9807    190.0419   3.9737371983e+01   9.0951236543e+00    0.2020396    0.1341621  -1.65 0.0007529004    1.635    0.388
        93  -9.9608    204.0946    188.1213   3.6110339950e+01   6.8628419973e+00    0.2579938    0.1882532  40.94  0.001605313    1.661    0.398
        94  -9.9104    210.2065    185.9461   3.4670622530e+01   6.3514339374e+00    0.3431311    0.1627298 -42.25  0.001738161    2.219    0.549
        95 -10.4132     93.9123    181.4704   5.8839682831e+01   2.4545806522e+01    0.3686995    0.3139735 -41.24  0.001134891    1.307    0.235
        96  -9.5689      1.4042    163.2122   8.2198689552e+01   3.9274928139e+01     0.331407    0.1599644  87.62  0.000644086    1.855    0.461
        97 -11.1808     10.9750    187.2111   8.0799021878e+01   3.2864370957e+01    0.4809975    0.2309803  47.49 0.0008590888    1.700    0.412
        98 -12.1573     12.8939    180.1949   7.9962255979e+01   3.4323062744e+01     1.304595    0.5159618  28.21   0.00606099    2.314    0.568
        99 -12.3458      4.7318    173.4840   8.1767184313e+01   3.6559780996e+01    0.9477811    0.4639407  89.92  0.002098851    1.859    0.462
       100 -11.1853      5.2124    166.5568   8.1311806476e+01   3.8185342975e+01    0.6501274    0.3451225 -13.14  0.002854866    3.343    0.701
       101  -9.3114    165.7819    186.8148   4.3141215145e+01   1.2579287665e+01    0.1643341     0.155017  52.89 0.0005923118    1.361    0.265
       102 -10.5192    226.4657    183.0660   3.1483597501e+01   4.6139222666e+00     0.288423    0.2340345  36.87 0.0007281453    1.593    0.372
       103  -9.2689    183.4934    185.4873   3.9413445571e+01   1.0176066196e+01     0.202679    0.1174416 -49.73    0.0010205    2.148    0.535
       104  -9.4270    108.5160    185.0290   5.5719479687e+01   2.1636075445e+01    0.3366999    0.2273595  81.97  0.001585974    2.268    0.559
       105  -9.0936    249.9962    184.5619   2.8202870283e+01   1.5401198754e+00    0.2117451    0.1320176 -37.39  0.001382014    1.656    0.396
       106  -9.5810    199.4614    185.2784   3.6428112484e+01   7.9258685875e+00    0.3028947     0.133169  25.48  0.001351367    2.681    0.627
       107 -10.5650    215.1060    182.1186   3.3162298826e+01   6.2420298751e+00    0.3245749    0.2111032  39.54  0.001958129    1.782    0.439
       108  -8.9610    138.5351    179.5304   4.7756672961e+01   1.8117062929e+01    0.2937891    0.2057169  72.02  0.001371037    2.419    0.587
       109  -8.2290    112.6624    179.6439   5.3887172707e+01   2.2135960467e+01    0.1439775    0.1046744 -13.43 0.0007041217    1.807    0.447
       110  -9.5114     70.3430    177.7744   6.4487743757e+01   2.8652703332e+01    0.2716961    0.2218278 -52.88  0.001000906    1.349    0.259
       111 -10.2384     47.2200    180.3514   7.0928518353e+01   3.0890968959e+01    0.6510119    0.1701917 -62.19  0.002352498    3.477    0.712
       112  -9.4139    158.0313    177.0118   4.3028576376e+01   1.5504970530e+01    0.3226657    0.1821216 -35.12  0.001558203    1.844    0.458
       113  -8.7233    240.5109    177.5082   2.8339774615e+01   3.5828579802e+00    0.1167911   0.08870529 -13.29 6.078573e-06    1.003    0.003
       114 -10.9867    204.2460    175.6327   3.3835160701e+01   8.7111888640e+00    0.4088014    0.2713273  19.35   0.00238587    1.525    0.344
       115  -8.5138    111.5142    184.4598   5.4906017258e+01   2.1305637379e+01    0.2485846    0.1614563  22.79 0.0009331795    1.606    0.377
       116  -9.9965    152.4812    174.5221   4.3772554010e+01   1.6849018326e+01     0.302613     0.260371  -8.97  0.001427233    1.134    0.118
       117 -10.1919    148.5121    174.5147   4.4641589941e+01   1.7488635634e+01    0.3186192    0.2787664 -35.12  0.001221483    1.169    0.145
       118  -8.8184    118.2239    175.9830   5.1941287221e+01   2.2039524517e+01    0.1867957    0.1740778 -43.23 0.0005774862    1.135    0.119
       119  -8.6337     77.4476    175.9159   6.2363487952e+01   2.8124241876e+01    0.1893899    0.1118467  78.22 0.0007243953    2.364    0.577
       120  -9.0530    171.4318    201.4619   4.4447336208e+01   9.3426759976e+00    0.2086363    0.1896792  55.76 5.368592e-05    1.531    0.347
       121 -10.2177    104.0606    189.4893   5.7444623597e+01   2.1364072891e+01    0.3075725    0.2255689  28.70  0.000904267    1.282    0.220
       122  -9.7186     24.3680    174.9344   7.6610579009e+01   3.4547427135e+01    0.1845572    0.1496566  83.57 0.0007800134    1.123    0.110
       123  -8.8944     92.5406    172.8520   5.7948580739e+01   2.6663853246e+01    0.2805308    0.2020851  71.22  0.001406611    1.662    0.398
       124 -10.2185     28.7561    170.0112   7.5048014529e+01   3.5316393372e+01    0.3229705    0.2641557 -64.44  0.001872288    1.314    0.239
       125  -9.6679     30.7114    172.6587   7.4718906543e+01   3.4482261125e+01    0.3889603    0.2213882 -40.52  0.001414093    2.448    0.591
       126 -11.3310    207.2787    168.9244   3.2054435713e+01   9.2964891094e+00    0.4709741    0.3353302 -36.66  0.002852585    1.362    0.266
       127  -8.9616    193.2459    172.5488   3.5229973525e+01   1.0810370872e+01    0.1720042    0.1115165  19.87 0.0006924473    1.616    0.381
       128  -9.1040    176.9705    171.4978   3.8129778938e+01   1.3489829759e+01    0.2272023    0.1776356 -45.87 0.0008258022    1.420    0.296
       129  -8.7811    179.3385    169.6855   3.7322180524e+01   1.3427608649e+01    0.2032725    0.1312073  38.69 0.0007584032    1.598    0.374
       130  -9.1411    176.7850    167.4322   3.7393605225e+01   1.4221487085e+01    0.2290229    0.1832569 -31.52 0.0007307285    1.193    0.162
       131  -8.5087    135.3153    171.6543   4.7123482089e+01   2.0186818874e+01    0.1377044     0.109575  73.14 0.0003008331    1.717    0.418
       132  -8.7142    121.3864    169.6518   5.0099634964e+01   2.2865950012e+01    0.2458176    0.1336939 -69.96   0.00093758    3.014    0.668
       133  -9.6682    199.7563    167.3384   3.3066013798e+01   1.0660698755e+01    0.3348867    0.2010614  -7.25  0.001102276    2.157    0.536
       134  -8.9240    160.9174    167.0582   4.0571817194e+01   1.6866642736e+01    0.2781711    0.2042216 -64.64  0.001420755    1.923    0.480
       135  -9.5222     19.4150    167.1735   7.7431748434e+01   3.6876959197e+01    0.1865743    0.1069945  80.32 0.0006437206    1.650    0.394
       136 -11.2146    218.0728    165.2994   2.9562808272e+01   8.2814504906e+00    0.4281152    0.3022966  19.01  0.002078464    1.449    0.310
       137 -10.2249    149.8064    164.1253   4.2425942662e+01   1.9272895870e+01    0.3959478    0.3216197  -9.56  0.001849682    1.303    0.232
       138 -10.5236    246.9753    163.7159   2.4897946133e+01   4.5917010448e+00    0.3053038    0.2038899   1.00  0.001963332    1.520    0.342
       139  -8.6750    138.7544    164.9419   4.5097129655e+01   2.0969629639e+01    0.2151062    0.1648133 -86.32  0.001038926    1.972    0.493
       140  -8.5613     98.3575    165.7113   5.5306383017e+01   2.7401222264e+01    0.1498859    0.1037877  61.73 0.0004750201    1.682    0.405
       141 -10.0777     99.7584    158.8314   5.3781000569e+01   2.8759447723e+01    0.4051548    0.2530674 -60.36  0.001886283    1.686    0.407
       142  -8.5691     92.7663    160.1675   5.5902247260e+01   2.9550488422e+01    0.2531056    0.1417354  66.29 0.0009487416    2.810    0.644
       143  -9.8942     22.7146    160.0308   7.5976252860e+01   3.8348775469e+01     0.349124    0.2056852  16.13   0.00165905    2.000    0.500
       144  -8.9339     27.7993    157.8220   7.4312765658e+01   3.8429204997e+01    0.2528939    0.1309879  12.23  0.001098985    2.533    0.605
       145 -11.5782    249.5751    154.0117   2.2724673578e+01   5.5484837481e+00    0.6777371     0.235175 -37.42  0.003212832    2.380    0.580
       146  -9.9048    143.0818    158.6790   4.2894909980e+01   2.1497660375e+01    0.5609055    0.2113852  46.28  0.001995694    3.005    0.667
       147  -9.0145    105.1427    157.5732   5.2119746216e+01   2.8176759191e+01    0.2360747    0.1960837 -77.14 0.0005961219    1.342    0.255
       148 -10.9364      5.2086    152.9754   8.0600872241e+01   4.1538970888e+01    0.6811023    0.2664236  76.38  0.002786983    2.581    0.612
       149  -9.4188    206.6322    142.2156   2.6836062573e+01   1.3600293183e+01     0.260816    0.1604146 -34.69  0.000834237    1.423    0.297
       150 -10.2006    208.2393    156.4197   2.9463826110e+01   1.1089828476e+01    0.3301233    0.2296907  46.78  0.001896924    1.774    0.436
       151 -11.3664    205.8448    149.9200   2.8560938789e+01   1.2492054067e+01     0.678214    0.4462683 -44.15  0.003739878    1.564    0.361
       152  -8.3643    167.6947    157.3748   3.7253609645e+01   1.7520974694e+01    0.1331475    0.1112435 -81.78 0.0007030028    1.768    0.434
       153  -8.4416    127.5808    156.7772   4.6220412466e+01   2.4569798052e+01     0.192941    0.1400292 -60.79 0.0006408434    1.555    0.357
       154  -9.8227    135.6427    154.2430   4.3766234926e+01   2.3703585308e+01    0.3136968    0.2356171  23.38  0.000976345    1.404    0.288
       155  -8.7400    132.3072    151.6744   4.4057572006e+01   2.4832747629e+01    0.2362955    0.2023993  81.36  0.001249357    1.453    0.312
       156  -8.5830    119.5063    154.9946   4.7901065890e+01   2.6345561808e+01    0.2037083    0.1311718 -81.08 0.0008105456    2.610    0.617
       157  -8.9824     81.9794    154.6413   5.8011397262e+01   3.2516372687e+01    0.2651449    0.1917087  73.96  0.000879346    1.612    0.380
       158  -9.7967     68.7618    154.2070   6.1770889866e+01   3.4531072421e+01    0.3823969    0.2212766  61.00  0.001198812    2.019    0.505
       159  -8.5919     49.7941    155.1966   6.7519235556e+01   3.6729241332e+01    0.2610709    0.1171253  61.07 0.0009552981    2.843    0.648
       160 -10.1657    223.2706    148.3891   2.5433061888e+01   1.0036196872e+01    0.3751172    0.3146133  12.79  0.002503099    1.230    0.187
       161  -9.2135    190.1182    150.7210   3.1507787927e+01   1.4919844070e+01    0.2735157     0.211171  64.63  0.001075393    1.936    0.483
       162  -9.5510     39.6328    147.3602   6.9680303934e+01   3.9893492355e+01    0.4780436    0.1816632  59.73  0.001564762    3.643    0.726
       163  -9.0988     27.6695    148.6703   7.3519108301e+01   4.0774441314e+01     0.293575    0.1360469  75.59  0.001167472    2.514    0.602
       164  -8.8565    154.9984    148.0356   3.8038957292e+01   2.1519635957e+01    0.1717672     0.158136 -22.58 0.0003534966    1.037    0.036
       165  -8.8215     77.0037    147.3013   5.8253136988e+01   3.5065777043e+01    0.2115909    0.1802493  43.50  0.001130505    1.145    0.127
       166 -10.6648    244.5904    143.9988   2.1476099392e+01   7.5840878210e+00    0.3969187    0.1675123 -32.95  0.002003124    1.900    0.474
       167  -9.6305    148.6711    144.6845   3.8744359819e+01   2.3335202773e+01    0.4129344    0.2922628 -78.47  0.001516378    2.358    0.576
       168  -9.3756    107.2057    145.1299   4.9226826271e+01   3.0702740328e+01      0.46577    0.2665994  68.57  0.001610236    3.317    0.699
       169  -9.8897     55.5526    144.7998   6.4393704803e+01   3.8673542111e+01    0.4408261    0.2469186  60.97  0.001735061    2.046    0.511
       170  -8.6032     13.4157    146.1926   7.7698171565e+01   4.2649428154e+01    0.1881123    0.1099784  81.76 0.0004296709    1.588    0.370
       171  -9.1513    108.1206    138.1459   4.7556192760e+01   3.2173381693e+01     0.615973    0.3130106  63.49  0.001831902    4.294    0.767
       172  -9.1601    120.9609    145.4682   4.5642583580e+01   2.8204259807e+01    0.2790623    0.2016169  53.15  0.001197671    1.510    0.338
       173  -9.4873    117.0332    143.5195   4.6266507708e+01   2.9344187826e+01    0.5969487    0.2167316  51.59  0.001694721    4.355    0.770
       174  -9.3497    125.7332    143.5042   4.4013657801e+01   2.7779618769e+01     0.410409    0.2662757  85.11  0.001509808    3.175    0.685
       175  -8.8135     88.1856    144.0385   5.4389267393e+01   3.4141530491e+01    0.2963861    0.1736705  58.84   0.00112371    2.115    0.527
       176  -8.5799    183.0549    142.5001   3.1099337134e+01   1.7553370523e+01    0.2021084    0.1345997  41.72  0.001037649    1.610    0.379
       177  -9.3150     70.6374    141.6890   5.9236670852e+01   3.7413870024e+01    0.4634361    0.2285282  63.80  0.001571372    3.249    0.692
       178 -10.1052    224.6643    157.1367   2.6943844315e+01   8.5375024916e+00    0.1997073    0.1756882  77.35  0.001291604    1.909    0.476
       179 -10.0611    246.9861    129.2105   1.8223157518e+01   9.2940907104e+00    0.3434927    0.1259828 -44.41  0.001479673    2.865    0.651
       180 -10.5931    246.7428    134.7699   1.9367842903e+01   8.5582281319e+00    0.3431015    0.2351518  32.82  0.002035799    1.726    0.421
       181  -9.4796     23.9123    138.5865   7.3726014007e+01   4.3745814638e+01    0.4097686    0.1683858  58.39   0.00156803    2.709    0.631
       182 -10.2565    197.3594    136.4861   2.7196269545e+01   1.6099377576e+01    0.3939031    0.2773429  -6.30  0.002070244    1.661    0.398
       183  -7.9885    172.6694    138.3359   3.2220544992e+01   2.0166318711e+01    0.1379264    0.1128748 -78.00 0.0007052122    1.732    0.423
       184  -8.7365    162.1866    137.4747   3.4193149959e+01   2.2263710426e+01    0.2854426    0.1041446 -39.97  0.001012775    2.680    0.627
       185 -10.3366     41.7189    134.6559   6.7420079249e+01   4.2985789005e+01     0.707597    0.3346987 -69.06  0.002363433    1.967    0.492
       186 -10.3867     45.9951    131.2836   6.5516267354e+01   4.3384573253e+01     0.666514    0.3418875  81.04  0.002493072    2.720    0.632
       187  -8.7283    234.4989    136.4416   2.1364503359e+01   1.0111075725e+01    0.1242426   0.09960902 -22.97 3.154464e-05    1.007    0.007
       188  -9.3680    202.6421    136.1976   2.6228518938e+01   1.5243211265e+01    0.2874646    0.1944804  49.19 0.0008902267    1.763    0.433
       189  -9.8146    110.7080    131.6686   4.5447949774e+01   3.3219743505e+01    0.5264143    0.3388486  54.59  0.002274817    1.766    0.434
       190  -9.6190    112.1841    126.8156   4.3944998599e+01   3.4075867914e+01    0.4032691    0.1727222 -57.75  0.001372294    2.734    0.634
       191  -9.6538     83.6363    131.9351   5.3437097106e+01   3.7879331893e+01    0.4174279    0.2562625  67.49  0.001446077    2.273    0.560
       192  -9.2578    209.8084    132.0039   2.4145799047e+01   1.4711934983e+01    0.1971467    0.1849571   0.04 0.0004415064    1.154    0.133
       193  -9.5845    131.9257    130.9601   3.9695593566e+01   2.9368589582e+01    0.4826466    0.2764478 -64.40  0.001724783    2.513    0.602
       194  -9.2022    132.6564    125.6588   3.8274834585e+01   3.0377887810e+01    0.3863446     0.246784   1.40  0.001383572    3.113    0.679
       195  -9.6014     13.2118    130.0113   7.6459735559e+01   4.6887996602e+01    0.3541517    0.1534779  63.05  0.001424812    2.498    0.600
       196 -10.0967     99.5064    128.2515   4.7886954072e+01   3.6068722297e+01    0.5286769    0.3458747  85.49  0.002061281    2.490    0.598
       197  -8.4080    168.5226    129.4695   3.1059655974e+01   2.2599543038e+01    0.1420686    0.1330559 -34.49  0.000808646    1.064    0.060
       198  -8.7616    152.8419    128.6781   3.4219678496e+01   2.5780962966e+01    0.3115988    0.1589121 -60.74 0.0009148466    3.327    0.699
       199  -8.8380     73.0385    128.8081   5.6161705383e+01   4.0350026763e+01    0.3216272    0.1870146  86.31  0.001175346    2.741    0.635
       200  -9.0653     28.4859    117.5322   6.9696196564e+01   4.8937880495e+01    0.2747999    0.1597813 -61.74   0.00087271    1.565    0.361
       201  -9.9009     25.7927    126.9422   7.1842742720e+01   4.6662050655e+01    0.3626703    0.2554578 -29.22  0.001458006    1.790    0.441
       202 -10.1894     28.5427    122.8014   7.0371743859e+01   4.7515381223e+01    0.5518879    0.2959217  61.28  0.002389275    2.061    0.515
       203  -9.3930    230.0011    126.7620   1.9995891013e+01   1.2221575446e+01    0.1879033    0.1498775 -10.13 0.0003879314    1.217    0.178
       204  -9.9688    226.0387    123.5219   1.9868727580e+01   1.3340840147e+01    0.2811216    0.2377672 -84.86  0.001755882    1.741    0.426
       205  -8.9690    192.2973    127.3348   2.6060781998e+01   1.8549608994e+01    0.1398558     0.101278  -5.28 0.0003421855    1.649    0.394
       206 -10.0090     60.6113    124.9290   5.9533169556e+01   4.3178706607e+01    0.6859061    0.3267713  62.16  0.002261386    3.379    0.704
       207  -9.3996    242.0000    125.9493   1.8204450086e+01   1.0488394168e+01    0.1806084    0.1299053 -50.48 0.0006042637    1.601    0.375
       208 -10.6622    117.3178    124.5951   4.2019163068e+01   3.3609231069e+01    0.6240463    0.4520419  75.25  0.002032188    1.920    0.479
       209 -10.2688     44.5619    123.4460   6.4807853261e+01   4.5638841122e+01     0.690653    0.3238659  65.75  0.002215834    3.243    0.692
       210  -9.7002    180.7553    122.5346   2.7055493106e+01   2.1543042963e+01    0.5544696     0.270638 -35.94  0.002369534    1.917    0.478
       211 -11.3844    107.6107    113.1161   4.1943844053e+01   3.8157290633e+01     1.157245    0.5746924 -45.50  0.004461669    2.001    0.500
       212 -10.5225    109.1227     98.7394   3.7670855410e+01   4.1170428110e+01    0.9190184    0.5716963 -72.41  0.003440091    2.502    0.600
       213 -10.0139    104.4064    123.6569   4.5422030449e+01   3.6276701262e+01     0.364729    0.2694245  28.47  0.001485279    1.485    0.326
       214  -9.6368    108.7855    120.9830   4.3535666724e+01   3.6084263904e+01    0.3438519    0.2234694 -58.64 0.0008786011    1.615    0.381
       215  -9.1787     71.0376    119.9778   5.5054020903e+01   4.2934610326e+01    0.3121021    0.1810483  58.80  0.001243507    2.148    0.535
       216  -8.6278     84.1729    122.1546   5.1229588224e+01   4.0248301101e+01    0.2084395    0.1769633  81.13 0.0005866382    1.274    0.215
       217  -8.4710      1.5141    122.4286   7.9855296395e+01   4.9666664143e+01     0.133361    0.1145995  89.23 0.0001649857    1.022    0.021
       218  -8.5791    158.4236    121.2242   3.1224828483e+01   2.6160786613e+01    0.2128757    0.1324386 -52.13 0.0008551266    1.720    0.419
       219  -9.9642     12.9227    120.0292   7.5632547533e+01   4.9564227931e+01    0.4522227     0.164864 -43.89  0.001603909    3.465    0.711
       220  -9.3463    142.3235    119.4436   3.4417652361e+01   2.9767303878e+01    0.3726934    0.2489966 -72.11  0.001527211    2.299    0.565
       221  -9.6434    119.0953    118.5160   4.0072534826e+01   3.4646529979e+01    0.3889834    0.2235098 -51.30  0.001360396    1.737    0.424
       222  -9.2872    131.3375    118.7785   3.6937004994e+01   3.2134961338e+01    0.3516253    0.2214243  89.50  0.001132664    3.855    0.741
       223  -9.2703      3.1050    117.3482   7.8914823331e+01   5.0918833885e+01    0.3577782    0.1572455  65.28  0.001491157    2.389    0.581
       224  -9.7903    185.3087    114.1069   2.4227302778e+01   2.2163324571e+01    0.3391877     0.289956 -84.81  0.001530323    1.499    0.333
       225 -11.1429     15.8650    112.2134   7.3718402111e+01   5.1444661904e+01    0.6616607    0.4157724  53.58  0.003310198    1.625    0.385
       226  -9.9690     28.7999     99.6262   6.6839562608e+01   5.3738757821e+01    0.5434866    0.2647762  68.00  0.001986621    2.981    0.665
       227 -10.8243     23.9324     92.5226   6.7652051980e+01   5.6095631990e+01    0.6319454    0.3415853 -78.15  0.002395371    1.805    0.446
       228 -11.2066     17.5024    103.7718   7.2036676152e+01   5.3595714699e+01    0.6185347    0.2870809 -57.15  0.001854285    1.920    0.479
       229 -10.9811     22.0334    100.7803   6.9786110276e+01   5.4037709919e+01     1.139599    0.3827906  56.66  0.003191209    5.221    0.808
       230  -9.9100     92.8837    112.7979   4.6310876668e+01   4.1034841699e+01    0.4605093    0.3181105 -82.91  0.001505443    1.974    0.493
       231  -9.9051     79.1075    112.3535   5.0669578588e+01   4.3580292527e+01    0.5537822    0.3290856 -87.42  0.001962879    2.895    0.655
       232  -9.0771    122.4904    112.8330   3.7731438090e+01   3.5240948960e+01    0.3140947    0.2001378  61.10  0.001052578    1.990    0.497
       233  -9.6448     67.1017    110.9119   5.4464427613e+01   4.5892671385e+01    0.3381112    0.2083072  69.00  0.001338654    2.277    0.561
       234  -9.2278    133.8297    109.6904   3.3998393818e+01   3.3577087510e+01    0.3649428    0.2044344 -60.96  0.001289071    2.411    0.585
       235 -11.1753    132.5400    102.5108   3.2400985305e+01   3.5372044598e+01    0.8019066    0.3881475  40.01  0.003016933    2.295    0.564
       236  -8.7497    183.6810    109.1851   2.3327303509e+01   2.3347747217e+01    0.1870039     0.177872  55.67   0.00104727    1.183    0.155
       237  -8.5515     59.4839    109.5048   5.6884522958e+01   4.7395690409e+01    0.1515716    0.1405608 -90.00 4.757248e-05    1.052    0.050
       238 -11.0984    250.0894    103.4345   1.2548578521e+01   1.2389332244e+01    0.7526588    0.1515078 -32.68   0.00249601    4.183    0.761
       239  -9.6824     61.8439    105.8133   5.5213853744e+01   4.8016940967e+01    0.2264357    0.2046008 -33.96 0.0005887102    1.191    0.160
       240 -10.4578     46.1760    102.8643   6.0505057568e+01   5.0946367096e+01     0.839213    0.3911081  62.21  0.002689117    3.721    0.731
       241  -9.0556    140.1049    104.7310   3.1161953675e+01   3.3285090456e+01    0.3392674     0.225801 -87.97  0.001279141    2.759    0.637
       242  -8.7590    150.3696    103.5999   2.8510802710e+01   3.1310685327e+01    0.2947063    0.1200171 -52.38 0.0009429801    3.107    0.678
       243  -8.7437     92.9577    104.0203   4.4056553458e+01   4.3155871025e+01    0.2515796    0.1934155 -15.49  0.001130775    1.722    0.419
       244 -10.3767     22.2477    110.0481   7.1020488962e+01   5.1517629328e+01    0.5623361    0.2772361  80.96  0.001959462    2.436    0.589
       245  -9.3346     35.6534    101.0645   6.4318658640e+01   5.2653682367e+01    0.2099274    0.1696456 -75.83 0.0008894164    1.151    0.131
       246  -8.9019     82.4327    100.1195   4.6499730326e+01   4.6062153510e+01    0.2976153    0.1957851  73.64  0.001171039    2.285    0.562
       247 -10.0390     64.4469     96.2592   5.1955882455e+01   5.0087904549e+01    0.6184573    0.3624278  72.11  0.002016867    2.978    0.664
       248  -9.1952     95.2241     97.0879   4.1445464973e+01   4.4372587151e+01    0.2947245    0.2037474  71.46 0.0008793035    1.999    0.500
       249  -8.7775    139.1793     92.4128   2.7972684145e+01   3.5988839790e+01    0.2105985    0.1473315  65.76 0.0006332212    1.696    0.410
       250  -9.4344    124.9753     91.2142   3.1129833600e+01   3.9399676891e+01    0.3951778    0.2720234 -75.88   0.00144735    2.112    0.527
       251  -8.2541     57.6771     91.7165   5.3412297931e+01   5.2292586635e+01    0.1513084    0.1143507 -24.97  0.000248468    1.595    0.373
       252  -9.7519     34.8719     89.3403   6.2315615675e+01   5.5867922167e+01    0.4826236    0.2703225  83.56  0.001893997    2.543    0.607
       253  -9.9040     86.9502     86.6950   4.1145355435e+01   4.8444603622e+01    0.5075881    0.3387147  76.25  0.001739523    2.374    0.579
       254  -9.9156     48.8555     84.4786   5.5153609611e+01   5.5416893358e+01    0.5449344    0.3055052  63.05  0.001833818    2.750    0.636
       255  -9.8331    104.8996     83.2613   3.4321820368e+01   4.5509184205e+01    0.4673624    0.3121738 -82.85  0.001715885    2.508    0.601
       256  -9.1752    116.8035     83.2336   3.0898909009e+01   4.2889829513e+01    0.2979871    0.2071809 -32.16 0.0003346178    1.557    0.358
       257  -9.6213      7.5525     83.9488   7.3564257529e+01   5.9582539747e+01    0.2699017    0.1486361 -66.99 0.0006763119    1.529    0.346
       258  -8.8384    185.4196     82.8528   1.6343460789e+01   2.7474897436e+01    0.2208683    0.1690471  49.73 0.0006943654    1.460    0.315
       259  -8.9932     74.9199     80.8265   4.3637947576e+01   5.2115083986e+01    0.2922415    0.2015623 -81.59  0.001150784    2.081    0.519
       260  -9.5212     24.5521     80.3145   6.5039975311e+01   5.9285786872e+01    0.3973273    0.2183703  70.71  0.001378596    2.581    0.613
       261  -9.6001    175.9154     78.4468   1.6706494844e+01   3.0275135447e+01    0.4396542    0.3001904 -86.66  0.001405753    2.029    0.507
       262  -9.6717    211.8758     77.3562   1.1207085737e+01   2.2869806936e+01    0.2481802     0.153182 -44.35 0.0007737581    1.399    0.285
       263  -8.2839    184.4812     77.5241   1.5078742315e+01   2.8542328310e+01      0.14368    0.1262459 -48.67 0.0008095923    1.039    0.037
       264  -9.1639    128.3320     75.4971   2.5475055982e+01   4.1796368609e+01    0.3568626    0.2139272 -68.10  0.001309079    2.622    0.619
       265  -8.6251     49.7518     76.3862   5.2528012337e+01   5.7341345802e+01    0.1978993    0.1432402  12.75  0.000259949    1.659    0.397
       266 -10.1669    220.4740     74.5474   9.4922810741e+00   2.1600496059e+01    0.2386713    0.2114864  -8.72 0.0008731901    1.287    0.223
       267 -10.1302     82.8341     72.7638   3.8108231162e+01   5.2444507624e+01    0.4816857    0.3338937 -81.97  0.001492681    2.230    0.552
       268  -9.6755     10.0190     74.0731   7.0835760492e+01   6.2041904204e+01    0.2036896     0.177134 -66.52 0.0003605715    1.004    0.004
       269  -8.7089    116.4817     72.9653   2.7694126015e+01   4.5049036062e+01    0.2236221    0.1268122 -61.39 0.0008090939    2.458    0.593
       270  -9.0108    106.2251     72.0530   3.0271249198e+01   4.7577989509e+01    0.2942403    0.2063047  83.43  0.001038276    2.090    0.521
       271  -9.4287     95.6740     71.2523   3.3237444504e+01   5.0082310240e+01    0.4090208    0.2205745 -60.91  0.001460567    2.616    0.618
       272  -9.6263     51.5935     69.5327   4.9607263749e+01   5.8754062377e+01    0.4624359    0.2510796 -72.71  0.001712815    2.739    0.635
       273  -8.7640     16.4813     69.9738   6.6787351466e+01   6.2662489090e+01    0.1935869    0.1085199  78.30 0.0008084154    2.407    0.585
       274  -9.1957      1.3834     68.8206   7.4338212258e+01   6.3874594290e+01    0.2017022   0.09864479 -63.04 0.0009437778    1.665    0.399
       275  -8.5487    138.6917     66.3362   2.0162633409e+01   4.1020693509e+01    0.1592394    0.1134036 -68.34 0.0007042534    1.677    0.404
       276  -8.7419    121.8446     66.2389   2.4049276776e+01   4.5078396201e+01    0.2640266     0.162738 -75.52  0.000946092    2.811    0.644
       277  -9.0685    110.7692     63.9507   2.6175409301e+01   4.8126505204e+01    0.2607827    0.1729657 -66.35  0.001079508    1.995    0.499
       278  -8.8289     37.5069     63.9978   5.4514555776e+01   6.2055206660e+01    0.2205071    0.1350946 -62.01 0.0007781894    1.584    0.369
       279  -9.9922    101.1104     60.8736   2.7848433141e+01   5.0956432673e+01     0.437196    0.2681029 -78.51  0.001475376    3.387    0.705
       280  -9.5324     18.0106     61.5901   6.4027143584e+01   6.4685664981e+01    0.2788762    0.1536247 -51.12 0.0006527405    1.585    0.369
       281  -9.7988     73.4126     59.3101   3.6756660245e+01   5.7241698732e+01    0.3703956    0.2651445 -64.08  0.001145098    1.682    0.405
       282  -8.4952     89.3250     59.6711   3.1139008804e+01   5.3839016595e+01    0.1556459    0.1206545 -81.99 0.0007050115    1.700    0.412
       283  -8.5265     39.5101     57.4948   5.1349810521e+01   6.3357226305e+01    0.1433018    0.1308402 -37.08 -0.0001452235    1.023    0.023
       284 -10.6005      2.3576     56.0453   7.1585311725e+01   6.7102005821e+01    0.3508994    0.2050826 -71.55  0.001639623    1.497    0.332
       285  -8.8254    119.7367     56.1385   2.1063453064e+01   4.7397793721e+01    0.2622859    0.1564477 -71.67 0.0009456406    2.790    0.642
       286  -9.4708     62.9320     54.4944   3.9154235556e+01   6.0267710810e+01    0.2789949    0.2031347 -61.67  0.000671867    1.581    0.367
       287  -8.8952     43.9743     54.8018   4.8112729892e+01   6.3354447749e+01    0.2626062     0.183676 -67.98  0.001264991    1.669    0.401
       288  -9.2515     53.9248     53.2560   4.2692661025e+01   6.2127897940e+01    0.3645561    0.1918603 -65.28  0.001318459    3.008    0.668
       289  -9.1214    249.3342     52.3302   1.6415855110e+00   1.9221655505e+01    0.1106981   0.08822238   3.25 0.0007052105    1.726    0.421
       290  -9.6162     92.6983     50.4374   2.6436146029e+01   5.4834313356e+01    0.4256749     0.236136 -54.36  0.001625092    2.209    0.547
       291  -8.7533     30.9978     51.0494   5.3606867274e+01   6.5951435014e+01    0.2157019    0.1671165  73.84 0.0007496731    1.731    0.422
       292 -11.1771     45.5703     49.0117   4.5041844628e+01   6.4406636087e+01    0.2615253    0.2351452  -4.52 0.0004648376    1.127    0.113
       293  -9.2780     81.9363     46.2087   2.8275695247e+01   5.8022695722e+01    0.3653494    0.1957278 -47.91  0.001161698    2.001    0.500
       294  -8.8152     22.7979     46.4092   5.6701861677e+01   6.7947003419e+01     0.191647     0.126864   1.29   0.00095781    1.772    0.436
       295  -8.8407      1.6013     45.9526   6.9861541342e+01   6.9647514192e+01    0.1839515    0.1420481 -63.60 0.0004214079    1.128    0.113
       296  -9.9688     16.6747     44.1061   5.9678780610e+01   6.9071339287e+01    0.4019966    0.1957894 -78.49  0.001560045    3.062    0.673
       297  -8.9661     58.2020     42.3818   3.6078723477e+01   6.3607483113e+01    0.3130224    0.1675296 -62.90  0.001088951    3.462    0.711
       298 -10.3063      4.9439     40.8144   6.6313299737e+01   7.0713655987e+01    0.4711383     0.225352  89.86  0.001841772    3.310    0.698
       299  -8.7026    113.8360     41.1978   1.6926191587e+01   5.1283830243e+01    0.1923406    0.1702682  19.14 0.0002714274    1.281    0.219
       300  -8.7586    106.3942     41.2060   1.8778281747e+01   5.3123801387e+01    0.2185279    0.1297912 -45.09 0.0009481233    1.727    0.421
       301  -8.9492     69.0830     41.0497   3.0823681411e+01   6.1709134371e+01    0.2261353    0.1805261 -79.45 0.0007241641    1.705    0.413
       302  -9.9232    213.3226     39.2330   1.5964171361e+00   2.7770830267e+01    0.2506776    0.2046439 -59.76   0.00100561    1.093    0.085
       303  -8.8242    123.5063     40.0570   1.4318843023e+01   4.9028893216e+01     0.207887    0.1449225 -30.48 0.0003548645    1.472    0.321
       304  -8.4762     36.5395     40.5226   4.6269230433e+01   6.7578630760e+01    0.1359023    0.1280423 -30.52 7.333377e-05    1.061    0.058
       305  -8.4646     84.2322     39.5883   2.4617144511e+01   5.8656768825e+01    0.2129102    0.1303037  41.38 0.0009431374    1.694    0.410
       306  -9.2654     95.6073     37.8148   2.0318870885e+01   5.6273339843e+01    0.2144044    0.1295766 -45.20 0.0008698984    1.727    0.421
       307  -8.3215    112.3524     46.6831   1.9403803377e+01   5.0789457104e+01    0.1583051    0.1139441 -72.91 0.0007046789    1.739    0.425
       308  -8.5897     26.2521     36.2797   5.0542904594e+01   6.9842568635e+01    0.2062375    0.1132957 -66.45 0.0008883034    2.379    0.580
       309  -8.8735    111.9919     34.5035   1.4715099866e+01   5.2726326401e+01    0.2043353    0.1249991 -85.19 0.0008084924    2.401    0.583
       310  -8.7482    119.6525     33.3488   1.2579062142e+01   5.0950784489e+01     0.230278    0.1600647 -65.51 0.0006654939    1.650    0.394
       311  -9.9604      6.2034     33.1527   6.2985228174e+01   7.2430116485e+01    0.2077312    0.1548785 -38.28  0.001233138    1.180    0.153
       312  -8.3848     60.5183     32.5080   3.0316624823e+01   6.4962978984e+01    0.1367846    0.1355289 -28.66 -1.412097e-05    1.105    0.095
       313  -8.1175     49.5118     32.5015   3.5466438885e+01   6.7066032078e+01    0.1363746    0.1308588 -10.70 0.0001016965    1.066    0.062
       314  -8.5605     72.3867     31.1923   2.4876501939e+01   6.2675198158e+01    0.1998601    0.1286073 -44.93 0.0006121253    1.658    0.397
       315  -9.1854     12.8319     31.0853   5.7373859231e+01   7.2382887688e+01    0.1895799    0.1763188 -85.74 0.0007760462    1.292    0.226
       316  -8.9252    101.5196     29.0352   1.4952783834e+01   5.6101054781e+01    0.2121892     0.106003 -51.89 0.0008094384    2.486    0.598
       317  -9.6865      2.0053     27.8501   6.4265706080e+01   7.3900734275e+01    0.2240001    0.1646816  -5.84 0.0008809932    1.405    0.288
       318  -8.8630     81.7868     27.2424   1.9710278161e+01   6.1127914262e+01    0.2354839    0.1464994 -69.44 0.0007556648    2.682    0.627
       319  -8.7788     91.8202     25.9930   1.6142296738e+01   5.8899443890e+01    0.2409926    0.1492321 -54.73  0.001071394    1.960    0.490
       320  -9.6851     44.3487     25.1946   3.4236450240e+01   6.9285569791e+01    0.2226664    0.1970756  24.90 0.0003800366    1.106    0.096
       321  -8.5639    110.4600     24.4496   1.0942525951e+01   5.4441913459e+01    0.1413452    0.1346177  63.95 0.0001961931    1.034    0.033
       322  -7.9687     58.6977     22.2717   2.5693393428e+01   6.6975553719e+01    0.1278862    0.1097657 -80.14 0.0001567909    1.533    0.348
       323 -10.0577     13.0646     20.9845   5.2476135031e+01   7.4510346699e+01    0.2789125    0.2200944  -7.05 0.0007316975    1.233    0.189
       324  -8.5235     84.9428     21.4507   1.5937390071e+01   6.1157897059e+01    0.2048088     0.134221  61.11 0.0004284716    1.490    0.329
       325  -8.6392     40.9123     21.1156   3.3766516902e+01   7.0582003367e+01    0.1794773    0.1449085  -0.91            0    1.263    0.208
       326  -8.2718    188.6941     20.6570   3.5889030442e+02   3.5380449369e+01    0.1249307   0.09971376  29.68 0.0007042061    1.688    0.408
       327  -8.2860     63.3420     20.6620   2.2881447899e+01   6.6222527858e+01    0.1393117    0.1089375 -72.02 0.0007049868    1.768    0.434
       328  -8.4270     73.5125     19.0109   1.8270047255e+01   6.4166639956e+01    0.1969541       0.1065 -51.56 0.0008094896    2.459    0.593
       329  -8.2348     30.3490     19.3002   3.9040725824e+01   7.2629004051e+01    0.1371826   0.09530634  -3.66 0.0007037664    1.689    0.408
       330  -9.1809      1.5414     19.5390   6.1324353333e+01   7.5765618299e+01    0.1250168     0.105402 -36.87 0.0002213289    1.012    0.012
       331  -8.4133     50.5970     15.1854   2.5195475384e+01   6.9656292111e+01    0.1815605    0.1225197 -13.29 0.0005027252    1.662    0.398
       332  -9.6690    247.2958    248.1756   3.8545831963e+01  -5.3384697490e+00    0.2040422    0.1244543  19.03 0.0007953556    1.391    0.281
       333 -10.5113    107.7990    238.5001   6.2468738070e+01   1.1751853661e+01    0.3720665    0.2388409 -60.13  0.002312635    1.951    0.487
       334  -9.8393    107.4999    247.5316   6.3426142470e+01   1.0336347291e+01    0.2570937    0.2060537 -79.21   0.00153648    1.685    0.406
       335  -9.3284    106.4863    243.4859   6.3239440175e+01   1.1101526996e+01     0.170769    0.1591679  26.51 0.0009401414    1.169    0.144
