#   1 NUMBER                 Running object number                                     
#   2 MAG_AUTO               Kron-like elliptical aperture magnitude                    [mag]
#   3 X_IMAGE                Object position along x                                    [pixel]
#   4 Y_IMAGE                Object position along y                                    [pixel]
#   5 X_WORLD                Barycenter position along world x axis                     [deg]
#   6 Y_WORLD                Barycenter position along world y axis                     [deg]
#   7 A_WORLD                Profile RMS along major axis (world units)                 [deg]
#   8 B_WORLD                Profile RMS along minor axis (world units)                 [deg]
#   9 THETA_WORLD            Position angle (CCW/world-x)                               [deg]
#  10 FWHM_WORLD             FWHM assuming a gaussian core                              [deg]
#  11 ELONGATION             A_IMAGE/B_IMAGE                                           
#  12 ELLIPTICITY            1 - B_IMAGE/A_IMAGE                                       
         1 -14.9608    160.1089     43.1693   8.3023035368e+01   3.9586788844e+01     1.450989     1.098319 -17.81  0.003915105    1.457    0.314
         2 -13.6369    170.9853     15.1948   7.1797553369e+01   4.0008783774e+01    0.8899145    0.5094154 -85.54  0.003200471    1.983    0.496
         3 -14.5624    174.0293      9.1346   6.9402049921e+01   3.9771011003e+01     1.157985    0.8473583 -88.51  0.003920856    1.337    0.252
         4 -12.7627    189.5899     13.8072   6.9262506900e+01   3.5090619167e+01    0.4499744    0.2263907 -40.26  0.001951483    1.851    0.460
         5 -10.7859    151.0593    241.7957   1.2728284820e+02   9.0028147994e+00    0.1632405    0.1325122  25.04 0.0006169361    1.188    0.158
         6 -20.1604     79.5400    177.7034   1.3521695412e+02   2.9706662383e+01     14.81018     6.836863 -69.83   0.07097897    2.501    0.600
         7 -12.5857    134.1426    244.2859   1.3064113404e+02   1.1037360007e+01    0.2217737    0.1670948 -31.84  0.001304684    1.904    0.475
         8 -14.0576    207.1275    178.0499   1.0782806495e+02   8.4621440021e+00    0.8559439    0.5079362 -39.75   0.00475855    2.037    0.509
         9 -12.9990     31.1131    182.1803   1.4707641745e+02   3.4646009594e+01    0.6951675    0.2841691  67.24 0.0004580422    2.352    0.575
        10 -11.5213    126.9543    250.5851   1.3255144828e+02   1.1208474141e+01    0.1547172    0.0763301  37.22 0.0001660997    1.409    0.290
        11 -11.9944     28.1964    179.5901   1.4761239860e+02   3.5456422618e+01    0.2311718    0.2049525 -10.64 0.0008911198    1.679    0.405
        12 -13.5582    156.2197    199.1896   1.2098019348e+02   1.3965985043e+01    0.7049525     0.478927 -83.28  0.003454745    3.306    0.698
        13 -11.1129     16.4425    249.9912   1.5254026001e+02   2.4217775264e+01    0.1238384   0.07648375  76.34 0.0009011817    1.493    0.330
        14 -11.8416    200.0403    179.7020   1.0939829375e+02   9.4266821306e+00    0.2563097     0.180759 -47.61  0.001193201    1.999    0.500
        15 -13.5686    195.6538    170.6328   1.0859037792e+02   1.1398247326e+01    0.5490694     0.380484 -38.43  0.001884438    1.680    0.405
        16 -12.1187    194.0078    165.7281   1.0799446726e+02   1.2375216481e+01    0.3389819    0.2207187  34.42  0.001192608    1.336    0.252
        17 -11.2589    139.3977    201.2033   1.2468899548e+02   1.6360642675e+01    0.2713094    0.2341875  14.86 0.0006008508    1.257    0.204
        18 -12.5330    203.5922    172.5273   1.0747336791e+02   9.7740618622e+00    0.4939186    0.3310935 -22.03  0.002544278    1.573    0.364
        19 -10.2821     28.5899    240.5336   1.5011054618e+02   2.4498369458e+01    0.1063656   0.06592213  53.71 2.692355e-05    1.092    0.084
        20 -11.0659     21.8481    239.0033   1.5128894816e+02   2.5401947038e+01    0.1262313    0.1051269  67.48 0.0008528844    1.312    0.238
        21 -13.4357    178.2287    171.1295   1.1204401687e+02   1.4401058004e+01    0.4544436    0.3628044 -41.88  0.002751916    1.506    0.336
        22 -11.2395     26.0938    172.6738   1.4773603633e+02   3.7071852566e+01    0.3326407    0.1474068  39.41 0.0009474686    1.805    0.446
        23 -10.9822     20.3423    166.8356   1.4882145447e+02   3.8820779986e+01    0.1878875    0.1601742  29.42  0.001236936    1.389    0.280
        24 -11.7038    201.2558    164.4414   1.0640274278e+02   1.1270378686e+01    0.3821614    0.2818245 -40.89  0.002115319    1.641    0.391
        25 -11.3482    131.1401    235.9666   1.3037137398e+02   1.2549735930e+01    0.2099636    0.1598707 -60.65 0.0009431812    1.848    0.459
        26 -12.7493    164.3736    157.7117   1.1243160455e+02   1.9064595979e+01    0.3393244    0.2302872  39.97 0.0007928398    1.294    0.227
        27 -12.4842    134.6479    108.9531   1.0881281225e+02   3.4230746008e+01      1.15431    0.1533554 -44.68  0.002358389    7.940    0.874
        28 -14.5039    134.0455    146.2768   1.1714011050e+02   2.6911071997e+01     1.572518     0.481393 -56.81  0.004174813    6.245    0.840
        29 -14.6752    135.4482    129.1274   1.1330864145e+02   3.0003688403e+01     2.117863     0.497487 -50.91  0.005472407    5.668    0.824
        30 -10.7952      7.7920    236.6519   1.5376560187e+02   2.7080757277e+01   0.07770386   0.06695822 -88.80 0.0006788078    1.532    0.347
        31 -10.7578     13.2742    155.8562   1.5004808521e+02   4.1761500659e+01    0.1840283    0.1403635 -29.99  0.000719429    1.973    0.493
        32 -11.1234    222.4503    161.6516   1.0214337588e+02   7.9766243458e+00    0.2263047    0.1894074 -55.41 0.0008305958    1.875    0.467
        33 -10.4883    163.0616    250.5105   1.2607843301e+02   6.3283863781e+00    0.1643558   0.07687916  35.76 0.0003679372    1.487    0.328
        34 -10.7382     17.1720    224.3300   1.5172762548e+02   2.8243443989e+01   0.08134454   0.06624454 -85.57 0.0003275811    1.492    0.330
        35 -11.5428    139.4269    250.0520   1.3024087467e+02   9.5934904471e+00    0.2213141    0.1951335  46.72  0.001848572    1.319    0.242
        36 -12.6939    174.1286    149.2689   1.0873389176e+02   1.8585656238e+01     0.363277     0.310894 -38.35  0.001639135    1.314    0.239
        37 -14.5781    143.3500    143.7665   1.1443190342e+02   2.5589924661e+01     1.044065    0.4892407 -56.77  0.003982018    3.014    0.668
        38 -12.2528    138.7619    242.9131   1.2965327258e+02   1.0575235301e+01    0.3135375    0.2612343 -59.04  0.001952547    1.729    0.421
        39 -12.7562     12.0315    206.2053   1.5220570834e+02   3.1878399668e+01    0.5107223    0.2159745  34.34  0.003071397    1.911    0.477
        40 -11.5062     27.5506    145.6502   1.4565916479e+02   4.2768304292e+01    0.2439232    0.2173719  50.15 0.0008103488    1.192    0.161
        41 -12.8362    160.5761    128.1230   1.0714616243e+02   2.4964971029e+01    0.3924679    0.3423026 -45.93  0.001770294    1.261    0.207
        42 -10.3907      7.4385    149.7443   1.5127772210e+02   4.3539413336e+01    0.1504855   0.09364743 -74.21 0.0009154661    1.573    0.364
        43 -13.9960    154.4099    187.5505   1.1962655764e+02   1.6026727123e+01    0.6547397    0.4809825 -73.71  0.003653395    2.203    0.546
        44 -13.0055    180.5741    193.5998   1.1535727945e+02   1.0788506419e+01    0.4667061    0.3463219  54.17  0.002710217    1.660    0.398
        45 -12.0465    169.8312    195.2017   1.1768629185e+02   1.2324571820e+01    0.2344235    0.1904883  34.42 0.0006158121    1.084    0.078
        46 -11.5427     26.6753     97.9528   1.4140184698e+02   5.4139022610e+01    0.3528673    0.3172625 -18.04  0.001762912    1.364    0.267
        47 -10.8202    205.4020    110.1092   9.4003378509e+01   1.8325556153e+01    0.2415508    0.1822793  34.99 0.0006736306    1.309    0.236
        48 -12.3168    163.7076    202.8537   1.2001889412e+02   1.2235795532e+01    0.3091474    0.2485878  54.38 0.0007170088    1.448    0.309
        49 -12.7990    161.2077    197.5439   1.1974297126e+02   1.3397156301e+01    0.3355718    0.3004316  86.77  0.001553761    1.579    0.367
        50 -14.9220    174.1484    187.3111   1.1559981807e+02   1.2732875754e+01      1.07737    0.6099578 -43.86  0.005380483    2.176    0.540
        51 -13.6915    166.0256    188.8629   1.1746073822e+02   1.3872307920e+01    0.6808342    0.3141899  35.92  0.003273824    1.827    0.453
        52 -10.9605    103.2941     81.9612   1.1043201908e+02   4.6701420958e+01    0.2482482    0.2086295  48.36 0.0005778414    1.167    0.143
        53 -11.2334    136.2122    196.8239   1.2476820475e+02   1.7559228827e+01     0.326356    0.2093173  63.31  0.001739154    2.054    0.513
        54 -14.3574    149.2905     57.9730   9.0199888575e+01   4.0226611301e+01     1.145529    0.9640283  11.45  0.001027028    1.384    0.277
        55 -10.4772    160.3349    247.7084   1.2625604617e+02   7.0177794259e+00    0.2348441    0.1251487  17.38  0.001093189    2.434    0.589
        56 -13.1881    163.7246     34.8721   7.9564595375e+01   3.9722586670e+01    0.4389854    0.4290153  39.44 0.0009110841    1.074    0.069
        57 -10.7447     13.5188     59.9352   1.4149892562e+02   6.4392855656e+01    0.1734426    0.1641384 -77.26 0.0004261588    1.102    0.093
        58 -11.5323    150.6648     36.3355   8.2389218169e+01   4.3112622983e+01    0.3362133     0.233724 -78.40  0.001463947    1.760    0.432
        59 -10.9599    147.2398     34.9928   8.2558375960e+01   4.4235525219e+01    0.3123426    0.2134901  84.31 0.0007131794    1.672    0.402
        60 -11.2032    133.7041    248.3083   1.3111058303e+02   1.0586259309e+01    0.1481798   0.09652822  45.30 0.0002870298    1.245    0.197
        61 -10.0801     12.4179    243.5536   1.5309329933e+02   2.5576347854e+01   0.09929171   0.06562945  53.56 0.0002730432    1.025    0.024
