#   1 NUMBER                 Running object number                                     
#   2 MAG_AUTO               Kron-like elliptical aperture magnitude                    [mag]
#   3 X_IMAGE                Object position along x                                    [pixel]
#   4 Y_IMAGE                Object position along y                                    [pixel]
#   5 X_WORLD                Barycenter position along world x axis                     [deg]
#   6 Y_WORLD                Barycenter position along world y axis                     [deg]
#   7 A_WORLD                Profile RMS along major axis (world units)                 [deg]
#   8 B_WORLD                Profile RMS along minor axis (world units)                 [deg]
#   9 THETA_WORLD            Position angle (CCW/world-x)                               [deg]
#  10 FWHM_WORLD             FWHM assuming a gaussian core                              [deg]
#  11 ELONGATION             A_IMAGE/B_IMAGE                                           
#  12 ELLIPTICITY            1 - B_IMAGE/A_IMAGE                                       
         1 -13.0784     16.6591     56.5844   1.1393173109e+02   6.2026288505e+01     1.581768    0.9405783  18.56  0.000918904    2.147    0.534
         2 -13.6418    145.6973     53.6127   7.2142576552e+01   4.1866520701e+01      4.30867     1.695859  44.91 0.0008744546    2.630    0.620
         3 -12.7065     51.6486     91.9541   1.1023220286e+02   5.1190773938e+01     3.205993    0.8931051 -45.92   0.01085607    3.922    0.745
         4 -13.1845     70.6606     30.7592   8.5122556179e+01   6.1025911897e+01     2.162918    0.7192516  42.54  0.008499639    3.288    0.696
         5 -10.7010     68.7967     17.9035   8.0231622385e+01   6.3279694408e+01     1.689711    0.7369378 -26.80  0.007549386    2.270    0.559
         6 -11.6927     28.4465     23.3807   9.8968125169e+01   6.7588682189e+01     1.851998    0.5477138 -42.25  0.008142269    2.620    0.618
         7 -12.0066     40.7155     19.7483   9.2128390499e+01   6.6923394160e+01     1.310982    0.5969283 -33.34  0.004407812    1.927    0.481
         8 -12.2812     54.4351      5.9747   7.9956550887e+01   6.7127385546e+01     1.294057    0.7397019  17.62   0.00601666    1.974    0.493
         9 -12.0255     41.1792     41.0085   1.0015315063e+02   6.3089555525e+01     1.153463    0.6366376   4.90  0.005595983    2.804    0.643
        10 -12.5507     54.2767     35.3352   9.3012920996e+01   6.2603316593e+01    0.8432993    0.7688701 -29.01  0.004494142    1.180    0.152
        11 -11.6948     50.8070     24.9618   9.0195531902e+01   6.4831862692e+01    0.5626549    0.3439259 -14.41 0.0002365516    1.837    0.456
        12 -12.3265      8.8016     25.8441   1.0864395171e+02   6.8648445895e+01    0.7705347     0.529167 -29.14  0.005441508    1.302    0.232
        13 -12.5356     20.0331     13.6523   9.8828130555e+01   7.0006410770e+01      0.97255    0.7518616  44.37  0.006743236    2.016    0.504
        14 -12.6033      3.1750     17.5829   1.0845614218e+02   7.0498788011e+01    0.3799322    0.2067586 -40.73 0.0003908949    1.349    0.259
        15 -13.5424      3.6900      9.6328   1.0522088183e+02   7.1874787673e+01    0.8030519    0.3846941 -40.48  0.001067905    1.500    0.333
        16 -10.9014     25.1848      4.7449   9.2245351139e+01   7.0946046110e+01    0.7784439    0.5016602  30.21  0.005175954    1.829    0.453
        17 -13.4250    101.9097     53.4687   8.3622592995e+01   5.1602142021e+01     2.248816     1.345701  28.51   0.00108762    2.040    0.510
        18 -12.2838     77.3933     49.4920   8.9963931644e+01   5.6683225767e+01     2.847904     1.905673  63.32     0.013507    2.486    0.598
        19 -11.0718     92.7540     21.2755   7.3814399169e+01   5.8495858176e+01     1.360142    0.4523606  55.05  0.004719635    3.789    0.736
        20  -8.2627     94.4394     14.1107   7.0203293953e+01   5.9068308551e+01    0.4158439     0.330129 -83.15   0.00200601    2.052    0.513
        21 -12.1197    129.5978     20.0195   6.3685464477e+01   5.0544712593e+01      1.33718    0.3585045  52.97  0.003617174    3.125    0.680
        22 -10.8275    130.3034     13.8887   6.1163295858e+01   5.1067582922e+01     1.099745    0.2401561  50.27  0.003423024    3.604    0.723
        23 -11.4460    100.5093     36.8591   7.7864948710e+01   5.4687947713e+01     1.545777    0.7343093 -15.82   0.00335146    3.725    0.732
        24 -11.9810    111.9822     21.4328   6.8488895202e+01   5.4446199483e+01     1.326078    0.8268494 -47.86   0.00621517    2.022    0.505
        25 -12.5800    100.0836      6.4750   6.5265463123e+01   5.8746085684e+01    0.6476476    0.5334508   7.56 0.0007873289    1.110    0.099
        26 -11.2080     94.3852      7.0237   6.7061047324e+01   5.9881960205e+01    0.7367173    0.3056798  33.46  0.002925355    2.776    0.640
        27 -11.3937    115.9977      8.7310   6.2281754819e+01   5.4987451813e+01    0.4357926    0.2968766   6.48 0.0008772135    1.574    0.365
        28 -11.4617    111.1320      7.6966   6.3001877226e+01   5.6199823364e+01    0.5071346     0.304007  70.19  0.002374507    2.099    0.524
        29 -10.6089    224.6787      9.7435   4.6037280544e+01   2.7143190532e+01    0.9746156    0.6184627  35.23  0.004672215    2.064    0.516
        30 -11.5137    212.0142     15.8973   4.9043810588e+01   2.9696952023e+01     0.876019    0.5704363  21.46  0.004012538    2.160    0.537
        31 -11.0839    215.3674     23.9517   5.0900897115e+01   2.7907669924e+01    0.8406518    0.5326204 -27.19  0.003988734    1.608    0.378
        32  -9.8996    231.6632     17.4945   4.7377361821e+01   2.4546917526e+01    0.5816166    0.3405858 -29.43   0.00282492    1.679    0.405
        33 -11.0535    233.1766      9.4705   4.5162339768e+01   2.5062449733e+01    0.4869021    0.3373009 -22.31  0.001560432    1.563    0.360
        34  -9.7685    202.7193     27.4348   5.3494341906e+01   3.0769933988e+01    0.6762245    0.3239611 -49.47  0.002666399    2.283    0.562
        35 -10.3118    214.2951     41.9339   5.6080289042e+01   2.5899161643e+01    0.9224577    0.5080634  17.56  0.001735618    3.731    0.732
        36  -9.7377    156.4705      5.7903   5.3345601657e+01   4.5294768502e+01    0.9741511    0.4249221  60.82  0.004021995    2.002    0.500
        37  -9.6672    141.5831      9.8620   5.7381015366e+01   4.8701713378e+01     0.675337    0.4781259  72.46  0.001726801    1.490    0.329
        38 -11.2457    199.3211      5.4445   4.7501677319e+01   3.4091178463e+01    0.6280146    0.4558688 -43.61  0.001899399    1.382    0.277
        39 -10.6152    189.5175      7.4818   4.9260165068e+01   3.6459763053e+01     1.123367    0.6689737  11.07  0.004836679    2.422    0.587
        40 -10.7116    173.5338      8.7660   5.1780887956e+01   4.0546396170e+01    0.3969065    0.2434496 -15.98 0.0006535957    1.827    0.453
        41 -10.6839    181.2241      4.4090   4.9358374726e+01   3.8942093631e+01    0.6386937    0.3393972  77.22  0.002343587    1.901    0.474
        42 -11.3097    168.4633     13.1423   5.3966138770e+01   4.1435515195e+01     1.526194    0.6193551  81.74  0.004627229    4.112    0.757
        43 -11.2184    164.4527      4.9268   5.1828771786e+01   4.3298953980e+01    0.9725349    0.6608729  -8.79  0.004850653    1.675    0.403
        44 -12.1623    166.7741     24.3198   5.7964378255e+01   4.0627665084e+01    0.5709822    0.5232944  43.13   0.00131889    1.066    0.062
        45 -10.8676    159.0244     21.8191   5.8468413292e+01   4.2945665233e+01    0.8073206    0.4773623 -29.41  0.001766761    1.725    0.420
        46 -10.9832    148.8509     23.8298   6.1074567646e+01   4.5322565904e+01    0.8539557    0.5957652  51.41  0.001131687    1.345    0.256
        47 -11.9852    150.3211     16.7443   5.8264443840e+01   4.5764111688e+01     1.304478    0.6325287  47.93   0.00220464    1.928    0.481
        48 -11.3527    176.2220     20.9489   5.5320545630e+01   3.8533492027e+01     1.042495    0.6631665   2.10  0.004576771    2.076    0.518
        49 -10.9962    132.4825      4.4005   5.7045032831e+01   5.1484703291e+01    0.5561414    0.3226087  44.57  0.002194811    1.576    0.366
        50 -11.0376    139.0804      2.0221   5.4912502509e+01   5.0065214335e+01    0.3741637    0.3154621  50.56 0.0008649257    1.074    0.069
        51 -11.3060    178.4111     27.1869   5.6978634764e+01   3.7214411010e+01     1.178623    0.5138119  35.46  0.003834358    3.459    0.711
        52 -10.4330    242.7944     13.0975   4.5205711836e+01   2.2332181708e+01    0.8562106    0.3143103 -20.21  0.003091627    3.468    0.712
        53 -10.0633    238.5930     14.7932   4.6013728304e+01   2.3154989236e+01     0.378765    0.2217159 -61.28 0.0009089467    1.752    0.429
        54 -10.5973    245.9658     19.3087   4.6457195494e+01   2.0870254811e+01    0.5757076    0.3123129  69.61  0.002494541    1.852    0.460
        55 -11.3771    236.6587     31.5816   5.0515423804e+01   2.1634903505e+01    0.9115002    0.5299898 -11.16  0.003966325    2.301    0.565
        56 -10.3718    240.5789     20.3385   4.7226538221e+01   2.2039998666e+01    0.5129182    0.2402415 -28.49  0.001623399    2.066    0.516
        57 -10.5394    117.1901     15.3742   6.4722018998e+01   5.3996935229e+01    0.4059125    0.3319526 -74.16 0.0008673864    1.659    0.397
        58 -10.6339    201.9419     18.7068   5.1047034709e+01   3.2000335012e+01    0.7119806    0.3437084  48.19   0.00255203    2.186    0.543
        59  -9.9103    122.9602     10.0735   6.1251124261e+01   5.3226597145e+01    0.3672142    0.2780528  46.03   0.00130071    1.210    0.174
        60 -10.5674     77.4290      9.2369   7.3237513925e+01   6.2921583564e+01    0.2903157    0.2249188 -13.23 0.0007216537    1.159    0.137
        61  -8.6361     78.1643      4.2030   7.0600149748e+01   6.3362798977e+01    0.5876743      0.14838  38.91   0.00189425    4.555    0.780
        62  -8.5709     38.7506      9.3816   8.8227348698e+01   6.8764142268e+01    0.2185413    0.1393529  10.81  0.001219677    1.674    0.403
        63  -7.9343     37.8052      6.3631   8.7165094755e+01   6.9315093539e+01    0.2121161     0.160073 -14.46 0.0007838093    1.039    0.038
        64 -10.5876     42.3227      3.2686   8.3601470562e+01   6.9173667158e+01    0.3888891    0.2107977 -25.75  0.002157362    1.577    0.366
        65  -8.8233     45.9512      5.0000   8.2933851359e+01   6.8459973225e+01    0.1968133    0.1299507  31.62  0.000340182    1.588    0.370
        66  -9.2211    249.7759      7.1927   4.3175563337e+01   2.1326667138e+01    0.2826223    0.1719536 -66.88  0.001460532    1.628    0.386
        67  -9.9710    248.7732      1.7632   4.1958337980e+01   2.2134776560e+01    0.3469509     0.209251 -53.08 0.0005391371    1.497    0.332
        68 -11.3565    216.0732      4.7610   4.5548833798e+01   2.9836480196e+01     1.119162    0.2762764  63.66  0.001543445    3.292    0.696
        69  -9.3332    207.7482      2.9857   4.5897751763e+01   3.2146314062e+01    0.2316754    0.2046517 -54.83 0.0005302834    1.114    0.102
        70  -8.1508    123.1077      4.0000   5.8777234308e+01   5.3785234255e+01    0.2170137   0.07335714  61.79 0.0007818385    2.802    0.643
        71 -10.7228     55.9801    125.4440   1.1511650096e+02   4.3075175160e+01    0.4215455    0.1894042 -65.08  0.001516396    1.919    0.479
        72  -9.0752    184.0092    250.2390   1.0670216372e+02  -7.8037753279e-02    0.1598409   0.07300584  42.76 0.0008890201    1.638    0.389
        73 -10.8864     59.2709    121.0594   1.1356139561e+02   4.3676054093e+01    0.3900269    0.2603019 -43.17  0.002015713    1.719    0.418
        74  -8.9865     75.0465    124.7538   1.1013323914e+02   4.0761277115e+01     0.204233    0.1626782  77.64 0.0006137811    1.282    0.220
        75  -9.2808     29.1838    120.3647   1.2117124334e+02   4.7008038156e+01    0.3540689     0.289895 -49.36     0.002449    1.393    0.282
        76 -11.7395      5.2816     80.8502   1.2226568443e+02   5.7508707685e+01     1.399959    0.4103505 -69.44  0.006345973    2.515    0.602
        77 -11.4468     77.7462     62.3501   9.4180395474e+01   5.4132812034e+01     0.860296    0.3518755 -35.59  0.003212781    2.825    0.646
        78  -8.8806    235.4149    249.1808   9.8190297127e+01  -7.8969466757e+00    0.1232497    0.1019639 -30.98 0.0009434659    1.682    0.406
        79 -11.7261     36.7265     90.5551   1.1442053342e+02   5.3033500421e+01     1.813782    0.6615879 -47.02  0.007862659    2.642    0.621
        80  -9.0861    108.0121    248.2663   1.1904954045e+02   1.1941973777e+01    0.1965905      0.09282  73.51 0.0009054564    3.569    0.720
        81  -9.1838      3.5065    246.4413   1.3482607749e+02   2.4914664338e+01    0.1455332    0.0637522 -71.69   0.00102876    2.332    0.571
        82 -12.6381     23.0881     82.1221   1.1701312047e+02   5.6061053306e+01    0.9631075    0.5855256  30.83  0.003530512    2.030    0.507
        83  -9.2976    189.7453    244.7283   1.0503846409e+02  -3.4237806795e-01    0.1458491   0.09576838 -56.84 0.0008983484    2.407    0.584
        84  -8.7448    205.9954    244.7498   1.0233930657e+02  -2.9316967528e+00      0.15733   0.07557649  41.34 0.0008885403    1.586    0.370
        85  -9.8092    142.4043    243.5028   1.1286202145e+02   7.3993114592e+00     0.275612     0.155725  34.48  0.001610662    1.819    0.450
        86 -10.2058     14.6009    236.4889   1.3285147607e+02   2.5429871178e+01    0.3025733    0.1360589 -86.39  0.001227731    1.880    0.468
        87  -9.5873     12.6010    232.0690   1.3295389685e+02   2.6360148721e+01    0.2310684    0.1011998  69.54   0.00127517    1.732    0.423
        88 -12.2340      9.4496    111.3942   1.2507751738e+02   5.0553214169e+01     1.073232    0.5897464 -44.39  0.006341595    2.124    0.529
        89 -12.7612     18.0053     95.3989   1.2070398627e+02   5.3493037267e+01     1.832736    0.9268368 -85.64  0.009533542    2.080    0.519
        90 -13.0658     47.8148     67.7369   1.0575872586e+02   5.6946373829e+01     4.724568    0.8054516  35.53   0.01512278    5.829    0.828
        91  -9.1074    227.4233    231.3940   9.6827829833e+01  -4.8581205311e+00    0.2195651    0.1096106  37.33 0.0005915823    1.576    0.366
        92  -8.9976    202.0834    228.9888   1.0074140058e+02  -4.6242753012e-01    0.1804475    0.1402282  34.55 0.0003623658    1.016    0.016
        93  -8.8026     50.3162    227.6074   1.2683738593e+02   2.2999547390e+01     0.169241   0.08682475  67.16  0.001052371    1.608    0.378
        94  -8.8688    110.8293    224.8271   1.1628873826e+02   1.5172576747e+01    0.1723869    0.1118686  63.12  0.001081518    1.359    0.264
        95  -9.0353     97.8448    224.0031   1.1848967452e+02   1.7260513601e+01    0.1607707    0.1189621  35.21  0.001058589    1.622    0.384
        96  -8.5255    234.2235    219.3600   9.3769882650e+01  -4.6129978450e+00    0.1581918   0.09531413  44.31 0.0003517221    1.566    0.361
        97  -7.9414     95.6835    214.3390   1.1790077632e+02   1.9240986498e+01    0.1252233    0.0736915  69.68 0.0004383369    1.704    0.413
        98  -9.5221     92.4055    120.2774   1.0478931995e+02   3.9157255144e+01    0.3615517    0.2097872 -53.73  0.001242786    1.605    0.377
        99 -11.4487     42.7025    115.9600   1.1706997659e+02   4.6701674833e+01    0.5466966      0.39992 -50.88    0.0021087    1.391    0.281
       100  -9.2697     50.4118    118.1602   1.1539471848e+02   4.5373540331e+01    0.2785931    0.1715068 -57.65  0.001060944    1.429    0.300
       101  -9.5170     53.9354    118.1341   1.1446721827e+02   4.4978107825e+01    0.1964452      0.18972 -52.79 0.0004538651    1.246    0.197
       102  -9.6713    104.1460    116.9032   1.0102571147e+02   3.7935524547e+01    0.4234471    0.2603059  70.56  0.001717424    2.424    0.588
       103  -9.2954    109.4653    115.1806   9.9262827519e+01   3.7365908954e+01    0.3424349    0.2379398  86.12  0.001538768    2.022    0.505
       104  -9.2914     84.2884    114.3066   1.0568882142e+02   4.1784974307e+01    0.2200308    0.2097278 -89.20 0.0004339736    1.085    0.079
       105  -8.2109     23.6663    116.2828   1.2204541655e+02   4.8396217411e+01    0.1185984   0.07611833  73.49 0.0004733021    1.616    0.381
       106  -9.2752     97.3366    114.6006   1.0229265859e+02   3.9623971358e+01    0.2889383    0.2038252 -40.84  0.001143919    1.521    0.343
       107  -9.0906    132.9770    112.5370   9.2691751633e+01   3.3345025989e+01    0.2892143    0.2106832 -64.16 0.0008652019    1.543    0.352
       108  -8.6735    131.9546    119.6474   9.4666066426e+01   3.2038330651e+01    0.2035146    0.1948841  68.70 0.0004830848    1.038    0.037
       109 -11.4414     67.3494    107.8685   1.0897802107e+02   4.5662293364e+01    0.6549022    0.3694845 -33.95  0.002899457    2.587    0.613
       110  -9.9442     74.4164    107.2638   1.0690007022e+02   4.4836159327e+01    0.3647989      0.28193  25.35  0.001241168    1.599    0.374
       111 -10.9601     77.3241    101.8749   1.0492118111e+02   4.5643300570e+01    0.7036085    0.3280457  37.82  0.002841892    2.379    0.580
       112  -9.7396     80.7576    115.4185   1.0685780322e+02   4.2062903244e+01    0.2450088    0.2300321  16.37 0.0003983236    1.293    0.226
       113  -8.9741    149.3977    106.4589   8.7170159154e+01   3.1063043935e+01     0.387937    0.1483166 -37.54   0.00125882    2.869    0.651
       114  -8.7397    113.9971    107.0258   9.6142835226e+01   3.8319474219e+01     0.184085    0.1687974 -57.01  0.000928677    1.041    0.039
       115  -9.4834     53.1634    104.4670   1.1227280838e+02   4.8183065695e+01    0.2953829    0.1612759 -65.04  0.001079466    1.583    0.368
       116  -9.5052    141.5664    102.9541   8.8117974765e+01   3.3519306010e+01     0.353959    0.2676037 -40.69  0.001036942    1.315    0.239
       117  -9.4412    171.3097    102.6681   8.1191541839e+01   2.6744071713e+01    0.3643119     0.269562  20.08   0.00157713    1.697    0.411
       118  -8.5186    133.7146    102.3495   8.9893026157e+01   3.5343544674e+01    0.1552324    0.1196263 -79.41 0.0004665171    1.656    0.396
       119  -8.2370    105.5369    102.5414   9.7275303601e+01   4.0877831902e+01     0.144502    0.1359503 -48.82 0.0003431757    1.050    0.047
       120  -9.2670      3.4845    213.9480   1.3354446018e+02   3.0335891342e+01    0.1489927   0.07297213 -86.61  0.001037201    1.605    0.377
       121 -10.9145      4.3905     99.5912   1.2502876325e+02   5.3467100910e+01    0.5001786    0.2362298 -70.64  0.002626455    1.549    0.354
       122 -12.3406     26.7238     70.7423   1.1359114231e+02   5.8272024146e+01     1.031631    0.7597558  44.55  0.004185266    1.699    0.411
       123  -9.2732    115.5477    100.8394   9.4168886946e+01   3.9368577059e+01    0.2883596    0.2001656  23.96  0.001129795    1.893    0.472
       124  -8.8782     77.9353     93.1362   1.0271130119e+02   4.7519424389e+01    0.3438913    0.2362373 -18.12  0.001263147    2.176    0.541
       125  -9.3206     74.6903     89.4327   1.0276242204e+02   4.8816684390e+01    0.4894198     0.187162  43.26   0.00193266    2.957    0.662
       126  -9.0161     87.4867    100.5519   1.0175675328e+02   4.4395822183e+01     0.282332    0.2314119 -79.10 0.0005887013    1.296    0.229
       127  -9.6932     82.0885     89.4888   1.0058616504e+02   4.7704186872e+01    0.4300655    0.2783742 -64.45  0.001718736    1.631    0.387
       128 -10.1551     81.8390     81.4819   9.8546349730e+01   4.9493693108e+01    0.5811802    0.2751792 -57.25  0.001419929    2.184    0.542
       129 -11.2611     88.5328     90.6048   9.8991500655e+01   4.6438679836e+01     1.021357    0.4049141 -53.45  0.003474442    2.387    0.581
       130  -7.9634    178.3000    100.3107   7.9061337823e+01   2.5519614121e+01      0.15807    0.1225813  11.62 0.0003012419    1.603    0.376
       131  -8.6335     10.2283    100.2253   1.2353005427e+02   5.2960845755e+01    0.1552645    0.1083826  88.63 0.0007859488    1.306    0.234
       132  -9.4806     64.4698     98.5710   1.0786830127e+02   4.8152438571e+01    0.3537231    0.2326084  47.85  0.001899841    1.727    0.421
       133  -9.6610    158.9036     96.4992   8.2265274275e+01   3.0869246590e+01    0.5510293    0.3631203  80.63  0.002107364    2.478    0.596
       134  -9.7465     93.0389     89.0571   9.7282385745e+01   4.6030394710e+01    0.3359764    0.2576268  82.08  0.001104679    1.735    0.424
       135  -9.7405    114.5550     95.4250   9.3003398189e+01   4.0728396121e+01    0.3988283    0.1453295  45.27  0.001376741    2.880    0.653
       136 -10.3606    124.1263     92.7826   8.9744590535e+01   3.9364278808e+01    0.4749012    0.4004414  84.80  0.002207833    1.413    0.292
       137 -10.2913    120.1259     86.7092   8.9082977357e+01   4.1453465967e+01    0.8702042    0.3605806  55.18  0.002844407    3.264    0.694
       138  -9.9550    125.0718     83.4926   8.6832086142e+01   4.1082067687e+01    0.5596365     0.295806 -54.36  0.002158575    2.224    0.550
       139  -9.4675    101.0648     88.2318   9.4765210925e+01   4.4806981685e+01    0.2892857     0.191799 -50.71 0.0002805241    1.422    0.297
       140 -10.1161    103.4559     92.5026   9.5251956115e+01   4.3451670094e+01    0.3371552    0.2603424  50.36 0.0008407075    1.398    0.285
       141 -10.8673    107.3935     86.6834   9.2554814493e+01   4.3968789978e+01    0.8524311    0.4651414 -25.70  0.003078474    2.994    0.666
       142  -9.0293    112.5108     85.4710   9.0791926653e+01   4.3238478356e+01    0.2905081    0.2229618 -24.38  0.001028959    1.466    0.318
       143  -7.9315    200.2781     90.3526   7.1982703333e+01   2.1948010709e+01    0.1585184    0.1200148   9.49 0.0003909282    1.648    0.393
       144 -10.1200    164.2667     85.9559   7.8062441468e+01   3.1603362808e+01    0.2875583    0.2530881  -8.96 0.0004982244    1.227    0.185
       145  -7.9522    153.3191     87.3254   8.0947658615e+01   3.3966716688e+01    0.1608733    0.1236768   9.58 0.0007045939    1.677    0.404
       146  -9.2294    146.1019     86.8561   8.2521185135e+01   3.5743165879e+01    0.3826743    0.2253145 -28.16  0.001105974    1.974    0.493
       147  -8.8786    186.4570     84.5626   7.3019679283e+01   2.6376886121e+01    0.2768779     0.153922 -21.56  0.001024655    2.254    0.556
       148  -9.1652    140.8178     84.5139   8.3120721475e+01   3.7414181281e+01    0.3022663    0.2367838 -69.85  0.001049279    1.569    0.363
       149 -10.2041     92.8441     77.1319   9.4002270754e+01   4.8617342134e+01    0.5584641    0.3550728  29.71  0.002636804    1.876    0.467
       150 -10.7045     98.9059     77.4328   9.2301535695e+01   4.7483346216e+01     0.530094    0.4245266  45.70   0.00212455    1.355    0.262
       151 -10.0262    101.9637     70.2466   8.9208335725e+01   4.8387544615e+01     0.585961    0.3267057 -59.82  0.002325925    2.476    0.596
       152  -9.6640     97.7986     71.7100   9.0893188465e+01   4.8861199412e+01    0.4165226    0.2277852  33.16  0.001782874    2.171    0.539
       153 -10.4117    104.0346     80.5571   9.1741519493e+01   4.5889148765e+01    0.5415027    0.3545184 -24.98  0.001218262    1.905    0.475
       154  -9.2746    105.7707     76.1470   8.9929962921e+01   4.6472476861e+01    0.3479279     0.240293  75.36  0.001501065    2.331    0.571
       155 -10.3051    216.8451     81.1502   6.6563139964e+01   1.9412446998e+01    0.4914416     0.267515 -28.17  0.002012368    1.855    0.461
       156 -10.3910    133.7343     78.9714   8.3232528133e+01   4.0097749961e+01     0.644208    0.3243558 -50.11  0.002442101    2.198    0.545
       157  -8.9493    179.2973     80.4173   7.3261740099e+01   2.8895616046e+01    0.2722565    0.1968936  64.46  0.001011886    1.508    0.337
       158 -10.1918    247.3356     75.6110   6.0514964290e+01   1.3056943118e+01     0.416657     0.274422 -53.74  0.001834421    1.657    0.397
       159  -9.5112    150.2166     77.9618   7.8891807238e+01   3.6484080559e+01    0.4400027    0.2637388  32.82  0.001743337    2.059    0.514
       160 -10.5329    138.3737     68.2947   7.8729833044e+01   4.1065040124e+01    0.7298526    0.3788992  41.88   0.00176615    2.043    0.510
       161  -9.3818    131.9782     67.3749   8.0040929766e+01   4.2700839458e+01    0.3077068    0.2754019  30.42 0.0008762185    1.142    0.124
       162  -9.9159    140.1864     74.8470   8.0349007407e+01   3.9424913056e+01    0.4172146    0.3683707 -23.10  0.002149806    1.144    0.126
       163 -10.9319    145.4078     75.5372   7.9292295609e+01   3.8076912857e+01    0.6489205    0.4443939  25.76   0.00261034    1.838    0.456
       164  -9.7477    144.4786     71.5460   7.8273443708e+01   3.9037335132e+01    0.3095001    0.2783324 -37.12 0.0007491687    1.098    0.089
       165  -9.9500     13.3908     76.2200   1.1900114231e+02   5.8031768722e+01    0.3184755    0.1948792  77.49  0.001832901    2.100    0.524
       166  -8.4203    203.9880     75.9801   6.7330200141e+01   2.3434079573e+01    0.1848778    0.1779054  55.70 0.0007259937    1.063    0.059
       167  -9.8251    160.0742     81.6435   7.7731870318e+01   3.3425392693e+01    0.4087985    0.3310924  71.38  0.001293247    1.403    0.287
       168  -8.4570    192.9224     75.3739   6.9153167277e+01   2.6325756910e+01    0.2703222    0.1000942  38.56 0.0007026516    4.476    0.777
       169  -8.6365    225.6267    211.8281   9.3967072731e+01  -2.3149805222e+00    0.1502524    0.1123077 -39.71   0.00071389    1.710    0.415
       170  -8.6941    215.2337     71.9413   6.4317567319e+01   2.1268277124e+01    0.2461758    0.1715812   7.15 0.0008097967    1.970    0.492
       171 -10.5068    151.0502     66.9118   7.5261455937e+01   3.8296473790e+01    0.4245919     0.368711 -10.89  0.001176113    1.218    0.179
       172  -9.2422    163.6692     67.8478   7.2748450684e+01   3.5013658331e+01    0.4279265    0.2859333 -80.44  0.001652815    2.430    0.588
       173  -9.8041     84.4552     68.2158   9.3881061719e+01   5.1874405121e+01    0.2744769    0.2327626 -23.73 0.0008853577    1.178    0.151
       174 -10.2354    250.5042     65.3878   5.7522341081e+01   1.3811197666e+01    0.6032346    0.1289762 -30.30  0.001712687    4.274    0.766
       175 -11.9687     42.7980     50.0840   1.0249202161e+02   6.1141423038e+01    0.6835803    0.4259265  11.57  0.002649035    2.079    0.519
       176 -10.1686     67.2139     62.4722   9.7695915280e+01   5.5655778067e+01    0.2459574    0.2020188 -36.56 0.0004901154    1.078    0.073
       177  -9.2334    178.8207     59.2716   6.7019257401e+01   3.2571263030e+01     0.451499    0.2811003  -5.01  0.001359256    2.371    0.578
       178  -9.9068    171.0388     48.2872   6.5054553705e+01   3.6282692204e+01    0.4902182    0.4082167  56.20  0.001740998    1.183    0.154
       179  -8.8330    188.9884     49.4932   6.2187637681e+01   3.1416053200e+01    0.2458521    0.2172073  21.65  0.000788505    1.231    0.188
       180  -9.8250    185.3366     55.1754   6.4557500072e+01   3.1519070769e+01    0.5032431     0.317495  -3.68  0.001984411    2.287    0.563
       181 -10.8599    181.8059     51.0404   6.3922937990e+01   3.3065210515e+01    0.5573249    0.4403262 -52.88  0.001459908    1.341    0.254
       182 -10.1472    222.7481     57.0571   5.9087107171e+01   2.1639646285e+01    0.4243443    0.3915023  50.79  0.002357136    1.137    0.120
       183  -9.4334    201.2877     58.9864   6.2938977313e+01   2.6802394266e+01    0.3637228    0.2660617  36.42  0.001697825    1.524    0.344
       184  -8.7785    202.5884     55.4669   6.1705286617e+01   2.6996062831e+01    0.2279276    0.2202526 -57.69 7.597505e-05    1.020    0.019
       185 -10.2422    174.7159     56.1595   6.6841814548e+01   3.4123876738e+01    0.6704165    0.3684165  -7.48   0.00224833    3.154    0.683
       186  -9.5297     26.8140    212.1758   1.2971348020e+02   2.8364441393e+01    0.1315017    0.1099437  88.61  0.001088129    1.355    0.262
       187  -9.1788    243.3290     55.1102   5.5815945195e+01   1.6917803484e+01    0.3096016    0.1908141 -58.48  0.001416629    1.826    0.452
       188  -9.5904    124.0045    205.9889   1.1168071302e+02   1.6263260589e+01    0.1772393     0.147578  57.69            0    1.027    0.026
       189  -8.7307     54.7062     49.9233   9.8056154311e+01   5.9813684542e+01    0.2465724    0.2192392 -10.50 0.0008567066    1.160    0.138
       190 -10.0068     54.7753     45.5894   9.6564311161e+01   6.0644506876e+01    0.2992467    0.2344353  54.06  0.001681241    1.776    0.437
       191 -10.6530     60.9056     51.8189   9.6462043905e+01   5.8647962588e+01    0.6180809    0.3040965 -51.50  0.002906988    1.909    0.476
       192  -9.9444     59.2409     45.9744   9.5063227858e+01   5.9995879263e+01    0.3026646    0.2448611 -38.41  0.001100988    1.076    0.071
       193  -8.8253    235.6709     55.3315   5.6853052525e+01   1.8714352311e+01    0.1555992    0.1024268 -60.80 0.0007051755    1.717    0.417
       194 -10.3220    195.6794     54.0884   6.2436063452e+01   2.8991324475e+01    0.5477062    0.2915782  63.26  0.002206292    1.935    0.483
       195  -8.9825     51.4160     53.1337   1.0028429736e+02   5.9572756543e+01    0.1946598    0.1671575 -35.63 0.0005072576    1.043    0.041
       196  -8.7664    238.9591     51.7686   5.5499152194e+01   1.8419700393e+01    0.1761427    0.1185184  64.39 0.0002202952    1.561    0.359
       197  -8.8244    126.9502     51.0047   7.5808071910e+01   4.6728103385e+01    0.2140926    0.2053199 -10.80 0.0003811109    1.029    0.028
       198  99.0000     16.5736     50.2215   1.1242787728e+02   6.3353475310e+01    0.9234337    0.1079484 -58.64   0.00306437    4.480    0.777
       199  -7.4426      5.8477     40.5437   1.1415911354e+02   6.5961915887e+01    0.1690201    0.1274532  38.70 0.0004881699    1.803    0.445
       200  -8.2328     11.9495     33.9881   1.0982218292e+02   6.6900101454e+01    0.2395024    0.1482415  32.26 0.0009389932    2.108    0.526
       201 -10.7992     16.3931     31.6092   1.0718614301e+02   6.7060863924e+01    0.3872708    0.2527353 -64.25  0.001084525    1.615    0.381
       202 -10.1400     10.1088     42.7141   1.1301507430e+02   6.5286934758e+01    0.7017319     0.364502  -8.03  0.003914763    2.702    0.630
       203  -9.8800     21.1669     40.1828   1.0786717391e+02   6.5052500752e+01    0.2861936    0.2243823 -25.13 0.0002681586    1.253    0.202
       204  -9.5134     18.4989     37.5150   1.0815129529e+02   6.5771772074e+01     0.272228    0.2088448 -40.05  0.001568538    1.063    0.059
       205  -9.8988    225.6779     48.9894   5.6483564401e+01   2.2053548642e+01    0.2631612    0.2136698  72.24 0.0002775602    1.274    0.215
       206 -10.0993    198.7281     48.6104   6.0316888884e+01   2.8999397134e+01    0.5614333    0.3023047  35.08  0.002115319    2.490    0.598
       207  -9.9041    244.5081    204.1154   8.9430573542e+01  -4.5421582640e+00     0.227498    0.1372917  24.76  0.001303287    1.490    0.329
       208 -10.4062    136.1507     25.0751   6.4154980887e+01   4.8341042369e+01    0.3657399    0.3058375  16.75 0.0004162268    1.211    0.174
       209 -11.9777    110.4625     30.2511   7.2433473362e+01   5.3599541980e+01    0.6623803    0.4137284  72.17  0.001765343    2.531    0.605
       210  -8.8982     27.4941    194.4964   1.2848087038e+02   3.1580593981e+01    0.1108314   0.07841752  76.89 -8.402776e-05    1.032    0.031
       211  -9.1870     10.5366    192.1836   1.3130321117e+02   3.3673084752e+01    0.1830973    0.1248532  54.07   0.00140663    1.377    0.274
       212  -9.1412     14.4856    189.5400   1.3046110412e+02   3.3812178192e+01    0.1075509   0.07586104  79.13  0.000169302    1.005    0.005
       213 -10.7547    106.2654     34.9836   7.5462184982e+01   5.3799137779e+01    0.5860785    0.4271453  73.39  0.002342567    2.009    0.502
       214 -10.0741    245.3176    187.0693   8.6145557390e+01  -2.6163523183e+00    0.2400415    0.1955489   2.76 0.0004736632    1.085    0.079
       215  -9.3171      1.4720    187.7856   1.3262561963e+02   3.5308079293e+01    0.1984439   0.07629094 -86.23  0.001140819    2.084    0.520
       216 -10.3134      6.1142    182.1149   1.3150437190e+02   3.6000565166e+01    0.2240384    0.1163332 -71.41  0.001062921    1.692    0.409
       217  -9.8113     11.7149    184.3752   1.3063937617e+02   3.5065435945e+01    0.1654841    0.1015852 -67.40 0.0008055172    1.648    0.393
       218 -10.9587     19.7764    183.7703   1.2914547077e+02   3.4430794205e+01    0.3896311    0.1848145  34.66  0.002342873    2.430    0.588
       219  -8.6678    125.7561     47.5558   7.4893080293e+01   4.7567700637e+01    0.4732793    0.1682492 -38.75    0.0016338    2.734    0.634
       220  -9.8389    129.7263     46.3322   7.3450038845e+01   4.6851831167e+01    0.4817747    0.3867322 -60.73  0.002412849    1.518    0.341
       221  -9.9042    130.3095     40.3274   7.1141822966e+01   4.7644921377e+01    0.4583024    0.2088172 -36.79  0.001798319    2.162    0.538
       222 -10.1684    230.4182     45.4220   5.4904203106e+01   2.1366619183e+01    0.4470307    0.2571698  70.40  0.001313154    1.864    0.464
       223  -9.5632    219.8185     42.8574   5.5588348664e+01   2.4366329749e+01    0.2499645    0.2131606  63.53 0.0006821375    1.191    0.160
       224  -9.3562    206.8889     46.0058   5.8300944353e+01   2.7248215845e+01    0.3577203    0.2164988  67.06 0.0009450884    1.700    0.412
       225  -9.3581    155.0209     33.7698   6.3346820329e+01   4.2481564140e+01    0.3620941    0.2396835  -8.58   0.00101088    1.799    0.444
       226 -10.6795    137.7013     41.6251   6.9844501941e+01   4.5688615090e+01    0.5946369    0.3175946 -26.79  0.002381398    1.941    0.485
       227 -10.4986    143.5851     42.7319   6.8887506025e+01   4.4087886135e+01    0.5171902    0.3484007  50.77  0.002410847    1.446    0.308
       228  -9.4802    142.7129     38.9239   6.7742048674e+01   4.4862108311e+01    0.2729867    0.2302059  -0.80 0.0004946264    1.245    0.197
       229 -10.3167    148.3129     34.5675   6.4992928279e+01   4.4077672594e+01    0.5679018    0.3111906  62.62  0.001923269    1.896    0.473
       230  -8.4891    133.6624     46.2917   7.2464832785e+01   4.5936279398e+01     0.148562    0.1187095 -73.26 0.0007024831    1.643    0.391
       231  -9.7411    106.3565     44.8687   7.9202427246e+01   5.2208608407e+01    0.4073693    0.2631501  46.27  0.001970028    1.601    0.375
       232 -10.0487     66.7547     43.6483   9.1527923885e+01   5.9386594530e+01    0.4255953    0.2294869 -39.00  0.001748944    1.626    0.385
       233  -8.7130     24.7792     46.1389   1.0818023197e+02   6.3588031673e+01    0.1477942   0.08039542   8.33 0.0007047984    2.512    0.602
       234  -8.7442     37.7754    179.4175   1.2543981821e+02   3.3457127250e+01    0.1353332    0.1076782  34.65 0.0009551398    1.658    0.397
       235  -9.7896      1.7939    178.1219   1.3204913895e+02   3.7143107580e+01    0.2297207    0.1174442 -87.01  0.001524776    1.479    0.324
       236 -10.9529    202.5818     38.7530   5.6827436792e+01   2.9358778831e+01     0.583198     0.387997 -34.60  0.001922286    1.472    0.321
       237  -9.1265     28.3960    177.2278   1.2706218247e+02   3.4882778952e+01    0.2326094    0.1290049  86.92  0.001099841    1.521    0.343
       238  -8.1585     25.4197    176.4919   1.2757343120e+02   3.5328623013e+01    0.1844294   0.09041375  44.20 0.0005690621    1.946    0.486
       239  -8.2041      7.5027    175.5113   1.3085992163e+02   3.7175957239e+01    0.1078332    0.0769576  83.48 -2.948749e-06    1.015    0.015
       240  -9.9911    199.4833     32.0023   5.5285205109e+01   3.1049440084e+01    0.4718947    0.3436888  50.88  0.002333305    1.385    0.278
       241  -8.8885     45.7507    170.9983   1.2310028187e+02   3.4293865746e+01     0.165716    0.1233017  89.77 0.0003984348    1.085    0.078
       242 -10.3888    216.6350     35.9264   5.4082399892e+01   2.6094479266e+01    0.6656308    0.3320874  74.56   0.00205495    2.255    0.557
       243 -10.3717    210.8702     32.4486   5.3856765981e+01   2.8023736887e+01    0.4024844     0.362427   4.09  0.001011866    1.255    0.203
       244  -8.7700    224.9892     41.5219   5.4545639462e+01   2.3241706672e+01     0.219383    0.1384826  62.62 0.0006785382    1.597    0.374
       245 -10.2529     18.4744    164.9476   1.2803886748e+02   3.8340364183e+01    0.3241996     0.188109  67.94  0.001150929    1.496    0.331
       246  -8.5699    196.7500     41.5860   5.8541715858e+01   3.0501865618e+01    0.2059641    0.1436279  80.76 0.0009365506    1.598    0.374
       247 -10.1249    194.2098     31.2112   5.5810099675e+01   3.2537081517e+01    0.5588768      0.34144   9.95  0.001740095    2.518    0.603
       248  -9.5673    190.6487     40.0023   5.9023074650e+01   3.2321338760e+01    0.2929001    0.2758906 -12.28 0.0009736058    1.113    0.102
       249  -9.3538    192.9369     36.7923   5.7688878290e+01   3.2150063311e+01    0.3044555    0.2240962  74.37  0.001471216    1.400    0.286
       250  -9.5033    143.4871     34.4610   6.5983935467e+01   4.5299357159e+01    0.3118138    0.1779357 -37.20 0.0006654474    1.782    0.439
       251 -10.7605     12.9285    165.0127   1.2913263461e+02   3.8820320470e+01     0.317032    0.2078653  62.69  0.001412445    1.340    0.254
       252 -11.2158      9.4236    159.9214   1.2945547525e+02   4.0162434364e+01    0.4846051    0.1604369 -70.16  0.002519933    2.326    0.570
       253  -9.9952    173.8805     38.5361   6.1391362300e+01   3.6936110458e+01    0.3626121    0.2683786  65.95  0.001161484    1.355    0.262
       254 -10.2680    180.5594     37.7756   5.9990043732e+01   3.5282462104e+01    0.8529799    0.4419614 -54.45   0.00320216    2.487    0.598
       255  -8.2019    203.2958    166.3354   8.9576918510e+01   8.2050684878e+00     0.142719    0.1028611  10.06 0.0002471506    1.647    0.393
       256 -10.3204      2.3914    160.3107   1.3086149374e+02   4.0648189965e+01    0.3804497    0.1709485 -82.03  0.002191258    1.700    0.412
       257 -10.5372     16.9530    159.5673   1.2792309536e+02   3.9590437505e+01     0.269457    0.2211472  18.30  0.002002499    1.866    0.464
       258 -12.2672     20.5627    147.8556   1.2617557526e+02   4.1742280656e+01    0.5782346    0.5228418 -72.90  0.004155479    1.341    0.254
       259 -10.7280     14.7889    143.5529   1.2703631074e+02   4.3155884782e+01    0.3395927    0.2069871 -59.20  0.002197512    1.637    0.389
       260 -10.7958     46.1732    145.6752   1.2026643517e+02   3.9669753623e+01    0.5446906     0.364152 -71.10  0.003360213    1.274    0.215
       261 -10.4872     35.4883    150.9902   1.2324586949e+02   3.9647981893e+01    0.3237565    0.1759675  54.75  0.001875076    1.798    0.444
       262 -11.0196     39.3565    147.2480   1.2198754774e+02   4.0060541232e+01    0.3532932    0.2966204 -61.68  0.001404989    1.337    0.252
       263 -10.1764     38.3098    143.1040   1.2175480961e+02   4.1076715520e+01    0.2991679     0.243741 -21.44 0.0005646911    1.925    0.480
       264  -9.3911     87.0888    149.0465   1.1130183319e+02   3.3554174181e+01    0.2085158    0.1792011  88.20 0.0005698419    1.033    0.032
       265  -9.9051     66.2876    148.2926   1.1599808435e+02   3.6660073443e+01    0.2631664    0.2211034  13.41  0.001626406    1.733    0.423
       266 -11.6561      4.8483    142.6735   1.2909880537e+02   4.4121292065e+01    0.8219264    0.3461411 -85.16  0.002354266    1.950    0.487
       267 -10.2241      7.7293    134.3329   1.2777616094e+02   4.5684278900e+01    0.3221283     0.272573  63.04  0.001488971    1.309    0.236
       268 -11.1153     18.4925    121.4480   1.2396019478e+02   4.7669430225e+01    0.6574186    0.2160828 -68.44  0.001590174    2.262    0.558
       269  -8.4995    123.7116     36.0066   7.1182129305e+01   4.9817350014e+01    0.2673878    0.2363062  -1.19  0.001411562    1.102    0.092
       270  -9.0932    126.2481     32.0256   6.9053742985e+01   4.9796396228e+01    0.3961936    0.1962022  42.76  0.001629517    2.016    0.504
       271  -8.3318    114.4642     36.4633   7.3765937612e+01   5.1823155035e+01    0.1463424     0.130292   8.45 0.0006901234    1.069    0.065
       272  -8.2781     39.7845     35.3846   9.8728724474e+01   6.4295973545e+01    0.3057901    0.1721075 -11.39  0.001045927    2.579    0.612
       273 -10.7321    134.8038     33.9114   6.7727529781e+01   4.7502291186e+01    0.2984368    0.2594474   8.59 0.0002905775    1.159    0.137
       274  -9.2262    138.4570     31.4988   6.6017676187e+01   4.6943414878e+01    0.3001071    0.2609042 -80.55  0.001447076    1.382    0.276
       275 -10.2361     13.9298    118.3774   1.2473744454e+02   4.8697522224e+01    0.3794383    0.2397989 -70.79  0.001990184    1.225    0.184
       276 -10.1410    247.8374     32.4390   4.9544069517e+01   1.8846080777e+01    0.4217753    0.2856237  33.89  0.001704975    1.967    0.492
       277  -9.3653    242.7316     34.0209   5.0481722790e+01   1.9860450667e+01    0.2733419    0.1966591 -57.53 0.0007384194    1.354    0.261
       278 -11.4902     14.2076    131.2890   1.2602154438e+02   4.5849116001e+01    0.6416185    0.3582174  68.82  0.003853392    1.794    0.442
       279 -10.8034     12.4957    125.7739   1.2586990409e+02   4.7182696724e+01    0.3274456    0.2639794  61.27 0.0009957084    1.328    0.247
       280 -11.2136     29.5799    142.1961   1.2363254519e+02   4.2139406123e+01    0.4811566    0.2392822 -64.24  0.002715243    1.699    0.411
       281  -9.5320     27.4960    137.4411   1.2359781337e+02   4.3374123406e+01    0.2139076    0.1482195 -85.94 0.0009577273    1.160    0.138
       282  -9.3545     32.4675     33.1126   1.0090186806e+02   6.5451079199e+01    0.2223649    0.1378595 -32.72 0.0007538439    1.393    0.282
       283  -9.1992    183.7045     33.2432   5.8046890648e+01   3.5051714321e+01    0.3071946    0.1829414  52.78 0.0008276427    1.619    0.382
       284  -9.1391    228.2017     31.0209   5.1321916896e+01   2.3792913980e+01    0.2759607    0.1889173 -38.84  0.000712576    1.374    0.272
       285 -10.0427    225.5063     26.8960   5.0525306032e+01   2.4976358262e+01    0.4288412    0.3001228 -59.40  0.002171799    1.445    0.308
       286 -11.1077    183.0004     27.0975   5.6229638821e+01   3.6011333995e+01    0.5554432    0.3236257  41.42  0.001208342    1.874    0.466
       287  -9.9093    247.9231     25.9013   4.7906139977e+01   1.9627644066e+01    0.5048484     0.259187  67.99  0.002352185    1.982    0.496
       288 -10.6050     23.0105    136.3014   1.2450591750e+02   4.4025896909e+01    0.4752899    0.2085347 -69.70  0.002565249    1.787    0.440
       289  -8.5639     97.8542    140.8035   1.0737549167e+02   3.3673796651e+01    0.1915367    0.1500788  85.49 0.0005800175    1.314    0.239
       290  -9.2655    197.8030     16.9995   5.1068154728e+01   3.3277180555e+01     0.342881    0.2363472  43.60  0.001680748    1.557    0.358
       291  -8.6394     86.9560     16.0260   7.3299761570e+01   6.0306859226e+01    0.1602895    0.1364405  -2.24  0.000971674    1.036    0.035
       292  -8.4639     82.7867     13.3277   7.3397743647e+01   6.1435187267e+01    0.1768725    0.1068161  36.61 0.0004610597    1.604    0.376
       293  -8.8976     80.5871    140.6232   1.1148032652e+02   3.6386866778e+01    0.2363691    0.1139231 -57.32 0.0005789374    1.920    0.479
       294 -10.1193     55.1322    137.6882   1.1713762290e+02   4.0413681412e+01     0.258918    0.1574473 -61.84  0.001448094    1.464    0.317
       295  -9.5716    237.2120    135.3871   7.6663365919e+01   6.1490134874e+00    0.1872994    0.1356009  57.86 0.0006276154    1.644    0.392
       296  -9.5889     86.7657    134.3787   1.0891571742e+02   3.6862935243e+01    0.3314389    0.2113766  37.19  0.001692434    1.740    0.425
       297  -9.1109     94.4320    133.1133   1.0679703671e+02   3.5941177206e+01    0.2916676    0.1677385 -43.77  0.001096825    1.982    0.495
       298 -11.2276     46.9940    129.5665   1.1797594494e+02   4.3168141085e+01    0.7547426    0.2716115 -59.58  0.002689156    2.293    0.564
       299 -11.3173     40.4025    125.9111   1.1910146721e+02   4.4688488738e+01    0.5421804    0.2918088 -69.74  0.001178075    1.535    0.348
       300 -10.2561     72.6224    129.5127   1.1158193340e+02   4.0017613406e+01     0.307014     0.210469 -59.27  0.001026113    1.332    0.249
       301 -10.3336     34.1184    124.0703   1.2041877269e+02   4.5722014146e+01    0.2917824    0.2173129  -0.30  0.001795306    2.138    0.532
       302 -11.5666     67.2870    123.0122   1.1182023304e+02   4.2213641725e+01    0.9517611    0.3449565 -49.81  0.003776835    2.774    0.640
       303 -10.3282     24.6158    127.8020   1.2320070245e+02   4.5755298910e+01    0.4342783    0.2605802  21.68  0.002579778    2.348    0.574
