#   1 NUMBER                 Running object number                                     
#   2 MAG_AUTO               Kron-like elliptical aperture magnitude                    [mag]
#   3 X_IMAGE                Object position along x                                    [pixel]
#   4 Y_IMAGE                Object position along y                                    [pixel]
#   5 X_WORLD                Barycenter position along world x axis                     [deg]
#   6 Y_WORLD                Barycenter position along world y axis                     [deg]
#   7 A_WORLD                Profile RMS along major axis (world units)                 [deg]
#   8 B_WORLD                Profile RMS along minor axis (world units)                 [deg]
#   9 THETA_WORLD            Position angle (CCW/world-x)                               [deg]
#  10 FWHM_WORLD             FWHM assuming a gaussian core                              [deg]
#  11 ELONGATION             A_IMAGE/B_IMAGE                                           
#  12 ELLIPTICITY            1 - B_IMAGE/A_IMAGE                                       
         1 -13.8470    200.6016      2.5718   6.5425444551e+01   3.4050936460e+01     2.070974    0.8403352  67.01  0.002703907    2.399    0.583
         2 -14.1492    180.2139     25.4013   7.4947661022e+01   3.6951182379e+01     1.550986     1.081155  20.33  0.004367476    1.641    0.390
         3 -14.3244    188.6372     17.9879   7.1449019782e+01   3.5606519843e+01     2.767296      1.37368  -4.21  0.009294447    2.552    0.608
         4 -11.5486     41.7663     16.8537   1.1125754347e+02   6.9345395118e+01    0.2933664    0.1811645 -16.01  0.001438561    1.860    0.462
         5 -12.8646    194.2416      9.7862   6.8236671281e+01   3.4989797885e+01    0.6973981    0.5189257 -38.24  0.001114864    1.279    0.218
         6 -10.8133    224.7751    245.4112   1.1728936365e+02  -1.6986108574e-01    0.1517039   0.06898969  25.94 0.0009549275    1.652    0.395
         7 -11.5267    248.1577    249.3846   1.1424398916e+02  -3.2000432738e+00    0.3913561    0.1705652  23.18  0.002564002    1.724    0.420
         8 -12.1170    139.6214    247.8038   1.3177155071e+02   1.0093786745e+01    0.3795595    0.2718813 -63.00  0.002884076    2.113    0.527
         9 -10.3230    124.8830    250.3168   1.3455908999e+02   1.1575409904e+01    0.1691974    0.0951793  44.03 0.0005668396    1.442    0.307
        10 -19.4300     10.4688    134.4236   1.4918084765e+02   4.4622141791e+01     17.05364     3.294691 -81.61   0.05552006    5.077    0.803
        11 -15.1873     72.8831    154.0172   1.3508369329e+02   3.4298329797e+01     8.244809     3.549217  61.19   0.01191216    3.826    0.739
        12 -11.9554     82.8896    185.7370   1.3641404039e+02   2.6748604318e+01    0.2774271    0.2157467 -45.45  0.001035029    1.559    0.359
        13  -8.9708    181.5817    192.2142   1.1693492618e+02   1.1570549021e+01    0.1493102    0.1054518 -14.43 0.0002621311    1.491    0.329
        14 -10.2922    185.8850    238.1271   1.2270828603e+02   5.3657497768e+00     0.154582    0.1190189  32.18 0.0005361302    1.271    0.213
        15  -9.9271     65.4462    185.3964   1.4016829504e+02   2.8880013788e+01    0.1950474    0.1824736  31.02 0.0007983938    1.227    0.185
        16  -9.8072     53.0436    175.6789   1.4204867704e+02   3.2118336060e+01    0.1647127    0.1313434  52.53 0.0006090731    1.097    0.089
        17 -11.0872    139.0997    171.4761   1.2216394846e+02   2.1366468434e+01    0.3803895    0.2036561  24.04  0.001763767    2.164    0.538
        18  -9.7555    230.5003    167.0013   1.0366176927e+02   7.3288321822e+00    0.1596519    0.0991909 -46.06 0.0008105963    2.670    0.625
        19 -10.8893    116.1166    245.6457   1.3567262619e+02   1.3221721189e+01    0.2221748   0.06202361  40.42  0.001097273    2.562    0.610
        20 -11.2564    144.0392    242.5329   1.3046689786e+02   1.0188055495e+01    0.1669478    0.1397695  60.92 0.0007406491    1.548    0.354
        21  -9.1103    194.0085    157.5108   1.0831485636e+02   1.4500505928e+01    0.1956093   0.09790399  21.15 0.0008101561    2.563    0.610
        22 -10.1884    229.4758    206.5454   1.1082503143e+02   3.0087604470e+00    0.2006122    0.1807266 -13.21  0.001147327    1.632    0.387
        23 -10.6363    106.1872    148.8417   1.2604071019e+02   3.0773044656e+01    0.3531139    0.2733067 -31.24  0.001259112    1.503    0.335
        24  -9.9269    108.5016    144.9785   1.2480843836e+02   3.1207922566e+01    0.2783313    0.1853613 -32.19  0.001389083    1.852    0.460
        25 -12.4374     95.4140    148.7014   1.2869669250e+02   3.2398165222e+01    0.2726312    0.2382428  21.08 0.0004427059    1.218    0.179
        26  -9.2579    133.1816    140.7388   1.1798257214e+02   2.7989436591e+01    0.2769796    0.1298778 -55.04  0.001104383    2.642    0.622
        27  -9.1178    134.5038    148.5033   1.1917419711e+02   2.6277289908e+01     0.226926    0.1341718 -47.68    0.0010984    1.801    0.445
        28  -8.8890    134.0000    144.9964   1.1862291554e+02   2.7029534209e+01    0.3585999   0.07798797 -47.94  0.001041043    4.841    0.793
        29  -9.3650     63.5007    200.9544   1.4187928908e+02   2.6250170695e+01    0.1456417    0.1031821 -79.47 0.0004465804    1.510    0.338
        30 -10.0851    114.6264    135.2352   1.2147260143e+02   3.2236899843e+01    0.3106831    0.2276553 -27.36 0.0008234204    1.610    0.379
        31 -11.0612    102.9261    132.0743   1.2389652737e+02   3.4791971727e+01    0.3543913     0.265606   4.25  0.001813342    1.741    0.425
        32  -9.7799    160.8174    128.0058   1.0885046400e+02   2.5317264182e+01    0.2290382    0.1733729 -68.89  0.001091478    2.058    0.514
        33  -9.6804    119.4072    127.8063   1.1874987948e+02   3.2969462200e+01    0.2007183    0.1275589 -36.57   0.00076439    1.712    0.416
        34  -9.8882    110.3176    122.8269   1.2008217423e+02   3.5571628374e+01    0.2100567    0.1843664  47.64 0.0003413259    1.163    0.140
        35 -11.1057    192.8878    194.4259   1.1519266966e+02   9.5886681540e+00    0.7231031    0.4055551 -58.07  0.002682854    6.252    0.840
        36  -8.4331     88.3248    200.6653   1.3678164141e+02   2.3409305742e+01    0.1205553   0.07345264  59.67 0.0007051172    1.714    0.417
        37 -10.4911    168.3655    113.1252   1.0361729454e+02   2.6467024772e+01    0.3410275    0.2762649 -67.32  0.001208178    1.764    0.433
        38  -9.5214    205.5675    110.2711   9.5561310590e+01   1.9410715966e+01    0.2519885    0.1564967  24.55  0.001053127    1.768    0.434
        39 -12.0991     79.3649    192.0099   1.3780501718e+02   2.6029585766e+01    0.3729991    0.2288612 -45.64  0.001394936    2.095    0.523
        40 -11.6476     63.7048    104.7131   1.3001376267e+02   4.6643054919e+01    0.4405552    0.2189825  31.69  0.001982174    2.145    0.534
        41  -9.5964    152.5079     75.4811   9.6637236555e+01   3.6562908385e+01    0.1550682    0.1436628  -5.71 0.0002647869    1.007    0.007
        42 -10.0568    164.9066    250.5178   1.2772301023e+02   6.6540178499e+00    0.1941367   0.09596414  40.67 0.0004716321    1.673    0.402
        43 -11.4899    161.9243    247.1421   1.2786101455e+02   7.4016433966e+00    0.3087091    0.2155719 -21.05  0.002327426    1.788    0.441
        44 -12.4745    124.8428    243.8295   1.3397350345e+02   1.2403233451e+01    0.4777146    0.2005637  46.02  0.002602888    2.110    0.526
        45 -12.4657    204.6733    249.1606   1.2097793495e+02   1.9001072812e+00    0.5889813    0.1620066  31.29  0.002802727    2.958    0.662
