#   1 NUMBER                 Running object number                                     
#   2 MAG_AUTO               Kron-like elliptical aperture magnitude                    [mag]
#   3 X_IMAGE                Object position along x                                    [pixel]
#   4 Y_IMAGE                Object position along y                                    [pixel]
#   5 X_WORLD                Barycenter position along world x axis                     [deg]
#   6 Y_WORLD                Barycenter position along world y axis                     [deg]
#   7 A_WORLD                Profile RMS along major axis (world units)                 [deg]
#   8 B_WORLD                Profile RMS along minor axis (world units)                 [deg]
#   9 THETA_WORLD            Position angle (CCW/world-x)                               [deg]
#  10 FWHM_WORLD             FWHM assuming a gaussian core                              [deg]
#  11 ELONGATION             A_IMAGE/B_IMAGE                                           
#  12 ELLIPTICITY            1 - B_IMAGE/A_IMAGE                                       
         1 -15.2739    184.9693     98.1420   6.7343930023e+01   2.4247282812e+01     2.758289     1.439832 -51.64  0.009520072    2.251    0.556
         2 -16.3107    198.6475    142.1029   7.5672822597e+01   1.2731430678e+01     2.945661     2.444185 -52.49   0.01017045    1.349    0.259
         3 -16.2441    145.2078    124.7815   8.3542638600e+01   2.7968116105e+01     4.163082     1.865517 -49.55   0.01468158    2.335    0.572
         4 -14.3673     61.4671     49.5277   8.6677351648e+01   5.9761597070e+01     1.287058     0.870787 -33.97  0.004137421    1.313    0.238
         5 -11.2542    218.5338     45.4520   4.7564665401e+01   2.4709521462e+01      1.69707    0.8595787 -32.26   0.00751319    1.925    0.481
         6 -11.2944    221.7764     14.4753   3.9455417808e+01   2.7803556387e+01      1.35402    0.8776828 -57.54  0.007409388    1.438    0.304
         7 -13.7064    196.5556     41.8358   4.9560009420e+01   3.0614404757e+01     1.148261     1.002263 -41.94  0.003914783    1.145    0.127
         8 -13.3754    213.7370     26.5885   4.3298204913e+01   2.8320735726e+01    0.9281618    0.8384387 -62.49  0.003577708    1.057    0.054
         9 -14.0581    205.9147     21.7234   4.2916919084e+01   3.0811403987e+01     1.816872     0.924934 -16.25  0.007281442    2.720    0.632
        10 -11.6195    236.8781     39.8859   4.4059888233e+01   2.1182324246e+01     1.167513    0.6349676  -9.89  0.004494589    3.563    0.719
        11 -15.1038     27.6590     30.6855   9.4009763580e+01   6.7250598141e+01     2.655238    0.9053848 -42.76  0.009714717    2.323    0.570
        12 -12.6211     45.9901     22.9793   8.2220959509e+01   6.6434122490e+01    0.5822319    0.5017759 -12.29  0.002139472    1.172    0.147
        13 -13.0951     75.0166     24.4925   7.1304104468e+01   6.1610350732e+01    0.8542728    0.5174165 -24.61  0.003136683    1.592    0.372
        14 -14.0422     61.9699     20.0191   7.4156095537e+01   6.4474353413e+01     1.000044    0.7462521  24.16  0.003487527    1.234    0.190
        15 -11.4239    233.2534     28.8227   4.1797277297e+01   2.3433214710e+01    0.6567826    0.4031812 -63.78  0.003391736    1.620    0.383
        16 -12.5901    125.0763      2.4528   4.8666878025e+01   5.3051253962e+01     1.901723    0.2839052  64.79  0.004900364    5.850    0.829
        17 -14.6955    137.8933     19.9950   5.2560804918e+01   4.8243991572e+01     1.879059     1.219864  76.91  0.005882014    1.745    0.427
        18 -14.5533    163.9082     13.1882   4.5878310984e+01   4.2359245267e+01     1.852622     1.462049 -62.71  0.007681787    1.362    0.266
        19 -13.9138     93.1896     10.8598   5.9474690031e+01   5.9609260346e+01      1.64085     0.784369 -36.65  0.006817998    2.397    0.583
        20 -13.9474    105.0656      9.6892   5.5847565438e+01   5.7114643263e+01     1.048505    0.8946025  25.52  0.003627725    1.059    0.055
        21 -11.1474    241.6483     40.8984   4.3797905586e+01   1.9975170157e+01    0.7037993    0.4055069 -28.71   0.00349238    1.788    0.441
        22 -13.5561     67.9192      3.2347   6.3834566502e+01   6.5395979442e+01      1.37732    0.3986591  47.73  0.005570648    2.965    0.663
        23 -12.2542     55.8129      2.8107   6.8117909094e+01   6.7567260913e+01    0.6089436    0.3315973  46.68  0.003317532    1.911    0.477
        24 -14.9387     60.0286    211.9243   1.1847227763e+02   2.2955379785e+01     1.322593    0.7595289  59.34  0.005910261    1.534    0.348
        25 -11.6858    215.3349    249.9063   9.3011840429e+01  -7.2242358163e+00    0.4415321    0.1763245  35.88  0.001773492    2.013    0.503
        26 -10.7270    205.4787    249.1651   9.4676666530e+01  -5.6806521380e+00    0.3496586    0.1952243  15.68  0.001882317    2.027    0.507
        27 -14.2512    135.3385    248.4594   1.0765050177e+02   5.2959106197e+00     1.600351    0.6643289  44.53  0.003213741    1.922    0.480
        28 -14.3579    107.4757    202.0582   1.0742992591e+02   1.8091422908e+01      1.57737    0.7126777 -60.54  0.006974696    2.419    0.587
        29 -15.7077    115.2992    236.1894   1.1006212317e+02   1.0418705184e+01     2.219379    0.9409127 -52.42  0.007675114    2.823    0.646
        30 -14.2898    113.9675    217.2975   1.0805807863e+02   1.4050080885e+01     1.094014    0.6363946  68.69  0.005000536    2.261    0.558
        31 -15.7354     71.4563    186.2131   1.1335495719e+02   2.6908720109e+01      3.96631     2.131739  31.92   0.01933655    2.095    0.523
        32 -15.3206     64.1314    147.8308   1.0990545039e+02   3.6847494800e+01      3.06193     1.600763 -82.39   0.01285718    2.374    0.579
        33 -14.3774     38.2136    131.7507   1.1447972375e+02   4.3740330140e+01       1.6617    0.9398248 -45.73   0.00607222    1.900    0.474
        34 -13.9219      3.0933    167.9227   1.2668456949e+02   3.8349191341e+01     2.331002     0.536103 -83.17  0.007999175    4.615    0.783
        35 -15.1474     52.8249    245.0754   1.2242754069e+02   1.7550950604e+01     1.086894    0.7168623 -68.91  0.007555178    1.692    0.409
        36 -15.9411      7.4615    133.6900   1.2287711808e+02   4.5836080477e+01      2.33953    0.8576453 -76.98   0.01082391    2.211    0.548
        37 -15.0365     22.6478    126.1291   1.1800524401e+02   4.6497475749e+01     1.075634    0.6615584 -73.43  0.003460367    1.323    0.244
        38 -16.0037     45.9395    217.9797   1.2172308432e+02   2.3478452374e+01     1.426244    0.6911559  76.52  0.007455839    2.174    0.540
        39 -17.3171     30.5635    209.7933   1.2404852339e+02   2.6862880980e+01     3.439027     1.529268  89.98    0.0167711    2.205    0.546
        40 -10.5215     98.4875    143.9907   1.0011643950e+02   3.2617184151e+01    0.2294137    0.2021466  46.14  0.001000224    1.164    0.141
        41 -11.6444     86.6009    142.6188   1.0303387222e+02   3.4884355024e+01    0.3024519    0.2547378 -47.94 0.0004939915    1.224    0.183
        42 -10.6423    107.2921    131.3702   9.5102427753e+01   3.4084049831e+01    0.5309706    0.3155686  51.18  0.002257869    1.845    0.458
        43 -10.2614     96.8122    128.3492   9.7338708105e+01   3.6659992461e+01    0.2832904    0.2264224 -36.11  0.001426611    1.352    0.260
        44 -11.9181    175.7775    119.5259   7.4980742081e+01   2.2216050668e+01    0.6506696    0.4569833  80.55    0.0026187    2.246    0.555
        45  -9.2723    106.7890    120.1851   9.2655028700e+01   3.6828789320e+01    0.2028906    0.1760778 -19.92 0.0003596867    1.295    0.228
        46 -11.7198    167.4126    113.0934   7.5179998053e+01   2.5453511536e+01    0.4652176    0.3603253  74.25  0.001762573    1.640    0.390
        47 -12.9697     12.0316     58.9951   1.0984195783e+02   6.2773977089e+01      1.38749    0.7931277  85.00  0.006370046    3.332    0.700
        48 -13.3215      2.9777     84.0583   1.1807069886e+02   5.7661886013e+01    0.6703886    0.3820241 -79.23  0.002249562    1.594    0.373
        49 -13.7992     11.6527     79.6451   1.1432517686e+02   5.8208570663e+01     1.428712    0.2481616 -57.67  0.005337651    3.094    0.677
        50 -10.6777     60.5488     88.0374   9.8996112606e+01   5.1747254458e+01    0.3288807    0.2888452 -67.54 0.0009977252    1.193    0.161
        51 -11.0330    151.5130     74.6935   6.7849124327e+01   3.6793298755e+01    0.4148116    0.3238155  -8.60  0.001920665    1.517    0.341
        52  -9.7368      1.6870     69.6553   1.1609924865e+02   6.0967026757e+01    0.2424492    0.0974779 -57.77    0.0012541    1.727    0.421
        53 -14.1109    206.8984    104.6478   6.4819049867e+01   1.7893833950e+01     1.782479     1.001263 -36.92  0.005603117    1.679    0.404
        54 -12.2940    234.4466     60.1790   4.9250433506e+01   1.8888442687e+01    0.6763614    0.6450815   4.04   0.00260294    1.232    0.188
        55 -10.6155    242.7867     59.3032   4.8021846698e+01   1.7157460067e+01    0.4260601    0.2577464  70.09  0.002121809    1.831    0.454
        56 -12.3837     90.9725    228.3015   1.1394653566e+02   1.5495533999e+01    0.5433413    0.4315576 -29.27  0.001936626    2.011    0.503
        57 -13.4965     50.1459     52.6463   9.2287287034e+01   6.0676657376e+01    0.7153363    0.5843458  15.48  0.002308749    1.296    0.228
        58 -10.7456    179.8800     56.0718   5.6331107867e+01   3.2786626369e+01    0.4421946    0.3329263 -33.80  0.001618176    1.340    0.254
        59  -9.8345      1.9864     55.4883   1.1313606425e+02   6.4041585561e+01    0.2537996    0.1066076 -51.57  0.001097574    1.669    0.401
        60 -13.3038     83.2131    222.6358   1.1489394147e+02   1.7686400578e+01    0.6463604    0.3870964  60.00  0.001946005    1.516    0.340
        61 -11.3771    149.8765    225.6355   1.0186592112e+02   6.6479922767e+00    0.2053396    0.1811722 -22.10  0.001101107    1.352    0.260
        62 -13.0878    237.0894    219.6639   8.4135341110e+01  -6.6795215332e+00     1.155295    0.6513189  21.46  0.006352432    1.664    0.399
        63 -12.8547    207.3374     39.9322   4.7561038436e+01   2.8184751982e+01    0.8299161    0.6945037 -27.65  0.003209984    1.279    0.218
        64 -12.6753    243.6813    216.1949   8.2350545802e+01  -7.2119184069e+00    0.6983079    0.4230274  39.87  0.003663628    1.732    0.423
        65 -11.0648    152.0379    221.3000   1.0080193190e+02   7.0180548560e+00    0.3320983    0.1918953  46.44  0.001712099    1.548    0.354
        66 -11.2943    227.6836    211.0593   8.4292771937e+01  -4.0806140804e+00    0.3909402    0.2261668 -35.49  0.001862119    1.830    0.454
        67 -12.7549    236.5903    199.8777   8.0593101163e+01  -3.9274609358e+00    0.9566196    0.5882707  14.42   0.00427899    1.686    0.407
        68 -12.4574     50.1029     30.6741   8.3824551981e+01   6.4661089807e+01    0.5891824    0.4758936  54.39  0.002340202    1.946    0.486
        69  -9.6845     88.0448    205.0678   1.1198219745e+02   2.0485165824e+01    0.2092172    0.1535508  69.32 0.0008263447    1.283    0.220
        70 -10.8782     92.1391    201.2018   1.1063727547e+02   2.0671648755e+01    0.3097853    0.2531537  38.23 0.0009769986    1.283    0.221
        71 -11.7231    156.9234    197.7762   9.6042423375e+01   1.0362140944e+01    0.5114328    0.4763049  62.00  0.002685264    1.161    0.139
        72 -10.1301      2.5205     44.5014   1.1027499938e+02   6.6318538256e+01     0.191153    0.1555829 -23.25 0.0008628795    1.250    0.200
        73 -10.9226      2.4864     40.5023   1.0922215358e+02   6.7133341769e+01    0.3801162    0.1908567 -50.03  0.001533631    1.422    0.297
        74 -10.8271    138.0169     44.0170   6.0945458537e+01   4.5171397450e+01    0.2542729    0.2177545 -31.10 0.0005136575    1.208    0.172
        75 -12.0189    138.9252     38.8938   5.8968181216e+01   4.5670568760e+01    0.5259907    0.4191777  54.79  0.002062797    1.198    0.165
        76 -10.3336     95.0319     40.5036   7.1265034040e+01   5.5441155191e+01    0.2273734    0.1853464 -20.75  0.001253213    1.183    0.155
        77 -10.9257     69.6699     36.0798   7.8239352179e+01   6.0826796308e+01    0.5108966    0.2110072  38.69  0.002168862    2.457    0.593
        78 -10.3088    158.2575    189.6886   9.4334917701e+01   1.1645520175e+01    0.2765753    0.1947076 -35.79  0.001400542    1.591    0.371
        79 -12.9899    197.3634     63.1048   5.5352205663e+01   2.7289434011e+01     1.483398    0.9659178  78.23  0.006159917    1.832    0.454
        80 -13.8412    190.8681     77.5824   6.0517835009e+01   2.6519604076e+01     1.678787     1.112136  54.55  0.005623876    1.534    0.348
        81 -14.0514    165.6698    236.9726   1.0036627444e+02   2.2337287340e+00    0.8326547    0.6161539  40.55   0.00245319    1.138    0.121
        82 -14.2603    118.8841     98.3754   8.3492496252e+01   3.9447983784e+01      2.59289     1.892991 -82.52   0.01095844    2.078    0.519
        83 -14.4431    204.5676    120.5078   6.9271663666e+01   1.5507122224e+01     2.305342     1.039253  56.89  0.008201988    2.777    0.640
        84 -13.3948    134.1178     75.8279   7.2507049130e+01   4.0737531098e+01     1.397182     1.062937 -75.76  0.005734933    1.839    0.456
        85 -13.1625    128.8900     86.3735   7.7178550262e+01   3.9842331760e+01     1.712354     1.149413 -74.88  0.006520821    2.567    0.610
