#   1 NUMBER                 Running object number                                     
#   2 MAG_AUTO               Kron-like elliptical aperture magnitude                    [mag]
#   3 X_IMAGE                Object position along x                                    [pixel]
#   4 Y_IMAGE                Object position along y                                    [pixel]
#   5 X_WORLD                Barycenter position along world x axis                     [deg]
#   6 Y_WORLD                Barycenter position along world y axis                     [deg]
#   7 A_WORLD                Profile RMS along major axis (world units)                 [deg]
#   8 B_WORLD                Profile RMS along minor axis (world units)                 [deg]
#   9 THETA_WORLD            Position angle (CCW/world-x)                               [deg]
#  10 FWHM_WORLD             FWHM assuming a gaussian core                              [deg]
#  11 ELONGATION             A_IMAGE/B_IMAGE                                           
#  12 ELLIPTICITY            1 - B_IMAGE/A_IMAGE                                       
         1 -13.5133    113.8148     82.0593   3.1788337398e+01   4.3991325983e+01     2.625717    0.8623943 -39.58  0.007770332    3.376    0.704
         2 -11.0766    248.6927     43.8604   3.5959245745e+02   1.9372615665e+01    0.9679922    0.3036951 -37.47  0.004474422    2.247    0.555
         3 -13.4818    189.8065     44.3156   5.1553062639e+00   3.1651367184e+01      2.11246    0.9818223  44.19  0.004447958    3.048    0.672
         4 -13.2238    187.7682     34.9470   2.8051496177e+00   3.3339928115e+01     1.723061    0.7583982  53.04  0.007231227    2.566    0.610
         5 -13.0676    210.4696     47.3411   3.6882483356e+00   2.6575412797e+01     1.731454    0.8003834 -79.11  0.006418082    3.742    0.733
         6 -13.8550    218.3618     57.4282   5.3536942783e+00   2.3576180561e+01     1.600415     1.123604 -47.82  0.009276059    1.223    0.182
         7 -12.6172     43.2875     24.8394   3.7038884111e+01   7.0296069994e+01     1.186867    0.8883889  47.17  0.003153776    1.448    0.310
         8  99.0000     30.9466     20.8784   4.2842562652e+01   7.2998659703e+01    0.8367622    0.5098488 -42.62  0.003844776    1.611    0.379
         9 -13.3525     61.7260     44.2190   3.6946343307e+01   6.3232578573e+01    0.8729779    0.6397528 -74.21  0.001061203    2.017    0.504
        10 -12.3302     56.7191     24.4961   2.9525661761e+01   6.7799416460e+01     2.119488     1.369275 -84.40  0.007174856    4.613    0.783
        11 -13.3667     55.2871     58.2816   4.5805980639e+01   6.1384266292e+01     2.580847     1.537016  76.81  0.007891629    4.701    0.787
        12 -13.7760     13.7861     33.9574   6.1886632727e+01   7.2133130887e+01     1.185528     1.004873  84.94  0.003179505    1.443    0.307
        13 -12.7025    178.4907     38.4789   4.8763333339e+00   3.5142420818e+01    0.6870027     0.494505  -6.89  0.002013603    1.867    0.464
        14 -11.8212    210.7027     21.9386   3.5730740781e+02   2.9580941462e+01    0.5755244    0.4947519  38.80  0.002566746    1.546    0.353
        15 -12.7998    227.0453     22.7971   3.5637376126e+02   2.5997264271e+01     0.387452    0.2571256  88.95 0.0009647906    1.548    0.354
        16 -11.5791    158.9083     27.1264   3.9115966625e+00   4.1522849534e+01    0.4399638    0.2557773 -13.86  0.001912713    2.285    0.562
        17 -10.5936    102.1115     20.8719   1.1671468648e+01   5.7408462856e+01     0.442382    0.2572405 -26.28  0.001330338    1.884    0.469
        18 -11.0585    153.6556     25.2351   3.9969046964e+00   4.3120370519e+01    0.4628813    0.2917272 -83.80  0.001868848    1.676    0.403
        19 -11.7671    135.8520     19.6670   4.6350308899e+00   4.8498463830e+01    0.5825219    0.4648234  35.61 0.0007816117    1.466    0.318
        20 -10.3060     20.5351     21.5527   5.1135510228e+01   7.4208571270e+01    0.4584608    0.2571118 -76.69  0.001411288    4.028    0.752
        21 -10.9913    123.5675     24.4974   8.5700511083e+00   5.1246066176e+01    0.7090846    0.3730454 -12.94   0.00277058    2.682    0.627
        22 -11.7957    244.5687     22.8572   3.5531375594e+02   2.2521968756e+01    0.5280153     0.249565  82.00  0.002400981    2.375    0.579
        23 -11.4055    201.9764     20.6696   3.5765173567e+02   3.1683442916e+01     0.375694     0.200425 -38.87 0.0009266257    1.599    0.375
        24 -14.1479      3.5480     54.9017   7.4220933355e+01   6.7603355781e+01     3.227013    0.7249025 -72.13   0.01083026    3.556    0.719
        25 -10.4029    187.0944     14.5469   3.5720687715e+02   3.5841913779e+01    0.3797845    0.1702646 -25.98  0.001688462    2.275    0.560
        26  -9.8840    109.2344     10.2510   5.4243251896e+00   5.6663920639e+01    0.4200226    0.3507022  73.84  0.002333402    1.080    0.074
        27 -11.3682    114.8013     12.8047   5.4797211843e+00   5.4911055923e+01    0.4831716    0.2353546 -43.67 0.0006877204    2.158    0.537
        28 -12.3564    115.0275      7.2215   3.0956013374e+00   5.5388168323e+01    0.9237276    0.3957226 -56.55  0.003359414    3.037    0.671
        29  -9.9110    233.2411      6.5520   3.5231848746e+02   2.6434477280e+01     0.452184    0.2074033 -86.20  0.002363794    2.267    0.559
        30 -12.1928    228.1321      9.6783   3.5328027876e+02   2.7160108776e+01    0.3876058    0.2166947 -60.97 0.0003918443    1.516    0.340
        31 -11.3252    220.9442     12.0219   3.5422227347e+02   2.8422084627e+01    0.3568358    0.2622884  72.62  0.001764433    1.497    0.332
        32 -11.7936    220.9173      7.3385   3.5311827951e+02   2.8902378812e+01    0.2400542    0.1680337 -58.54 0.0002955405    1.145    0.127
        33 -12.1989    237.5068      9.5086   3.5276954035e+02   2.5288568560e+01    0.4446074    0.1917644  65.62  0.002242423    2.614    0.617
        34 -12.4405    249.9671     10.7008   3.5244363086e+02   2.2778847905e+01    0.4120349    0.2100592 -28.79  0.001354408    1.776    0.437
        35 -13.5331    244.0268      8.1176   3.5216311091e+02   2.4160822498e+01    0.7875751    0.2819708 -65.30  0.003659121    2.823    0.646
        36  99.0000    229.3872     15.6124   3.5457042437e+02   2.6289965924e+01    0.6408229    0.3253044 -85.75  0.003416454    2.082    0.520
        37 -10.2169     93.2897     12.0763   9.7294138792e+00   6.0712314199e+01    0.2228027    0.1865361 -33.87  0.000319696    1.300    0.231
        38 -11.0665    150.2484     13.2300   4.2895829985e-01   4.5336919132e+01    0.2614182    0.2163634 -36.97  0.001012511    1.260    0.206
        39  -9.4323     88.5432     12.0123   1.0917214892e+01   6.1950566910e+01    0.1919018    0.1435633 -18.15  0.000787854    1.496    0.332
        40 -12.9569     26.1778     38.9656   5.4987573945e+01   6.9842261087e+01      1.75443    0.8018714 -38.28  0.007332229    2.305    0.566
        41 -13.4527     77.0595     22.3898   1.9811729039e+01   6.3558505741e+01     2.040129     1.326089  73.95  0.009271394    1.908    0.476
        42 -10.2702    124.8740      9.5721   2.4885873967e+00   5.2505981121e+01    0.3495555     0.175878 -35.66   0.00153916    2.000    0.500
        43 -10.7520     26.9942      9.5764   3.8520931551e+01   7.5579867919e+01    0.3938684    0.2234911  16.46  0.001632523    2.192    0.544
        44  -9.8616    131.0548      8.9572   1.3565876284e+00   5.0893689562e+01    0.2587906    0.1659988  25.67  0.001136729    2.112    0.526
        45  -9.8839    101.9464     10.0091   6.7731198873e+00   5.8637634076e+01    0.2142385    0.1946386  80.70 0.0007466737    1.051    0.048
        46 -11.6825     87.6367      1.2888   5.6491303839e+00   6.3198161914e+01    0.3869694    0.1144128  66.29 0.0008728763    2.815    0.645
        47 -11.9948     76.1508      5.8310   1.1129898825e+01   6.5727503870e+01    0.6259198    0.3806109  43.26   0.00306073    1.553    0.356
        48 -10.3696     78.7278      9.9610   1.2639573217e+01   6.4662485567e+01    0.2664041    0.1738649  50.97 0.0003781675    1.367    0.268
        49  -9.7857     81.7592      8.6140   1.1019864892e+01   6.4038716201e+01    0.2187251    0.1261505  58.07  0.001020914    1.518    0.341
        50 -10.0117     84.7520      6.9584   9.3223388272e+00   6.3438433330e+01    0.3071821    0.1789206 -21.86  0.001212781    1.903    0.475
        51 -11.9785    193.9539      8.0770   3.5493320417e+02   3.4865629114e+01    0.2734768    0.2388731 -88.86  0.001014648    1.159    0.137
        52 -12.7783    173.2002      6.5770   3.5606557533e+02   4.0062997799e+01    0.3142956    0.2889604 -62.18 0.0005205234    1.125    0.111
        53 -12.1817    174.0000      2.9498   3.5493536686e+02   4.0201785149e+01    0.2839564    0.1692179 -28.79 0.0008448822    1.701    0.412
        54 -11.8689     63.5054      7.7492   1.6596522181e+01   6.8590968624e+01    0.4522385    0.2983064  63.78     0.001461    1.529    0.346
        55 -12.2675     65.4896      2.9996   1.2915455973e+01   6.8614236970e+01    0.3196126    0.2553113  59.08 -0.0002660294    1.159    0.137
        56  -9.7010     46.7757      7.5586   2.4126836448e+01   7.2301741820e+01     0.524089     0.288579  47.29  0.002559335    1.660    0.398
        57 -10.9552     46.2164      2.4000   2.0746712573e+01   7.3042957344e+01    0.2491578     0.192313  15.41 0.0005642916    1.295    0.228
        58  -9.5835    215.5368      8.4429   3.5367777706e+02   2.9945989576e+01    0.1266112   0.09800345 -58.82 6.777608e-05    1.030    0.029
        59  -9.7477    156.6306      7.8826   3.5796843043e+02   4.4184501652e+01    0.2173272    0.1665875  65.81 0.0006061846    1.291    0.225
        60 -10.4090     54.4839      7.9947   2.0582229513e+01   7.0608370183e+01    0.1934869    0.1617178  41.28  0.001128073    1.080    0.074
        61 -10.5846    142.8271      6.7097   3.5905251967e+02   4.7940770706e+01    0.2564564    0.1776618 -44.72 0.0002767704    1.420    0.296
        62 -11.0751      3.9950      5.6372   5.7625966852e+01   7.8936938508e+01    0.4161515    0.2101575 -17.16  0.001225523    2.225    0.550
        63  -9.9458    210.4344      6.0467   3.5338385342e+02   3.1301914003e+01    0.2026221    0.1768602  55.36  0.001116921    1.456    0.313
        64 -10.8587    217.5169      2.5233   3.5215476055e+02   3.0099581046e+01    0.2312683    0.1936067 -76.93   0.00108483    1.151    0.131
        65  -9.9955    213.5050      2.5190   3.5235687109e+02   3.0969116944e+01    0.2690749    0.1507618  61.31  0.001467958    2.058    0.514
        66  -9.4302     91.2703      6.6025   7.5156691823e+00   6.1782300995e+01    0.1465002    0.0991143 -58.66 0.0006982502    1.736    0.424
        67  -9.6651    153.0026      5.5000   3.5755170881e+02   4.5356711423e+01    0.3016438    0.1039768  67.18  0.001161192    2.497    0.599
        68 -11.1304    184.0045      3.3710   3.5433503156e+02   3.7697945418e+01    0.2576984    0.2172961 -89.54 0.0009214362    1.135    0.119
        69 -11.0781     56.5242      3.1787   1.6480794109e+01   7.0693985396e+01    0.4364805    0.2701757  39.59  0.002229203    1.498    0.332
        70  -9.9775    122.3488      3.2526   3.4982720215e-01   5.3757157094e+01    0.2217058    0.1308326 -51.67  0.001038479    1.765    0.433
        71 -10.1817    232.9852      1.9012   3.5129404151e+02   2.6940626639e+01    0.2935306    0.1328758 -78.13   0.00152889    2.195    0.544
        72  -9.8746    154.6250      1.5817   3.5611219270e+02   4.5280758934e+01    0.1316125      0.11855  86.68 0.0002906215    1.099    0.090
        73  -9.5030    203.0492      1.0000   3.5253612069e+02   3.3442571506e+01    0.1774396   0.06488808  80.67 0.0003639742    2.647    0.622
        74 -12.8328    230.4641     47.1542   1.7715138017e+00   2.2445795374e+01    0.8402122    0.6292607  41.05  0.005107188    1.800    0.445
        75 -12.5358    221.4268     38.9875   6.2252296270e-01   2.5289872450e+01    0.7629182    0.3361512 -61.84   0.00132916    2.621    0.618
        76 -13.3606     60.6793     90.4046   5.3322837639e+01   5.2654804745e+01    0.8369401    0.5485258 -89.35  0.002944605    2.119    0.528
        77 -12.4398    175.3451     70.2753   1.4404278583e+01   3.1283843383e+01     1.689696    0.8343382  86.74  0.004696151    5.488    0.818
        78 -10.1019    157.9407     95.4736   2.4675720339e+01   3.0963672596e+01    0.3325855    0.1519102  57.96  0.001199451    2.530    0.605
        79 -11.0369     49.8414     95.1701   5.9018005704e+01   5.2981486945e+01    0.2077999    0.1736657 -31.83 0.0002950702    1.312    0.238
        80 -12.6434     66.5941     82.6977   4.8740998871e+01   5.3630689196e+01    0.9503922    0.6622455  81.21  0.003380702    2.061    0.515
        81 -11.2011    227.0731     92.1173   1.2456569757e+01   1.7027581680e+01    0.2492348    0.2058733  84.29 0.0004429482    1.513    0.339
        82 -11.9509    223.9009     87.0889   1.1709575455e+01   1.8343008541e+01    0.4299744    0.3066646  25.04  0.002366964    1.905    0.475
        83 -12.2819     45.5027     92.6507   6.0320170784e+01   5.4211139884e+01     0.432826    0.3051251  -1.47  0.001995791    1.809    0.447
        84 -11.5888    213.7461     90.6893   1.3872723176e+01   1.9769975874e+01    0.3742433    0.2385327 -67.65 0.0009713508    2.213    0.548
        85 -11.0266    207.0845     89.8110   1.4595378391e+01   2.1229606682e+01    0.3426258    0.1595515 -43.82 0.0008553084    1.968    0.492
        86 -10.5299    167.3970     90.0232   2.1275495131e+01   2.9794331053e+01    0.2790172    0.2228725  60.32  0.000426593    1.315    0.240
        87 -10.3841    248.0319     87.3553   9.0029575027e+00   1.3994516514e+01    0.1836088    0.1332944 -34.40 0.0003446095    1.103    0.093
        88 -11.5364    249.0573     83.2567   8.0259037939e+00   1.4363431733e+01    0.3723811    0.2277609 -57.21  0.002126209    1.827    0.453
        89 -11.9362    236.4413     86.2496   1.0030339619e+01   1.6154249416e+01     0.428276    0.2932053  87.19  0.002417918    2.093    0.522
        90 -11.8570    230.1510     79.6786   9.2741122200e+00   1.8213683833e+01    0.4565231    0.2913301 -38.01  0.001650384    1.296    0.228
        91 -11.7724     47.8652     85.2463   5.7553488094e+01   5.5850111642e+01    0.2949363    0.2591049  21.50 0.0004425897    1.196    0.164
        92 -10.7096    156.6432     86.1439   2.2365722771e+01   3.2996306400e+01     0.457033    0.2708234  75.27  0.001738353    2.536    0.606
        93 -11.7104    162.4772     83.5439   2.0451847091e+01   3.2089099255e+01    0.5574626     0.495555  68.88  0.002688569    1.161    0.139
        94 -12.0458    168.9182     80.5623   1.8393173200e+01   3.1094788918e+01    0.4518425    0.3883933 -77.91 0.0009827593    1.244    0.196
        95 -11.4247    168.6202     76.2549   1.7243071119e+01   3.1895870704e+01    0.5964056    0.3557011  79.40   0.00241081    2.376    0.579
        96 -11.6935    147.9666     84.5060   2.3765562987e+01   3.5361877535e+01    0.4838744     0.410488  70.84   0.00145087    1.237    0.191
        97 -12.3422    147.3532     79.3279   2.2377935533e+01   3.6472543903e+01    0.3693123    0.3073599 -50.99 0.0001892285    1.192    0.161
        98 -10.7473    104.1287     76.0059   3.2794148329e+01   4.7517698254e+01    0.2853433    0.2471491  53.67 0.0005570842    1.135    0.119
        99 -12.5667    216.8299     83.5058   1.1770117844e+01   2.0228974643e+01    0.5804136    0.2356628  51.63  0.002506643    2.763    0.638
       100 -14.8953     45.9765     75.0021   5.5744993141e+01   5.8738092084e+01     3.413563     1.556572  24.80   0.01308613    2.418    0.586
       101 -11.3165     51.0319     34.4861   3.7752462038e+01   6.7137349575e+01     1.053753    0.4895652  36.20  0.001186666    2.176    0.541
       102  -9.4097     73.0351    119.0161   5.5215836470e+01   4.3265619177e+01    0.1788121    0.1711559  65.10            0    1.007    0.007
       103  -9.3561    228.0744    119.0000   1.8227881861e+01   1.2933949335e+01    0.1899287   0.07319182  50.18 0.0008156653    3.035    0.670
       104 -14.2499     10.2094     67.2201   7.2488796738e+01   6.4139120673e+01     2.057687     1.198157  -4.05  0.009996715    1.989    0.497
       105 -10.5486    172.0312    116.6782   2.7185888473e+01   2.3927291646e+01    0.2751418    0.2248759 -62.07 0.0009485868    1.418    0.295
       106  -9.9327    204.1576    116.3411   2.1265755091e+01   1.7609158751e+01    0.2916386    0.1753781  73.37   0.00120229    3.214    0.689
       107 -10.8122    125.8852    115.8812   3.7876580125e+01   3.3910631912e+01    0.2336027    0.2110481   2.26 0.0002648264    1.229    0.186
       108 -13.7944     37.3509     56.7788   5.4652854762e+01   6.4371265408e+01     2.316184     1.039285  27.63  0.009408911    2.287    0.563
       109 -13.1169     51.4022     44.9320   4.2419372915e+01   6.4973986453e+01      1.45803    0.7094975  16.23   0.00412633    5.156    0.806
       110 -13.0977     79.6098     41.2434   2.7973691717e+01   5.9994520117e+01     1.207279    0.4437761  45.62  0.004176046    2.623    0.619
       111  -9.9781    182.9312    115.3025   2.4733917235e+01   2.1938144594e+01    0.1921396     0.180966  38.59 0.0003916287    1.124    0.110
       112 -11.8186     11.9359     24.1639   5.9484499107e+01   7.4473382232e+01    0.3176454    0.2528224  20.29 0.0002988169    1.319    0.242
       113 -14.4093     76.6596     59.0932   3.6581033919e+01   5.7169768619e+01    0.8524327     0.507881  50.31  0.002586842    1.732    0.423
       114 -13.4338     79.0438     50.2383   3.2082576535e+01   5.8454114066e+01    0.9094387    0.6995887  33.47  0.001592921    1.340    0.254
       115 -11.8895     96.2973     56.0465   2.8201867604e+01   5.3380772273e+01     1.819047      0.67766  41.59  0.005738771    3.057    0.673
       116  -9.7699    238.0716     80.9334   8.6763817400e+00   1.6588903629e+01    0.1756947    0.1349129 -47.49            0    1.167    0.143
       117 -10.9923     66.4090     70.1768   4.4892075558e+01   5.6689469011e+01    0.5663805     0.187543  44.08   0.00178073    3.148    0.682
       118 -11.8441     74.0659     75.3539   4.3402888641e+01   5.4049884890e+01    0.7381852    0.4209972  50.99  0.002724232    1.932    0.482
       119 -10.2759     74.5038     70.5655   4.1625954988e+01   5.5076756812e+01    0.2407259     0.198098 -36.66 0.0002041473    1.266    0.210
       120 -10.4511     82.1166     79.1337   4.1474885556e+01   5.1588509942e+01    0.3385817    0.2597125  14.69 0.0009956168    1.626    0.385
       121 -11.2980     86.8915     76.1285   3.8719300275e+01   5.1296816509e+01     0.479708    0.3013349 -46.83 0.0005630028    1.614    0.381
       122 -12.0538     82.7088     71.4041   3.8686093246e+01   5.3232573744e+01    0.4761648     0.382607  39.26 0.0008316536    1.238    0.192
       123 -11.2785    249.6084     74.0840   6.0167911334e+00   1.5464502831e+01    0.2851602     0.250796  13.88  0.001863056    1.437    0.304
       124 -10.3981    240.0112     72.7553   6.6674419884e+00   1.7334399523e+01    0.2668964    0.2083507  47.49  0.001313819    1.589    0.371
       125  -9.7067    244.3023     72.3119   6.1451401854e+00   1.6622615236e+01    0.1544293    0.1216072  36.47 0.0005174279    1.657    0.396
       126 -11.7505     86.2568     63.6010   3.4572882881e+01   5.4166791166e+01    0.4213221    0.3222194 -41.52 0.0009779293    1.343    0.255
       127 -10.1061    155.2897     76.6186   1.9900590567e+01   3.5033676612e+01    0.3298577    0.1826849  59.42  0.001206713    1.876    0.467
       128 -11.7886    246.1483     52.6914   1.7026551059e+00   1.8774872266e+01    0.8561881    0.2615301 -47.46  0.002779547    2.816    0.645
       129 -13.4175    207.0753     68.1265   9.2750279734e+00   2.4463137005e+01     0.910403    0.5433513  48.95  0.004557022    1.953    0.488
       130 -11.0231    127.9131     58.6777   2.0237622615e+01   4.5037312793e+01    0.5596743    0.2840698  38.49  0.001999825    2.587    0.613
       131 -11.8484    173.9544     56.6664   1.0759969610e+01   3.3720809398e+01    0.3496814    0.2848807  62.54 0.0004229528    1.267    0.211
       132 -10.2965    167.2974     51.7790   1.0346847462e+01   3.6083966356e+01     0.526067    0.2277658  46.43   0.00187838    2.817    0.645
       133 -11.2181    163.0101     57.1275   1.2647958011e+01   3.6351407489e+01    0.4414536    0.3705382  68.74  0.002356958    1.192    0.161
       134  -9.5389    156.9569     54.6060   1.2917096998e+01   3.8262539134e+01    0.5228733    0.2366304  63.86  0.001816505    2.241    0.554
       135 -11.5426    160.5241     51.0075   1.1196008165e+01   3.7900982653e+01    0.4756234    0.3756639   3.35  0.001731568    1.698    0.411
       136 -11.5342    145.1367     52.6956   1.4489278524e+01   4.1586026027e+01    0.9262744    0.4940951  26.48  0.002800386    4.406    0.773
       137 -11.3357    142.4878     46.4439   1.2917458096e+01   4.3230109333e+01    0.6772798    0.4174735   1.51  0.002508842    3.047    0.672
       138 -12.5078    161.2363     38.3756   7.1543878490e+00   3.9497325886e+01    0.8221195    0.6559421  85.06  0.003504277    1.213    0.176
       139 -10.9695    163.8050     30.9737   4.4859642688e+00   3.9788817724e+01    0.4484918    0.2471361 -45.81  0.001340506    1.709    0.415
       140 -11.7924    172.2051     44.4708   7.4505477961e+00   3.5897811869e+01    0.4021379    0.3784103  28.47  0.000497428    1.266    0.210
       141 -10.5370     65.5044    114.5181   5.6990389830e+01   4.5622896858e+01    0.1530928    0.1453542  72.98 -5.778927e-06    1.016    0.016
       142 -10.2638    123.7308     53.8091   1.9543430129e+01   4.6941649954e+01     0.343201    0.2067253  64.03  0.001131226    1.692    0.409
       143 -12.1500    238.4178     51.3693   2.0510747268e+00   2.0377620352e+01    0.4092445     0.218617 -53.96  0.001096739    1.733    0.423
       144 -10.5450    131.2581     51.6052   1.7008053794e+01   4.5358362050e+01    0.2997939    0.1737251 -46.09  0.001256442    1.766    0.434
       145  -9.3224     89.8043     51.6077   2.8656876614e+01   5.5750004895e+01    0.1997318     0.143696  60.56 0.0004749477    1.461    0.316
       146 -10.0350     33.9811     49.4673   5.4050848543e+01   6.6523377211e+01    0.2012583    0.1770874 -46.09 -1.296465e-05    1.085    0.078
       147 -11.1171    126.5409     45.3814   1.5842989933e+01   4.7572797499e+01     0.472931    0.2387281  71.70  0.001333883    2.336    0.572
       148 -10.6296    133.1459     46.4724   1.4798181413e+01   4.5672810025e+01    0.3873574    0.3019847 -89.86  0.001298855    1.369    0.270
       149 -11.7997    134.1733     40.8811   1.2607429688e+01   4.6234041625e+01    0.5659149    0.3838206 -51.18  0.001866152    1.518    0.341
       150 -11.3890    154.9697     42.9617   9.5733786128e+00   4.0485553121e+01    0.3205612    0.3090887   7.39  0.001009898    1.208    0.172
       151  -9.9939    103.2698     45.8621   2.2010922171e+01   5.3497657581e+01    0.2673289    0.1770963  32.68 0.0002862728    1.823    0.451
       152  -9.0644     99.2780     46.6531   2.3531182249e+01   5.4358739866e+01    0.1554876    0.1181681 -72.14 0.0007007641    1.635    0.388
       153  -9.5343     80.4285     84.4586   4.3770964689e+01   5.0663877983e+01    0.1530117    0.1524747 -29.39 4.227561e-05    1.027    0.027
       154 -10.8687    214.6651     41.4922   1.8291844839e+00   2.6413021537e+01    0.4352463    0.2373948 -63.49  0.002142987    1.934    0.483
       155 -11.4339     96.7278     42.3524   2.2547521289e+01   5.5716183720e+01    0.6767254    0.2730814  52.88  0.002297119    2.308    0.567
       156 -11.5943     91.1333     34.3397   2.0829179173e+01   5.8382887534e+01    0.6429466    0.2921764  51.73  0.001826542    2.023    0.506
       157 -12.4995    150.5768     41.8157   9.9270830045e+00   4.1787304594e+01     0.503034    0.4616494 -87.23  0.001377763    1.018    0.018
       158 -10.8887    131.8690     33.2326   1.0292466755e+01   4.7908976410e+01    0.4452501    0.2288936 -48.27  0.001815105    2.055    0.513
       159  -9.6101    121.8909     33.0656   1.2239484835e+01   5.0593560935e+01    0.2135467    0.1822606 -76.69 0.0005667846    1.194    0.163
       160 -10.1827    111.8642     32.8832   1.4442798374e+01   5.3275890207e+01    0.2253593    0.1981822  42.70 0.0005459737    1.173    0.147
       161  -9.2041    241.3419     29.9624   3.5706501466e+02   2.2353877580e+01    0.2415908    0.2308081 -61.22  0.001362798    1.264    0.209
       162  -9.6783    237.6516     30.6964   3.5747187737e+02   2.2985275758e+01    0.1816449    0.1451658  68.02   0.00122132    1.491    0.329
       163 -11.1711    227.1878     30.1695   3.5808281011e+02   2.5139023588e+01    0.3394127    0.2986296 -20.67  0.001945802    1.340    0.254
       164  -9.7779    210.1977    112.0018   1.9322407839e+01   1.7168064297e+01    0.2088756    0.1661989  67.64 0.0008221436    1.596    0.373
       165 -12.4145    219.4664     28.3374   3.5821969377e+02   2.6960296089e+01    0.6368653    0.4538912  58.25  0.001729143    1.670    0.401
       166 -10.2585    174.0655    111.9323   2.5621957093e+01   2.4371301477e+01    0.3620299    0.1838495  35.98    0.0011156    2.420    0.587
       167 -10.8768     71.9974    109.8904   5.3616137012e+01   4.5798217988e+01    0.2428607    0.2183427 -67.69  0.001253165    1.110    0.099
       168 -10.7272    103.2342     28.9555   1.4952832858e+01   5.6078850547e+01    0.3805447    0.2732356 -45.02  0.001267567    1.481    0.325
       169  -9.8691    233.6202    109.0509   1.5345057318e+01   1.3437467385e+01    0.1789246     0.136081 -27.42 0.0006242117    1.120    0.107
       170 -10.6025     97.6754     22.1583   1.3375462441e+01   5.8412085700e+01    0.2838374    0.2399935 -26.41 0.0009064592    1.288    0.223
       171  -9.1635    138.6098     29.7516   7.8255592393e+00   4.6560460120e+01    0.1527329    0.1021213  44.11 0.0006947377    1.670    0.401
       172  -9.6540    114.3796     28.2695   1.1975426008e+01   5.3232296482e+01    0.1577024    0.1040147  39.48 0.0006993321    1.691    0.409
       173 -10.0238    233.4321     26.5411   3.5681521288e+02   2.4286493149e+01    0.1887863     0.139531  66.30 0.0005778926    1.589    0.371
       174  -9.5615    234.2327     23.5540   3.5608674991e+02   2.4457641254e+01    0.2655931    0.1760729 -85.26  0.001103901    1.540    0.351
       175 -10.8018    196.0804    107.7243   2.0597095734e+01   2.0582932740e+01    0.3708838    0.2229344 -34.99  0.001798592    1.527    0.345
       176 -10.2128    134.6702     26.7014   7.3969019999e+00   4.7994226656e+01    0.2803613    0.2230683  -0.16 0.0009901372    1.591    0.371
       177 -11.4961     63.4780    108.0097   5.6374920850e+01   4.7640570415e+01    0.2850192    0.2264198  35.29 0.0003383497    1.260    0.206
       178 -10.4986    130.4840     19.4382   5.4030726105e+00   4.9969747548e+01    0.2556426    0.1809039  75.30 4.249061e-05    1.308    0.236
       179 -10.5760     21.0000     26.0358   5.3041253476e+01   7.3228832890e+01    0.3683226    0.2442088 -57.74   0.00197494    1.567    0.362
       180 -12.2600    160.7606    105.1728   2.6646212473e+01   2.8496010601e+01    0.3217883    0.2801213 -65.73 0.0002844321    1.256    0.204
       181 -11.2223    161.2520     99.9718   2.5180939157e+01   2.9368656199e+01     0.271337    0.2563309  73.06 0.0007250391    1.110    0.099
       182 -10.9002    119.3728     22.0369   8.4050915502e+00   5.2667594544e+01    0.2552338    0.1979811  78.57 0.0004007112    1.223    0.182
       183 -10.6234    112.7428     23.2740   1.0273996113e+01   5.4297243822e+01    0.4593956     0.303489  28.40  0.002071627    1.938    0.484
       184 -10.2218    186.9513     24.5252   3.5999174897e+02   3.4782131495e+01     0.235263    0.1561908 -55.72 0.0006741426    1.352    0.260
       185 -10.7071    176.1447     23.7591   8.5495648945e-01   3.7521542227e+01    0.2653137    0.2051336 -29.75 0.0002817235    1.356    0.262
       186  -9.6080    180.2500     21.0241   3.5964638432e+02   3.6812086686e+01    0.3027038    0.1681217  87.89 0.0007995411    1.833    0.455
       187 -12.2801    150.6742    105.7039   2.9017598940e+01   3.0630707134e+01    0.7111052     0.446108  88.09  0.002375868    3.597    0.722
       188 -10.2903    243.9592     19.2129   3.5455769251e+02   2.3028993289e+01    0.2627605     0.148921  86.98  0.001565991    1.898    0.473
       189 -12.9165    143.0462     67.1324   1.9576898546e+01   3.9726630755e+01     1.588708     1.113786  25.37  0.006870499    1.989    0.497
       190 -10.8294    144.4544    103.3374   2.9846809835e+01   3.2497637184e+01    0.4045008    0.3008742 -29.89  0.001598923    1.458    0.314
       191 -10.6615    204.2165     16.7457   3.5647184592e+02   3.1598970455e+01    0.3930092    0.1803383 -89.45  0.001767613    2.365    0.577
       192 -10.2097    162.9602     21.0001   1.4694551518e+00   4.1181835142e+01     0.275207    0.1863352 -69.47 0.0003743815    1.441    0.306
       193  -9.2028    159.4616     18.4657   1.0706986278e+00   4.2367990663e+01    0.2103685    0.1135053 -43.25 0.0005648889    1.735    0.423
       194  -9.9508     86.0170    107.4996   4.8056734414e+01   4.3945139054e+01     0.246951    0.1529177  38.09  0.001032661    1.589    0.371
       195 -10.1585    148.1781     25.0989   4.7148398336e+00   4.4581897352e+01    0.2399444    0.2017205  79.85   0.00108888    1.105    0.095
       196  -9.5558    170.4507     19.4877   1.8029308767e-01   3.9432772375e+01    0.1370095    0.1233515 -76.63 0.0008079913    1.049    0.047
       197  -9.8742    194.1351     17.8322   3.5752907238e+02   3.3813667584e+01     0.215298    0.1443659 -58.30 0.0009806008    1.303    0.233
       198  -9.0717     14.2990     18.6223   5.4817582040e+01   7.5449252748e+01    0.1225297   0.09993313  67.25 0.0007025201    1.758    0.431
       199 -10.7783     15.5018    106.5598   7.5302514577e+01   5.3355400921e+01    0.2700683    0.2152207 -52.74 0.0007771864    1.271    0.213
       200 -10.5999    210.5115    105.2534   1.7731837798e+01   1.8164347499e+01    0.3115813     0.276704  63.39  0.001464265    1.320    0.242
       201 -11.3046    216.0617     99.8821   1.5688942215e+01   1.7936361964e+01    0.3476678     0.210626 -30.65  0.001795874    1.491    0.329
       202 -10.2632     90.9756    104.2871   4.5540766377e+01   4.3797269911e+01    0.2233146    0.1987534  43.44 0.0003310548    1.104    0.094
       203 -11.7372    141.6708     96.2131   2.8566835074e+01   3.4567319628e+01    0.4756606    0.3483354  46.24  0.001155867    1.374    0.272
       204 -10.8786    181.0413    244.0557   4.8575415733e+01   1.8281035718e+00    0.1800727    0.1341622  16.03  0.001299157    1.047    0.045
       205 -13.0314     97.9461     74.8185   3.4411862901e+01   4.9178661019e+01     1.549123    0.8582117 -63.97  0.004626238    2.764    0.638
       206 -11.9560    128.6621     75.3115   2.5568006215e+01   4.1798371132e+01    0.8677478    0.4122197 -35.09  0.002754669    2.300    0.565
       207 -13.4005    120.9268     98.6664   3.4676248918e+01   3.8788464821e+01     0.783632      0.47832 -45.28  0.002304783    1.661    0.398
       208 -14.0646    128.8702     95.9504   3.1733763928e+01   3.7570208333e+01     1.273531    0.7837613  51.27   0.00536273    1.633    0.388
       209 -13.3117    122.7003     87.5127   3.0935719991e+01   4.0770339125e+01     1.270907    0.6654844  44.53  0.003960489    1.920    0.479
       210 -12.4620    137.5831     82.0943   2.5456726289e+01   3.8317880585e+01    0.9770218    0.8282674 -44.68  0.004679681    1.178    0.151
       211 -10.7287     94.2257     15.9965   1.1385308348e+01   6.0041658144e+01     0.222059    0.2151877  74.84 0.0006402016    1.066    0.062
       212 -12.7579    104.9396     65.6206   2.8978004581e+01   4.9459877605e+01    0.8026674    0.5252468  38.67  0.001110986    1.637    0.389
       213  -9.3414    160.0237     14.0336   3.5959284732e+02   4.2691167243e+01    0.1628473    0.1441256 -66.68 0.0004452256    1.053    0.050
       214 -12.7640    102.1769     95.7232   3.9492518524e+01   4.3559170777e+01    0.6224633    0.5331746  71.04  0.001840933    1.266    0.210
       215 -11.7769     95.3357     90.2049   4.0147893689e+01   4.6287709809e+01    0.5036691    0.4431492  68.73  0.001380678    1.199    0.166
       216 -11.4970    123.9533     69.3550   2.4847729025e+01   4.4097240734e+01    0.4643753    0.3185068 -54.99  0.001053663    1.585    0.369
       217 -13.5398    118.1118     61.7838   2.3812363876e+01   4.6964504069e+01    0.9729525    0.6063795 -52.39  0.001067028    1.760    0.432
       218 -11.7266     75.1021    102.2281   5.0659087594e+01   4.7239915658e+01    0.5920349    0.3319826 -89.94   0.00178234    3.980    0.749
       219 -10.9517     74.5707     96.2303   4.9325920089e+01   4.8852742621e+01    0.4290006    0.1969088 -53.05  0.001583587    2.143    0.533
       220 -11.7301    168.9739     98.5989   2.3247595352e+01   2.7896399529e+01    0.6995575    0.4706719   0.92  0.002873415    2.461    0.594
       221 -10.5676     46.8867    101.8965   6.1662115527e+01   5.1575034797e+01    0.2189113    0.1932445 -40.86  0.000269571    1.195    0.163
       222 -11.7960    152.3087     98.5413   2.6736108106e+01   3.1665569133e+01    0.5266174    0.4044891 -60.17  0.002395909    1.441    0.306
       223 -12.4608    199.4978     96.6025   1.7372380784e+01   2.1705061521e+01    0.4091896    0.2773628 -31.02  0.002115847    1.382    0.277
       224 -10.2248     87.6822     97.7939   4.4952096430e+01   4.6025143867e+01    0.3967301    0.3082209  -2.33  0.001366823    1.744    0.427
       225 -11.4763     84.0010     97.8451   4.6273563453e+01   4.6720260936e+01    0.5594972       0.4196 -11.46  0.001862319    1.867    0.464
       226 -11.0219     56.0037     99.2028   5.7367052979e+01   5.1063733432e+01    0.2647048    0.1559814  55.73 0.0009417558    1.991    0.498
       227 -11.5878     11.2869     97.7572   7.6107252828e+01   5.5990618111e+01    0.3947649    0.2561274  86.40   0.00127668    1.481    0.325
       228 -10.0092    249.9902     97.1986   1.0864798439e+01   1.2358915473e+01    0.1936921    0.1470414 -37.70  0.001080287    1.091    0.083
       229  -9.9669    250.5094     93.5741   1.0050434081e+01   1.2757365081e+01    0.2014369     0.126665 -29.30  0.000555094    1.324    0.245
       230  -9.5809    244.5217     96.9374   1.1423556207e+01   1.3293592150e+01    0.1863721    0.1002596 -32.68 0.0004911863    1.511    0.338
       231 -10.1775     27.2767     96.9421   6.9079239095e+01   5.5019777776e+01    0.2067409    0.1764705 -76.23 0.0005474575    1.091    0.083
       232  -9.6369    218.5194    239.5262   4.1331515849e+01  -1.9435379888e+00    0.1088643   0.07783726   6.31 0.0001922949    1.024    0.024
       233 -10.2985     15.9406    238.6671   8.2765124646e+01   2.2338185236e+01    0.1662892    0.1431888  83.58 0.0006083676    1.348    0.258
       234  -9.7810    236.7385    146.0069   2.2511564471e+01   7.6998624770e+00    0.1684276    0.1291384 -20.75 0.0003571731    1.064    0.060
       235 -11.0903    154.2401     63.1864   1.6068881027e+01   3.7584011604e+01    0.7688047    0.3518834 -47.26  0.002904221    2.247    0.555
       236 -11.5707    136.8988     59.7260   1.8522264193e+01   4.2559859538e+01    0.8110014    0.3563605 -34.18  0.001454853    2.364    0.577
       237 -13.6644    176.5594     84.4566   1.8079761815e+01   2.8666958745e+01      2.53619     1.467705   4.42  0.007019482    5.933    0.831
       238 -12.2460    163.8390     65.6368   1.5041130946e+01   3.4803080907e+01     1.081808    0.5005002  55.12  0.004299663    2.161    0.537
       239 -13.2719    186.8043     60.1912   9.8795866270e+00   3.0137364046e+01      1.42417    0.8913554  50.93  0.003675597    1.768    0.434
       240 -14.3012    196.4435     81.5326   1.4100225634e+01   2.4732454839e+01     2.079958     1.460658   1.69   0.00991147    2.110    0.526
       241 -12.5146    206.7231     79.2658   1.2079761896e+01   2.2903204293e+01    0.6545659    0.2532853  56.37  0.001718716    2.796    0.642
       242 -11.9509    209.1268     58.3209   6.5807255476e+00   2.5401348474e+01    0.3569556    0.2649778 -73.02  0.001182239    1.422    0.297
       243  -9.6134    147.7334    128.5727   3.5385586447e+01   2.6638171445e+01    0.1944922    0.1426024  53.24 0.0003822648    1.461    0.316
       244 -12.1245    234.1092     37.0679   3.5916275772e+02   2.2943977221e+01    0.4804891      0.22287 -64.80  0.001181701    2.451    0.592
       245 -13.5052    242.9100     60.6248   3.7160922129e+00   1.8377884688e+01     1.062835    0.5884805  66.59  0.001170898    2.155    0.536
       246 -13.8573    217.3955     69.2299   8.3019521820e+00   2.2160557736e+01       1.4286    0.7789099  73.32  0.006912685    2.311    0.567
       247 -13.0373    201.0868     61.7857   8.4177365402e+00   2.6667582185e+01     1.117354    0.6962671  38.73  0.005365108    2.170    0.539
       248  -9.9197    222.0371    124.9808   2.0379589182e+01   1.3067000436e+01    0.1904175    0.1613897 -21.45 0.0003584936    1.017    0.016
