#   1 NUMBER                 Running object number                                     
#   2 MAG_AUTO               Kron-like elliptical aperture magnitude                    [mag]
#   3 X_IMAGE                Object position along x                                    [pixel]
#   4 Y_IMAGE                Object position along y                                    [pixel]
#   5 X_WORLD                Barycenter position along world x axis                     [deg]
#   6 Y_WORLD                Barycenter position along world y axis                     [deg]
#   7 A_WORLD                Profile RMS along major axis (world units)                 [deg]
#   8 B_WORLD                Profile RMS along minor axis (world units)                 [deg]
#   9 THETA_WORLD            Position angle (CCW/world-x)                               [deg]
#  10 FWHM_WORLD             FWHM assuming a gaussian core                              [deg]
#  11 ELONGATION             A_IMAGE/B_IMAGE                                           
#  12 ELLIPTICITY            1 - B_IMAGE/A_IMAGE                                       
         1 -15.1770    207.6955     75.5664   5.5495789827e+01   2.3565502326e+01     7.135733     3.315444  60.16   0.03008363    2.423    0.587
         2 -12.7525    234.0967     30.8180   4.0945813010e+01   2.3635956332e+01     1.247375    0.6458313  -1.28  0.004828168    3.732    0.732
         3 -12.8991    217.2688     37.7821   4.4279542421e+01   2.6506195768e+01     2.381989    0.8329647 -29.42  0.009402439    2.472    0.595
         4 -15.4750    244.6728     41.5140   4.2671232364e+01   2.0227124669e+01     5.548727     3.756601 -18.71   0.02659914    1.490    0.329
         5  -8.5551    223.1896      9.1927   3.6279615705e+01   2.8312796268e+01    0.2013599    0.1631426 -17.03 0.0006079286    1.344    0.256
         6  -8.0270    219.4937      7.8587   3.6181867303e+01   2.9276495844e+01     0.192073    0.1119802 -30.76 0.0006490161    1.527    0.345
         7  -7.9697    122.9801      8.0220   4.6925013600e+01   5.3851004136e+01     0.167566    0.1632974 -22.07 0.0003322768    1.080    0.074
         8  -9.6032    227.9914      5.9845   3.5156318069e+01   2.7561668039e+01    0.2440441     0.210324  20.06 0.0005190759    1.495    0.331
         9  -8.5258    158.1174      5.6297   4.0923224158e+01   4.4729317720e+01    0.2577928    0.2109074  -5.08  0.001025372    1.392    0.282
        10  -7.9228    210.5219      3.2949   3.5573706936e+01   3.1781119366e+01    0.1604392    0.1228006  -6.35 0.0008343815    1.554    0.356
        11  -7.2720     58.6791    172.2788   1.1058255660e+02   3.2230568357e+01    0.1354492   0.08049585  58.70 0.0001884758    1.582    0.368
        12  -7.7295    229.2849    166.6932   7.2560888231e+01   6.4007856041e+00     0.104105   0.09519309 -42.63 0.0003161575    1.565    0.361
        13 -10.2024     40.6834    154.5032   1.1359888710e+02   3.8295009407e+01     0.359579    0.2851055 -42.93  0.001106569    1.593    0.372
        14 -11.4837     48.4511    150.9120   1.1110931359e+02   3.8284024881e+01    0.7915453    0.6324273 -75.12   0.00327448    1.230    0.187
        15 -11.2673     55.4893    147.9498   1.0880941578e+02   3.8156902722e+01    0.7431485    0.4710357 -89.97    0.0027932    1.636    0.389
        16 -10.7182    233.4707    150.3254   6.8724302854e+01   7.9161534216e+00    0.5112252    0.2767098  -6.15  0.001723471    2.503    0.600
        17  -8.2949    133.1890    148.8337   8.8264173805e+01   2.5875341163e+01    0.2766367    0.2150157 -87.87  0.001323579    1.753    0.430
        18 -10.8962     68.0537    143.8500   1.0471886922e+02   3.7519657758e+01    0.6581023    0.4684389  79.60  0.003465846    1.484    0.326
        19 -11.1457    241.0556    144.0807   6.6315158489e+01   7.5526024005e+00    0.3321901     0.275471  -4.69  0.002240692    1.038    0.037
        20  -8.5131    226.7867    144.4006   6.8584261395e+01   9.7965166159e+00    0.1737431    0.1081477  28.65 0.0003865461    1.655    0.396
        21  -8.5479    131.9754    141.2691   8.7068758100e+01   2.7641923452e+01     0.293428     0.203781 -60.08 0.0008022372    1.657    0.397
        22 -10.9222    242.4037    135.0519   6.4272749630e+01   8.5253341938e+00      0.48328    0.2195217  48.17  0.002356333    2.564    0.610
        23 -10.0186    248.8029    144.4367   6.5253991278e+01   6.3173960264e+00     0.509638    0.1656984  36.90  0.002112499    3.548    0.718
        24  -7.4623    187.2906    140.6360   7.4761271063e+01   1.7314165188e+01    0.1312414     0.110208 -71.57  0.000702646    1.702    0.413
        25  -9.4876    248.7373    130.6395   6.2458777140e+01   8.0929270225e+00    0.2965472    0.1859608  22.55  0.001643517    1.793    0.442
        26 -11.3335    241.7413    127.6688   6.2823793461e+01   9.6129414240e+00    0.4907046    0.3633223  55.22  0.002974416    1.781    0.438
        27  -8.8082    160.0508    130.6911   7.8217452895e+01   2.4325106486e+01    0.2710411      0.24942 -74.20  0.001171788    1.283    0.220
        28  -9.8945    222.6730    129.6684   6.6136491753e+01   1.2583906506e+01    0.3014743    0.2286533  77.27  0.001600859    2.282    0.562
        29  -9.5012    213.1795    129.9196   6.7745699002e+01   1.4242614201e+01     0.201747    0.1783413 -43.84  0.001231605    1.309    0.236
        30  -7.7528    173.6673    130.3154   7.5219399431e+01   2.1699872469e+01    0.1384874     0.115641 -85.88 0.0007046561    1.686    0.407
        31 -10.0346    197.6095    127.0658   6.9832406043e+01   1.7589716147e+01    0.4633598    0.1470404 -38.62  0.001474162    2.992    0.666
        32  -9.4937    217.6142    125.8497   6.6115237100e+01   1.4045807392e+01     0.253909    0.1967588 -54.86   0.00142061    1.676    0.403
        33  -9.1256    182.0296    126.0205   7.2549077093e+01   2.0800684874e+01    0.2177041    0.1784656 -74.50  0.001129041    1.708    0.415
        34  -9.9980    226.6766    123.4769   6.4156729444e+01   1.2766184364e+01    0.2941671    0.2488541 -56.45  0.001093902    1.535    0.349
        35 -10.1313    202.6621    122.2434   6.7831749627e+01   1.7391570554e+01    0.3835973    0.2077704 -49.29   0.00167233    2.287    0.563
        36  -9.3800    189.0755    124.2692   7.0780534190e+01   1.9706658695e+01    0.2465228    0.2047684  68.46  0.001336275    1.553    0.356
        37  -9.9891    248.3183    117.2041   5.9681318944e+01   9.9112134170e+00    0.3957587    0.2361785 -53.69  0.001966289    2.523    0.604
        38 -11.6368    242.1971    111.8040   5.9333159348e+01   1.1665185402e+01    0.6114653    0.3938554 -23.74  0.003344611    1.348    0.258
        39 -10.2894    242.4534    119.4611   6.0968410297e+01   1.0592577799e+01    0.3004382    0.2374513  73.87  0.001552218    1.963    0.491
        40  -8.9469    212.6463    123.2834   6.6360344442e+01   1.5342532725e+01    0.2238846     0.171104  59.76   0.00113445    1.671    0.402
        41  -8.3046    170.7736    122.8598   7.4104460714e+01   2.3620322354e+01    0.1886549     0.173146 -78.80 0.0003927185    1.316    0.240
        42  -9.2527    141.1228    122.8986   8.0826484232e+01   2.9650333464e+01     0.230217    0.2018124  84.59 0.0007286726    1.350    0.259
        43  -7.8295    245.6983    243.3010   8.2387161118e+01  -4.1383501129e+00   0.08404857   0.06956476  18.65 0.0002472956    1.587    0.370
        44  -9.8196    176.1495    113.4789   7.0745882813e+01   2.4196033908e+01    0.3482261     0.196835 -27.06  0.001475142    1.978    0.494
        45  -8.3906    157.9783    114.4977   7.4862469258e+01   2.7830390867e+01     0.225351    0.1448283  45.97 0.0008113279    1.561    0.359
        46  -9.3704    126.0975    114.1356   8.2557201481e+01   3.4528826361e+01    0.2789378    0.2051566  50.38   0.00088469    1.378    0.274
        47  -9.4533    168.3489    112.4698   7.2106229651e+01   2.6019302255e+01    0.3728611    0.2436467 -64.43  0.001566012    2.303    0.566
        48 -12.1509    235.6955     81.9826   5.3340112718e+01   1.6895203946e+01    0.8344495    0.5466307 -50.02   0.00110387    1.608    0.378
        49 -10.2742    133.9855    109.4957   7.9353941601e+01   3.3892996044e+01    0.3706624     0.328031 -67.02   0.00110369    1.225    0.183
        50  -8.6896    116.1383    110.8964   8.4474765361e+01   3.7229630366e+01     0.234785    0.2069393  80.76 0.0007793953    1.247    0.198
        51 -10.4379    190.3947    108.3927   6.6748990792e+01   2.2098639524e+01    0.4049931    0.3342565 -77.46   0.00151313    1.627    0.385
        52 -10.1348    194.7073    103.4529   6.4748132246e+01   2.2014462758e+01    0.5487913    0.3059907 -50.89  0.002346627    2.157    0.536
        53 -11.1560    186.7084    102.6481   6.5996095416e+01   2.3838069636e+01    0.7470663    0.3920856  52.63  0.003211298    2.043    0.511
        54 -11.1654    229.1069    101.8972   5.8910885756e+01   1.5396658061e+01    0.6548634    0.2882478 -50.43  0.002476892    3.360    0.702
        55  -8.9509    165.9841    106.6663   7.1145234361e+01   2.7592431288e+01    0.2090966    0.1984837  49.97 0.0009945219    1.102    0.093
        56 -10.7008    148.6317    103.9477   7.4323527393e+01   3.1886627190e+01    0.5101746    0.3674345  16.93  0.002281236    1.835    0.455
        57  -9.9814    145.4652    101.5411   7.4438783740e+01   3.3055712770e+01    0.3099886    0.2525451 -37.35 0.0008684053    1.226    0.184
        58  -9.3913    141.1352    105.8545   7.6626441682e+01   3.3127883444e+01    0.2398093    0.2148422 -87.86  0.001243847    1.273    0.215
        59  -9.5045    125.4436    106.4966   8.0825736264e+01   3.6309823713e+01    0.2676056    0.1488969 -45.67 0.0006449309    1.804    0.446
        60  -7.6015    107.3107    105.6945   8.5717917064e+01   4.0130391322e+01    0.1534916    0.1189213  80.88 0.0003456132    1.614    0.381
        61  -9.7429    183.6566    109.4494   6.8275415263e+01   2.3326672231e+01    0.2759735    0.2494314 -83.51 0.0009230318    1.352    0.260
        62 -11.0682    158.7257     99.1746   7.0756091307e+01   3.0581186729e+01    0.5635533    0.5335503 -75.58  0.003088632    1.147    0.128
        63  -7.9499    216.8834    232.8051   8.5449607949e+01   2.1829049031e-01    0.1334113    0.1032679  24.19 0.0003446967    1.283    0.221
        64 -11.4086    221.8775    105.8241   6.0883825293e+01   1.6202419472e+01     0.497925    0.3951828 -72.30  0.002765964    1.789    0.441
        65 -12.3211    224.9104     69.3335   5.1584670026e+01   2.0773459665e+01    0.9538801    0.6779521  62.97  0.002662362    1.612    0.379
        66 -10.1839    134.4554     99.1762   7.6530227030e+01   3.5941413712e+01    0.5282019    0.3500672 -82.77  0.001982201    2.755    0.637
        67  -8.4720    155.1935    108.3884   7.3956956022e+01   2.9598027345e+01     0.212566    0.1421406  58.16 0.0009462146    1.698    0.411
        68  -9.9098    113.0533     96.3514   8.1600529530e+01   4.1087340034e+01    0.3082925    0.2287583 -56.32  0.001450296    1.392    0.282
        69  -7.8085    215.6304    215.8089   8.3178211698e+01   2.2573203339e+00    0.1339378   0.09879307 -35.24 0.0004177314    1.711    0.416
        70 -10.7851    213.1099    105.6701   6.2203104526e+01   1.7926062705e+01    0.4596544    0.2682523 -45.06  0.002199606    1.784    0.439
        71  -9.9441    141.8777     92.4888   7.2824298216e+01   3.5652214290e+01    0.4925458    0.2969388 -25.11  0.001961079    2.130    0.530
        72 -10.0341    121.1395    100.3637   8.0393138649e+01   3.8531592835e+01    0.3360019    0.2513616 -51.47  0.001284227    1.352    0.260
        73  -9.3465    116.4704     91.0543   7.9139814983e+01   4.1534854288e+01    0.2419069    0.2077135  47.66 0.0009204999    1.173    0.148
        74  -9.9422    129.0642     88.1049   7.4820950777e+01   3.9413636080e+01    0.3785352    0.2544349  62.92  0.001632418    1.762    0.432
        75 -10.3076    121.3239     87.7991   7.6830880480e+01   4.1186503177e+01     0.364466    0.3301844  80.92  0.001445545    1.198    0.165
        76  -9.7382    121.0297     82.5024   7.5335133480e+01   4.2361620376e+01    0.2518714    0.2060086 -43.85 0.0006895892    1.211    0.174
        77 -10.3145    235.0657    208.4892   7.8868002816e+01   5.8149623555e-01     0.193292    0.1498073   4.87 0.0002977125    1.094    0.086
        78  -9.7161    133.6858     84.3382   7.2508296325e+01   3.9133969119e+01    0.3327618     0.253039 -75.06  0.001329064    1.701    0.412
        79 -10.2530    143.0410     82.4756   6.9639961293e+01   3.7339033194e+01    0.4362843    0.4122695  -0.76  0.002314297    1.114    0.102
        80  -9.7610    137.8803     80.8884   7.0417253507e+01   3.8846946049e+01    0.3431689    0.2762741 -49.16 0.0009314073    1.253    0.202
        81 -10.0440    126.0795     83.0953   7.4131541055e+01   4.1110147835e+01    0.3615654    0.2187415 -47.39  0.001523577    1.665    0.399
        82  -9.4114    104.0627     81.1935   7.9941385707e+01   4.6293399076e+01    0.2516628    0.2316306 -35.69 0.0003203625    1.102    0.092
        83 -10.6468    127.9250     76.8054   7.1703186376e+01   4.1957042773e+01     0.548646     0.301188 -61.86  0.001901485    2.851    0.649
        84 -10.1668    117.1333     79.2536   7.5437294382e+01   4.3901992641e+01    0.4191467    0.2046199  41.44  0.001367036    2.171    0.539
        85  -9.5714    133.2284     77.4944   7.0543222145e+01   4.0590991957e+01    0.2992086    0.2136282 -40.54  0.001068792    1.384    0.277
        86  -8.4412    120.2824     73.6367   7.2768925321e+01   4.4344413828e+01    0.1596666    0.1214002 -74.24 0.0007016832    1.682    0.405
        87  -9.4373    127.9936     69.3016   6.9275769858e+01   4.3403621778e+01    0.2248307    0.2014866  45.31  0.000918289    1.131    0.116
        88  -9.0789    182.0650    120.3141   7.1212226507e+01   2.1780352493e+01    0.2004164    0.1834481  32.80 0.0006695414    1.110    0.099
        89  -8.9618    162.8167    119.1286   7.4919734365e+01   2.5941713034e+01    0.2202594    0.2046205 -81.48 0.0008632904    1.254    0.203
        90 -10.0570    150.6120     66.2800   6.2921090068e+01   3.8484071422e+01    0.4528624    0.2656713 -41.90  0.001868572    1.666    0.400
        91 -10.5658    136.6320     63.3761   6.5151429622e+01   4.2423392069e+01    0.4613779     0.268191 -46.98  0.001314292    1.776    0.437
        92 -11.2134    139.7133     57.9830   6.2616437308e+01   4.2607784976e+01    0.5637403    0.4181468  81.17  0.001893685    1.635    0.389
        93 -11.0530    152.8883     56.0342   5.9135753204e+01   3.9631900369e+01    0.6944629    0.2580127 -34.51  0.002018916    2.574    0.612
        94 -12.2202    146.1079     56.4754   6.0692433793e+01   4.1263472273e+01     1.283873     0.544566 -50.58  0.004232169    2.993    0.666
        95  -9.5578    185.8897    116.8649   6.9650378158e+01   2.1596550581e+01    0.3622008    0.2497359 -75.96   0.00152653    2.715    0.632
        96  -9.9209    128.2010     57.1864   6.5103800411e+01   4.5589528941e+01    0.2490346     0.208487 -59.88 0.0006386033    1.278    0.218
        97 -10.8685    150.7001     46.8648   5.6501289437e+01   4.1622043562e+01    0.5100213      0.22739 -39.98   0.00193057    2.154    0.536
        98  -9.2897    134.8851    117.3120   8.1052346100e+01   3.2070401295e+01     0.245966    0.1907519  62.61  0.001191022    1.464    0.317
        99 -10.1185    194.3275    115.3731   6.7718535649e+01   2.0138867729e+01    0.3127242    0.2661695 -56.11  0.001143737    1.376    0.273
       100 -10.5645    132.9887     39.4725   5.7526507006e+01   4.7288380380e+01    0.3961412    0.2419095 -49.40  0.001701491    1.768    0.434
       101  -8.1693    166.3034     34.3139   4.9583785830e+01   3.9363708812e+01    0.1478545    0.1110404  28.69 0.0002988923    1.617    0.381
       102  -8.2222    157.5229    120.7352   7.6476314313e+01   2.6730060706e+01    0.2014385    0.1392252 -53.60 0.0009345174    1.633    0.388
       103  -8.3939    134.5017     27.5226   5.2663767713e+01   4.8568159284e+01    0.1481817    0.1413188 -78.45 0.0008098311    1.046    0.044
       104  -8.4757    162.9178     26.1668   4.7368746418e+01   4.1264886978e+01    0.2165197    0.1809759 -61.64 0.0002834102    1.182    0.154
       105  -9.4817    131.1710     21.9696   5.1138902721e+01   5.0143828789e+01    0.4242329    0.2163349  70.30  0.001062931    2.042    0.510
       106  -8.0971    204.5060    205.4956   8.3494015877e+01   5.0008106235e+00    0.1172337   0.09311885  13.60 0.0008103743    1.037    0.035
       107  -7.6902    205.2022    200.4007   8.2560322789e+01   5.5507395606e+00     0.152086   0.09822223  38.80 0.0003715381    1.549    0.354
       108  -7.6848    172.4944    195.0121   8.7772012748e+01   1.1136820775e+01    0.1610779   0.09839145 -12.05 0.0004773822    2.259    0.557
       109 -11.0019     12.5329    169.2719   1.2189211941e+02   3.7572355293e+01    0.7828353    0.4273134 -89.90  0.004512861    1.637    0.389
       110 -10.5712      6.8125    168.4632   1.2325202354e+02   3.8202258088e+01    0.6261562    0.2608306 -88.40  0.003184533    2.158    0.537
