#   1 NUMBER                 Running object number                                     
#   2 MAG_AUTO               Kron-like elliptical aperture magnitude                    [mag]
#   3 X_IMAGE                Object position along x                                    [pixel]
#   4 Y_IMAGE                Object position along y                                    [pixel]
#   5 X_WORLD                Barycenter position along world x axis                     [deg]
#   6 Y_WORLD                Barycenter position along world y axis                     [deg]
#   7 A_WORLD                Profile RMS along major axis (world units)                 [deg]
#   8 B_WORLD                Profile RMS along minor axis (world units)                 [deg]
#   9 THETA_WORLD            Position angle (CCW/world-x)                               [deg]
#  10 FWHM_WORLD             FWHM assuming a gaussian core                              [deg]
#  11 ELONGATION             A_IMAGE/B_IMAGE                                           
#  12 ELLIPTICITY            1 - B_IMAGE/A_IMAGE                                       
         1 -15.9625    241.4614     95.4481   7.8209216492e+01   1.2010343959e+01     9.127985     1.703698 -39.90   0.02540834    4.435    0.775
         2 -13.3051    183.1664     80.8011   8.4400318525e+01   2.8281296239e+01     5.980728    0.3515722 -40.64   0.01091475    9.412    0.894
         3 -14.0863    186.5163      7.2781   6.4215646098e+01   3.7615932201e+01     2.725933     1.206033 -80.70  0.009528723    4.014    0.751
         4 -14.7487    207.3354     35.4682   6.8664597324e+01   2.9308616913e+01     1.535882     1.425157 -25.22  0.007090811    1.294    0.227
         5 -14.8420    166.8925     52.1120   7.9527932943e+01   3.6971897881e+01     5.883747     2.267527  72.84  0.003646524    6.937    0.856
         6 -14.0036    216.7595     26.2954   6.5306032649e+01   2.8215785575e+01     0.792531    0.7001112 -74.42  0.003381406    1.070    0.065
         7 -13.9202    225.0044     17.1745   6.2334260768e+01   2.7379196575e+01    0.7113481    0.3452944 -67.41  0.003189802    2.376    0.579
         8 -13.6536    235.1785     26.0782   6.3274919726e+01   2.3951850200e+01    0.4745427    0.2790383 -76.05  0.002330079    1.753    0.430
         9 -12.3733    123.8823     25.0047   7.9932820719e+01   5.0646172213e+01    0.3276372    0.2835169 -66.72  0.001957926    1.438    0.304
        10 -10.4502    250.4235     17.3651   6.0017911421e+01   2.1637507930e+01    0.2559584    0.1265522 -40.99  0.000624672    1.864    0.463
        11 -11.6874    240.6337     13.7270   6.0118403592e+01   2.4227062895e+01    0.6487882    0.3494177  71.64  0.002779564    1.695    0.410
        12 -13.3862    231.9985      3.4284   5.8707667473e+01   2.7322703413e+01     0.997086    0.5175439  86.98  0.005193416    1.801    0.445
        13 -11.8186    250.0210     10.9293   5.8753028018e+01   2.2492382367e+01    0.3258952    0.1734746 -49.15  0.001806155    1.645    0.392
        14 -12.6374    248.1348      3.1312   5.7348631544e+01   2.3788755699e+01    0.5743987    0.3406136  89.07   0.00291236    1.481    0.325
        15 -12.1090    151.5084      2.0604   6.7522634815e+01   4.6489071227e+01     1.331462    0.1596076  57.83  0.004200353    4.131    0.758
        16 -13.8501    106.4400      5.7656   7.7155573964e+01   5.6296029050e+01     1.655533     0.725572  31.34  0.007287129    2.642    0.621
        17 -12.6357    128.5118      4.0240   7.1998422833e+01   5.1642832868e+01    0.8170435     0.447663  73.18  0.004030211    1.999    0.500
        18 -13.1465    136.5780      3.1388   7.0266529145e+01   4.9879930087e+01     1.334463    0.8614761  65.26  0.007512925    1.373    0.272
        19 -14.0405    118.9264      6.7872   7.4805189072e+01   5.3539415371e+01      1.48015    0.5265489  44.35   0.00627423    2.479    0.597
        20  -9.8695    221.6282      7.0019   6.0404533372e+01   2.9307571714e+01    0.1723984    0.1435969 -59.68  0.000958495    1.179    0.152
        21 -10.7244    215.2625      2.6311   6.0031983933e+01   3.1245440335e+01     0.338708    0.2478216 -61.87  0.002093129    1.276    0.217
        22 -12.0743    178.1206     63.7110   8.0692240792e+01   3.2412631298e+01    0.3186416    0.2709503  49.31 0.0003948723    1.188    0.158
        23 -13.5579    217.0064    117.2052   8.7333524802e+01   1.3510712813e+01    0.7519714    0.4771845  44.57  0.003400601    1.702    0.412
        24 -11.9554    199.4929    120.0988   9.1324542159e+01   1.6947165372e+01    0.5423577    0.2996565  69.75  0.001913201    2.862    0.651
        25 -10.1234    167.5322    113.2558   9.6293150425e+01   2.5791942091e+01    0.3537634    0.2480331 -74.98  0.001459764    1.982    0.495
        26 -10.8054    134.7743    105.6796   1.0209124279e+02   3.4806279473e+01    0.5648791    0.3658531 -33.43  0.002438969    1.686    0.407
        27 -12.1530    204.6600    110.5826   8.7990662000e+01   1.7593479210e+01     0.481979    0.3372002  31.50  0.002152529    1.793    0.442
        28 -12.0041    197.3814    101.7729   8.7159502815e+01   2.0983330868e+01    0.3364736    0.2321215 -47.77 0.0007380454    1.422    0.297
        29  -9.8620    141.0715    100.5025   9.9111941549e+01   3.4500985426e+01    0.2347376    0.1525623  47.45  0.001020597    1.554    0.356
        30  -9.9796    124.2808     99.7780   1.0319808584e+02   3.8281377457e+01    0.2498059    0.1797313   1.30  0.001060703    2.081    0.519
        31 -13.7017     13.7491    220.7625   1.4849543278e+02   2.7104023362e+01     0.796469     0.330441 -70.10   0.00455893    2.055    0.513
        32 -11.1047    147.0642     94.6666   9.6041701712e+01   3.4324234355e+01     0.357255    0.2984276   4.27 0.0008775819    1.456    0.313
        33  -9.9065    246.6356    226.7011   1.0494626675e+02  -1.0716867632e+01    0.1303991   0.08206075   8.70 0.0007033573    1.724    0.420
        34 -10.0209    206.3527     93.0701   8.3312908694e+01   2.0457388318e+01    0.3012718     0.201201  82.36  0.001291308    1.966    0.491
        35 -10.4012    133.5661     92.6187   9.8796749069e+01   3.7764071276e+01    0.2785266    0.2494081  88.33 0.0008445175    1.265    0.210
        36 -12.0512    154.9738     86.5134   9.1904847951e+01   3.4061337933e+01    0.6345227    0.3573343 -22.92  0.002139912    2.549    0.608
        37 -12.1531    158.0198     83.9879   9.0505084206e+01   3.3810661613e+01    0.4650144    0.3552811 -28.93  0.001679948    1.410    0.291
        38  -8.9917    205.3009    223.7046   1.1202821562e+02  -3.4756766952e+00    0.1200972    0.1023142  69.16 0.0002708445    1.574    0.365
        39 -11.6313    140.4753     83.0861   9.4340448444e+01   3.8074560240e+01    0.3405213    0.3176211 -46.99  0.001068553    1.085    0.079
        40 -12.6166    192.0738     50.4034   7.4686267136e+01   3.0988528090e+01    0.5259627    0.3406207  30.95  0.002127856    2.215    0.549
        41 -12.8311    154.2879     73.1048   8.8216118121e+01   3.6659421151e+01    0.3776464    0.3144999 -32.47 0.0009390977    1.245    0.197
        42  -9.5682    130.5379     66.4828   9.1814542972e+01   4.3294630824e+01    0.1458307    0.1383267  17.20 8.667744e-05    1.034    0.033
        43  -9.7693    141.1013     59.4758   8.7120655859e+01   4.2043002852e+01    0.2408445    0.2034804 -65.27  0.001269044    1.370    0.270
        44 -13.2428    172.2431     70.5989   8.3735736124e+01   3.2729860025e+01    0.9548949    0.7470772  40.39  0.002029994    1.363    0.266
        45 -10.0648    240.2504     46.8955   6.7326417083e+01   1.9992614165e+01    0.2565275    0.2045436  47.79  0.001478669    1.552    0.356
        46 -10.0922      3.6847    157.7086   1.4546368743e+02   4.1381584805e+01    0.1101807   0.07223452 -54.19 0.0002309881    1.595    0.373
        47 -12.4413     67.9145    144.3406   1.2849332693e+02   3.7773048863e+01    0.6451504    0.4031596  66.13  0.002701856    1.980    0.495
        48 -10.4026    101.3184     41.3319   9.1262006502e+01   5.3341049135e+01    0.1412948   0.09641889  13.71  0.000704803    1.691    0.409
        49 -10.2639     95.5343     40.0083   9.2442225815e+01   5.4642798641e+01    0.1929214    0.1247279 -28.53 0.0004268298    1.545    0.353
        50 -15.1482     45.7126    195.6752   1.4050910367e+02   2.8788019744e+01     1.492268     1.229588 -30.02   0.00236052    1.967    0.492
        51 -14.5112     56.6453    184.5424   1.3699791461e+02   2.9895156878e+01     1.083472    0.9573543 -86.11  0.002698334    1.145    0.127
        52 -12.3313    249.7309     35.4278   6.3827004013e+01   1.9473442073e+01    0.2944321    0.2009693 -63.68  0.000685718    1.297    0.229
        53 -12.1819    244.7417     32.3756   6.3675051233e+01   2.0982680649e+01    0.2592908    0.1975048 -84.63  0.000563985    1.167    0.143
        54 -12.2817    240.3464     29.9576   6.3596529721e+01   2.2283525537e+01    0.2468432     0.192609 -67.15 0.0004256039    1.103    0.093
        55 -12.3799    226.3725    175.9932   9.8816217471e+01   6.5507672188e-01    0.5099278    0.3307701 -10.12  0.002316502    2.068    0.516
        56 -12.4195    187.0739     55.0070   7.6731635192e+01   3.1545843157e+01    0.3558073    0.2670655  37.65  0.001782328    1.551    0.355
        57 -10.9037    249.9625     25.9469   6.1820003279e+01   2.0667434862e+01    0.2999678    0.1824685 -42.19  0.001451722    1.547    0.354
        58 -12.0620    192.8340     24.4740   6.7810665501e+01   3.4216991036e+01    0.4243434    0.2549773 -62.54  0.001479869    1.862    0.463
        59  -9.7025    160.2622     26.9810   7.3425477714e+01   4.1905897605e+01    0.1758366    0.1717176 -69.23 0.0003632903    1.111    0.100
        60 -11.9420     10.4959    206.4704   1.4808698007e+02   3.0321858387e+01    0.3435266    0.2233898  13.84  0.002033484    3.130    0.681
        61 -11.7192    100.9773     22.2500   8.4511163313e+01   5.5804065538e+01    0.2199268    0.1814327 -12.46 0.0007563499    1.233    0.189
        62 -11.5012    106.9049     22.6205   8.3123974758e+01   5.4555720894e+01    0.2178543    0.1683585   2.90  0.000547028    1.334    0.251
        63 -10.8795    218.6423    181.6231   1.0144819281e+02   1.1359516083e+00     0.350955    0.1309968  49.29  0.001252122    3.027    0.670
        64 -11.4192     71.6777    170.3397   1.3174877168e+02   3.1119661348e+01    0.3100787    0.1979817  74.94  0.001541895    1.765    0.433
        65 -12.2791    229.7234    167.0617   9.6308544647e+01   1.5909851909e+00    0.5466308    0.2644832 -42.02  0.001878473    2.012    0.503
        66 -10.0089    202.2117    248.1962   1.1664959934e+02  -6.5868698421e+00    0.1807654    0.1436618  19.80 0.0003882618    1.151    0.132
        67 -10.5871     11.6381    141.9326   1.4204203229e+02   4.4291120708e+01    0.1716774    0.1513237 -57.25 0.0004471607    1.286    0.222
        68 -11.8236    210.7940    133.9782   9.2463032066e+01   1.1686774814e+01    0.4719912    0.3128575  42.06  0.001609594    1.601    0.375
        69 -11.2035    183.9144    134.7905   9.8079767444e+01   1.7549328055e+01    0.3601989    0.2120867  55.91  0.001357837    1.851    0.460
        70 -11.0928    219.0147    131.3095   9.0299563737e+01   1.0399616689e+01    0.2077025    0.1950438  49.04 0.0005655059    1.122    0.109
        71 -11.5153    214.0363    128.8552   9.0646034472e+01   1.1958665896e+01    0.3096159    0.2482079  66.11 0.0006205994    1.402    0.287
        72  -9.8545    160.6773    127.7133   1.0150385721e+02   2.4316248231e+01    0.3227271    0.1865903 -63.30   0.00117265    2.417    0.586
        73 -13.8522     19.6502    222.4150   1.4760655670e+02   2.6157470970e+01    0.8015379    0.3529606 -69.31  0.004639992    1.994    0.498
