#   1 NUMBER                 Running object number                                     
#   2 MAG_AUTO               Kron-like elliptical aperture magnitude                    [mag]
#   3 X_IMAGE                Object position along x                                    [pixel]
#   4 Y_IMAGE                Object position along y                                    [pixel]
#   5 X_WORLD                Barycenter position along world x axis                     [deg]
#   6 Y_WORLD                Barycenter position along world y axis                     [deg]
#   7 A_WORLD                Profile RMS along major axis (world units)                 [deg]
#   8 B_WORLD                Profile RMS along minor axis (world units)                 [deg]
#   9 THETA_WORLD            Position angle (CCW/world-x)                               [deg]
#  10 FWHM_WORLD             FWHM assuming a gaussian core                              [deg]
#  11 ELONGATION             A_IMAGE/B_IMAGE                                           
#  12 ELLIPTICITY            1 - B_IMAGE/A_IMAGE                                       
         1 -17.4292     68.7259    194.0688   1.0436021518e+02   2.4667153540e+01     4.769289     3.200135 -67.89    0.0243865    1.458    0.314
         2 -15.7150    154.0782    128.7502   6.9162165472e+01   2.5293641168e+01      1.96642     1.220781  54.48   0.00820712    1.834    0.455
         3 -14.2144     17.8719      6.0506   7.4368816609e+01   7.2207969853e+01      1.00776    0.4634119  27.10  0.005652523    1.974    0.493
         4 -10.5577     32.8050    249.2069   1.1754362072e+02   1.6853021429e+01    0.1602881     0.122617  66.33  0.000347651    1.040    0.038
         5  -9.7779     54.2793    250.6611   1.1340925709e+02   1.4039222335e+01    0.1269396   0.07411199  63.85 0.0002036329    1.620    0.383
         6  -9.8888     46.5740    249.9036   1.1489020717e+02   1.5123375120e+01    0.1540009    0.1071507 -78.30  0.000355661    1.465    0.317
         7 -11.2577     52.6197    246.0093   1.1337325772e+02   1.5170806134e+01     0.299316    0.1747267 -58.92  0.001193418    1.943    0.485
         8 -11.6287     43.8788    244.3000   1.1501128050e+02   1.6568487292e+01    0.2392213    0.2241183 -55.86 0.0008922957    1.401    0.286
         9 -10.5931    180.1468    244.1989   8.6163489397e+01  -2.6414048824e+00    0.1606512    0.1420731  33.22 0.0005198572    1.294    0.227
        10 -11.0128     69.2636    243.7997   1.0973545598e+02   1.3501579271e+01    0.2384458     0.186605  11.23 0.0005174972    1.701    0.412
        11 -10.3717     28.0752    235.3019   1.1755628621e+02   2.0218879093e+01     0.189254    0.1424139 -78.38 0.0007396592    1.313    0.238
        12 -10.7513     25.7330    230.9860   1.1773877068e+02   2.1383766836e+01    0.2534715    0.1981474  64.44  0.001048039    1.050    0.048
        13 -11.5893     19.5157    233.2879   1.1914094702e+02   2.1544862394e+01    0.2750801    0.2213776  64.40 0.0008664191    1.069    0.064
        14 -12.3880      9.8414    228.9717   1.2080324863e+02   2.3417796430e+01    0.4855045    0.2242076  67.98   0.00255771    1.992    0.498
        15 -12.0543     15.7540    226.6132   1.1948126445e+02   2.3346031601e+01    0.6115815    0.2419563  57.88   0.00294533    2.313    0.568
        16 -11.8025     16.0295    242.0434   1.2033899399e+02   2.0087533777e+01    0.2127271     0.159637 -84.45 0.0004736101    1.272    0.214
        17 -11.0777     14.2279    237.4338   1.2042533712e+02   2.1214670446e+01    0.2791864    0.1881494 -72.31  0.001227541    1.499    0.333
        18 -10.7609     88.2718    241.7144   1.0547190911e+02   1.1336804577e+01    0.2853007    0.2077017   8.67  0.001224261    1.874    0.466
        19 -13.5217     29.8305    223.4197   1.1634889026e+02   2.2582690586e+01     1.476752    0.6561189  16.09  0.002944491    4.388    0.772
        20 -10.9354    186.4005    249.3876   8.5703748844e+01  -4.3386335838e+00    0.3049613    0.0984911  37.47  0.001249176    2.823    0.646
        21 -10.5263     38.8146    210.0677   1.1328196366e+02   2.4597380395e+01    0.2257415    0.1583144 -58.07 0.0008948511    1.534    0.348
        22 -10.6309     24.3643    208.2396   1.1637286740e+02   2.6572702121e+01    0.1940994    0.1711202 -51.69  0.001285639    1.404    0.288
        23 -12.1454    169.0201    206.1568   8.2138019908e+01   5.8557678778e+00    0.2996721    0.2577975  -1.13  0.001710064    1.107    0.096
        24 -10.8632     32.3108    207.4265   1.1452449543e+02   2.5927200765e+01    0.3111348    0.1937777  57.24  0.001725181    1.474    0.322
        25 -10.8551     26.8117    201.3638   1.1526132000e+02   2.7921830614e+01    0.2865949    0.1579948  78.15  0.001436965    1.834    0.455
        26 -10.2932     14.0794    201.5018   1.1814946455e+02   2.9131214310e+01    0.1679021    0.1165026  35.46 0.0008394189    1.534    0.348
        27 -11.9552    186.5097    226.6196   8.1996836953e+01  -6.4653360335e-01    0.2853464    0.1678622 -12.61  0.001318463    2.242    0.554
        28 -12.7233    152.5970    210.5292   8.6580378839e+01   7.7106994608e+00    0.4252378    0.3243899  -4.62   0.00195283    1.494    0.331
        29 -10.8600     32.3187    231.7781   1.1644420807e+02   2.0500855324e+01    0.3145702    0.2184397 -45.12  0.001859085    2.001    0.500
        30 -11.5248    124.5311    195.4943   9.0608191657e+01   1.5652095498e+01    0.4076004    0.3036298  37.86  0.001744355    1.287    0.223
        31 -12.4979     35.6594    192.8228   1.1239399043e+02   2.9027247460e+01    0.5254296    0.3463693   9.20  0.001980137    2.183    0.542
        32 -10.5947      6.1667    194.0226   1.1938738862e+02   3.1577013957e+01    0.1752465    0.1433348 -72.24 0.0002698836    1.226    0.184
        33 -10.7074     10.0000    192.0606   1.1837742601e+02   3.1711264346e+01    0.2436377    0.1208812 -71.98  0.001255779    1.723    0.420
        34 -10.8254      7.6644    187.8615   1.1860414583e+02   3.2907269720e+01    0.2803156    0.1517483  45.55  0.001140191    1.778    0.438
        35 -12.1981    192.6904    191.9802   7.4398414473e+01   4.6568071220e+00    0.3917427    0.2247809 -56.51  0.001669165    2.451    0.592
        36 -11.8404     37.4081    228.8000   1.1515940177e+02   2.0569795763e+01    0.3550161    0.2155083  83.58  0.001217855    1.598    0.374
        37 -11.2135    128.4022    184.3300   8.7659086837e+01   1.7529244818e+01    0.2765642    0.2425256   6.40 0.0001952988    1.222    0.182
        38 -10.2832      9.4701    182.9001   1.1780089092e+02   3.3945725325e+01    0.1946496    0.1059563 -79.56  0.001018998    1.557    0.358
        39 -10.9609    113.1115    228.1859   9.8315458017e+01   1.0435165964e+01    0.2592735    0.2017536  42.56 0.0008586209    1.161    0.138
        40 -11.1574    125.1924    220.9664   9.4530676506e+01   1.0036595967e+01    0.3267078    0.1986062 -57.31  0.001320072    1.843    0.457
        41 -10.6867     22.7604    180.3939   1.1435162929e+02   3.3374947780e+01    0.1587328     0.128969   9.07 0.0007939704    1.604    0.376
        42 -15.6231     93.7056    190.3930   9.7494226393e+01   2.1894589020e+01     2.211552     1.361804 -88.17  0.009203133    2.338    0.572
        43 -12.6784    106.5702    170.4921   9.0717666810e+01   2.4639327927e+01    0.4782177     0.405489 -34.09  0.002441676    1.264    0.209
        44 -11.4997     11.7480    220.4993   1.1991890778e+02   2.5062795054e+01    0.2216884    0.1797848  63.17 0.0006509714    1.109    0.098
        45 -10.4398      3.1794    221.4335   1.2170660642e+02   2.5652263922e+01    0.1892946    0.1148184  22.09  0.001115426    2.117    0.528
        46 -12.8660    132.4047    168.4602   8.3566039253e+01   2.0500035241e+01    0.5176848    0.2577433  40.78  0.001264545    2.000    0.500
        47 -10.4210     47.0018    236.3224   1.1374712139e+02   1.7845912573e+01    0.2011459    0.1427493  77.95 0.0003742612    1.305    0.234
        48 -10.7611    223.4994    220.4792   7.3646751555e+01  -4.9170258543e+00    0.1278749    0.1032978  -6.51 3.100769e-05    1.015    0.015
        49 -11.9271     41.8374    234.1210   1.1464794474e+02   1.8921042970e+01    0.4767191    0.3966058  44.63  0.003202922    1.211    0.175
        50  -9.9994     20.7252    239.9967   1.1931340638e+02   2.0023121425e+01    0.1408864   0.08911887 -84.89  0.000874308    1.448    0.309
        51 -10.0592    138.9609    217.9535   9.0912697311e+01   8.4452761006e+00    0.1587234    0.1522001  -8.14 0.0003908723    1.084    0.078
        52 -13.4344     22.2253    153.1015   1.1160664019e+02   4.0280594537e+01    0.7650542    0.6918368  34.11  0.004848794    1.277    0.217
        53 -12.0254    113.2178    155.1756   8.5878825619e+01   2.7237336301e+01    0.3122126    0.2230588  20.78 0.0008447674    1.638    0.389
        54 -11.3473    212.4952    153.9907   6.2681028732e+01   8.5051312642e+00     0.218069    0.1904843  32.48 0.0007958909    1.258    0.205
        55 -10.5923     20.7893    213.7989   1.1757195863e+02   2.5667903834e+01    0.2394573    0.1462049 -61.40  0.001365121    1.701    0.412
        56 -10.6024     21.5353    218.3544   1.1773755539e+02   2.4572619674e+01    0.2036059    0.1416122  50.21 0.0004786342    1.293    0.227
        57 -11.5804    180.1448    150.8361   6.8444644712e+01   1.5199673109e+01    0.2289614    0.2109091 -70.63 0.0008063099    1.243    0.196
        58 -13.0219    144.7290    150.0135   7.6481530725e+01   2.2425062590e+01    0.5611674    0.2793072  50.96  0.002040258    2.377    0.579
        59 -11.7978     87.2714    229.6884   1.0434036459e+02   1.3950475071e+01    0.3529027    0.2198388  44.47  0.001862533    1.423    0.297
        60 -10.4722     29.7564    215.9816   1.1579477989e+02   2.4245782573e+01    0.2113898    0.1478546 -86.11 0.0003103793    1.286    0.222
        61 -13.1888    108.3740    147.5359   8.5591980131e+01   3.0005686339e+01    0.4573103    0.4193064 -14.39  0.002360608    1.166    0.142
        62 -14.0013    106.0938    141.9953   8.5020494388e+01   3.1793849776e+01    0.9850195    0.5431778  39.57  0.003970612    1.846    0.458
        63 -11.0292    140.6575    144.6993   7.6291011265e+01   2.4466264471e+01    0.1622534    0.1245691  -5.00 0.0003360224    1.675    0.403
        64 -12.7458    155.5194    144.5499   7.2592630236e+01   2.1491006736e+01    0.3580751    0.2860555  79.08  0.001655624    1.670    0.401
        65 -14.6014    135.2005    130.7988   7.4384606013e+01   2.8794478023e+01      1.01141    0.7730265 -49.61  0.004305147    1.294    0.227
        66 -14.5584    138.5396     94.4578   6.3939363166e+01   3.5969668457e+01     1.305968    0.9609361  68.60  0.005966924    1.644    0.392
        67 -10.4921    173.1974    249.1968   8.8347420663e+01  -2.4539048058e+00    0.2582804    0.1298093  20.78  0.001206962    2.126    0.530
        68 -13.7497    154.2896    118.2900   6.6494335777e+01   2.7515369325e+01    0.8193399     0.653826  15.16  0.003107558    1.532    0.347
        69 -10.2933     48.6985    122.6200   9.8722756000e+01   4.5454507372e+01    0.1790091    0.1338659  38.83  0.000501928    1.472    0.320
        70 -10.5584    108.6356    121.6860   7.9463138017e+01   3.6266265980e+01     0.165642    0.1238409  -8.66 0.0007039966    1.763    0.433
        71 -10.5365     59.9907    120.9662   9.4630476249e+01   4.4464722363e+01    0.2197796    0.1983991 -49.71 0.0003554595    1.014    0.014
        72 -10.9377    201.3815    236.5248   8.0663156393e+01  -4.4095857188e+00    0.3001411    0.1062913 -37.30  0.001260652    2.874    0.652
        73 -11.3797     31.3502    118.2405   1.0371424926e+02   4.8377629076e+01    0.2546812    0.1896496 -40.67 0.0006766092    1.295    0.228
        74 -10.2451     20.5106    133.5681   1.0962116976e+02   4.5411476204e+01    0.1348621    0.1156569 -70.28 -4.55728e-06    1.014    0.013
        75 -11.5409     46.6001    117.3429   9.8372041972e+01   4.7033267223e+01    0.4324659    0.2023066 -39.75  0.001715807    2.316    0.568
        76 -11.7829     46.1560    111.1852   9.7241147151e+01   4.8625824001e+01    0.2654949    0.2335213 -47.31  0.001518748    1.015    0.015
        77 -10.9210     54.2393    109.6172   9.4072295410e+01   4.8043409407e+01    0.4131886    0.2137811 -32.08  0.001521569    2.424    0.587
        78 -12.9827     52.1634    101.0986   9.2802302036e+01   5.0377604461e+01    0.6539236    0.2014692 -55.53   0.00224014    2.850    0.649
        79 -10.1250    212.8215    104.1438   5.1541894511e+01   1.7748166838e+01    0.1779408    0.1597527 -14.92 0.0003170554    1.271    0.213
        80 -12.2855     57.6672     99.7276   9.0477796118e+01   4.9993565032e+01    0.6063759    0.2783079 -59.34  0.002386384    2.240    0.554
        81 -13.6280    142.0102    133.6073   7.3319682203e+01   2.6741190400e+01    0.5761391    0.4957578  22.78  0.002367788    1.247    0.198
        82 -13.6588     48.9357     82.0970   8.9037275306e+01   5.5179227017e+01    0.8650464    0.6057894  53.77  0.004303233    1.989    0.497
        83 -12.9935    147.2860    202.7730   8.6449093420e+01   1.0192521861e+01    0.5449962     0.381339  49.24  0.001194621    1.557    0.358
        84  -9.5892    105.2849     79.3357   6.8527396501e+01   4.6210335346e+01    0.1524014    0.1158831  -1.23 0.0003975402    1.625    0.384
        85 -10.1705     75.4736     75.5543   7.7088380383e+01   5.2634449980e+01    0.1441768     0.132375  -8.00 0.0001239097    1.009    0.009
        86 -15.8723    147.9080    106.5202   6.4948612871e+01   3.1405643291e+01     2.345192     1.845749   1.41   0.01084209    1.661    0.398
        87 -13.0499     32.6402     66.1686   9.1085438720e+01   6.0463725869e+01     1.350645    0.6448359  46.24  0.005492065    3.449    0.710
        88 -10.7744    125.1989     73.1546   6.1068074241e+01   4.3034197042e+01    0.2253086    0.2028434  14.83 0.0008514557    1.176    0.150
        89 -12.3585     19.7934     66.9428   9.6911455584e+01   6.1465874446e+01    0.6865245    0.3827186 -26.63  0.003531922    1.786    0.440
        90 -10.6321    195.8252     67.8358   4.5589707151e+01   2.7544350708e+01    0.1954605    0.1514105 -73.15 0.0006922533    1.306    0.234
        91  -9.9133     65.4998     52.4175   7.2824828092e+01   5.8646986637e+01    0.1362761    0.1195439   4.09 0.0002990509    1.018    0.017
        92 -10.7277     13.8858    211.2000   1.1887135088e+02   2.6927737707e+01    0.1974236     0.133984  63.82 0.0007936263    1.267    0.211
        93 -11.3238     51.9404     43.4871   7.4852193264e+01   6.2293109112e+01    0.1960602    0.1195733  32.18 0.0005433663    1.584    0.369
        94 -10.1682    106.5281     32.4950   5.2420299419e+01   5.3376547617e+01    0.1346314    0.1212912  43.71 2.769104e-05    1.024    0.023
        95 -10.4184     20.6678     22.6997   8.0901575535e+01   6.9592602988e+01    0.1252889   0.07456416  -9.64 0.0006467333    1.650    0.394
