#   1 NUMBER                 Running object number                                     
#   2 MAG_AUTO               Kron-like elliptical aperture magnitude                    [mag]
#   3 X_IMAGE                Object position along x                                    [pixel]
#   4 Y_IMAGE                Object position along y                                    [pixel]
#   5 X_WORLD                Barycenter position along world x axis                     [deg]
#   6 Y_WORLD                Barycenter position along world y axis                     [deg]
#   7 A_WORLD                Profile RMS along major axis (world units)                 [deg]
#   8 B_WORLD                Profile RMS along minor axis (world units)                 [deg]
#   9 THETA_WORLD            Position angle (CCW/world-x)                               [deg]
#  10 FWHM_WORLD             FWHM assuming a gaussian core                              [deg]
#  11 ELONGATION             A_IMAGE/B_IMAGE                                           
#  12 ELLIPTICITY            1 - B_IMAGE/A_IMAGE                                       
         1 -12.6916    247.6337     44.6496   2.4930051765e+00   1.8737272756e+01     1.258337    0.3111415 -45.17  0.004937672    3.183    0.686
         2 -11.4805    230.2927      1.6971   3.5388007784e+02   2.6763497331e+01    0.5690521    0.3092754  80.11  0.003252985    1.888    0.470
         3 -13.8304    234.0775     26.0784   3.5927861979e+02   2.3490629653e+01      0.99528    0.5504248  60.12  0.004122824    2.104    0.525
         4 -12.4312    249.3636     20.6780   3.5712455066e+02   2.1072304431e+01     0.718192     0.241292 -25.78 0.0001554279    2.864    0.651
         5 -11.0945    241.7863      9.5059   3.5508087259e+02   2.3680198679e+01    0.4051616    0.2217495 -47.15  0.001537914    1.403    0.287
         6 -12.5521    248.2036      9.0142   3.5466427591e+02   2.2482398953e+01     0.790979    0.4495971 -17.01  0.004469898    2.096    0.523
         7 -12.3149    244.1206      3.1053   3.5357142778e+02   2.3846564463e+01     1.018906    0.3077792  71.12  0.004672503    3.414    0.707
         8 -13.0494    239.7488     14.3990   3.5627468692e+02   2.3589893759e+01     1.031966    0.3534904 -58.22  0.004504118    2.868    0.651
         9 -11.7334     14.7523     17.5967   5.5699160882e+01   7.4929560417e+01    0.4317986    0.3162006  11.86  0.002572551    1.365    0.268
        10 -12.7447      3.8746     13.3713   6.3103510046e+01   7.6690233134e+01    0.8613534    0.6540027 -19.38  0.005472729    1.201    0.167
        11 -11.9630     10.2970     10.8842   5.5854562510e+01   7.6696743742e+01    0.6055655    0.4429813  18.68  0.003721582    1.385    0.278
        12 -12.5825     28.5338     19.9922   4.6508234790e+01   7.2830764372e+01    0.3355367    0.2622558   8.09 0.0003716726    1.261    0.207
        13 -10.5508     81.7796     19.7566   2.0014792879e+01   6.2259299555e+01    0.5378622    0.1706132 -38.97  0.001817801    3.312    0.698
        14 -10.2012     68.5954     20.1594   2.4965673497e+01   6.5315977181e+01    0.4238014    0.1850851 -39.75  0.001691165    2.453    0.592
        15 -11.2401    217.2773     15.8782   3.5798379866e+02   2.8130388821e+01    0.4764911    0.1833205  62.15  0.002045879    2.751    0.636
        16 -11.7821     82.1669      6.9205   1.3202310858e+01   6.3634557503e+01    0.2391184     0.210308  37.90 0.0002752659    1.087    0.080
        17 -12.4148     75.7525     11.0747   1.7397070792e+01   6.4784335585e+01    0.6378974    0.3998625  23.42  0.001872128    1.918    0.479
        18 -13.2961     65.6467     11.5702   2.1282178475e+01   6.7119229064e+01    0.5805242    0.3851534  39.73  0.001183207    1.421    0.296
        19 -11.0042    168.2968     13.3514   1.3242110923e+00   4.0123543585e+01    0.4236971    0.2940404 -63.99  0.001716887    1.367    0.268
        20 -10.3231     54.3381     14.9294   2.8187507192e+01   6.9153473041e+01    0.3853106    0.2797885  84.03  0.001824435    2.335    0.572
        21 -10.6129     35.5832      6.1739   3.2779465844e+01   7.4026459870e+01    0.3713911    0.2033333  28.83  0.001574076    1.956    0.489
        22  -9.7562     26.7215     13.6485   4.4002762012e+01   7.4247222409e+01    0.2301053    0.1144791 -35.34 0.0005041526    2.009    0.502
        23 -10.5598     29.4589      9.8710   3.9525746579e+01   7.4483874830e+01    0.4277199    0.1738235  39.81  0.001848018    2.445    0.591
        24 -10.6640    177.9031     12.0816   2.2688390307e-02   3.7807056856e+01    0.2175288    0.1872138  75.20 0.0002888796    1.178    0.151
        25 -10.6717    145.7171     11.3160   3.1992432819e+00   4.6274006351e+01    0.2806441    0.1898569 -23.47 0.0006386832    1.612    0.380
        26 -10.3795    146.1371      7.0207   1.6490902534e+00   4.6570495162e+01    0.2942409    0.2091365  56.02  0.001530524    1.411    0.291
        27  -9.9236    139.6980     10.9223   3.8379395712e+00   4.7931073056e+01      0.23922    0.1760944  65.71 0.0004872488    1.264    0.209
        28 -11.1123    154.5659      8.7447   1.2889650766e+00   4.4165215351e+01    0.3242804    0.2589553  83.95  0.001153035    1.142    0.125
        29 -10.4655    160.2127      8.7989   7.1103859260e-01   4.2673584428e+01    0.2494453    0.1895957 -28.58 0.0007386678    1.390    0.281
        30  -9.0440    126.2935      9.7310   5.3137203396e+00   5.1673859961e+01     0.143939    0.1007224 -67.28 0.0002394272    1.513    0.339
        31  -9.0232    100.3253      9.7366   1.0107371769e+01   5.8655367560e+01    0.1428255    0.1051108 -72.87 0.0002269818    1.563    0.360
        32 -10.2965    223.0118      5.2850   3.5508045222e+02   2.7953803470e+01    0.2065926    0.1474874 -39.49 0.0009913554    1.219    0.179
        33  -9.6201     96.3055      6.3382   9.3838169877e+00   6.0042051580e+01    0.1881698     0.173834  18.65 0.0005249772    1.160    0.138
        34 -10.7100     98.0194      2.8125   7.3245424074e+00   5.9904158678e+01    0.2777526    0.2422909  16.90 0.0006990869    1.256    0.204
        35 -10.2365     68.2240      5.3976   1.6685247618e+01   6.7213330391e+01    0.2270828    0.2153339  25.43 0.0004629661    1.071    0.066
        36 -10.0245     58.9956      5.6092   2.0302071255e+01   6.9330745582e+01    0.1943557    0.1596025  47.62 0.0004396772    1.128    0.113
        37 -11.1969    179.7532      3.6561   3.5740997152e+02   3.8155172115e+01    0.3797707    0.2231086  63.41 0.0008286982    1.713    0.416
        38 -10.3105    164.3413      4.6173   3.5898255068e+02   4.1988191774e+01    0.2272582    0.1861398 -52.22 0.0002481878    1.153    0.133
        39 -10.5846    159.5518      3.6879   3.5912955076e+02   4.3319325895e+01    0.2893908    0.1871399 -69.72 0.0002060722    1.486    0.327
        40  -9.3364     20.2956      4.3677   4.2675183657e+01   7.6734414205e+01     0.212379    0.1903167 -10.17   0.00140951    1.119    0.106
        41 -10.9136     25.7405      2.1306   3.6605758859e+01   7.6276496257e+01    0.7263186    0.2178561  44.62  0.002684188    3.625    0.724
        42  -9.7598    126.0978      2.6668   2.5624896824e+00   5.2361542277e+01    0.1945281    0.1627814  71.00  0.000447952    1.085    0.078
        43 -10.1107     91.0035      2.2169   8.5348442102e+00   6.1798864735e+01    0.2129405    0.1989206  16.46  0.000386885    1.147    0.128
        44 -10.3549      4.5589      2.5741   5.6336178548e+01   7.8810321919e+01    0.3178236    0.1299696 -41.08  0.001515582    2.133    0.531
        45  -9.9234     33.0602      2.3960   3.1614755696e+01   7.5004133469e+01     0.257261    0.1038906  37.62  0.001085154    2.444    0.591
        46  -8.8517    120.6865      1.6584   2.9194086077e+00   5.3911511961e+01    0.1501562   0.09532642  41.23 0.0007047085    1.703    0.413
        47 -10.0929     73.6158      1.4613   1.2632382055e+01   6.6287245696e+01    0.2548687    0.1229017  62.09 0.0005432541    1.858    0.462
        48  -9.2290    193.4896    210.4827   4.4501425593e+01   4.7311640154e+00    0.1212751    0.0945349  10.55 6.187535e-05    1.002    0.002
        49 -11.1871    248.0730    248.7968   4.1074472542e+01  -5.9369302799e+00    0.3603029    0.1594529  -6.76  0.002069643    2.621    0.618
        50 -11.7093    224.5150    248.1977   4.4672456072e+01  -3.4478972221e+00     0.355369    0.1787294 -23.23  0.002359503    1.949    0.487
        51  -9.5416    110.1978    250.1589   6.6107954795e+01   1.0240884454e+01    0.1593147    0.1054398  43.29 0.0004795089    1.290    0.225
        52  -9.6229     72.1703    250.1331   7.3876582784e+01   1.4896635195e+01    0.1579779    0.1336099  22.81  0.000972027    1.295    0.228
        53  -9.1796     38.2892    250.3274   8.0769538692e+01   1.8618671255e+01   0.09267018    0.0819546  -2.62 0.0007014429    1.616    0.381
        54 -11.6499     21.6830    248.6878   8.4011107862e+01   2.0556114950e+01    0.5224903    0.1271843  40.17  0.002627651    2.289    0.563
        55 -10.4841     11.7695    248.9098   8.5960545136e+01   2.1447563749e+01    0.3636398   0.08449826  45.94  0.001845853    2.361    0.577
        56  -9.8629      6.8680    249.3490   8.6919494158e+01   2.1814729228e+01     0.190429     0.118639  47.94 0.0005799124    1.095    0.087
        57 -10.2078     72.6031    208.3425   7.0427993690e+01   2.2320809420e+01    0.2580053    0.1498345   9.04  0.001172996    2.687    0.628
        58 -10.8156     18.5804    205.0413   8.3010907936e+01   2.9043919735e+01    0.3788159    0.1126266 -62.49  0.001591726    3.820    0.738
        59 -10.9919     21.9040    198.7455   8.1933786196e+01   3.0042113464e+01    0.3245789    0.2253386  -3.18  0.001500678    2.164    0.538
        60  -9.9425     28.1856    205.3884   8.0778325768e+01   2.8041233685e+01    0.1712376   0.08360758  41.24 0.0003415633    1.568    0.362
        61  -9.5510     68.3040    203.4090   7.1000941199e+01   2.3859000849e+01    0.2528365     0.112866  27.83  0.001142614    2.098    0.523
        62  -9.4737    174.6781    201.9895   4.6757729894e+01   8.6080843420e+00    0.1691793    0.1402459   3.55 0.0003982081    1.083    0.076
        63  -9.7078    238.4503    200.9785   3.5286016255e+01   9.5185638226e-02    0.1566234   0.09164089 -25.97 0.0004583494    1.524    0.344
        64 -10.1789    134.9191    196.5527   5.4350727444e+01   1.5559726979e+01    0.2064947    0.1925387 -58.18 0.0005020342    1.322    0.244
        65  -9.9585     40.4714    196.9777   7.7301763055e+01   2.8513913612e+01    0.1730715    0.1172821 -83.81 0.0003127609    1.543    0.352
        66  -9.6247    120.1931    200.1862   5.8238000929e+01   1.7161682297e+01    0.1907346    0.1624141  11.67 0.0006120215    1.197    0.165
        67 -12.1277     15.3840    192.1809   8.3205631090e+01   3.2048276374e+01    0.3753788    0.3304639   2.63  0.001700556    1.492    0.330
        68  -8.9354    209.6941    193.2700   3.8747272258e+01   4.8055695061e+00    0.1006845   0.09361506  32.97 0.0002035027    1.537    0.349
        69  -9.2577    186.4933    193.4991   4.3049865886e+01   8.1197395184e+00    0.1271009    0.1038201   9.78 0.0008106601    1.001    0.001
        70  -9.4897     61.8090    192.5542   7.1593004573e+01   2.6944953637e+01    0.2270608   0.09459321 -65.42  0.001005127    2.588    0.614
        71  -9.1814      2.3261    193.3219   8.6398970796e+01   3.2910061911e+01    0.1065937   0.08688975 -45.16 0.0002865635    1.685    0.407
        72  -9.5870    223.5918    191.1878   3.6019419690e+01   3.1807644945e+00    0.1691981   0.09367371 -20.44 0.0009593203    1.713    0.416
        73 -11.3695    244.4666    188.7611   3.2297557204e+01   7.8951978818e-01    0.2540645    0.1925489 -41.85  0.001606852    1.921    0.480
        74  -9.2209     50.5095    197.4792   7.4854580262e+01   2.7270068474e+01    0.1305894    0.1045397  51.69 0.0001625919    1.024    0.023
        75  -9.7217    231.8789    187.8367   3.4091349756e+01   2.5063878041e+00    0.1432476    0.1250197 -11.02 0.0003655402    1.333    0.250
        76  -9.1159     73.6902    186.7073   6.7950086266e+01   2.6644570665e+01    0.1252786    0.1034883 -11.53 0.0002575477    1.586    0.370
        77 -10.1481     61.9884    184.7958   7.0788100806e+01   2.8606827200e+01    0.2164459    0.1880004  85.12  0.000736093    1.186    0.157
        78 -11.9832     15.6059    182.1623   8.2679109716e+01   3.4231258776e+01    0.4569914    0.2141411  57.20  0.002322681    1.811    0.448
        79 -11.9621    249.5116    180.3428   3.0081989006e+01   1.1596821396e+00    0.3886074    0.1377405 -30.42  0.001926705    2.443    0.591
        80 -10.6077      2.3934    180.0697   8.5950972515e+01   3.5790249421e+01    0.2858815     0.151343  -8.04  0.001291308    3.537    0.717
        81 -10.9030     23.2836    180.4810   8.0602579507e+01   3.3905488733e+01    0.3447243    0.1550591  52.62  0.001675746    1.880    0.468
        82 -10.6931     17.6881    172.7931   8.1639725723e+01   3.6179048306e+01    0.2944132     0.140192  63.16  0.001209322    1.923    0.480
        83 -11.6950      7.6825    172.4498   8.4288493606e+01   3.7100080439e+01    0.2627943     0.170961  71.56  0.001554898    1.315    0.240
        84  -9.2388    116.9697    170.3493   5.4501186044e+01   2.3515445339e+01    0.2369774    0.1166165  15.97 0.0007048306    4.428    0.774
        85  -9.9359     67.7937    165.7854   6.7059129749e+01   3.2162077601e+01    0.2018184    0.1462419  58.82 0.0005546171    1.329    0.248
        86 -10.2074    239.9938    162.9625   2.8331211353e+01   4.5720835196e+00    0.1473769    0.1132582 -12.91 0.0005454195    1.040    0.039
        87  -8.9431    134.0111    162.7811   4.8934823982e+01   2.2110662756e+01    0.1803092    0.1086644  37.27 0.0008277099    1.521    0.342
        88  -9.2979     56.3456    162.6755   6.9949953509e+01   3.4414949945e+01     0.154107   0.08982805  59.01 0.0007050199    1.741    0.426
        89  -9.0419    117.2698    161.6839   5.2933579075e+01   2.5283282114e+01    0.1405673    0.1101314  69.62 0.0001919421    1.556    0.357
        90 -10.7719    250.5098    155.4875   2.5405528119e+01   4.0752283280e+00    0.2515769   0.09489815 -31.53  0.001225559    2.217    0.549
        91 -10.3139    216.3106    154.5409   3.0439595503e+01   9.2511206809e+00    0.2723701    0.1582504 -25.93  0.001262185    1.599    0.374
        92  -9.7625    158.8499    153.6853   4.1372302229e+01   1.9359333338e+01    0.2334143    0.1683661  22.11  0.001178799    1.433    0.302
        93 -12.2421     13.7881    147.9431   8.1244359974e+01   4.2462404145e+01    0.2723748    0.2106115  77.69 0.0003427909    1.130    0.115
        94  -9.9874    235.3112    151.3297   2.6803860199e+01   6.7812131182e+00    0.1263796   0.08162344  -1.00 0.0003510632    1.669    0.401
        95  -9.3844    222.8143    151.6001   2.8793088397e+01   8.6487165400e+00      0.15467     0.118759  48.73 0.0009376091    1.661    0.398
        96 -10.0042     35.0984    150.4373   7.4954422776e+01   3.9880018010e+01    0.2182134     0.170138 -68.48  0.001232331    1.305    0.234
        97  -9.6204     26.5440    151.5154   7.7651449989e+01   4.0465717595e+01    0.1341109     0.116583  69.53 0.0001016108    1.010    0.010
        98  -9.0016    143.7665    148.9644   4.3875330420e+01   2.3084856670e+01    0.1885571    0.1218497 -43.56  0.000876603    1.622    0.384
        99  -9.1577     54.7247    149.7174   6.8857707088e+01   3.7778017875e+01    0.1312163    0.1079328 -32.30            0    1.504    0.335
       100 -10.5957    233.8772    146.8620   2.6138433560e+01   7.6028752136e+00    0.1903812    0.1403504  -9.90 0.0006343116    1.211    0.175
       101 -11.0878      5.6293    145.0959   8.3544237990e+01   4.3774120975e+01    0.4229885    0.1442039  26.34  0.001805661    2.692    0.628
       102  -9.7357    218.2504    144.5896   2.8113787060e+01   1.0389007967e+01    0.1719142    0.1127976  28.51 0.0009511512    1.595    0.373
       103  -9.3888     30.3250    144.6473   7.5874313253e+01   4.1814908030e+01    0.1531685   0.08532632  60.22 0.0007047495    1.761    0.432
       104 -11.0731     17.4102    143.2186   7.9799822013e+01   4.3344565118e+01     0.312808     0.161632  57.75  0.001378172    1.817    0.450
       105 -11.5652     13.8679    140.1887   8.0690727184e+01   4.4389408089e+01    0.3370397    0.1950888 -34.42  0.001590216    2.391    0.582
       106 -11.1110    239.6902    140.2486   2.3971271708e+01   7.6178880337e+00    0.2413407    0.1725606 -16.88 0.0005327625    1.201    0.168
       107  -9.2285    188.7164    140.3024   3.2394968849e+01   1.6198542250e+01    0.1255555    0.1099602 -70.48 0.0002890708    1.555    0.357
       108  -9.9258    235.3122    138.0177   2.4151742823e+01   8.5944302942e+00    0.1777345    0.1345194 -23.50  0.000360892    1.108    0.097
       109 -10.4359     44.9442    137.5135   7.0386318448e+01   4.2052756295e+01    0.3683715    0.1817948  56.33  0.001518081    2.189    0.543
       110 -10.3710     47.1404    133.7961   6.9168116114e+01   4.2744829980e+01    0.2312298    0.2232102 -61.53 0.0008340488    1.138    0.122
       111 -12.9847     37.4859    135.0705   7.2539699142e+01   4.3516746906e+01    0.4268516    0.2721664 -88.80  0.001355711    1.580    0.367
       112 -11.5646    241.4062    134.1642   2.2505341509e+01   8.1755722134e+00    0.2719258       0.2022 -24.64 0.0009506877    1.111    0.100
       113 -11.2473     16.9762    131.1792   7.8981183312e+01   4.6433357011e+01    0.3233877    0.2283742  33.24  0.001681968    1.422    0.297
       114 -10.7032     68.2819    132.6772   6.2022445600e+01   4.0182848649e+01     0.382566    0.2022742 -83.75  0.001368057    2.723    0.633
       115 -10.3867     64.4617    131.0419   6.2994075829e+01   4.1156569176e+01    0.2504689    0.2060882  14.32 0.0006501601    1.394    0.282
       116 -10.5541     53.2233    132.9163   6.7018266103e+01   4.2212510015e+01    0.2509643    0.1824264 -49.80 0.0003484977    1.486    0.327
       117 -10.9221     58.8967    131.5886   6.4927023268e+01   4.1799170430e+01    0.2745197    0.2041615 -80.83 0.0006062433    1.377    0.274
       118 -11.6249      4.7701    129.8353   8.2934836004e+01   4.7647800439e+01    0.2979096    0.1958736 -77.35 0.0002887893    1.376    0.273
       119 -11.5693     73.3441    128.7943   5.9676604179e+01   4.0389359114e+01    0.3177312    0.2674789 -87.46 0.0004735116    1.232    0.189
       120 -11.2531     25.3389    128.5915   7.5909617346e+01   4.6391127645e+01    0.4331912    0.2464537  73.77  0.001874798    1.830    0.453
       121 -10.2635    216.9583    129.2546   2.5099760249e+01   1.2876858575e+01    0.1781362    0.1564957  -5.33 0.0003567164    1.058    0.055
       122  -9.4143    110.2855    129.3208   4.8422135172e+01   3.3750690477e+01    0.1518388    0.1212301 -11.03 0.0007001721    1.595    0.373
       123 -11.9360     46.9824    124.3738   6.7861927825e+01   4.5202385464e+01     0.296413    0.2692525 -29.73 0.0003966735    1.267    0.211
       124  -9.8979      9.2374    136.4032   8.1903686277e+01   4.5686994013e+01    0.1755061    0.1070607  39.45 0.0004066799    1.543    0.352
       125 -10.5553     82.8252    124.6073   5.5775238249e+01   3.9887341905e+01    0.2902893    0.2211237 -71.44 0.0008335602    1.402    0.287
       126  -9.7020    229.4841    124.5100   2.2191094583e+01   1.1427831663e+01    0.1277175    0.1073963 -19.49 6.426801e-05    1.003    0.003
       127 -10.7928     60.8183    121.7661   6.2604028379e+01   4.4054127635e+01    0.3071864    0.2107739 -41.98  0.001319031    1.658    0.397
       128 -11.5858      9.5528    121.4257   8.0721440277e+01   4.9487411935e+01    0.4926344    0.2279707  63.04  0.001278976    2.203    0.546
       129 -10.6186     68.4177    121.7189   5.9981712250e+01   4.2944160865e+01    0.2702411    0.1474219 -68.30 0.0007817977    1.967    0.492
       130  -9.7919     19.2083    121.8242   7.7355896399e+01   4.8672517618e+01    0.2071047     0.161347  69.77 0.0006992129    1.196    0.164
       131 -10.5247     56.4362    121.2188   6.4035350297e+01   4.4805370872e+01    0.2048663    0.1387605 -83.53  0.000410285    1.602    0.376
       132 -10.4369     24.9865    118.7870   7.4959552970e+01   4.8977717948e+01    0.2612123    0.1923295  77.04  0.001335914    1.308    0.235
       133 -11.2395    249.0380    117.3456   1.8057575789e+01   9.2358979293e+00    0.3081127    0.1760766  -7.27  0.001535517    2.354    0.575
       134  -9.6911     85.4808    117.5469   5.3400964142e+01   4.1172374815e+01    0.3505829    0.1000063 -42.91 0.0008103084    5.859    0.829
       135 -10.9840      2.6722    116.9374   8.2818942711e+01   5.1067187799e+01    0.3947204    0.2021285 -48.28  0.001875327    2.131    0.531
       136 -10.6841     20.0063    108.4609   7.5609956271e+01   5.2110509959e+01    0.3037947    0.1705122  -2.28  0.001175523    2.443    0.591
       137 -10.5971     16.1068    115.6048   7.7854992657e+01   5.0535869083e+01    0.2583809    0.1946108  65.26 0.0005778464    1.265    0.210
       138 -11.7263     12.5000    109.9062   7.8634964724e+01   5.2283918960e+01    0.5094621    0.2878423  47.18  0.001017529    1.754    0.430
       139  -9.6863    182.0759    115.0002   2.7886190773e+01   2.1810105728e+01     0.210589    0.1714465 -69.07 0.0005535495    1.572    0.364
       140 -10.9234     70.8898    114.5079   5.7677083212e+01   4.4394860798e+01    0.3224366    0.2526464  84.27  0.001276884    1.433    0.302
       141 -12.0763     30.9754    107.7011   7.1261087308e+01   5.1342040975e+01    0.5805821    0.3306494  79.67  0.002534845    2.043    0.511
       142 -11.4937     55.1397    109.8338   6.2406480039e+01   4.7941636152e+01    0.3032299    0.2659355 -63.97 0.0005753328    1.118    0.105
       143 -11.3186     62.7687    106.6506   5.8920192978e+01   4.7666938113e+01    0.2939521    0.2242244 -37.22 0.0009370363    1.475    0.322
       144 -10.5930      4.2587    105.6014   8.1389468785e+01   5.3911369865e+01    0.4404515    0.2627055  31.10  0.002305233    1.737    0.424
       145 -11.8019     74.8936    104.1454   5.3930144568e+01   4.6353476477e+01    0.2766981    0.2645974 -87.97 0.0002658392    1.034    0.033
       146 -10.4243     76.5300     98.1866   5.1861855749e+01   4.7554861433e+01    0.4790541    0.2718086 -33.89  0.001392205    2.401    0.584
       147 -10.2202     51.0062    104.0003   6.2823410136e+01   5.0020120996e+01    0.2246006    0.2160175  71.55 0.0006474368    1.032    0.031
       148  -9.2368     42.4271    103.7975   6.6134979233e+01   5.1144027776e+01    0.1971788    0.1257005 -55.72 0.0004764281    1.506    0.336
       149 -10.8734    106.0044    103.0668   4.3296910742e+01   4.0663430945e+01    0.2290912    0.2234659  48.53            0    1.013    0.013
       150 -10.1163     71.2996    101.3385   5.4557054421e+01   4.7665605591e+01    0.1566873    0.1182525 -24.75 0.0006229204    1.663    0.399
       151  -9.6964     80.5077    103.4873   5.1782036163e+01   4.5535075900e+01    0.1538446    0.1488179  73.43 -2.493511e-05    1.015    0.015
       152 -10.7297     61.9319     98.8584   5.7487806292e+01   4.9793849962e+01    0.3645038      0.21511 -54.25  0.001274735    1.645    0.392
       153 -10.1827     51.9338     97.4506   6.1090726450e+01   5.1601425623e+01    0.3114754    0.1967757 -39.58 0.0007147147    1.791    0.442
       154  -9.6736     33.8225     98.1925   6.8601344315e+01   5.3569739079e+01    0.2063794    0.1554937 -45.69 0.0009246026    1.367    0.268
       155 -11.3204     15.2269     96.8919   7.6112968671e+01   5.5515277514e+01    0.3478559    0.2068778 -53.29  0.001165042    1.611    0.379
       156 -10.8131     14.2972     92.1783   7.5904792785e+01   5.6819060259e+01    0.3131751    0.2040077 -62.23  0.001007383    1.382    0.276
       157  -9.6056    226.4281     93.2892   1.5711633496e+01   1.6425057937e+01     0.184217    0.1035298 -41.26 0.0006598411    1.580    0.367
       158 -11.8274     57.3447     90.8454   5.7375147052e+01   5.2531929275e+01    0.4008275    0.3295412 -25.94  0.000592495    1.384    0.277
       159 -10.2286     31.3016     92.2755   6.8611798321e+01   5.5383332697e+01     0.260124    0.1836846  68.14   0.00081582    1.563    0.360
       160 -10.7700     35.0736     90.4962   6.6655037052e+01   5.5464025463e+01    0.2804552    0.2331563 -32.40 0.0004820133    1.303    0.232
       161  -9.0575    159.3829     92.6941   2.6677788409e+01   3.0768114222e+01    0.1582559    0.1188071 -80.01 0.0007022062    1.792    0.442
       162 -10.0485    231.5216     91.4679   1.4652239587e+01   1.5734659424e+01    0.1286511    0.1092849 -30.74 7.662137e-05    1.008    0.008
       163  -9.4904    105.4539     91.4855   4.0220483820e+01   4.3404294469e+01    0.1566167    0.1531252  72.85  8.61302e-06    1.018    0.018
       164 -10.6136     23.8550     90.2914   7.1490159106e+01   5.6589323753e+01    0.4013146    0.1962963  40.96  0.001754177    2.108    0.526
       165  -9.7916     74.0095     89.0148   5.0343826464e+01   5.0260130230e+01    0.2202743    0.2160886 -75.93            0    1.010    0.010
       166 -10.4126     48.6799     89.8227   6.0708614060e+01   5.4013257778e+01    0.3009952    0.2175496  60.87  0.001132875    1.567    0.362
       167 -11.0581    184.7907     85.2534   1.9881795244e+01   2.6237697958e+01    0.2323873    0.2146295 -28.78 0.0002780215    1.054    0.051
       168 -10.9031    107.7374     85.1798   3.7624656230e+01   4.4287914352e+01    0.3892366    0.2535633  62.67 0.0006353504    1.847    0.458
       169 -10.2772     96.0754     88.8023   4.2439322646e+01   4.6012148326e+01    0.4663889    0.1971017  48.77  0.001586143    2.491    0.599
       170 -10.7835    239.4965     84.8051   1.2213645023e+01   1.5189032429e+01    0.1926426    0.1655201   3.27 0.0009731234    1.318    0.241
       171  -9.8139      8.3250     84.9981   7.7612825519e+01   5.9067351944e+01    0.1946954    0.1610727 -84.84  0.001150198    1.099    0.090
       172  -9.3234     34.4548     84.5139   6.5713154443e+01   5.7092714962e+01    0.1421742    0.1323673 -65.01 0.0001009885    1.010    0.010
       173  -9.8903     42.7713     83.4255   6.1757934912e+01   5.6419147391e+01    0.1984372     0.142176   6.21 0.0007434938    1.683    0.406
       174 -11.0015    119.7697     80.2360   3.2572394299e+01   4.2550686276e+01    0.4590706    0.3668388  19.25  0.001344461    1.528    0.346
       175  -9.7390     76.9540     82.3096   4.7282126639e+01   5.1336608964e+01    0.3173402    0.1288355  44.98  0.001085688    2.533    0.605
       176 -10.5494     64.2207     80.7668   5.1856201120e+01   5.3969087460e+01    0.3648151    0.1862204 -47.69  0.001454639    1.940    0.485
       177  -8.9353     53.7146     82.7311   5.6812176314e+01   5.5123074936e+01    0.1446584    0.1121223 -25.01 0.0006902713    1.498    0.333
       178  -9.7840      1.7538     80.5505   8.0083482624e+01   6.0545946003e+01    0.3430316    0.1014309 -58.95  0.001323315    2.666    0.625
       179  -9.9952    249.6894     80.6782   1.0210852994e+01   1.3928321308e+01     0.117544    0.0880852   1.29 0.0003226284    1.649    0.394
       180 -12.4982     88.5048     77.2321   4.1446651553e+01   5.0216100583e+01     0.402805    0.3361249  28.01   0.00043752    1.276    0.216
       181  -9.2295    189.5909     79.7944   1.7661551934e+01   2.6031009792e+01    0.1396044    0.1020308  33.42 0.0006802971    1.641    0.390
       182 -10.0517     50.0124     77.9666   5.7147148221e+01   5.6850933760e+01      0.21902    0.2054712 -54.26 0.0003419419    1.027    0.026
       183 -10.4445    100.0812     76.8167   3.7386066762e+01   4.7804446606e+01    0.2393953    0.2157055  86.54 0.0006057317    1.215    0.177
       184 -11.5492     23.0352     76.4214   6.9373184949e+01   6.0283847339e+01     0.420294    0.2948169  27.84  0.001131163    1.517    0.341
       185 -10.3317    168.4944     74.9654   1.9914568183e+01   3.1707944666e+01    0.3844759     0.213783 -48.43  0.001223404    1.856    0.461
       186  -9.5481     37.0533     76.5093   6.2704804384e+01   5.8872141992e+01    0.1993637    0.1433104  21.52 0.0004210934    1.496    0.332
       187 -10.3966     56.0394     74.9981   5.3636174160e+01   5.6696981664e+01    0.3207636    0.2117123  27.33  0.001472938    1.615    0.381
       188 -10.3623     51.8989     72.8553   5.4847338760e+01   5.7847839734e+01    0.2700615    0.2274462  12.66   0.00141774    1.290    0.225
       189 -11.5153     50.4864     68.0731   5.4044880305e+01   5.9221798394e+01    0.3512836    0.2827858 -25.38 0.0005795851    1.351    0.260
       190  -9.7382     76.0188     74.5311   4.5204902810e+01   5.3334900728e+01    0.2351108    0.1493477  42.15  0.001019343    1.571    0.364
       191  -9.8647     44.6391     74.4568   5.8631250369e+01   5.8461778951e+01    0.2413436    0.1358963  35.16  0.001060147    1.808    0.447
       192 -10.1274      6.9143     73.2779   7.6716011306e+01   6.2185558962e+01    0.2948022    0.1612005  -4.13  0.001397468    2.219    0.549
       193  -9.6947    160.0282     71.5157   2.0496565640e+01   3.4335271325e+01    0.2259455    0.1954838 -40.27  0.000552637    1.132    0.117
       194 -11.6745    102.8960     69.7630   3.4118996029e+01   4.8642093643e+01     0.397257    0.2919665 -50.59 0.0009198617    1.418    0.295
       195 -13.6928     16.4492     67.3422   7.0864394483e+01   6.3132003983e+01     0.479617    0.3622652 -58.33 0.0007352751    1.179    0.152
       196 -11.4417      6.3703     67.8283   7.6180331564e+01   6.3613769899e+01     0.236943    0.2276299 -37.29 0.0002826575    1.118    0.106
       197 -10.3414      2.3831     67.7827   7.8225872560e+01   6.3805997777e+01     0.828189          nan -67.57  0.001985705    6.763    0.852
       198 -10.5269     45.0243     70.8586   5.7444646731e+01   5.9307816973e+01     0.207014    0.2002514 -62.03 0.0003493854    1.034    0.033
       199  -9.1113    175.5360     70.4476   1.7401969793e+01   3.0755072628e+01    0.1450834    0.1372948 -55.61 0.0001914001    1.006    0.006
       200  -9.8164    244.3055     69.2964   8.2541232207e+00   1.6340020187e+01    0.1148131    0.0909472   4.46 0.0002032679    1.585    0.369
       201  -9.5604    167.9264     69.5016   1.8445519702e+01   3.2737973906e+01    0.2108442     0.145512  58.93 0.0004732421    1.480    0.324
       202 -11.2597     92.4229     67.8744   3.6913555322e+01   5.1405751140e+01     0.351318    0.2806801  20.78 0.0002844119    1.460    0.315
       203  -9.4873     74.5058     67.9543   4.3592790029e+01   5.5123294915e+01    0.2084058    0.1294638 -25.02 0.0004880898    2.288    0.563
       204 -10.7819    129.6641     66.1348   2.5407337549e+01   4.2844772442e+01    0.4543684    0.2920803  43.23   0.00106899    1.629    0.386
       205  -9.9539     60.2521     65.5579   4.8771264194e+01   5.8269840840e+01    0.2738802    0.1847656 -64.85 0.0008525632    1.699    0.411
       206 -12.6972     30.1666     63.1435   6.2680654520e+01   6.2995200524e+01    0.4771484    0.4535406  40.61  0.001230404    1.137    0.121
       207 -10.5057     81.6189     64.7788   3.9708124662e+01   5.4386367514e+01    0.3764824     0.231678  31.01  0.001561276    1.868    0.465
       208  -9.6069    241.6652     64.6809   7.4790141129e+00   1.7412557077e+01    0.1187959   0.09230493   9.40 0.0007049101    1.700    0.412
       209 -11.6144    209.9762     63.0367   1.0503876050e+01   2.3999668030e+01    0.2542636    0.2015249 -38.46 0.0003474083    1.119    0.107
       210 -10.1197    159.5382     64.4812   1.8482567019e+01   3.5613894612e+01    0.2481346     0.209473  57.25 0.0001451928    1.199    0.166
       211 -10.3582    161.8665     61.8283   1.7254815976e+01   3.5456278099e+01    0.2209237    0.2122906 -61.05 0.0002542633    1.020    0.019
       212 -10.7894    122.9121     62.6217   2.5918632417e+01   4.5171917707e+01    0.3992097     0.218426 -37.45  0.001044965    1.865    0.464
       213  -9.9835    109.1126     64.2095   3.0284096980e+01   4.8274049109e+01    0.2372786    0.2139749  17.12 0.0006043914    1.224    0.183
       214  -9.8027     45.2891     64.3035   5.5345533799e+01   6.0875833793e+01    0.2189932    0.1483779  25.01 0.0005240937    1.564    0.361
       215 -11.5159     46.4800     60.4947   5.3521415955e+01   6.1618331797e+01    0.3872585     0.283887 -21.07 0.0008423424    1.589    0.371
       216 -11.6330      4.8596     61.5480   7.5979832766e+01   6.5285323240e+01    0.7244681    0.3545156  -9.43  0.003279469    2.498    0.600
       217  -9.7048    155.1075     63.5109   1.9023515452e+01   3.6880179508e+01    0.2256844    0.1483404  62.25  0.001010812    1.541    0.351
       218 -10.0102     90.2158     60.9132   3.5162347652e+01   5.3331786181e+01     0.259475    0.2057813  60.37 0.0002595973    1.342    0.255
       219 -10.8414    189.2922     60.0401   1.2398993604e+01   2.9073414996e+01    0.2305195    0.2019743  74.29 0.0002781016    1.191    0.161
       220  -9.7711    167.9412     59.9523   1.5639816311e+01   3.4236503097e+01    0.2536494    0.1680019 -65.01  0.001135308    1.770    0.435
       221 -10.0551    153.6854     58.8956   1.7857805796e+01   3.7981577750e+01    0.2499781    0.2113802  69.38 0.0006576205    1.180    0.153
       222 -10.2475    135.9476     58.8437   2.1496356004e+01   4.2523513471e+01    0.4571346    0.2664093  83.14  0.001644194    2.702    0.630
       223  -9.5970    114.8483     60.3335   2.7269551023e+01   4.7598795910e+01    0.2282533    0.1347703  44.42            0    1.721    0.419
       224  -9.5174     57.3191     59.2946   4.7903146438e+01   6.0203646461e+01    0.1496705    0.1135433 -12.88 0.0002053326    1.609    0.379
       225  -9.8575    177.2357     56.6530   1.3196148810e+01   3.2444726899e+01    0.2236698    0.1726855 -85.54 0.0006207853    1.411    0.291
       226  -9.4712    110.5558     56.7760   2.7185095536e+01   4.9309492191e+01    0.2105219    0.1458689 -49.92 0.0004736276    1.538    0.350
       227  -9.6016     68.4548     56.8874   4.2047611343e+01   5.8721996224e+01    0.2171258    0.1461924 -47.94 0.0007251388    1.498    0.332
       228 -10.1613    172.1738     56.0322   1.3794085654e+01   3.3778164814e+01    0.2130201    0.1951416  19.78 0.0004921634    1.265    0.210
       229 -11.1996    115.7284     55.2168   2.5183935466e+01   4.8295576575e+01    0.3120339    0.2534312  76.80  0.001118975    1.338    0.252
       230 -11.0473     89.1911     53.8888   3.2832131194e+01   5.4948460579e+01    0.5601663     0.291989 -35.96  0.002016367    2.054    0.513
       231  -9.8159     80.7116     55.8725   3.6708992960e+01   5.6434947813e+01    0.4009895    0.2521425  17.30  0.001523759    2.560    0.609
       232 -11.6697     16.9914     42.3536   6.4214445355e+01   6.9259406613e+01    0.8192996    0.2835903 -54.71  0.003342811    2.331    0.571
       233 -11.8765      3.2673     53.3521   7.5458825594e+01   6.7414518546e+01    0.8834827    0.3516305 -66.93  0.003757529    2.048    0.512
       234 -10.3346      7.9638     51.5249   7.2300510769e+01   6.7642485313e+01    0.2682757    0.2258097  76.75 0.0005811059    1.318    0.241
       235 -11.9153     13.0354     52.9812   6.9611554172e+01   6.6978250234e+01     0.382896    0.2322902 -32.28 0.0003566276    1.689    0.408
       236 -13.4344     12.5357     48.0306   6.8677055500e+01   6.8225783901e+01    0.7783795    0.4592383  54.82 0.0005162898    2.208    0.547
       237 -12.8863    149.5227     51.2639   1.6198931030e+01   4.0234895692e+01    0.3740579    0.3135082 -68.69 0.0004115468    1.224    0.183
       238 -10.5572    154.1816     52.3746   1.5700874588e+01   3.8865466285e+01    0.2353106    0.2223306  15.76   0.00028105    1.194    0.163
       239 -10.4089    127.2228     51.7337   2.1038774739e+01   4.5948029985e+01    0.6033994    0.3354774 -75.18  0.001872028    3.813    0.738
       240 -11.5478    105.2969     52.5865   2.7138739809e+01   5.1359759392e+01    0.3030172    0.2874984 -69.93 0.0002897003    1.096    0.087
       241 -10.6216     38.6766     51.9709   5.4617065428e+01   6.4689218934e+01    0.4754812    0.2653937 -53.04  0.001568665    1.682    0.405
       242  -9.7419    138.8931     52.8059   1.8820409444e+01   4.2750745793e+01     0.349626   0.09352256  53.73   0.00103173    3.378    0.704
       243 -11.9896     44.7867     43.7529   4.8104170841e+01   6.5657713358e+01    0.6002549    0.4690687 -69.10  0.001079697    1.571    0.364
       244 -11.8408     55.3427     49.2993   4.4999378209e+01   6.2744702231e+01    0.6335748    0.4400614  50.60  0.002048218    1.627    0.385
       245 -11.7808     54.3157     41.7054   4.2263888531e+01   6.4503946900e+01    0.6324296    0.4601865   1.66  0.002542486    1.732    0.423
       246 -11.2224     56.8719     35.2506   3.7999891937e+01   6.5288967020e+01    0.5948852    0.3777486  26.24  0.002744977    1.783    0.439
       247 -10.0632    201.8351     49.1294   7.8778605602e+00   2.7678778085e+01    0.1716919    0.1583803  13.62 0.0002842628    1.302    0.232
       248 -10.8589    180.3176     47.2128   1.0032180828e+01   3.3024431346e+01     0.266972    0.2092661 -62.75  0.000178745    1.249    0.199
       249  -9.1299    163.7346     48.3373   1.2809949402e+01   3.7014427032e+01    0.1539087    0.1035084 -60.18 0.0005732687    1.590    0.371
       250  -9.9026    105.4118     47.3873   2.5087864630e+01   5.2234634908e+01    0.3040398    0.2147507 -81.07  0.001290356    2.001    0.500
       251  -9.2478     72.7039     48.3470   3.6828428321e+01   5.9626024283e+01    0.1489958    0.1202505 -83.98 0.0005187928    1.674    0.403
       252  -9.4060    159.7068    249.6530   5.6299748843e+01   4.0224440563e+00    0.1136252   0.07250243   4.28 0.0005819279    1.668    0.400
       253 -12.3252    247.9602     36.0061   5.6289028321e-01   1.9668272572e+01    0.4499032    0.2572219 -36.36 0.0009850186    1.384    0.277
       254 -12.1775    244.4598     36.4979   9.1867774308e-01   2.0277529007e+01     0.352117    0.2238622 -81.60  0.001534568    1.761    0.432
       255 -11.3841    121.7571     45.8905   2.0208274453e+01   4.8302814944e+01    0.6484562    0.3268866 -33.37  0.001543473    2.052    0.513
       256  -9.8002    222.1618     45.8443   4.9338743268e+00   2.3648245013e+01    0.1586519    0.1469481  -5.85 0.0002491144    1.280    0.219
       257 -10.2730    237.2359     44.2207   3.2225778423e+00   2.0780616414e+01    0.2112988    0.1750531 -46.02 0.0007520317    1.018    0.018
       258  -9.3575    112.3830     45.4758   2.2413182041e+01   5.0788113727e+01    0.1487454    0.1462789  55.68 0.0001099299    1.035    0.033
       259  -9.3494     92.0000     45.0044   2.8271103836e+01   5.5922845785e+01    0.2978841    0.1212215 -36.89 0.0008436916    2.544    0.607
       260 -11.0833     89.2007     41.3893   2.7675139981e+01   5.7212040443e+01    0.2654335    0.2518631 -83.08 0.0003401863    1.140    0.123
       261 -11.0667    143.4093     42.6990   1.4481666091e+01   4.3096193419e+01    0.4108548    0.2771536  19.78  0.001748442    2.181    0.542
       262 -10.8551    118.5013     40.4378   1.8923600075e+01   4.9991030430e+01     0.352952    0.2579144  74.56 0.0009689577    1.441    0.306
       263 -10.9028    108.5597     42.4610   2.2253764454e+01   5.2248756749e+01    0.3144189    0.2366217  42.63 0.0006241462    1.344    0.256
       264 -10.3013     72.9234     43.1075   3.4481719210e+01   6.0583829247e+01    0.2193566    0.2007734 -89.58            0    1.281    0.219
       265 -11.5091    149.3189     40.4507   1.2663907431e+01   4.1857887293e+01    0.3484718    0.2567563 -58.39  0.001705045    1.397    0.284
       266  -8.9551    136.6819     41.6835   1.5421293395e+01   4.5017211361e+01    0.1547899    0.1142475  30.37 0.0006509012    1.654    0.395
       267 -10.2471     97.4809     41.1159   2.4897516397e+01   5.5249567577e+01     0.394935    0.2271156  62.07  0.001375618    1.843    0.457
       268  -9.6573    102.8999     40.5643   2.3063620420e+01   5.3986047995e+01    0.2270787    0.1436455  56.47 0.0003773217    1.512    0.339
       269 -10.2670     68.4787     41.5089   3.5626345761e+01   6.1814822040e+01    0.1455093    0.1403651  16.13 0.0001260503    1.020    0.020
       270 -10.2292     60.6196     41.2272   3.9011169945e+01   6.3433922734e+01    0.3762228    0.1894792  26.90  0.001352104    2.790    0.642
       271 -11.7153    233.9250     39.7067   2.4494317209e+00   2.1972180622e+01    0.2939588    0.1741576 -77.83 0.0008664161    1.960    0.490
       272 -11.7924     83.9961     36.9545   2.7513292925e+01   5.9184777271e+01    0.6773314    0.4761565  10.07  0.002509211    1.956    0.489
       273 -11.8174     27.7200     37.6396   5.5588570818e+01   6.9290529903e+01    0.2429996    0.2291543 -16.41 0.0002381321    1.065    0.061
       274 -11.1523     24.2037     34.8023   5.6712750726e+01   7.0308990434e+01    0.3610325    0.2219566 -39.74 0.0005599781    1.520    0.342
       275 -10.9278     64.9474     36.5330   3.4863412887e+01   6.3458589807e+01    0.2679757    0.2036112 -47.55 0.0008850021    1.419    0.295
       276  -9.7717    122.9331     33.6314   1.5290053666e+01   4.9799487474e+01     0.209778    0.1773074  69.65 0.0004806881    1.126    0.112
       277 -10.4780    110.6696     34.1544   1.8345838321e+01   5.2959404669e+01    0.2917657    0.2021593  53.52 0.0008766863    1.360    0.265
       278  -9.9258    101.0661     33.1423   2.0458146867e+01   5.5584433969e+01     0.438765    0.2514227 -68.40  0.001240943    3.096    0.677
       279 -10.0398     92.7507     33.6222   2.3116784989e+01   5.7602225329e+01    0.2714002     0.201503 -15.22 0.0007960586    1.565    0.361
       280 -10.0377     34.3715     33.2702   4.9487939425e+01   6.9390121311e+01    0.2336493    0.1815621 -27.12 0.0008437869    1.249    0.199
       281  -9.3583    140.9582     33.2704   1.1651344302e+01   4.5038703114e+01    0.1990433    0.1855536  89.86 0.0004891976    1.004    0.004
       282  -9.9179    118.9499     32.2016   1.5604667489e+01   5.1052437542e+01    0.3463659    0.1931093  26.77   0.00125461    2.880    0.653
       283 -10.5071     75.7457     33.1716   2.8792353330e+01   6.1709123414e+01    0.3585295    0.2045079  56.31  0.001543494    1.831    0.454
       284 -10.0071     12.0394     29.0243   6.2991617247e+01   7.2714911781e+01    0.2013648    0.1681625 -32.04  0.000565448    1.058    0.055
       285 -10.8756      7.7971     30.5933   6.6732079822e+01   7.2652812584e+01    0.5061777    0.2418639 -65.87  0.002410864    1.961    0.490
       286  -9.9820      6.2400     25.3912   6.6098044830e+01   7.3927514767e+01     0.161985     0.148055  68.65 0.0002604747    1.350    0.259
       287 -10.2106     10.3963     24.9583   6.2640065887e+01   7.3741534494e+01      0.34671    0.1904612 -16.75  0.001023033    2.070    0.517
       288  -9.8758     14.5664     23.2500   5.8625576992e+01   7.3768275730e+01    0.2112442    0.1365073 -16.02 0.0005239716    1.637    0.389
       289 -10.0291     15.6173     32.1649   6.1583184559e+01   7.1722284356e+01    0.2194027    0.1539095 -32.97 0.0003350602    1.326    0.246
       290 -10.3212     19.0390     31.0158   5.8689338681e+01   7.1669372391e+01    0.2053209    0.1763137 -33.00 0.0007489611    1.029    0.028
       291  -9.3657    155.3149    250.6555   5.7253680676e+01   4.4457331157e+00    0.1073588   0.07612567  47.19  0.000704774    1.713    0.416
       292 -10.3959    182.9578    246.5202   5.1590095639e+01   1.5256617412e+00    0.1730801   0.08432291  29.64  0.001026148    1.572    0.364
       293 -10.9611     73.0095    244.9896   7.3340868150e+01   1.5636971474e+01    0.2572124    0.2165793  18.11 0.0009675397    1.342    0.255
       294 -12.3184     74.7291    239.9428   7.2606516256e+01   1.6274129801e+01    0.4837686    0.4120455 -71.15  0.003571401    1.493    0.330
       295 -10.0090    156.6691    245.6746   5.6403648294e+01   4.9219279965e+00    0.1176415   0.07401052   6.33 0.0007050734    1.706    0.414
       296  -9.3722    102.4485    243.9560   6.7119244600e+01   1.2168846537e+01    0.1471604   0.08961134  69.32 0.0008075166    2.470    0.595
       297  -9.1565     96.2865     31.3352   2.1033692542e+01   5.7059774977e+01    0.1528063    0.1121241  23.29 0.0004858368    1.627    0.385
       298  -9.8188    162.6388     29.6708   7.1135370213e+00   3.9769502836e+01    0.2738773    0.1410588 -21.37  0.001132481    2.236    0.553
       299  -9.5538     56.0879     30.1696   3.5850738193e+01   6.6363357404e+01     0.181911    0.1702055  74.44 0.0004640587    1.291    0.225
       300  -9.9954     48.7801     28.9685   3.8979483383e+01   6.7942029872e+01    0.2848689    0.1943202  -5.64   0.00116055    1.924    0.480
       301 -10.7970     46.4128    244.3736   7.8826833086e+01   1.8766297862e+01    0.3512941   0.08441498  33.41  0.001551407    2.702    0.630
       302 -11.9096    213.2401     27.2656   1.1184303246e+00   2.7782739024e+01    0.4100318    0.2559363 -15.57  0.002119758    1.926    0.481
       303 -11.1470    198.1342     28.2347   2.6963281235e+00   3.1122872415e+01    0.3026429    0.1701728  87.04  0.001452875    1.923    0.480
       304 -11.3810    112.0181     27.2385   1.5167444047e+01   5.3549035701e+01    0.3334364    0.3006678  12.26  0.001811308    1.235    0.191
       305  -9.9942     79.9330     28.0593   2.4776108991e+01   6.1543127307e+01    0.2478431     0.172594  19.99  0.001141016    1.773    0.436
       306 -10.7105     70.6290     26.3581   2.7426048649e+01   6.3944275841e+01    0.3880361    0.2928477 -79.40  0.001848595    1.985    0.496
       307 -10.6966    176.6494     26.5172   4.4217670181e+00   3.6557024217e+01    0.3069387    0.1993838 -48.92 0.0001109294    1.431    0.301
       308 -10.1198    119.4968     27.2553   1.3521295672e+01   5.1558110455e+01    0.2699296    0.1874314  63.76  0.000640479    1.343    0.256
       309  -9.6900     61.1599     26.8104   3.1702766149e+01   6.5917980111e+01     0.204254    0.1629474   4.68  0.001073406    1.375    0.273
       310 -10.6266    219.0372     25.4805   2.1751530274e-01   2.6711725057e+01    0.1778277    0.1195426  83.10 0.0004734695    1.549    0.355
       311  -9.9685     91.0150     24.8754   1.9640209749e+01   5.9292509651e+01    0.3607607    0.1719365  51.10  0.001462151    1.913    0.477
       312 -10.5950      1.7413     23.1823   6.8958404207e+01   7.4669389231e+01    0.3434844    0.1645845 -54.72  0.001744988    1.688    0.407
       313  -9.6431      4.4798    244.0132   8.7261159897e+01   2.2940387259e+01    0.1386844   0.08898032  79.26 0.0004884612    1.502    0.334
       314  -9.9191    132.2753    241.3569   6.0722776632e+01   8.6894835924e+00    0.1138103   0.08009715   1.22 0.0002707625    1.651    0.394
       315  -9.7354    116.0000    240.9701   6.4016594557e+01   1.0882475417e+01    0.1553328   0.06973748 -56.45 0.0008020428    2.940    0.660
       316  -9.4052     22.6519     24.2864   5.3017438194e+01   7.2724220594e+01    0.1242297    0.1021976  59.19 0.0004112371    1.655    0.396
       317 -10.0217    160.4920     21.6737   4.8313307697e+00   4.1263662734e+01    0.3840823    0.2297221  23.41    0.0015924    2.670    0.625
       318 -11.8841     34.1096     22.6875   4.4258681288e+01   7.1521284523e+01    0.2441715    0.2038188  -3.67 0.0002206137    1.146    0.128
       319 -10.5015     88.8673    240.9284   6.9693130239e+01   1.4369574269e+01    0.1736465    0.1444789  12.04  0.001220748    1.362    0.266
       320  -9.4095    156.4190     21.7665   5.3784391115e+00   4.2323702026e+01    0.1791869    0.1408643  -8.23 0.0006317778    1.539    0.350
       321 -10.2376     59.6604    240.8358   7.5856817703e+01   1.7897384309e+01    0.1676176    0.1248057  34.52  0.001158934    1.152    0.132
       322 -11.7043    229.7537     20.0434   3.5816172952e+02   2.5030280355e+01    0.2975869    0.1850305  67.71  0.000631997    1.783    0.439
       323 -10.4939    193.0713     20.9450   1.1794889057e+00   3.3145880415e+01     0.196459    0.1738423 -63.48 0.0003234074    1.030    0.029
       324 -10.2707    132.6118     20.8248   8.5568195514e+00   4.8802024275e+01    0.2535179    0.1776586  60.27  0.000416602    1.337    0.252
       325 -10.6031    122.3853     19.9386   1.0025713420e+01   5.1663633713e+01    0.3210377    0.1944546  49.42  0.001078911    1.629    0.386
       326  -9.6968    100.4775     21.1520   1.5319771684e+01   5.7349255382e+01    0.3083759     0.196723  85.96   0.00133784    1.963    0.491
       327  -9.5734    149.6961    240.3021   5.7113679981e+01   6.5490319713e+00    0.1101586    0.0785203  46.50 0.0002499676    1.593    0.372
       328  -9.4581     58.8559     21.1874   2.9704607999e+01   6.7288892833e+01    0.1953698    0.1533484  22.14 0.0005391934    1.292    0.226
       329 -10.2556    210.8291     19.1969   3.5926821953e+02   2.9209838050e+01    0.1878783     0.168583  63.33 0.0004904775    1.310    0.236
       330 -10.4662    195.9420    238.3159   4.8159124983e+01   9.1169300822e-01    0.1987654    0.1407832 -11.47   0.00106246    1.345    0.256
       331 -10.2362      3.7740    238.4356   8.7274706242e+01   2.3981152561e+01    0.1826652    0.1226367  77.18  0.000689455    1.402    0.287
       332 -11.0632     39.9719    237.2897   7.9802931333e+01   2.0693431544e+01    0.3392791    0.1382122  48.09  0.001052238    1.811    0.448
       333 -10.9539     34.7658    237.5922   8.0909865902e+01   2.1184295176e+01    0.2689141     0.128299  49.46   0.00113899    1.559    0.358
       334  -9.6425    109.5199     16.7881   1.1285722237e+01   5.5471422988e+01    0.2752745    0.1468729  55.19 0.0007463443    1.691    0.409
       335  -9.6471     35.1561     17.5065   4.0567010443e+01   7.2295463522e+01    0.1968434     0.125032  34.05   0.00101655    1.543    0.352
       336  -9.9919    193.3917     16.3267   3.5988548005e+02   3.3564970720e+01    0.2401522    0.1531011  88.37 0.0008468744    1.542    0.352
       337 -11.1430     30.7736    234.1586   8.1592373640e+01   2.2210310802e+01    0.3753252    0.2141449  76.23  0.002072166    1.762    0.433
       338 -10.5793    137.5566     15.3667   5.7568409482e+00   4.8060405398e+01    0.3021522    0.2038897 -56.43 0.0005832512    1.526    0.345
       339  -9.8473     91.9702    235.6816   6.8571818339e+01   1.4844849884e+01    0.1752909    0.1234182  33.79 0.0004410993    1.111    0.100
       340  -9.5217     44.6786     19.3107   3.5875668374e+01   7.0361862412e+01    0.2021889     0.168014  86.24  0.001084484    1.860    0.462
       341  -9.8092     66.9273    236.6261   7.4026240996e+01   1.7777449321e+01    0.2816218   0.08938259  31.05  0.001250771    2.462    0.594
       342 -11.2860    183.0696    234.4430   4.9959275887e+01   2.9889796666e+00    0.2429974    0.1665244  25.37 0.0009596848    1.162    0.140
       343 -11.1098    160.6928    234.9013   5.4277114443e+01   5.8417564171e+00    0.2189965    0.1306154  21.54     0.001044    1.409    0.290
       344  -9.9993     54.8288    231.7030   7.6302841899e+01   2.0060338597e+01    0.2021394    0.1259018  79.00 0.0009359323    1.797    0.444
       345 -10.0956    248.5115    229.0676   3.8161695421e+01  -4.0806999080e+00    0.1449299   0.08260962 -23.35  0.001022927    1.566    0.361
       346  -9.9410     59.2156    229.2437   7.5179715099e+01   1.9999489512e+01    0.1680179    0.1070547  52.56 0.0005605604    1.314    0.239
       347  -9.9680     39.7125    229.4173   7.9450055411e+01   2.2148629478e+01    0.2287952   0.07841014  34.95  0.001116603    2.070    0.517
       348  -9.8579    192.2453    227.5915   4.7308745158e+01   2.6758782717e+00    0.1664845   0.08650491  22.17 0.0006871597    1.659    0.397
       349 -10.2304      6.4957    225.5172   8.6397072643e+01   2.6105713775e+01    0.1640524     0.118365  45.16  0.000683253    1.105    0.095
       350  -9.9239      3.6618    225.7095   8.6995368399e+01   2.6314823579e+01    0.1549468    0.1329116 -78.62 0.0009840258    1.465    0.318
       351 -10.2999     79.1514    223.4838   7.0291348753e+01   1.8611748424e+01    0.2204604    0.1829264  -4.02  0.001204174    1.560    0.359
       352  -9.2966     88.2684     19.6015   1.7927174659e+01   6.0669635591e+01    0.1493256    0.1070375 -60.64 0.0003432063    1.733    0.423
       353 -10.2851     15.9929    222.1719   8.4267684243e+01   2.5884633084e+01    0.1867158    0.1396318  69.86 0.0005616955    1.200    0.167
       354  -9.8217    126.1668    220.3012   5.9524702227e+01   1.2787060944e+01    0.2132024    0.1526409  68.04  0.001210309    2.045    0.511
       355  -8.9155    233.3084    219.3203   3.9038437284e+01  -1.3754898040e+00    0.1142201   0.06503586   1.57 0.0003777189    1.641    0.391
       356  -9.8985    211.8592    218.8238   4.2521172908e+01   1.2665781518e+00     0.144234    0.1211035  16.73 0.0005888839    1.331    0.249
       357 -10.5337     13.0512    217.1384   8.4731361463e+01   2.7127887718e+01    0.1821971    0.1354963 -70.06  0.000778219    1.625    0.385
       358 -10.7932     38.4469    217.1433   7.9052957033e+01   2.4616525298e+01    0.2317887    0.1296399  40.06 0.0005803291    1.371    0.271
       359 -11.5640     48.2937    218.6281   7.6906027639e+01   2.3246209248e+01    0.5761882     0.189192  30.47   0.00255308    2.463    0.594
       360  -9.2662    135.6609    216.6875   5.7016081339e+01   1.2023925079e+01    0.1277244   0.08807774   4.29 0.0007046243    1.694    0.410
       361 -10.2514     23.9516    215.9964   8.2266790512e+01   2.6325048477e+01    0.1803811    0.1299406  53.06 0.0003039512    1.060    0.056
       362 -10.6715    217.2003    209.3984   4.0126085464e+01   1.7370175815e+00    0.2869395    0.1375946 -32.63  0.001091207    2.065    0.516
       363  -9.7159     30.3464    214.2966   8.0740385302e+01   2.6022778653e+01    0.1055537    0.0905144 -17.16  0.000258846    1.674    0.403
       364  -9.9647     20.2950    211.9529   8.2914743625e+01   2.7479991623e+01    0.2359357    0.1104186  50.07  0.001305318    1.620    0.383
       365 -12.0142     11.3596    209.0633   8.4825959702e+01   2.8882750776e+01    0.3267889    0.2915958  68.89  0.002079982    1.218    0.179
       366 -11.9587      5.0236    210.3749   8.6289237918e+01   2.9169104491e+01    0.3855062    0.2334724  74.13  0.001517181    1.441    0.306
       367 -11.2766      4.5729    204.7447   8.6223896969e+01   3.0344627128e+01    0.3116733    0.2400476 -28.41  0.002054802    1.986    0.497
