#   1 NUMBER                 Running object number                                     
#   2 MAG_AUTO               Kron-like elliptical aperture magnitude                    [mag]
#   3 X_IMAGE                Object position along x                                    [pixel]
#   4 Y_IMAGE                Object position along y                                    [pixel]
#   5 X_WORLD                Barycenter position along world x axis                     [deg]
#   6 Y_WORLD                Barycenter position along world y axis                     [deg]
#   7 A_WORLD                Profile RMS along major axis (world units)                 [deg]
#   8 B_WORLD                Profile RMS along minor axis (world units)                 [deg]
#   9 THETA_WORLD            Position angle (CCW/world-x)                               [deg]
#  10 FWHM_WORLD             FWHM assuming a gaussian core                              [deg]
#  11 ELONGATION             A_IMAGE/B_IMAGE                                           
#  12 ELLIPTICITY            1 - B_IMAGE/A_IMAGE                                       
         1 -13.6832    192.7173    192.6989   3.2900831674e+01   7.5001459939e+00     10.23351     6.983652 -81.00   0.02499591   14.407    0.931
         2 -14.2823    208.7789    176.4873   2.7201997967e+01   7.8281636086e+00     4.730701     2.699172 -60.40   0.01818458    4.940    0.798
         3 -14.6925    243.4227     76.6180   2.5124538174e+00   1.7368804811e+01     5.212129     1.639571 -51.47   0.01984075    3.825    0.739
         4 -13.9239    207.9451    116.3477   1.5361659565e+01   1.7571956869e+01     2.773405     1.968364 -28.15   0.01582966    1.314    0.239
         5 -14.6206    176.1043    163.2451   3.0758936418e+01   1.4886806412e+01     3.098423     2.837768 -67.94   0.01903427    1.419    0.295
         6 -13.8761    213.3170     83.2675   7.2324968851e+00   2.1773129264e+01     4.733599     2.428075 -13.68   0.01549881    5.216    0.808
         7 -15.6914    242.1551    131.3569   1.3679004988e+01   9.8795837015e+00     4.236681     2.026354 -32.18   0.02278522    1.719    0.418
         8 -11.7391    245.3655     25.2856   3.5171061362e+02   2.3384799486e+01    0.6166686    0.4400434  87.90  0.003157153    1.512    0.339
         9 -11.3916    247.8482     16.9002   3.4987410353e+02   2.3856713524e+01    0.5652795    0.2970946  80.49  0.003541261    2.090    0.522
        10 -11.4732    202.6220     18.1498   3.5276125231e+02   3.2580738312e+01      0.38275    0.2581425 -55.87   0.00233328    1.202    0.168
        11 -11.7126    190.6568     15.6574   3.5300199585e+02   3.5483317117e+01    0.6101481    0.4338793   2.25  0.003345007    2.222    0.550
        12 -10.9869    216.1460     16.5274   3.5149542132e+02   2.9926604743e+01    0.4897029    0.2535264  40.52  0.002173358    3.959    0.747
        13 -10.7998    221.0894     14.4421   3.5073272678e+02   2.9154031182e+01    0.3555326    0.2790216  39.64  0.001594917    1.924    0.480
        14 -11.5246    223.0835      8.5078   3.4930325314e+02   2.9377809682e+01    0.5539282    0.2909293  55.04  0.003039498    2.610    0.617
        15 -12.4868    238.5647      5.4566   3.4794578672e+02   2.6722974670e+01     1.015221    0.4112458  64.73  0.003488387    2.937    0.660
        16 -11.2479    232.4446      3.5489   3.4780121339e+02   2.8061692967e+01    0.5661771    0.2494984  65.20   0.00311226    2.663    0.624
        17 -10.5184    206.5366     10.9930   3.5077886808e+02   3.2510396459e+01    0.2529512    0.1932838 -48.58 0.0004440319    1.127    0.113
        18 -11.8290    183.1124      4.2681   3.5055561153e+02   3.8362851990e+01     0.978285    0.3767952 -81.49  0.004061413    2.852    0.649
        19 -10.2304    171.9681      2.2997   3.5077535856e+02   4.1153236960e+01    0.3406701    0.1630384 -65.25  0.001629816    1.946    0.486
        20  -9.3262    120.3759      9.3633   3.5838998260e+02   5.3471075382e+01    0.2779324    0.2632596  50.86   0.00117971    1.191    0.160
        21  -9.7735    214.3006      1.5419   3.4816093679e+02   3.1843018616e+01    0.2718502   0.09849124  76.64  0.001199979    2.717    0.632
        22 -13.1617    193.4889    113.8796   1.7099335211e+01   2.0595554847e+01     1.921762     1.291385 -55.16  0.009932997    1.626    0.385
        23 -10.1208    250.1366    248.0797   3.1925977817e+01  -5.7853035996e+00    0.4550638    0.1723605 -28.10  0.002823023    2.231    0.552
        24 -11.5804    245.2473    245.2056   3.2251435718e+01  -5.0615630995e+00    0.5185161    0.3453782  23.50  0.003609784    1.609    0.379
        25  -7.9696    190.0445    244.0034   4.1191650660e+01   5.0191953976e-01    0.1333322   0.09901729   5.29 0.0003176857    1.002    0.002
        26  -9.9534    245.0018    232.9883   3.0548698230e+01  -3.7061017096e+00    0.1764607    0.1187237   9.38 0.0008292132    1.238    0.192
        27  -7.9584    244.3823    198.2775   2.5302127193e+01   4.8779160920e-01    0.1134384    0.0662884  -3.65 0.0007003395    1.716    0.417
        28 -12.6578    244.9883    179.2659   2.2041729604e+01   2.8776193706e+00    0.9470661    0.7984007 -21.15  0.003017337    1.262    0.208
        29  -9.9159    207.9718    193.3283   3.0280190487e+01   5.4120229130e+00    0.2343456    0.1487474 -25.57 0.0006652538    1.394    0.283
        30  -9.3967    179.9079    193.6081   3.5491224978e+01   9.1058379011e+00    0.2254065    0.1831739 -40.83  0.001157425    1.387    0.279
        31 -10.1103    227.3182    191.9984   2.6860066233e+01   3.2286553604e+00    0.2335473    0.1859112 -26.01 0.0005029434    1.249    0.199
        32  -7.6725    156.6928    190.2963   3.9703531201e+01   1.3013960314e+01    0.1218068     0.103778  60.37 0.0003100363    1.588    0.370
        33 -10.8388    230.8931    184.3024   2.4994960031e+01   3.8581929162e+00    0.3596297    0.2515167 -16.06 0.0009849798    1.172    0.147
        34 -10.4664    236.8405    185.5280   2.4301550808e+01   2.9875997751e+00    0.4095319    0.2669698 -56.03  0.002233087    3.091    0.676
        35 -11.9269    199.7730    179.5550   2.9323983755e+01   8.5931355921e+00     0.540534    0.3806952 -48.43  0.001880056    1.717    0.418
        36 -10.3366    175.2223    187.9741   3.5457158936e+01   1.0705169188e+01    0.3256943    0.2980356   6.11  0.002150772    1.148    0.129
        37 -13.3152    241.3085     94.6756   6.4549974874e+00   1.5230121190e+01    0.6693256    0.5706683 -40.19 0.0006782648    1.085    0.078
        38 -10.6457    238.0984    228.1756   3.0887884638e+01  -2.5050142827e+00    0.4359815    0.2515222  43.18  0.002224484    3.225    0.690
        39  -8.7091     88.6884    185.6971   5.5555736822e+01   2.4150499485e+01    0.2793557    0.2132411 -18.28  0.001034653    1.655    0.396
        40  -7.9590     27.2470    179.0686   7.2130284101e+01   3.3246957549e+01     0.164553    0.1089869 -80.04  0.000303998    1.509    0.337
        41  -9.9980    129.7996    175.7544   4.3401726501e+01   2.0007659559e+01     0.348707    0.2409785 -69.79   0.00115345    1.982    0.495
        42  -8.1919    107.0000    170.0200   4.8269470669e+01   2.4930235960e+01    0.2254162   0.08399788 -56.36 0.0006231905    2.874    0.652
        43  -8.2754    215.1777    167.8708   2.4563907984e+01   8.2632849133e+00     0.171679    0.1540941 -33.36 0.0007470102    1.301    0.231
        44 -10.7895    148.4604    166.7348   3.7349751037e+01   1.8775725792e+01    0.4486822    0.2961344 -19.09  0.002109119    1.901    0.474
        45  -9.0255    116.0100    162.7487   4.4605833052e+01   2.5091505153e+01    0.2058502    0.1918507  25.19 0.0006179872    1.024    0.023
        46 -12.5629    189.7048    170.9658   2.9595561401e+01   1.1437869409e+01     1.055877     0.678455  16.69  0.005510035    1.733    0.423
        47  -8.2743    180.1772    201.6059   3.6761544775e+01   7.7823001887e+00    0.1629433    0.1034345  17.67 0.0003806766    1.503    0.335
        48  -9.2764    114.8749    158.0734   4.4049685650e+01   2.6340498722e+01    0.2207985    0.1997746  69.56 0.0004973402    1.213    0.176
        49 -12.1110    134.2258    148.6123   3.7178936906e+01   2.5017658292e+01     1.276512    0.4896476 -57.89  0.003190011    3.867    0.741
        50 -10.2940    132.4473    137.4500   3.5252396313e+01   2.7779156570e+01    0.4441918    0.2638958 -58.84  0.001440846    1.970    0.492
        51  -9.2695    203.6145    152.8326   2.3630058611e+01   1.2320128089e+01    0.2993755    0.1843021 -41.48 0.0009106748    1.518    0.341
        52  -9.4678     12.3221    200.5463   7.7352936148e+01   2.9520718077e+01    0.2084473    0.1937952  54.87 0.0004463665    1.174    0.148
        53  -9.5416     67.1316    227.2562   6.5461539841e+01   1.8109615825e+01    0.1921779    0.1835096  10.79  0.000402596    1.223    0.182
        54  -8.0565     12.9999    153.0000   7.4663763313e+01   4.1132365992e+01    0.2126448   0.07610959  19.01 0.0006613277    2.899    0.655
        55 -10.5296     68.1210    144.2775   5.5500092930e+01   3.7297064667e+01    0.7619519    0.4041429  57.71  0.002924022    2.288    0.563
        56 -11.6081    162.9124    140.5339   2.8841452053e+01   2.1410806032e+01    0.6821749     0.488775   6.13  0.001982685    1.831    0.454
        57 -11.5324    160.8221    130.1691   2.6995297646e+01   2.3830796672e+01     0.824213    0.3068725 -44.78  0.002990857    2.593    0.614
        58 -11.1242    151.1849    141.4102   3.1612452452e+01   2.3404298037e+01    0.4476764    0.3253108 -10.45  0.001546572    1.767    0.434
        59  -8.1880     12.5457    143.5155   7.4160436984e+01   4.3672605200e+01    0.1408075    0.1214793  70.56 0.0001846093    1.032    0.031
        60 -10.4490      2.3469    138.0210   7.7268600558e+01   4.5823800804e+01     0.224638     0.215846  59.42 0.0005024088    1.126    0.112
        61  -9.5008    165.6186    133.8690   2.6814224018e+01   2.2199656890e+01    0.2379058    0.1969172  20.79 0.0009520481    1.304    0.233
        62  -8.3784    120.9894    129.0441   3.6372579230e+01   3.1876103396e+01    0.1912373    0.1705257 -49.92 0.0006568228    1.130    0.115
        63  -7.8996    113.4528    127.5618   3.8126952856e+01   3.3686486412e+01    0.1529196    0.1488264  65.20 0.0001304029    1.028    0.027
        64 -12.7005    158.6593    113.8936   2.3626616308e+01   2.7456256154e+01      1.27169    0.9217414  31.87    0.0049714    1.588    0.370
        65 -10.8524    157.4817    108.6608   2.2582988605e+01   2.8721713576e+01    0.4032907    0.3543247   6.15 0.0007038094    1.320    0.242
        66 -11.7568    173.8199    107.6119   1.9084328483e+01   2.5539216877e+01    0.6607764    0.4879753  42.65  0.001197508    1.483    0.325
        67  -9.8375    177.4950    119.1145   2.1117685196e+01   2.2709648400e+01    0.2759422    0.2322103 -21.15  0.000687515    1.212    0.175
        68 -12.1155    176.0177    114.8667   2.0404837813e+01   2.3774116238e+01    0.9374991    0.7172118  34.24  0.003087603    1.470    0.320
        69  -8.3712     80.1418    122.4872   4.7367496252e+01   4.1075568710e+01    0.2269375    0.1528354  33.96 0.0005374768    1.483    0.326
        70  -8.6187    122.0164    120.5261   3.4085265802e+01   3.3610973892e+01    0.2383211    0.1987261 -50.79 0.0005470557    1.202    0.168
        71 -11.6036     65.9599    107.2437   4.9054976176e+01   4.7403536034e+01     1.244615     1.142402  74.52  0.006526589    1.103    0.093
        72 -11.8962     53.2244    111.4926   5.4893173791e+01   4.8176180530e+01    0.8930998    0.6391667 -33.89  0.003501109    1.637    0.389
        73 -12.7650     45.3083    107.7898   5.7327440420e+01   5.0224991812e+01     1.433575     1.030109  -0.92  0.006624184    1.748    0.428
        74 -11.2237     36.4922    107.6628   6.0933139468e+01   5.1300356292e+01    0.4476695    0.3616172  10.05 0.0009663075    1.378    0.275
        75  -9.9981    148.3916    113.5489   2.5790207810e+01   2.9654630405e+01    0.3113796    0.2608962  23.65 0.0008002735    1.353    0.261
        76 -10.2349    141.0477    113.8755   2.7582029543e+01   3.1125188242e+01     0.452978    0.2087426  43.11  0.001715465    2.248    0.555
        77 -12.4616      5.9798    106.6138   7.3614266248e+01   5.4105694165e+01     1.017604    0.7522666 -80.50  0.004137425    1.223    0.182
        78  -9.5753    127.0488    110.6876   3.0281277039e+01   3.4762458304e+01    0.2952065    0.2248434 -56.47 0.0005200126    1.356    0.263
        79 -10.6072    124.9150    106.0270   2.9629455161e+01   3.6238255614e+01    0.3677976    0.3184508 -37.94  0.001861475    1.187    0.157
        80 -10.2294    142.5743    105.8489   2.5175206885e+01   3.2462077229e+01    0.4081485    0.3424417  57.64  0.001073738    1.241    0.194
        81  -8.7826    181.9805    104.8172   1.6940451876e+01   2.4393349885e+01    0.2424985    0.1830569 -41.11 0.0005683309    1.202    0.168
        82  -9.4198    158.9234    101.6969   2.0521269034e+01   2.9756757814e+01    0.3356406    0.2219104  11.13  0.001311492    2.824    0.646
        83 -12.7212    212.6659    130.1523   1.7573095837e+01   1.4552194836e+01        1.475    0.3931324 -34.57  0.004969734    3.785    0.736
        84  -9.9685    155.4059     94.8422   1.9457729436e+01   3.1824384838e+01    0.4940423    0.2854093 -33.99  0.002121433    1.818    0.450
        85  -8.8465    157.0934     88.0772   1.7304515466e+01   3.2709886624e+01    0.3630805    0.1997811 -37.48  0.001002521    1.783    0.439
        86  -8.8942    250.7067    222.5447   2.8165392379e+01  -3.0570459567e+00    0.1561025   0.07280379 -31.95 0.0003200725    1.801    0.445
        87  -9.1540    109.4148     92.9657   3.0364727823e+01   4.2491340774e+01    0.3177752    0.2491884 -25.71 0.0003503206    1.524    0.344
        88  -8.5536     85.7870     93.8343   3.8277842338e+01   4.7234493417e+01    0.2330595     0.204557 -34.11 0.0008105926    1.226    0.184
        89  -9.0691    200.3742     92.8015   1.1168558713e+01   2.2776908595e+01     0.226202    0.1940091 -13.57 0.0006158495    1.316    0.240
        90  -8.7573    134.2250     93.1026   2.3728635475e+01   3.6911477618e+01    0.2249541    0.2103636  -2.78 0.0005265945    1.210    0.174
        91  -8.6704    218.1959     89.2430   7.9739223287e+00   1.9973640073e+01    0.2155282    0.1490826 -32.13 0.0006664305    1.302    0.232
        92  -8.0932    194.6267     88.8013   1.1057601781e+01   2.4557232929e+01    0.2026572    0.1074802 -46.01 0.0009390619    1.701    0.412
        93  -8.5847    127.2946     86.9952   2.3701806546e+01   3.9733738824e+01    0.2162925     0.193378 -48.11 0.0004004963    1.111    0.100
        94  -8.2709    184.4219     68.7908   7.5478123190e+00   2.9877329247e+01    0.2536272    0.1618195 -12.75 0.0006088109    2.424    0.587
        95  -8.6509    179.1206     60.6409   6.1530595604e+00   3.2300400539e+01    0.2264686    0.1643034 -47.85 0.0004698896    1.233    0.189
        96 -11.0786    178.7542     70.2842   8.7655481773e+00   3.0892515912e+01    0.7574679    0.4002786 -31.02  0.002241413    1.961    0.490
        97  -9.9013    181.8864     63.9919   6.6541706070e+00   3.1173203547e+01    0.2797452    0.2413841 -23.94  0.000412666    1.303    0.233
        98 -10.3255    183.9829     78.4672   1.0093979265e+01   2.8441042104e+01    0.6224881    0.3466519 -28.44  0.002547341    1.968    0.492
        99  -9.3248    181.8192     74.9628   9.5233942244e+00   2.9472714690e+01    0.3143504     0.251138  -7.58 0.0009281941    1.636    0.389
       100  -8.5654    149.9400     82.0786   1.7093542955e+01   3.5441862923e+01    0.2142809    0.2083617 -60.07  0.001201559    1.058    0.055
       101  -7.7444    202.6111     80.1972   7.8860283688e+00   2.4315136056e+01    0.1770845    0.1160309 -29.32 0.0005636625    1.520    0.342
       102 -12.4533    227.0343    118.0554   1.3006311959e+01   1.4111520134e+01    0.7453185    0.6072669  69.44  0.004696912    1.653    0.395
       103  -8.5902    191.1449     76.4487   8.5386104376e+00   2.7242454483e+01    0.3726236    0.2051866 -14.58  0.001381368    3.523    0.716
       104  -8.9279     88.0380     75.2449   3.1766402447e+01   5.1064998906e+01    0.2545456    0.2130377 -47.45 0.0006921316    1.213    0.176
       105  -9.0769    203.7546     68.9620   5.0562653835e+00   2.5772624598e+01    0.2702115    0.2138817 -47.24  0.000576365    1.072    0.067
       106  -9.5227    200.0026     71.0360   6.0219517252e+00   2.6231496251e+01    0.3716302    0.2111547 -30.46   0.00140566    1.745    0.427
       107  -8.9768    200.4535     67.5374   5.1144661559e+00   2.6657921947e+01    0.2398426    0.2057703 -25.07 0.0005230291    1.282    0.220
       108  -8.5896    133.1354     72.8654   1.8036968833e+01   4.1105081735e+01    0.2067904    0.1851222  21.41 0.0005182466    1.332    0.249
       109  -8.9681    173.1653     64.8334   8.1528712990e+00   3.3009711948e+01    0.1817852     0.169693   6.11 0.0005160438    1.318    0.241
       110  -8.7508    148.1310     64.1358   1.2224080589e+01   3.9022318726e+01    0.2097548    0.2048618  16.71  0.000432968    1.188    0.158
       111 -10.0744    154.9352     61.4699   1.0183643965e+01   3.7819760451e+01     0.401823    0.2815419 -19.49  0.001778486    1.814    0.449
       112  -9.2402    144.4912     59.5031   1.1510072798e+01   4.0674175413e+01    0.2664573     0.225328  55.54 0.0005985785    1.231    0.188
       113 -10.3465    146.2554     54.1162   9.5113835339e+00   4.1101791512e+01    0.5613263    0.3357908 -14.95  0.002150697    2.648    0.622
       114  -8.7180    207.5206     58.7013   2.1650185122e+00   2.6473546891e+01    0.2848015    0.1761619 -52.54  0.001550903    1.425    0.298
       115 -10.2719    200.2921     49.4467   6.8641786881e-01   2.9247005667e+01    0.5836232    0.3162239  37.91  0.002098088    3.311    0.698
       116  -8.0878    192.5298     58.4845   3.8360020692e+00   2.9652284000e+01    0.1853737    0.1592941  33.45 0.0007641445    1.516    0.340
       117  -9.1108    196.1122     55.9132   2.7604494139e+00   2.9247459338e+01    0.2315872    0.2059799  12.16 0.0007816124    1.501    0.334
       118 -10.5445    158.6210     52.7948   7.0076307788e+00   3.8281781637e+01    0.4286082    0.2891092 -19.02  0.001105467    1.902    0.474
       119  -8.6682    161.5155     46.9854   4.8531626681e+00   3.8433393445e+01    0.2628042    0.1957113  -9.51 0.0009427245    1.841    0.457
       120  -9.4040    178.7210     53.3588   4.2502031339e+00   3.3464712715e+01    0.2783289    0.1421515 -45.35  0.001272481    1.743    0.426
       121  -9.2047    191.8664     52.5367   2.3996815288e+00   3.0639989717e+01    0.2361534    0.1634035 -46.80 0.0003761164    1.248    0.199
       122  -9.2032    183.6964     52.7870   3.4553209004e+00   3.2417780010e+01     0.224418    0.2136253 -17.95   0.00139848    1.265    0.210
       123  -8.6235    174.4119     52.4937   4.5933150389e+00   3.4582327507e+01      0.13944    0.1213628 -60.85 7.909103e-05    1.017    0.017
       124  -9.2259    239.9778    221.9786   2.9674850742e+01  -1.9605589185e+00    0.2148036    0.1842256  47.50  0.001471064    2.403    0.584
       125  -7.9320    115.2401     51.3420   1.5174088004e+01   4.9296900827e+01    0.1422981    0.1184107  10.80 0.0003308319    1.558    0.358
       126  -9.2653    187.0289     47.8695   1.7559131070e+00   3.2356309355e+01     0.284963    0.1710246  59.75  0.001048284    1.794    0.443
       127  -8.0131    117.0071     46.2820   1.2923483396e+01   4.9671806001e+01    0.2019094    0.1814449  72.04 0.0003553316    1.053    0.050
       128 -10.3569    249.1710     41.8750   3.5488012763e+02   2.0807480827e+01    0.3477005    0.2286267 -34.30  0.002048375    1.327    0.246
       129  -9.8373    165.2591     40.5834   2.4560716204e+00   3.8418461594e+01    0.3031202     0.245194  -9.67 0.0004507584    1.607    0.378
       130  -9.3199    190.6523     35.6491   3.5817790134e+02   3.3150791123e+01    0.2287522    0.1560908 -21.79  0.001231881    1.727    0.421
       131  -8.6573    236.9888    218.4966   2.9602370506e+01  -1.2450866869e+00    0.1848721   0.08972451  37.65  0.001087691    2.603    0.616
       132 -10.0673    199.9841    219.9941   3.5963248078e+01   2.5884765289e+00    0.2362647    0.1737188  11.47  0.000507294    1.136    0.120
       133  -7.8451    100.6378     28.1770   9.8226953265e+00   5.6463083253e+01     0.174953    0.1401777 -12.96 0.0002155941    1.496    0.331
       134  -8.1853     84.8261     26.8672   1.3600877355e+01   6.0597035929e+01     0.186607    0.1604612 -84.91 0.0002578299    1.271    0.213
       135 -10.5456    204.9247     25.3098   3.5433679935e+02   3.1281743912e+01    0.3357942    0.1559228  57.49  0.001251093    2.538    0.606
       136 -11.0963    220.4603     23.7373   3.5286995063e+02   2.8259254928e+01    0.4148125    0.2474569  82.63  0.002474364    1.744    0.427
       137 -10.8016    178.6582     23.8870   3.5620818060e+02   3.7318065827e+01    0.5983616    0.2814541  67.24  0.002826058    2.080    0.519
       138  -8.3789    142.8352     22.6443   3.5992061189e+02   4.6257853227e+01    0.2089419    0.1532718  59.79 0.0004713523    1.375    0.273
       139  -8.0152    108.5514     20.9415   5.0378596725e+00   5.5327085585e+01    0.1929738    0.1413189 -29.31 0.0004461255    1.496    0.331
       140  -8.8486    159.8722    219.6472   4.3595196690e+01   7.5859193446e+00    0.1972913    0.1485035 -19.41 0.0005014153    1.319    0.242
       141  -9.0149    225.2280    218.9627   3.1524790044e+01  -8.3403962577e-02    0.1858052    0.1395018  22.30  0.001037355    1.420    0.296
       142  -9.5138    220.7510    215.9517   3.1789364700e+01   7.8387388029e-01    0.2610044    0.2092723  42.24  0.001124515    1.984    0.496
       143  -9.6829    215.6901    212.6082   3.2107457433e+01   1.7870537332e+00    0.2209851    0.1913963  42.88 0.0008400413    1.860    0.462
       144  -7.9326    187.4628    220.4982   3.8320878215e+01   4.0003763507e+00    0.1206058    0.0921234   0.75 0.0008087147    1.063    0.059
       145  -8.4962    142.8835    215.0457   4.6524498156e+01   1.0597941212e+01     0.174651    0.1564418  33.87 0.0004159772    1.229    0.186
       146  -8.6747    175.1534    212.0646   3.9396387757e+01   6.8006722137e+00    0.2385567    0.1565453 -69.54  0.001062066    4.003    0.750
       147  -9.6821    242.0713    206.4775   2.6959935814e+01  -2.9363365440e-01    0.2574723    0.2124999  38.58  0.001490253    1.936    0.484
       148  -7.8342     99.5558     11.5812   2.9223313631e+00   5.8674705775e+01    0.1391252      0.12309  74.36 6.948785e-05    1.007    0.007
       149  -8.9914      9.3371    207.3112   7.8366798671e+01   2.8261802398e+01    0.1142279   0.09232467 -35.22  0.000704501    1.686    0.407
       150  -9.0485    214.1770    206.0543   3.1320476492e+01   2.8489795964e+00    0.1991065    0.1507472  27.03   0.00101368    1.432    0.302
       151 -10.5266    218.4190    247.2670   3.6745142660e+01  -2.8117559993e+00    0.2672844    0.1523914  17.79  0.001362989    1.431    0.301
