#   1 NUMBER                 Running object number                                     
#   2 MAG_AUTO               Kron-like elliptical aperture magnitude                    [mag]
#   3 X_IMAGE                Object position along x                                    [pixel]
#   4 Y_IMAGE                Object position along y                                    [pixel]
#   5 X_WORLD                Barycenter position along world x axis                     [deg]
#   6 Y_WORLD                Barycenter position along world y axis                     [deg]
#   7 A_WORLD                Profile RMS along major axis (world units)                 [deg]
#   8 B_WORLD                Profile RMS along minor axis (world units)                 [deg]
#   9 THETA_WORLD            Position angle (CCW/world-x)                               [deg]
#  10 FWHM_WORLD             FWHM assuming a gaussian core                              [deg]
#  11 ELONGATION             A_IMAGE/B_IMAGE                                           
#  12 ELLIPTICITY            1 - B_IMAGE/A_IMAGE                                       
         1 -14.2159     19.1383     22.9186   8.4952121080e+01   7.1222679661e+01     1.861034    0.7833342 -29.89  0.008202503    2.661    0.624
         2 -13.6307      5.3231     48.0175   1.0252650983e+02   6.7434011145e+01     1.716126    0.6909783 -27.62  0.007431734    2.661    0.624
         3 -13.4678      3.4499     36.7084   1.0023021153e+02   6.9924570512e+01    0.9012868    0.7022022 -52.88  0.004360984    1.250    0.200
         4 -13.8390    233.4760     28.5854   3.4312520829e+01   2.5312803801e+01    0.8762159    0.7710493  86.03  0.001699568    1.252    0.201
         5 -13.2985     34.8446     20.3077   7.4541802508e+01   6.9619545069e+01    0.8774983    0.4270062 -39.49   0.00437647    2.123    0.529
         6 -12.8517    107.9881     16.5976   4.6961930208e+01   5.5196456227e+01    0.9584919    0.6398959 -21.37  0.005179896    1.712    0.416
         7 -13.2058    129.1572      5.1668   3.9149705671e+01   5.1148962748e+01     1.106013    0.4237675  66.16  0.004834685    2.154    0.536
         8 -13.0099    113.2165      3.0460   4.0953325928e+01   5.5162946798e+01      1.55194    0.3417476  67.14  0.005144615    3.756    0.734
         9 -12.7197    191.3403     15.3209   3.4841055386e+01   3.5564330693e+01    0.6446662    0.3444015  60.82  0.003455712    1.870    0.465
        10 -12.9599    207.6180      7.4268   3.1689480996e+01   3.2840968932e+01    0.6184288    0.3174956 -51.12  0.003504722    1.674    0.403
        11 -12.9610    177.5804      5.5807   3.3672228685e+01   3.9629652779e+01    0.7229831    0.4608839  84.39  0.004229599    1.399    0.285
        12 -11.6192    243.3036      5.1152   2.9010246632e+01   2.5997862447e+01    0.6580252    0.2684505 -68.37  0.003463038    2.410    0.585
        13 -12.0419    218.8882      6.0921   3.0633485477e+01   3.0641792966e+01    0.5020993    0.2557485 -70.24  0.002765925    1.838    0.456
        14 -12.4811    193.0683      2.7475   3.1692809311e+01   3.6423809973e+01    0.6179359    0.2437387  74.15  0.002998063    2.268    0.559
        15 -12.4904      2.3178      6.5048   8.8269704963e+01   7.5569392786e+01    0.5954264    0.3300033 -26.02  0.003538344    1.585    0.369
        16 -10.8091     70.8821    208.3654   1.0600091183e+02   2.1592946612e+01    0.3869069    0.2274387  34.06  0.001407668    1.533    0.348
        17 -10.9046     59.6084    246.2422   1.1209985879e+02   1.5153812606e+01    0.1971713     0.145446 -87.47 0.0007421269    1.500    0.333
        18 -10.9937     46.8277    250.4387   1.1509400769e+02   1.5794554867e+01    0.2720517    0.1165472  33.61  0.001340917    1.884    0.469
        19 -15.6534      7.0702    133.9094   1.1599765451e+02   4.6358162959e+01     17.87147     1.601923 -76.30   0.03073758   13.517    0.926
        20 -13.4765      2.0877    181.0208   1.2094481636e+02   3.5004190537e+01     2.797071    0.4399291 -81.11  0.007482184    6.680    0.850
        21 -13.5120      9.1498    207.3632   1.2071172897e+02   2.8400082557e+01    0.6209427     0.435793 -19.68 0.0009702872    2.163    0.538
        22 -14.6455     14.7181    201.7193   1.1909752796e+02   2.9186249521e+01     1.052363    0.6312426  51.15  0.003797231    1.460    0.315
        23  -9.3660     89.4947    197.4901   9.9996821085e+01   2.1514034463e+01    0.1413178      0.12517  51.59 0.0002935605    1.088    0.081
        24 -11.5786     42.7828    180.5668   1.1025508300e+02   3.1446417594e+01    0.2669684    0.2574862 -33.53 0.0005780555    1.192    0.161
        25 -11.8513     55.2084    200.1851   1.0903896321e+02   2.5373147057e+01    0.5195503    0.3108126  40.99  0.002083458    1.505    0.336
        26 -11.6333     50.6763    173.9454   1.0734345081e+02   3.2190399363e+01    0.2687779    0.2454737 -41.06 0.0004219673    1.217    0.178
        27 -10.5712     63.6321    163.7513   1.0229039054e+02   3.3147691954e+01    0.2421691    0.2368502  68.69 0.0003523301    1.034    0.033
        28 -12.9022     48.7255    160.2788   1.0618866583e+02   3.5852746766e+01    0.5422181    0.3142886 -34.69  0.001469595    2.263    0.558
        29  -9.6855    133.2905    160.2506   8.2325649296e+01   2.2903284659e+01    0.1942871    0.1747685  86.40 0.0005306226    1.343    0.256
        30 -11.5311     72.5619    157.0813   9.8628665107e+01   3.3621467219e+01    0.5028291    0.4015332 -15.31  0.002547981    1.514    0.340
        31 -12.0998     67.8990    143.5480   9.7744051880e+01   3.7715278631e+01    0.7569894     0.429249  58.72  0.002942391    2.315    0.568
        32 -12.8246     31.9442    142.9756   1.0907989980e+02   4.2067051602e+01    0.5846869    0.5652941  66.82  0.002102407    1.084    0.077
        33 -11.8898     27.4899    140.4744   1.1018351751e+02   4.3123278237e+01    0.2810073    0.2744456  45.29  0.001061757    1.118    0.106
        34  -9.8039     88.9532    143.9921   9.1338585987e+01   3.4433877633e+01    0.2310567    0.2286513 -31.04 0.0006327705    1.010    0.010
        35 -11.6315     76.5646    141.8505   9.4720348496e+01   3.6898945798e+01     0.313839    0.2585533 -53.00 0.0003760284    1.191    0.160
        36 -10.4186    105.2935    131.3914   8.3758914715e+01   3.4705266987e+01    0.3439541     0.292533   0.95  0.001115144    1.319    0.242
        37 -11.1777     88.6757    128.5906   8.8188589387e+01   3.8304014659e+01      0.72618    0.3269823  25.42  0.002093032    2.836    0.647
        38 -10.7586     26.1403    128.1064   1.0901171845e+02   4.6451134229e+01    0.2253264    0.1721688 -45.52  0.001232129    1.299    0.230
        39  -9.3905    102.7404    119.9434   8.1811334551e+01   3.7901838437e+01    0.2073257    0.1927899 -48.91 0.0002602965    1.075    0.070
        40 -11.8697     79.9394    118.4291   8.8704972795e+01   4.2262807834e+01    0.4435662    0.3600964 -64.60  0.002214681    1.285    0.222
        41 -10.2677     65.6908    118.0357   9.3458712157e+01   4.4543078272e+01    0.2226047     0.191077 -52.69 0.0009087651    1.117    0.104
        42 -11.5779     16.4633    108.8240   1.0971367551e+02   5.2182587194e+01    0.4572885    0.2273879  35.86  0.002108759    2.175    0.540
        43 -12.2702     18.5800    103.4394   1.0807348981e+02   5.3405423712e+01    0.7082506    0.3829693   5.42  0.003119775    2.239    0.553
        44 -11.5985     70.6899    107.6437   8.9310103471e+01   4.6389386416e+01    0.3565379    0.2764729 -80.28  0.001715095    1.575    0.365
        45 -11.8833     42.7112     92.4848   9.6253679204e+01   5.3904950479e+01    0.7332596    0.3775417 -62.83  0.002571762    1.936    0.484
        46 -11.1941     42.5958    105.3603   9.9161583854e+01   5.0709018985e+01    0.5131046    0.3732244 -57.53  0.001821095    1.265    0.209
        47 -11.1774     42.0303    100.0147   9.8241253281e+01   5.2117476078e+01    0.4600096    0.2966543  11.96  0.002194067    1.772    0.436
        48 -11.6566     80.6542    105.8944   8.5400547145e+01   4.5199275268e+01     0.442058    0.3478678 -78.51  0.002115527    1.574    0.365
        49 -12.5487     63.2120     97.8937   8.9593165839e+01   4.9893540051e+01    0.9686394    0.6019763 -12.73  0.003909993    2.407    0.585
        50 -11.7462     55.3730     98.2296   9.2648830172e+01   5.0917293288e+01    0.4960487     0.367213 -23.97  0.002457865    1.481    0.325
        51 -10.9024     29.3479     99.9354   1.0322737567e+02   5.3417383169e+01    0.3481282    0.2604364 -58.30  0.001889642    1.196    0.164
        52 -11.5564     23.2121     91.6052   1.0409246147e+02   5.6028723672e+01     0.735729    0.3515751 -51.04  0.003337362    1.783    0.439
        53 -10.0186     27.9739     89.0000   1.0156091503e+02   5.6267612094e+01    0.3068517    0.1808328  29.29  0.001498256    1.814    0.449
        54 -14.4590     19.1018    222.1746   1.1929166320e+02   2.4301736227e+01     2.802393     1.060487  80.35   0.01181637    3.237    0.691
        55 -12.6784     59.9013     84.5969   8.7271408423e+01   5.3523474039e+01    0.6191748     0.606537  84.76  0.003606184    1.164    0.141
        56 -12.3678     62.2764     75.7164   8.3675293904e+01   5.5157623467e+01    0.9248796    0.5394083   7.43  0.003621978    2.661    0.624
        57 -12.6786     76.1842     82.9463   8.0572862736e+01   5.1257814412e+01    0.9392982    0.8910543  28.61  0.005269077    1.086    0.080
        58 -11.4620     45.8657     83.4529   9.2674511415e+01   5.5701256598e+01    0.5019209    0.2830587  19.82  0.002015905    1.951    0.487
        59 -12.3030      3.5401     69.2899   1.0843632549e+02   6.2706045662e+01     1.211609    0.4922056 -74.76  0.004363019    2.604    0.616
        60 -12.8394     22.2907     73.8149   1.0060277640e+02   6.0415083675e+01    0.9885513    0.7772143 -48.01  0.004180536    1.112    0.101
        61 -12.4264     18.3540     61.7684   9.9410141811e+01   6.3509055115e+01    0.7223322     0.480353  39.31  0.003917849    1.812    0.448
        62 -11.3935    242.3513    248.0228   7.5503087933e+01  -7.6846054342e+00    0.2056243    0.1728136 -42.02  0.001517984    2.093    0.522
        63 -12.0222    160.1193    246.0385   9.0527120730e+01   2.2676254750e+00     0.357782    0.2844592  35.62  0.002160634    1.321    0.243
        64 -11.3521     80.5134    247.4433   1.0770200283e+02   1.2426051185e+01    0.2478498    0.2115103   4.35  0.001659776    1.366    0.268
        65 -11.9204     31.6203     41.0335   8.5604161257e+01   6.6526979663e+01    0.6685603    0.3901028  24.53  0.003124913    1.690    0.408
        66 -12.9648     74.2395    220.4823   1.0648885358e+02   1.8548786212e+01    0.8599314    0.4885266  32.89   0.00333759    1.557    0.358
        67 -10.5800     45.5341     27.3385   7.2524436345e+01   6.6906144034e+01    0.3059504    0.1718425   9.72  0.001332732    2.597    0.615
        68 -12.3468     84.6368    230.4021   1.0511080081e+02   1.5181012834e+01    0.4304484     0.338592  72.53  0.001575657    1.409    0.290
        69 -14.9511     96.9762    225.5422   1.0172472620e+02   1.4514794139e+01     2.637151    0.8118878  37.26   0.01028881    2.628    0.620
        70 -13.1876     64.7460    218.5558   1.0853998096e+02   2.0142363335e+01     1.097066    0.6660737 -84.70  0.005706164    1.931    0.482
        71 -14.6179     30.6713    191.4092   1.1444552664e+02   3.0092793037e+01     2.042735     1.723678  60.54    0.0128914    1.064    0.060
        72 -11.2130     51.5514     20.4052   6.6401500439e+01   6.6870285759e+01    0.3016346    0.2182427   0.79  0.001735756    1.424    0.298
        73 -12.0700     62.8422    227.2984   1.0980319582e+02   1.8534801921e+01    0.6835195    0.3081937  43.81  0.002389404    1.888    0.470
        74 -11.5567    115.3600    219.2673   9.6652052605e+01   1.3197310631e+01    0.3929595     0.364067  65.93  0.002478597    1.224    0.183
        75 -11.2849     48.5207    214.5700   1.1202139793e+02   2.2914106526e+01     0.359987    0.2432556 -85.45  0.001633312    1.540    0.351
        76 -11.4804     51.6621    197.5477   1.0966950750e+02   2.6398069356e+01     0.408549    0.3245265 -39.38  0.001815131    1.514    0.340
        77 -10.9216     83.8219    209.7384   1.0297910578e+02   1.9590874521e+01    0.3296249    0.2875516 -19.02  0.001124239    1.346    0.257
        78 -11.8593     88.5372     43.0425   6.2339211527e+01   5.6327273496e+01    0.8198062    0.5511894  -7.54  0.003885669    1.945    0.486
        79 -10.6132     88.0462    205.4463   1.0140624840e+02   1.9949978843e+01    0.3257783    0.2772276  10.79  0.001281912    1.270    0.212
