#   1 NUMBER                 Running object number                                     
#   2 MAG_AUTO               Kron-like elliptical aperture magnitude                    [mag]
#   3 X_IMAGE                Object position along x                                    [pixel]
#   4 Y_IMAGE                Object position along y                                    [pixel]
#   5 X_WORLD                Barycenter position along world x axis                     [deg]
#   6 Y_WORLD                Barycenter position along world y axis                     [deg]
#   7 A_WORLD                Profile RMS along major axis (world units)                 [deg]
#   8 B_WORLD                Profile RMS along minor axis (world units)                 [deg]
#   9 THETA_WORLD            Position angle (CCW/world-x)                               [deg]
#  10 FWHM_WORLD             FWHM assuming a gaussian core                              [deg]
#  11 ELONGATION             A_IMAGE/B_IMAGE                                           
#  12 ELLIPTICITY            1 - B_IMAGE/A_IMAGE                                       
         1 -13.6304    225.7266      7.7487   3.3256747256e+01   2.8847258324e+01     2.091222     1.219157  46.99  0.009888308    2.314    0.568
         2 -13.1846    194.8982     41.8814   4.4735496876e+01   3.1936004202e+01     1.056995     0.930554 -72.33  0.003216612    1.061    0.058
         3 -13.2785    202.6396     33.9701   4.1706368722e+01   3.1114293758e+01    0.9141451    0.8405709 -12.56  0.001446429    1.321    0.243
         4  -9.2693    189.7076     14.9647   3.8330058000e+01   3.6363612634e+01    0.1795406    0.1585561 -74.67 0.0006044125    1.059    0.055
         5 -11.4488    139.9841    248.4004   1.0127558090e+02   4.4202925370e+00    0.4470572    0.3887991  43.28  0.003056293    1.096    0.088
         6 -18.8689     14.8912    185.3876   1.2145692356e+02   3.3682452608e+01     17.05377      4.57658 -79.65   0.06445113    3.559    0.719
         7  -9.3475     81.8929    195.3156   1.0707834321e+02   2.3652350888e+01    0.2873829    0.2408563  -4.63  0.001633195    1.637    0.389
         8 -10.6922    149.1991    188.4171   9.0127852093e+01   1.4073291273e+01     0.504239      0.34428 -84.79  0.002135056    2.583    0.613
         9 -10.8474    184.1674    212.3346   8.6786295870e+01   3.4824270147e+00     0.291198    0.1969109  -9.52  0.001482552    1.794    0.443
        10 -10.4687    120.1019    186.2791   9.6604790136e+01   1.9659467359e+01    0.2316514    0.1962598 -40.53 0.0001682572    1.285    0.222
        11  -9.3391    149.6445    208.6804   9.3524966872e+01   9.9574220423e+00     0.142278    0.1042964   0.70 0.0007045983    1.754    0.430
        12  -9.2668     91.6268    183.9827   1.0317379562e+02   2.4803205415e+01    0.2349615     0.208256  30.62 0.0009664824    1.219    0.179
        13  -8.5235     80.6909    184.5582   1.0593503740e+02   2.6290465690e+01    0.1959558    0.1170994  47.90 0.0009439122    1.613    0.380
        14 -10.6473     99.3898    180.9299   1.0079178819e+02   2.4298835431e+01    0.2771618    0.2609137  62.45 0.0006129285    1.024    0.024
        15 -10.9040     52.1657    164.8782   1.1048174232e+02   3.4741394728e+01    0.3863269     0.234682 -47.81  0.001926719    1.806    0.446
        16 -11.2724    203.9467    200.7523   8.0688208876e+01   2.1767452704e+00     0.416571    0.2188034  14.51  0.001633343    2.984    0.665
        17 -11.7293     47.5974    172.1435   1.1253226446e+02   3.3511369132e+01    0.6540089    0.4799128 -36.89  0.002816834    1.761    0.432
        18 -10.0171    146.3560    171.8794   8.7649139758e+01   1.8097082034e+01    0.3203359    0.2510548 -72.97 0.0008894301    1.595    0.373
        19 -11.2043    164.1571    213.0522   9.1103514836e+01   6.6913670583e+00    0.4406911    0.1932631 -48.78  0.001871787    2.578    0.612
        20  -8.8614    193.6724    170.9947   7.6884806597e+01   9.3027030406e+00    0.2074512    0.1783762 -28.45 0.0007095172    1.123    0.110
        21  -9.6914    185.1551    169.2073   7.8303039911e+01   1.1248266113e+01    0.2569168    0.2169343 -52.12 0.0009079755    1.332    0.249
        22  -9.8533    240.4121    169.2486   6.7650168128e+01   1.4004184109e+00    0.1793417    0.1138569 -41.45 0.0003173606    1.555    0.357
        23  -9.7205    137.3714    167.5980   8.8971160312e+01   2.0727061753e+01    0.3773628     0.212854  52.03  0.001498689    2.005    0.501
        24 -10.0332    187.7078    176.0098   7.9171787459e+01   9.4583642750e+00    0.3428525    0.3157718 -56.02  0.001378859    1.285    0.222
        25  -8.8526    148.6840    175.3723   8.7784837865e+01   1.6908791767e+01    0.2485652    0.1819829 -72.02  0.000689869    1.821    0.451
        26 -11.5208     92.4977    151.5290   9.7523188620e+01   3.2433678210e+01    0.7358308       0.5251 -27.35  0.003419967    1.825    0.452
        27 -11.2831    133.9034    144.7036   8.4998825801e+01   2.6595120776e+01     1.469039    0.3447855 -51.61  0.003669683    4.842    0.793
        28  -9.2861    112.2691    150.6283   9.1974782261e+01   2.9287319962e+01    0.4191742    0.2640235  72.59  0.001601543    2.584    0.613
        29  -9.2941    174.8779    149.1687   7.6162900264e+01   1.7302192471e+01    0.2306028    0.2130823 -78.27 0.0006979286    1.270    0.212
        30  -9.4040    144.3096    146.8346   8.2843914610e+01   2.4036583211e+01    0.3187661    0.1397553 -54.22  0.001083002    2.636    0.621
        31 -10.2725    104.9398    137.9257   9.1298932834e+01   3.3651763463e+01    0.5243236     0.337619 -22.91  0.002094313    2.328    0.570
        32 -11.6777     92.7266    137.4747   9.4674306009e+01   3.5847735554e+01    0.2915943    0.2624839 -36.24 0.0003220536    1.154    0.133
        33 -11.3531    193.1083    195.2624   8.1841238945e+01   4.9503711480e+00     1.071654    0.5986559 -63.51  0.003677318    4.544    0.780
        34 -11.9839    111.8536    204.7359   1.0141177994e+02   1.7027856471e+01    0.4451615    0.3479286 -87.79 0.0009961802    1.467    0.318
        35 -10.2928    105.8678    130.8243   8.9447829313e+01   3.5199116941e+01    0.3643025    0.3306518 -67.62  0.001124965    1.119    0.106
        36 -10.0485    136.2321    129.3948   8.0797321332e+01   2.9623716684e+01    0.4510835    0.1754961 -48.92  0.001494984    2.597    0.615
        37 -10.4948    113.2200    129.0153   8.6943241194e+01   3.4273388218e+01    0.3591403    0.3049208 -16.49 0.0008333456    1.338    0.253
        38  -8.9345    160.4717    127.9688   7.4425342545e+01   2.4794520941e+01     0.319922    0.2046518  83.12  0.001045126    3.526    0.716
        39 -10.3235    100.5455    124.8905   8.9609577143e+01   3.7578252111e+01    0.2934971    0.2489528 -14.96 0.0006793435    1.347    0.258
        40 -11.0636    119.2398    123.6237   8.3951943576e+01   3.4380711874e+01    0.4692417    0.3381549  25.82   0.00194052    1.583    0.368
        41 -12.3358    104.4689    211.5575   1.0402287364e+02   1.6756845063e+01    0.8848462    0.3383098 -55.72   0.00317225    2.753    0.637
        42  -9.9934    134.7611    107.9864   7.5643545489e+01   3.4693041027e+01    0.6472847    0.1472402 -46.53  0.001618465    4.549    0.780
        43  -9.9470    135.0000    119.0945   7.8528219548e+01   3.2198417815e+01     0.491111    0.1767709 -43.30   0.00156848    2.762    0.638
        44  -9.3024    108.9715    118.1119   8.5497572962e+01   3.7648417158e+01    0.2243486    0.2166796 -46.75 0.0003376743    1.017    0.017
        45  -9.8958    231.2876    113.8042   5.7087051751e+01   1.2466192663e+01    0.2550729    0.2442848  35.07 0.0007215046    1.168    0.144
        46  -8.9323    167.6746    112.6156   6.8848121212e+01   2.6400990476e+01    0.3179934    0.2278566 -79.38  0.001314584    2.117    0.528
        47 -11.9225    118.2004    108.7415   8.0395518715e+01   3.7997034316e+01    0.8595737    0.6413029 -55.57  0.004009849    1.405    0.288
        48  -9.4631    205.3810    110.2718   6.0627347347e+01   1.8465121580e+01    0.2977971    0.2039992  46.27 0.0009526487    1.564    0.361
        49  -9.8073     66.3552    104.4154   9.5465881457e+01   4.7916830301e+01    0.2606927    0.1448784  24.40  0.001135181    2.105    0.525
        50  -9.8001    131.4274     98.7689   7.3963630514e+01   3.7385861504e+01    0.3430346    0.2402573  77.97   0.00138121    2.240    0.554
        51 -11.3863    107.7591    203.7983   1.0221561258e+02   1.7877513367e+01    0.3090537     0.252276  69.40 0.0007728979    1.257    0.205
        52  -8.8688     93.4803    205.3272   1.0568875776e+02   1.9745288794e+01    0.2408224    0.1159853  36.04  0.001078822    1.965    0.491
        53  -8.5928    157.1772     82.5796   6.2929535470e+01   3.4677819156e+01    0.2125717    0.1412277  40.95 0.0006401959    1.586    0.370
        54 -15.2475     71.4144    147.6505   1.0269279939e+02   3.6545354292e+01     8.938671     4.370843  75.41   0.01282169    6.737    0.852
        55  -9.8386     62.8257     69.2329   8.6956845121e+01   5.6318149938e+01     0.224711    0.2011143 -28.13 0.0003761683    1.050    0.048
        56  -9.8870     89.8311    212.4239   1.0739447564e+02   1.8769229682e+01     0.249539    0.1965616  77.46 0.0004921802    1.273    0.214
        57  -8.5366    250.6840    237.6442   7.8609941259e+01  -9.9282003801e+00    0.1244079   0.07138509  -0.77 0.0007045241    1.745    0.427
        58 -12.8841    182.6337     51.8301   4.9235922020e+01   3.3527096374e+01      0.89082    0.8104936  21.79 0.0007748848    1.280    0.219
        59  -9.6425    167.9901    232.7723   9.3434241724e+01   2.6629911114e+00    0.2528374    0.1881571  41.00 0.0007696839    1.265    0.210
        60 -11.2893    158.1790    222.6696   9.3916222951e+01   5.9578751158e+00    0.5499786    0.3180568 -65.88  0.001667425    2.954    0.661
        61  -8.2926     70.6222    202.3259   1.1052483424e+02   2.3647029246e+01    0.1459351   0.08473323  64.30 0.0007023731    1.836    0.455
        62 -11.7168    120.8449    195.8238   9.7985559169e+01   1.7454050132e+01    0.6155477    0.3086621 -73.35   0.00171674    3.653    0.726
