#   1 NUMBER                 Running object number                                     
#   2 MAG_AUTO               Kron-like elliptical aperture magnitude                    [mag]
#   3 X_IMAGE                Object position along x                                    [pixel]
#   4 Y_IMAGE                Object position along y                                    [pixel]
#   5 X_WORLD                Barycenter position along world x axis                     [deg]
#   6 Y_WORLD                Barycenter position along world y axis                     [deg]
#   7 A_WORLD                Profile RMS along major axis (world units)                 [deg]
#   8 B_WORLD                Profile RMS along minor axis (world units)                 [deg]
#   9 THETA_WORLD            Position angle (CCW/world-x)                               [deg]
#  10 FWHM_WORLD             FWHM assuming a gaussian core                              [deg]
#  11 ELONGATION             A_IMAGE/B_IMAGE                                           
#  12 ELLIPTICITY            1 - B_IMAGE/A_IMAGE                                       
         1 -14.2181    209.2547     20.6172   3.2989156939e+01   3.0953034374e+01      1.09658      0.94383  84.44   0.00514677    1.163    0.140
         2  -9.3088    165.8256    215.8057   8.4541482836e+01   4.5183884500e+00    0.1685431    0.1634252  87.34 0.0004663569    1.306    0.234
         3 -14.4615    244.8048    232.7581   7.1946625546e+01  -9.4339598462e+00     2.808286    0.8258263 -36.69   0.01213705    3.034    0.670
         4 -10.4083     66.7857    194.8245   1.0494381210e+02   2.4747612215e+01    0.1823788    0.1680926  75.87  0.000385725    1.019    0.018
         5 -10.0815    191.0765    191.5107   7.4642021352e+01   5.0145834050e+00    0.6031684    0.3237602 -66.09  0.001520463    7.857    0.873
         6 -11.2342      1.6630    192.7436   1.2030932261e+02   3.2247370095e+01    0.1110967   0.08564341 -49.33 0.0006952819    1.574    0.365
         7  -9.4655     62.0262    191.3815   1.0570240237e+02   2.6218954762e+01    0.1698664    0.1253722  43.39 0.0001876667    1.322    0.243
         8 -10.7520     71.7104    186.3848   1.0256079720e+02   2.6134831151e+01    0.3614451    0.2214224 -89.04   0.00159728    2.010    0.503
         9 -10.2954     60.6961    187.7281   1.0557531826e+02   2.7290275012e+01    0.1769084    0.1565199 -83.11 0.0002720319    1.058    0.055
        10  99.0000     46.9837    221.5665   1.1248907287e+02   2.1038891540e+01     1.861546     1.798029  41.48   0.01245027    1.259    0.206
        11 -11.1609     78.8648    183.6216   1.0029747897e+02   2.5794411983e+01    0.5584449     0.316071  44.47  0.002317917    1.741    0.426
        12 -10.7026     65.1202    184.3547   1.0398936480e+02   2.7541011480e+01    0.3826629    0.2184771 -36.58  0.001411897    2.459    0.593
        13 -10.2520     90.0393    181.0221   9.6955244713e+01   2.4748299647e+01     1.072268    0.2172009 -59.74 0.0003002897    5.089    0.803
        14 -18.9082     26.1939     98.6357   1.0179769607e+02   5.3686482910e+01     16.25159     1.776696 -63.75   0.03389428    8.758    0.886
        15 -10.0359     47.2942    208.3042   1.1116914808e+02   2.4019954432e+01    0.1633415    0.1384013  87.89  0.000549223    1.074    0.069
        16 -11.4887    180.7454    176.4686   7.3823445305e+01   9.7765745048e+00    0.6542322    0.3731011 -49.20  0.001655417    1.832    0.454
        17 -11.0687      1.4125    177.3227   1.1929306920e+02   3.5929004642e+01    0.1404178   0.09992687 -87.76  0.000317022    1.145    0.127
        18 -10.7018    156.1350    174.4170   7.8967648639e+01   1.4723634828e+01    0.3158981    0.2061428 -63.74  0.001339821    2.018    0.504
        19  -9.4985    199.6834    173.4042   6.9240957371e+01   7.0338468284e+00    0.2457425     0.161624 -49.85 0.0007869462    1.630    0.386
        20  -9.7659     73.5676    205.4637   1.0461718226e+02   2.1285031551e+01    0.1376909    0.1231884  69.91 0.0001091645    1.025    0.025
        21  -9.1355     62.7171    172.7071   1.0298912037e+02   3.0790916890e+01    0.3051164    0.2301771  25.11  0.001456217    1.484    0.326
        22 -11.2227    145.0208    169.8498   8.0700091977e+01   1.7821478005e+01    0.3785836    0.2221116 -59.65  0.001340915    2.044    0.511
        23 -12.1967    230.5418    167.4415   6.2244194897e+01   3.0006622276e+00    0.4877974    0.2345467 -47.88   0.00214886    2.168    0.539
        24  -9.8201    187.7948    169.7131   7.0914341463e+01   9.8733423055e+00    0.3076255    0.1928086 -49.88  0.001404953    1.677    0.404
        25 -12.2482    247.5363    164.8286   5.8894262941e+01   8.4577646980e-01    0.5380016    0.2176219 -39.80  0.002404598    2.052    0.513
        26  -9.5493     51.0614    168.5635   1.0557960589e+02   3.3322561863e+01    0.1933622    0.1328373  38.44  0.000877118    1.503    0.335
        27 -11.3485    120.5128    165.4959   8.6043465671e+01   2.3392614898e+01    0.3634662    0.3016352  74.95 0.0009691935    1.432    0.301
        28  -9.1974      1.1527    164.6950   1.1837679937e+02   3.9020369344e+01    0.1192855    0.0722417  86.54 0.0002838972    1.466    0.318
        29 -11.1561     60.8932    243.6197   1.1146975905e+02   1.4620497876e+01    0.1078456   0.06916846 -62.44 0.0004426848    1.708    0.415
        30 -11.5962    112.7361    151.2045   8.5168724377e+01   2.8302832400e+01    0.6386426    0.4186282  83.42  0.002259251    2.698    0.629
        31 -11.2017    133.8880    146.1774   7.8371524128e+01   2.5471213433e+01     1.230644    0.3260486 -54.77  0.002771353    5.829    0.828
        32 -10.4355    134.0492    135.3113   7.5782031666e+01   2.7985380606e+01    0.2789519    0.2650397 -35.34 0.0002711943    1.028    0.027
        33 -10.5701    122.1311    150.7324   8.2506198618e+01   2.6663880568e+01     0.422436    0.3061973  88.43  0.001419984    2.040    0.510
        34 -11.3356     93.7223    151.4242   9.0571554058e+01   3.1588961394e+01    0.3082032    0.2857694 -38.94 0.0003037821    1.093    0.085
        35 -12.7384     98.4230    146.6202   8.8227241231e+01   3.2001571471e+01    0.8555783    0.4953552 -45.91  0.002264642    1.712    0.416
        36 -10.2883    145.4135    138.9444   7.3745000683e+01   2.4822379779e+01    0.3582695    0.2631598 -77.62  0.001346567    1.918    0.479
        37 -10.9147    119.9322    137.6382   8.0132918231e+01   3.0249619992e+01    0.5007759    0.3383488 -75.36  0.001035826    2.128    0.530
        38 -10.5567    115.8223    132.1388   7.9972269014e+01   3.2372096364e+01    0.3119218    0.2535242  84.97 0.0006586256    1.563    0.360
        39 -11.2738    109.7217    133.3874   8.2004774364e+01   3.3238274248e+01    0.5954218    0.3526162 -27.32  0.002134558    2.401    0.584
        40 -11.7716    105.6953    130.6468   8.2520375333e+01   3.4661881102e+01    0.5563688    0.4146287 -58.16  0.001630496    1.371    0.271
        41 -11.2505     93.0406    135.0318   8.7284944284e+01   3.5843166066e+01    0.3031646    0.2832217   2.54  0.001594984    1.136    0.120
        42 -11.6482     98.1649    132.7562   8.5236069150e+01   3.5514505024e+01     0.311702    0.2826958 -25.65 0.0003751769    1.138    0.121
        43  -9.9168    116.0214    126.5480   7.8551884278e+01   3.3669855509e+01    0.2921495    0.2169565 -29.93 0.0007768995    1.483    0.326
        44  -9.5468    120.5953    122.2269   7.6182063069e+01   3.3773255135e+01    0.2299129    0.1455628 -37.69 0.0009477247    1.643    0.392
        45 -10.5520    103.9703    121.7730   8.0862581977e+01   3.7134357225e+01    0.3037966    0.2524869  -5.78  0.000784277    1.396    0.284
        46 -15.1270    119.9960    236.0459   9.7833270087e+01   7.8164031543e+00     13.64883     7.804368 -83.86   0.05448339    3.622    0.724
        47  -6.9376     52.4573    199.6605   1.0904433646e+02   2.5432917348e+01    0.2430394    0.1689039 -40.04  0.001259238    1.842    0.457
        48  -9.2946    183.5100    116.4720   5.9698292382e+01   2.1555645549e+01    0.1498568    0.1411099 -36.82 0.0002608619    1.035    0.034
        49  -9.1944    110.9730    116.4660   7.7443651413e+01   3.7040598600e+01    0.2205909    0.1556701  39.03 0.0003065713    1.450    0.310
        50 -11.4158    119.0213    110.4087   7.3532766413e+01   3.6801984791e+01    0.4671624    0.3685261  84.14  0.001534691    1.718    0.418
        51 -10.9850     62.1753    199.4919   1.0666052269e+02   2.4237714349e+01     0.306821    0.1823077 -52.65  0.001137908    1.787    0.440
        52 -10.6039     90.6413    105.4925   8.0751010180e+01   4.3440270462e+01    0.2796759    0.2572519 -89.36 0.0004745116    1.262    0.208
        53 -10.2441    205.3316    110.3563   5.4210957671e+01   1.8147516590e+01    0.2636794    0.2495283  74.61 0.0007913958    1.149    0.130
        54 -10.2335     86.0000    241.0939   1.0589521928e+02   1.1778970498e+01     0.173756   0.07267738 -63.67 0.0005661035    2.656    0.623
        55  -9.9509     69.8686     82.1643   8.1161941399e+01   5.2184676270e+01    0.2467334    0.1900689  43.83  0.001253869    1.454    0.312
        56 -10.2303    153.1382     75.0258   5.5091651630e+01   3.6238618622e+01    0.4884793     0.274269 -87.31  0.001350636    5.391    0.815
        57 -12.9693    170.0667     63.3369   4.8601518453e+01   3.4179626439e+01    0.5801224    0.5261755 -37.86 0.0008407732    1.166    0.142
        58  -9.4984     82.0996     60.6812   6.9793856083e+01   5.4265633330e+01    0.2208362    0.1822282  64.26   0.00117395    1.593    0.372
        59 -13.9340    185.6028     49.4412   4.2525064179e+01   3.2611770416e+01     1.166724     0.904282  39.65  0.003844538    1.594    0.373
        60 -12.3531    191.1821     43.3617   4.0259013904e+01   3.2164145183e+01    0.3891869    0.3657261  -4.65  0.001246194    1.363    0.266
        61 -10.2737     83.3199    194.9907   1.0081383742e+02   2.2368305636e+01    0.3091545    0.2683241  43.34   0.00124697    1.126    0.112
        62  -9.8546    164.3427    249.0337   9.0146145884e+01  -1.1555547968e+00    0.1839429    0.1484643  -3.10 0.0006237116    1.224    0.183
        63 -10.4043     60.4026     21.0925   6.2114164755e+01   6.4074461565e+01    0.2113972    0.1466551  28.71   0.00040909    1.249    0.199
        64 -10.0262     90.0263    224.6793   1.0311966859e+02   1.4620890885e+01    0.1818598    0.1476885  41.08  0.000300568    1.129    0.114
        65  -9.6439     80.8540    220.3877   1.0470838648e+02   1.6869895765e+01    0.1535141    0.1379239  43.82 0.0003676068    1.096    0.088
        66 -11.3179     57.2799     13.2008   5.9753569260e+01   6.5513908719e+01    0.2291311    0.1377424  33.47   0.00100378    1.424    0.298
