#   1 NUMBER                 Running object number                                     
#   2 MAG_AUTO               Kron-like elliptical aperture magnitude                    [mag]
#   3 X_IMAGE                Object position along x                                    [pixel]
#   4 Y_IMAGE                Object position along y                                    [pixel]
#   5 X_WORLD                Barycenter position along world x axis                     [deg]
#   6 Y_WORLD                Barycenter position along world y axis                     [deg]
#   7 A_WORLD                Profile RMS along major axis (world units)                 [deg]
#   8 B_WORLD                Profile RMS along minor axis (world units)                 [deg]
#   9 THETA_WORLD            Position angle (CCW/world-x)                               [deg]
#  10 FWHM_WORLD             FWHM assuming a gaussian core                              [deg]
#  11 ELONGATION             A_IMAGE/B_IMAGE                                           
#  12 ELLIPTICITY            1 - B_IMAGE/A_IMAGE                                       
         1 -15.4605     11.8603     24.8011   9.5308960854e+01   6.9656030868e+01      2.97403     1.266783 -34.10   0.01560875    1.939    0.484
         2 -15.7074     91.1116     72.5690   7.9533536722e+01   5.0423302781e+01     2.484185     1.353737  31.18  0.006345408    2.015    0.504
         3 -16.1553     56.9858     70.4144   9.1007499059e+01   5.6262936644e+01     3.439732     1.778817  29.50   0.01593781    2.086    0.521
         4 -15.3425     70.2504     58.3533   8.2007270514e+01   5.6762516648e+01     1.549701     1.339655 -10.47  0.007683333    1.028    0.027
         5 -15.4590     41.8280     44.3053   8.8378801943e+01   6.3304304982e+01     3.111358     1.673528  -3.98   0.01085847    2.714    0.632
         6 -12.7478     82.9140     22.6432   6.3415715741e+01   6.0068675808e+01    0.5862455    0.3961127  50.07  0.002929391    1.512    0.338
         7 -11.9319     64.6919     18.1811   6.7813470472e+01   6.4001954460e+01    0.4024969    0.2791243  32.44   0.00126284    1.298    0.229
         8 -12.8537    104.3211      4.8951   5.0139600118e+01   5.7299462172e+01    0.6518381    0.5961488 -89.09  0.003304924    1.337    0.252
         9 -12.2143    111.2225      3.7698   4.8178394588e+01   5.5817516657e+01    0.5556207    0.3818429  45.80  0.002207996    1.235    0.190
        10 -12.4376     75.7506     13.5008   6.1764296970e+01   6.2508254599e+01    0.3507988    0.2875264 -13.59 0.0008024101    1.242    0.195
        11 -13.7190     85.2157     12.1298   5.8178352040e+01   6.0767039541e+01     1.411204    0.5480473  50.77  0.005030146    2.241    0.554
        12 -13.5559     86.2446      3.5204   5.4132952614e+01   6.1348917356e+01     1.491942    0.4503556  56.64  0.005830618    2.946    0.661
        13 -11.9390    115.4575     11.5317   5.0203816653e+01   5.4168262470e+01    0.4568121    0.2370249 -27.78  0.002200836    2.084    0.520
        14 -12.6490    123.9332     10.4480   4.8046556744e+01   5.2271679181e+01    0.3402884    0.2439211  48.89 0.0004180246    1.210    0.174
        15 -10.2080    150.5266      9.0134   4.2953593605e+01   4.5938734837e+01    0.1842103    0.1333145 -23.05 0.0009302378    1.563    0.360
        16  -9.6032     66.4581      8.4635   6.2628866416e+01   6.4783074916e+01    0.1276692    0.1025833  17.60 0.0001147414    1.001    0.001
        17 -10.9139    192.9828      6.2664   3.6892171449e+01   3.5819058695e+01    0.2889429    0.1834097 -31.61  0.001341482    1.682    0.405
        18 -11.0568    188.1940      5.4261   3.7171104174e+01   3.7046073632e+01    0.2024967    0.1768785 -37.44 0.0002512047    1.265    0.209
        19 -11.8419    138.3867      4.9593   4.3555249429e+01   4.9262730624e+01     0.576897    0.2176971  57.75  0.002388078    2.110    0.526
        20 -10.3491    128.8219      5.8344   4.5491750678e+01   5.1502626482e+01    0.1982623     0.155735  41.11 0.0004011115    1.183    0.155
        21 -11.4030     73.4356      1.6020   5.7049233097e+01   6.4107888237e+01     0.222122     0.139855  47.05 0.0006730004    1.401    0.286
        22 -11.6529    141.4059     96.6747   7.2326499238e+01   3.5050934987e+01    0.4675877    0.2713736 -23.98  0.001747396    2.285    0.562
        23 -10.7123    134.5057     98.4782   7.4636046723e+01   3.6220403736e+01    0.1584529    0.1501885  -3.19 -6.484013e-05    1.049    0.047
        24 -11.1020    114.0281     97.0662   7.9928455271e+01   4.0867361563e+01    0.3397763    0.2216171 -51.78 0.0007693155    1.614    0.380
        25 -11.1946    187.5994    197.8067   8.5082144424e+01   5.0362188343e+00    0.1878945    0.1317358 -49.80 0.0009584407    1.720    0.419
        26 -10.8407    246.6256    183.5173   7.0958806568e+01  -2.4412485616e+00    0.2309897    0.1875617 -30.23 8.436403e-05    1.276    0.216
        27 -12.9090      3.1656     74.0440   1.1283961240e+02   6.0119650097e+01    0.5097764    0.2311907 -69.83   0.00257652    1.909    0.476
        28 -11.0920    185.6186    167.3127   7.9399771474e+01   1.1029107808e+01    0.2597737    0.1780331  50.04 0.0008351227    1.635    0.388
        29 -12.2900    143.3293     77.3174   6.6111327569e+01   3.8359966270e+01    0.3573952    0.2368349 -24.11  0.001342465    1.706    0.414
        30 -12.7899    144.1152     73.8939   6.4871534057e+01   3.8793303970e+01    0.3531801    0.3213963  53.03 0.0008188521    1.110    0.099
        31 -12.0162    151.8822     73.7323   6.3002861879e+01   3.6968300190e+01    0.3524618    0.2790424  72.18  0.001084826    1.455    0.313
        32 -13.6097    118.8275     72.8394   7.1136533863e+01   4.4767079254e+01     0.508787    0.4661291  15.15  0.002494758    1.064    0.060
        33 -12.6018    124.3646     72.4309   6.9469844668e+01   4.3619274047e+01    0.3514118    0.2886581  -8.23  0.001061003    1.321    0.243
        34 -13.2113    118.8817     65.3197   6.8653949455e+01   4.6122577292e+01    0.6484995    0.4057808  -1.37  0.002493269    2.609    0.617
        35 -10.9361    160.0927     72.2088   6.0728970926e+01   3.5248749015e+01     0.223595    0.1998935  25.61 0.0003583852    1.177    0.151
        36  -9.8418    182.5013     71.6064   5.6103376094e+01   2.9899529572e+01    0.1456304    0.1415718  87.35 0.0001000301    1.025    0.024
        37 -12.7834    129.9934     63.3102   6.5018214750e+01   4.3950754427e+01     0.506026    0.3120628 -31.75  0.002242533    1.671    0.402
        38 -12.9202    125.6645     64.1620   6.6427317233e+01   4.4800207194e+01    0.3962372    0.3627747  88.91  0.001347605    1.299    0.230
        39 -12.6310    214.9727    162.8039   7.2447508261e+01   6.3047022899e+00    0.4788176    0.2763562   4.89  0.001793392    3.076    0.675
        40 -12.9449      9.2589     64.8619   1.0856333398e+02   6.1847118896e+01    0.4120891    0.1880757 -36.00  0.002101014    1.996    0.499
        41 -10.8866    169.7291     62.9491   5.6038236303e+01   3.4416741892e+01    0.2561969    0.1956472  48.98 0.0004790729    1.301    0.231
        42 -10.2604    214.4789     61.9248   4.8407483027e+01   2.3833996326e+01     0.223091    0.1311951 -34.43  0.001047523    1.638    0.390
        43 -11.7228    124.7698     57.2564   6.4357418343e+01   4.6161631322e+01    0.3185728    0.2539644  52.40 0.0006887949    1.260    0.206
        44 -11.0509    174.7549     56.6455   5.3274547387e+01   3.4150074382e+01    0.2480941    0.2306922 -84.94 0.0003984806    1.082    0.076
        45 -12.1508    134.2257     54.3028   6.0995167677e+01   4.4420993697e+01    0.5909017    0.3687813  75.20  0.002400586    2.374    0.579
        46 -10.2767    209.9353     54.9664   4.7284687084e+01   2.5904624002e+01    0.2186422    0.1625842  31.35 0.0008298045    1.751    0.429
        47 -12.0218    153.6526     52.9134   5.6214681253e+01   3.9921992876e+01    0.4936527    0.2668428  35.81   0.00195594    2.279    0.561
        48 -11.9725    188.5095     94.4402   6.1174580627e+01   2.4511423067e+01    0.3305038    0.2938189 -61.73 0.0003932911    1.185    0.156
        49 -12.9408     69.7158     90.1506   9.2113417211e+01   5.0178296466e+01    0.6169251    0.3751139  25.26  0.002876968    1.846    0.458
        50 -11.6672    145.3694     50.8697   5.7321893168e+01   4.2256066584e+01    0.3225948    0.2760712 -26.59 0.0008594681    1.219    0.179
        51 -10.9555    137.8265     48.8640   5.8349248551e+01   4.4380397296e+01    0.3195331    0.2052793 -61.83  0.000982962    2.244    0.554
        52 -11.6828     99.5040     50.1822   6.9042978270e+01   5.2829511692e+01    0.3826813    0.1754893  32.02  0.001410947    2.713    0.631
        53 -11.2560    134.6660     92.0705   7.2739249912e+01   3.7502778981e+01    0.2219457    0.1965952 -32.08 0.0004613815    1.115    0.103
        54 -12.4885     66.6585     45.0109   7.8428056918e+01   5.9731252283e+01    0.4262884    0.2985737  27.47  0.001803615    1.402    0.287
        55 -11.7053    121.7389     43.7606   6.0479621838e+01   4.8922297937e+01    0.2958137    0.2590859  11.21  0.000615495    1.143    0.125
        56 -11.6547    157.2357     43.6164   5.2617387834e+01   4.0361224849e+01    0.3176338    0.2322958  58.85 0.0007398375    1.294    0.227
        57 -10.5890    140.9573     43.9925   5.6044042150e+01   4.4317100514e+01     0.172136    0.1662598  26.47 0.0004415229    1.039    0.037
        58 -10.1119    181.8135     43.5904   4.8371911302e+01   3.4264916305e+01    0.1949397    0.1318702  78.49 0.0009369158    1.579    0.367
        59 -10.4628    215.0439     41.9810   4.3381546929e+01   2.6508741857e+01    0.2018907     0.161959 -67.32 0.0003087691    1.182    0.154
        60 -11.8391    217.8648     38.3048   4.2152652594e+01   2.6339108186e+01    0.2839249     0.245292  52.30 0.0003798746    1.310    0.237
        61 -10.8390    132.8354     40.6784   5.6740701037e+01   4.6734122782e+01    0.2383576    0.1953447  -6.26 0.0006239914    1.329    0.248
        62 -10.5796    225.8702     39.6365   4.1574094598e+01   2.4352485609e+01    0.1790364    0.1497398 -83.68 0.0005708356    1.128    0.113
        63 -13.7497      6.4077     82.1478   1.1310641695e+02   5.8127858828e+01     1.087576    0.3094884 -51.21    0.0047345    2.425    0.588
        64 -10.0600    159.9113     36.2619   4.9862349292e+01   4.0661047365e+01    0.1909975    0.1701682  58.40  0.000266588    1.055    0.052
        65 -10.9451    140.3595     35.1028   5.3229669581e+01   4.5639654997e+01     0.256688    0.2064653  42.52 0.0003417902    1.182    0.154
        66 -12.1199     82.8403     33.5624   6.7991299016e+01   5.8655484211e+01    0.3714678    0.2731862   6.26  0.001260379    1.371    0.271
        67 -12.5985     79.2211     30.9815   6.8161505123e+01   5.9702276855e+01    0.4391828    0.3999499 -19.97   0.00177515    1.231    0.188
        68  -9.9959    176.2312     33.5725   4.6394554287e+01   3.6936605871e+01    0.1970551    0.1193425  54.66  0.000902699    1.568    0.362
        69 -13.3364    237.6642    154.4506   6.6493566270e+01   3.6557261262e+00    0.8956376      0.67341  39.18  0.005029873    1.461    0.315
        70  -9.7710    216.5431     28.4836   3.9929552971e+01   2.7866896614e+01    0.1289858     0.115973 -76.36  1.38652e-06    1.038    0.037
        71 -11.7299    240.6217    146.5534   6.4279901756e+01   4.4481819702e+00    0.4621352    0.3132992 -34.66  0.002461662    1.307    0.235
        72 -14.7287     35.8253     86.7070   1.0331366338e+02   5.4983989111e+01     1.659117     0.950606 -36.78  0.008380371    1.694    0.410
        73 -11.1521    241.7351     22.4596   3.6177220480e+01   2.3012321741e+01    0.2340049    0.1882071 -65.59 0.0006442018    1.040    0.038
        74 -12.0357    199.5234    154.9638   7.3789144129e+01   1.0673045358e+01    0.4098134    0.2981572 -38.44  0.002045223    1.339    0.253
        75 -12.2815    249.6160    149.8185   6.3497135865e+01   2.3590605282e+00    0.8127648    0.2768513 -34.73  0.003144462    2.597    0.615
        76 -12.8362    248.2127    140.1088   6.1635231445e+01   4.1745579919e+00    0.6172135    0.3866191 -30.98  0.003214787    1.389    0.280
        77 -11.8972     18.7124    154.0384   1.1891140753e+02   4.0240423235e+01     0.187259    0.1417949 -79.23  0.001142615    1.083    0.077
        78 -10.6293    138.5175    152.0649   8.7047424550e+01   2.3527638143e+01    0.2375935    0.1508768 -47.57  0.001031127    1.586    0.370
        79 -13.7383     49.1236    141.8702   1.0933575216e+02   4.0257910423e+01     0.813604    0.5448645  29.91  0.004336082    1.680    0.405
        80 -12.1802    213.0771    142.1533   6.8220238324e+01   1.0376339766e+01    0.6508657    0.4187886  54.28  0.003023565    1.881    0.468
        81 -10.7942     90.2512    145.9896   9.8564150832e+01   3.3657306847e+01    0.2023128    0.1213808 -57.83 0.0008948591    1.604    0.376
        82  -9.7500    242.2835     10.3004   3.3552694764e+01   2.4268317986e+01     0.104264   0.09110224  43.13 0.0001762967    1.551    0.355
        83 -13.2479    199.0088    130.0613   6.8118695508e+01   1.5500577533e+01     1.126707    0.3476154 -36.26  0.003461448    3.305    0.697
        84 -13.3774    203.8033    124.4829   6.5834799344e+01   1.5536615110e+01      1.01542    0.4982055 -31.72  0.003968114    2.106    0.525
        85 -12.0768     33.4948    135.6517   1.1281824166e+02   4.3387460129e+01    0.2315823    0.2048862  74.21  0.001153629    1.166    0.142
        86 -13.3477    218.7265    121.5026   6.2368627172e+01   1.2964792804e+01    0.8654261    0.7627134 -65.37  0.004791315    1.319    0.242
        87 -10.2549    194.6443    112.7144   6.4707509107e+01   1.9731897838e+01    0.1555346    0.1176096  11.90 0.0007021475    1.671    0.401
        88 -10.8074     74.3261    109.6618   9.5541823728e+01   4.4942267692e+01    0.1477956    0.1139034  79.36 0.0005355408    1.726    0.421
