#   1 NUMBER                 Running object number                                     
#   2 MAG_AUTO               Kron-like elliptical aperture magnitude                    [mag]
#   3 X_IMAGE                Object position along x                                    [pixel]
#   4 Y_IMAGE                Object position along y                                    [pixel]
#   5 X_WORLD                Barycenter position along world x axis                     [deg]
#   6 Y_WORLD                Barycenter position along world y axis                     [deg]
#   7 A_WORLD                Profile RMS along major axis (world units)                 [deg]
#   8 B_WORLD                Profile RMS along minor axis (world units)                 [deg]
#   9 THETA_WORLD            Position angle (CCW/world-x)                               [deg]
#  10 FWHM_WORLD             FWHM assuming a gaussian core                              [deg]
#  11 ELONGATION             A_IMAGE/B_IMAGE                                           
#  12 ELLIPTICITY            1 - B_IMAGE/A_IMAGE                                       
         1 -12.8306    130.0177     47.2712   4.2390967272e+01   4.5856683449e+01     2.590156     1.466118 -78.50  0.009065008    4.057    0.753
         2 -14.0739    191.9771     70.8761   3.7768504039e+01   2.8726403330e+01     1.644816    0.6179843 -49.85  0.006496101    2.935    0.659
         3 -14.9055    204.6900     63.1201   3.4339785398e+01   2.7249615465e+01     1.945146     1.446568 -74.07   0.01195076    1.380    0.275
         4 -12.5730    150.7115     42.6041   3.7116436256e+01   4.1647240979e+01     1.149501     0.882417 -25.23  0.006636071    1.518    0.341
         5 -13.0462    160.8160     37.9864   3.4286710108e+01   3.9892565638e+01    0.8421551     0.541146  67.61  0.003986119    1.422    0.297
         6 -15.1705     38.3143     72.3392   8.2624250229e+01   5.9108090388e+01     2.695334     2.295055 -85.91   0.01354855    1.685    0.407
         7  99.0000     76.6260     22.3828   4.7719096603e+01   6.0979491219e+01     2.454635     1.329504  64.18   0.01113632    2.298    0.565
         8 -12.8686     59.0494     62.5063   7.0039414989e+01   5.8246448860e+01     1.275701    0.7185901 -60.77  0.005072749    3.064    0.674
         9 -14.0450      6.9608     68.2697   9.7055056212e+01   6.2623367887e+01     1.490764    0.8297632 -27.52  0.005754951    1.619    0.382
        10 -14.0142     79.1272     42.5785   5.4817072001e+01   5.7876054939e+01     1.252469     1.094492  47.08  0.007420241    1.197    0.164
        11 -11.5075     11.8744     35.6163   8.4878149349e+01   6.9156773651e+01     3.069028     1.704284  -4.78   0.01614685    1.732    0.423
        12 -14.0886      3.9491     54.6157   9.5419863151e+01   6.5809362378e+01     1.892682     1.125054 -75.95  0.009646022    2.201    0.546
        13 -13.5173    175.9830     40.5265   3.2811210385e+01   3.6194462972e+01     2.527279     1.269795  36.95   0.01045436    3.465    0.711
        14 -13.4793     49.6071     28.5685   6.1015565591e+01   6.5459186820e+01      1.23416     0.797939  30.16  0.003254577    1.314    0.239
        15 -14.1672    192.2748     48.2548   3.2561958212e+01   3.1740505934e+01     1.568311     1.000039  56.79  0.008879344    1.609    0.378
        16 -11.1405     31.1806     19.2067   6.6109413031e+01   6.9690370425e+01    0.3209263    0.2824942  -4.53  0.001538293    1.276    0.216
        17 -10.0892     34.2013     15.0878   6.2400134753e+01   6.9793226331e+01    0.2292828    0.1630871 -38.82  0.001374893    1.802    0.445
        18 -11.4092    150.3645     13.1394   2.9158242895e+01   4.4907958054e+01    0.3516934    0.1865987 -72.05  0.001682175    2.375    0.579
        19 -10.7883    147.6776     10.7543   2.8859325048e+01   4.5742779941e+01    0.2002787    0.1469773  77.75 0.0001669216    1.159    0.137
        20 -11.0592    116.2229     10.3985   3.3540959888e+01   5.3128191856e+01    0.3300317    0.2976325 -35.27  0.001186566    1.321    0.243
        21  -9.0236    112.2429     12.0460   3.4825399528e+01   5.3919635308e+01    0.2581549    0.1458666  -9.75  0.001287525    2.457    0.593
        22  -9.7214    173.4342     11.8472   2.6205589454e+01   3.9831412016e+01    0.1332866    0.1163573   0.64  0.000294282    1.573    0.364
        23  -9.7393     71.8242      9.6432   4.3917837514e+01   6.3291402853e+01    0.1780337    0.1312955  49.07 0.0005139132    1.123    0.109
        24 -10.5841     89.0146     12.1045   4.0018575643e+01   5.9280209050e+01     0.190878    0.1558222  47.81 0.0004019998    1.017    0.017
        25  -9.8061     53.0221      9.3439   5.0579838529e+01   6.7155960208e+01    0.1490871    0.1340601 -51.94  0.000973539    1.639    0.390
        26 -10.0234     91.5319      7.4763   3.7624209107e+01   5.9106484483e+01    0.1938984    0.1088513 -39.34  0.001004972    2.202    0.546
        27 -10.1394     99.7292      6.8556   3.5554269988e+01   5.7272301798e+01    0.1589089    0.1420997  63.88 0.0004151084    1.111    0.100
        28 -10.2033      3.4011      6.2026   7.7821055899e+01   7.4865142738e+01    0.2609455    0.1247608   4.81    0.0010367    2.086    0.521
        29 -10.5906     60.3280      4.9906   4.5697104155e+01   6.6114962398e+01    0.1981814    0.1446411  45.31 0.0004270546    1.119    0.107
        30  -9.0883    174.6996      8.2892   2.5241475890e+01   3.9883050053e+01    0.1203801   0.07483744 -69.93  0.000342161    1.561    0.359
        31  -9.2635    110.3828      4.2344   3.2557801756e+01   5.4997643468e+01    0.1342203   0.07274557  48.30 0.0006910753    1.629    0.386
        32  -9.7612     67.2804      3.9820   4.2877346789e+01   6.4752222113e+01    0.1656034    0.1387018  35.91 0.0003170865    1.081    0.075
        33  -9.6660     74.5212      3.4837   4.0460283274e+01   6.3233191569e+01     0.129197    0.1011122  45.59 8.345336e-05    1.009    0.009
        34 -10.0981     55.9821      2.3579   4.6032979788e+01   6.7225265862e+01    0.2549869    0.1255434  19.02  0.001158259    2.695    0.629
        35  -9.9265     95.5945      2.4852   3.4839797572e+01   5.8566081518e+01    0.1266206    0.1019944  54.65 -3.485328e-05    1.025    0.024
        36  -9.8882     44.6755      1.5518   5.0225413272e+01   6.9491002211e+01    0.1644955    0.1044779  52.58 0.0009406614    1.588    0.370
        37 -14.0630    106.5689     91.0076   6.1743439173e+01   4.3784866979e+01     1.868426     1.076576 -29.52  0.006020023    2.080    0.519
        38 -10.4441    229.0069    249.5300   6.6217793716e+01  -5.8023504737e+00    0.1771332    0.1188863 -18.35 0.0005021954    1.181    0.153
        39 -13.1742    164.0285    248.5982   7.9009979640e+01   1.5948276784e+00    0.7979643    0.3452008  25.32  0.003778869    1.967    0.492
        40 -11.9636    153.6933    249.3328   8.1382833027e+01   2.7510825807e+00     0.533042    0.2411923  14.40  0.002292421    2.456    0.593
        41 -12.4508    135.2735    248.6633   8.5441193194e+01   5.1822401703e+00    0.4478174    0.2709306  44.74  0.002313427    1.959    0.489
        42 -12.4120    113.1975    245.0254   9.0110816682e+01   8.6521058037e+00    0.4534026    0.2716251  46.30  0.002312341    1.856    0.461
        43 -11.4505    110.4419    240.4825   9.0201204043e+01   9.8653677158e+00    0.2356836    0.2043774 -15.39 0.0006737569    1.205    0.170
        44 -12.2139    104.9556    249.5127   9.2588524403e+01   8.8506472033e+00    0.5305521    0.2295984  28.39  0.002187723    1.890    0.471
        45 -13.6848     60.5358    243.9872   1.0251586986e+02   1.5196654115e+01    0.7396607     0.290978  33.72   0.00339443    2.012    0.503
        46 -12.4109     15.7712    238.2849   1.1240777709e+02   2.0790417802e+01    0.4083637    0.2485976 -21.50  0.001868776    2.602    0.616
        47 -12.3344     11.1430    248.5865   1.1391512148e+02   1.9102278324e+01    0.5484871    0.3204965 -64.45  0.003342138    1.910    0.476
        48 -11.9536      3.3744    248.4398   1.1553851171e+02   1.9772526546e+01    0.4306328     0.237893  62.12  0.002618451    1.609    0.379
        49 -13.3088     95.9988     70.9288   5.8978756332e+01   4.9783859952e+01     1.518893    0.7340887 -39.13  0.006200029    2.214    0.548
        50 -12.7882    105.0339     65.3525   5.4391269169e+01   4.8828552738e+01    0.9213513    0.5602022  26.29  0.003717019    2.015    0.504
        51 -12.4809     98.6258     79.5041   6.0820397468e+01   4.7657326440e+01     0.883586    0.3616933 -31.58   0.00229642    3.427    0.708
        52 -12.3204    104.0877     75.2209   5.7784944681e+01   4.7313701491e+01    0.8538635    0.3640514  35.37  0.003020629    2.644    0.622
        53 -13.1099     79.2550     60.2702   6.1192756149e+01   5.5036340217e+01     0.950531    0.7151392  46.72  0.004925383    1.362    0.266
        54 -11.9886     88.2708     55.2839   5.6292948763e+01   5.4050315288e+01    0.4776341    0.2289466  46.42  0.001040913    1.907    0.476
        55 -11.5928     87.3247     97.5818   6.9949687923e+01   4.6146214079e+01    0.4431304    0.3252692  22.86  0.001067574    1.355    0.262
        56 -11.7956     81.4749     99.1643   7.2462739983e+01   4.6836072690e+01    0.3696582    0.2801935   0.22  0.001448966    1.458    0.314
        57 -11.2721    200.9627     97.5434   4.2411384924e+01   2.2849638526e+01    0.4043609    0.2277557 -52.89  0.001962017    1.883    0.469
        58 -11.2600    170.4052     97.8757   4.7815259388e+01   2.8908767160e+01     0.359326    0.2819589  28.99    0.0013336    1.453    0.312
        59 -12.5906     61.7758     92.3432   7.8087939236e+01   5.1551146040e+01    0.5112963    0.2864031 -55.57  0.001089792    1.944    0.485
        60 -10.2216     11.4811     97.5172   1.0056025564e+02   5.5397827647e+01    0.1372996    0.1185459 -42.21  5.66999e-05    1.004    0.004
        61 -10.7128    208.3937     95.0669   4.0754700571e+01   2.1840300043e+01    0.3048971    0.1730612 -58.36  0.001388797    2.104    0.525
        62 -11.2633     59.9437     96.9496   8.0054333632e+01   5.0753763530e+01    0.2244654    0.2047951  -6.31 0.0003153022    1.016    0.015
        63 -12.2955    183.5459     91.9762   4.3998363086e+01   2.7194129434e+01    0.4353154    0.3385617   9.13  0.002322203    1.747    0.427
        64 -11.8374    187.6087     90.2296   4.2905742851e+01   2.6652606310e+01    0.2539548    0.1969711 -35.07 0.0005188018    1.271    0.213
        65 -12.1461    185.6306     86.8479   4.2447393457e+01   2.7597143416e+01    0.3020228    0.2636106 -43.85 0.0008017871    1.098    0.089
        66 -12.1845    138.8715     97.8346   5.4727695010e+01   3.5621648069e+01    0.5703744    0.2995468  33.65            0    2.268    0.559
        67 -10.2233    157.9870     95.4904   4.9747178603e+01   3.1949126653e+01     0.223303    0.1388014  48.27  0.001035525    1.605    0.377
        68 -10.5910     68.8325     94.9601   7.6025656344e+01   4.9879305691e+01    0.2597523    0.2000088  26.90 0.0004265532    1.251    0.200
        69 -10.3047     27.4782     95.5141   9.3317739323e+01   5.4781736761e+01    0.1429301    0.1243759 -30.80   3.3377e-05    1.010    0.010
        70 -11.3616    193.2243     93.0245   4.2628088543e+01   2.5079440802e+01    0.2276843    0.1916761  59.87 0.0009576317    1.261    0.207
        71 -11.3552     98.5477     92.4891   6.4711455341e+01   4.5098250682e+01    0.3040443    0.1818378  41.99 0.0006440309    1.617    0.382
        72 -11.9779     94.3143     89.1555   6.5139117458e+01   4.6613475929e+01    0.5346484    0.3480319  40.97 0.0008930101    1.480    0.324
        73 -11.5785     10.6932     92.8581   1.0010911847e+02   5.6591518388e+01    0.3293635    0.1390761  30.63  0.001396159    2.574    0.611
        74 -12.1554    128.0775     89.8100   5.5286763006e+01   3.9460697469e+01    0.3959635    0.2678314 -28.19  0.001822247    1.666    0.400
        75 -12.2214    175.3866     90.0830   4.4991085086e+01   2.9192253578e+01     0.338601    0.2649858  60.94   0.00103811    1.333    0.250
        76 -12.2203    176.9810     84.3631   4.3327084135e+01   2.9790826213e+01    0.5525206     0.391513   6.81  0.002557151    2.261    0.558
        77 -11.4921     40.0129     90.0200   8.6613041547e+01   5.4895035388e+01    0.2481882    0.2449288 -83.17  0.001477204    1.231    0.187
        78 -11.8782     38.7346     85.9688   8.6157137516e+01   5.5984602174e+01    0.3906902    0.2897756  11.45 0.0006775741    1.312    0.238
        79 -11.6011    115.9837     89.0243   5.8376388307e+01   4.2207410672e+01    0.3160147    0.2179193 -30.86 0.0003345749    1.576    0.365
        80  -9.8052    166.0602     89.5571   4.6615632071e+01   3.1252276803e+01    0.2065091    0.1357912  55.57 0.0004860213    1.554    0.357
        81  -9.9115    162.0341     88.6842   4.7191035774e+01   3.2263817133e+01    0.2070975    0.1897216 -42.18 0.0003436354    1.091    0.083
        82 -12.2511    162.2154     83.7339   4.5899706581e+01   3.3054731573e+01    0.4500028    0.3908347  63.16  0.001553495    1.160    0.138
        83 -13.8194    124.1255     84.1888   5.4742247485e+01   4.1358232573e+01     1.367675    0.7970582  15.53  0.004657531    3.492    0.714
        84 -13.0458    193.7691     84.4231   4.0592594610e+01   2.6329093554e+01     0.675595     0.461154  83.52  0.001601524    1.903    0.475
        85 -13.1025    169.5483     79.6292   4.3487439880e+01   3.2131996700e+01     1.150193    0.6003144 -54.52  0.004911484    2.321    0.569
        86 -11.9879    126.5804     57.5521   4.6264780864e+01   4.5209415692e+01    0.9713727    0.6625952  78.50  0.004588259    1.913    0.477
        87 -12.3535     83.1978    248.2001   9.7568246600e+01   1.1753682150e+01    0.3357808    0.2550344   5.04   0.00200148    1.375    0.273
        88 -13.8298    136.0863     71.5123   4.8150410915e+01   4.0876082887e+01     1.566572    0.9175861  38.76  0.007013815    1.830    0.453
        89 -12.0534     94.6617    247.5300   9.4790176776e+01   1.0496805091e+01     0.265169    0.2097129  39.20 0.0007125735    1.192    0.161
        90 -10.0820    214.6729    246.6647   6.8411050622e+01  -3.9401616501e+00    0.1285341     0.071027  -8.25 0.0006199143    1.721    0.419
        91 -11.8029    153.0432     58.0852   4.0916325140e+01   3.9051358329e+01    0.4150211    0.3413125  12.41 0.0006772217    1.550    0.355
        92 -13.6027    179.1211    243.0378   7.4949517944e+01   6.5033925724e-01     1.020924    0.5084118   5.38  0.004613807    2.445    0.591
        93 -13.5348    178.0901    236.9841   7.4231289374e+01   1.7548498528e+00    0.6020416     0.491991   2.96  0.003894325    1.097    0.089
        94 -12.7472    162.4438     59.6272   3.9656408921e+01   3.6707749375e+01    0.5900301     0.381735  88.66  0.001195382    2.018    0.504
        95 -12.0049    123.8764     68.3786   5.0178770336e+01   4.4144715992e+01    0.6046897    0.3691508 -62.32   0.00249689    2.539    0.606
        96 -11.5750    138.6672     87.7773   5.2073955847e+01   3.7520489262e+01    0.3259175    0.2509344 -58.69 0.0002972525    1.506    0.336
        97 -11.9079    139.7331     80.3809   4.9794328520e+01   3.8580175035e+01    0.4502401    0.3135222 -38.96  0.000484855    1.491    0.329
        98 -10.8946    219.5984    240.2687   6.6485326900e+01  -3.5523998499e+00    0.2424842    0.1912412   7.46  0.001703507    1.257    0.204
        99 -12.9538     87.7965    238.8609   9.5479540894e+01   1.3040105836e+01    0.4717928    0.3041476  -3.31   0.00236275    1.954    0.488
       100 -13.2535     66.6206     82.6324   7.3358960880e+01   5.2948300378e+01     1.145318    0.7743164  69.50  0.004537939    2.975    0.664
       101 -13.5979     53.9143     72.3123   7.5509586873e+01   5.7078546347e+01    0.8485005    0.5837583 -50.32  0.001460693    1.580    0.367
       102 -13.3309    110.0039    249.0112   9.1346053581e+01   8.3136872284e+00    0.9753636    0.3792457  41.98  0.004061815    2.601    0.616
       103 -12.3993     53.1598     55.6397   7.0222474756e+01   6.0469531235e+01    0.9420741    0.5873756   8.92  0.004440611    1.815    0.449
       104 -11.6405     86.7229     29.9738   4.7530872362e+01   5.7924167062e+01    0.5680614    0.4492039  60.33  0.003286418    1.299    0.230
       105  -9.6576    203.6925    240.3004   6.9523806879e+01  -1.8091350471e+00    0.1042104   0.09296859  23.16 0.0001927481    1.597    0.374
       106 -13.0677     49.5683    233.8608   1.0426949898e+02   1.8478759849e+01    0.5000842    0.3141756  45.34  0.002783629    1.427    0.299
       107 -13.6913     38.8268    245.9204   1.0768581644e+02   1.7087599269e+01    0.8754877    0.7254348 -46.69   0.00585904    1.456    0.313
       108 -14.0840     52.3990     44.4005   6.6332245039e+01   6.2562167429e+01      1.08519    0.6344447   8.41  0.003710866    2.202    0.546
       109 -13.3431     60.0928     36.3947   5.9709740741e+01   6.2478023168e+01     1.219699    0.5371842  34.73  0.005105458    2.097    0.523
       110 -11.5077    236.0514     86.2675   3.5376898464e+01   1.8236936969e+01     0.407128    0.2403921  65.19  0.001705025    2.027    0.507
       111 -11.6242    148.5138     81.0751   4.8020770791e+01   3.6509571465e+01    0.4717192    0.3747841 -59.66  0.001777004    1.405    0.288
       112 -10.8969     33.3046     85.8406   8.8555390096e+01   5.6576035821e+01    0.2304417    0.1821912  24.20 0.0003133753    1.317    0.241
       113 -11.7185    148.9641     85.1941   4.9021016801e+01   3.5709421097e+01    0.5019161    0.3765364  59.14  0.002572591    1.367    0.269
       114  -9.4785    242.2760     84.2692   3.4300177794e+01   1.7481822751e+01    0.1004293   0.08622693 -10.68            0    1.483    0.326
       115 -13.2182    210.5225     81.8691   3.7631333556e+01   2.3448008873e+01    0.6640385    0.3841444 -68.85  0.003161025    2.462    0.594
       116 -13.1023    216.3183     76.8277   3.5820853350e+01   2.3091589442e+01    0.5244148    0.3058419  41.60  0.002161753    2.299    0.565
       117 -11.2387      5.4690     84.5537   1.0098769453e+02   5.8871724371e+01    0.2676181     0.117876 -67.17 0.0006323722    2.076    0.518
       118 -10.8183    227.0012    242.2947   6.5450669968e+01  -4.6109275443e+00    0.1670712    0.1190954   3.22  0.001114099    1.130    0.115
       119  -9.6999    238.4618     81.0107   3.4089206111e+01   1.8571071231e+01    0.1721804   0.09637167 -41.39 0.0005993959    1.496    0.331
       120 -11.1319     18.9917     81.0523   9.4022556364e+01   5.8919278223e+01    0.2096886    0.1801225 -28.80 0.0003233285    1.015    0.015
       121 -11.7070     80.2975     77.4063   6.6485092054e+01   5.1650444979e+01    0.3487985    0.2924532  76.24 0.0008132377    1.717    0.418
       122 -10.3584     66.8306     68.0592   6.8664319851e+01   5.5884098977e+01    0.2224198    0.1955635  10.19 0.0005051692    1.010    0.010
       123 -12.1819     72.8163     75.9552   6.8854488840e+01   5.3289362300e+01    0.5341061    0.2942752  43.21 0.0009093353    1.875    0.467
       124 -11.7797     67.0378     74.1859   7.0578461892e+01   5.4636636331e+01    0.5285926    0.1968641  30.48  0.001351716    2.786    0.641
       125 -10.5251     84.6868     78.3149   6.5179153777e+01   5.0646769558e+01     0.224917    0.1885736 -33.86 0.0006139278    1.238    0.192
       126 -12.1519     87.8572     73.2443   6.2454675128e+01   5.1006591194e+01    0.5389176    0.3081319  33.79 0.0004442832    1.690    0.408
       127 -11.1156     37.6177     30.4754   6.7806420914e+01   6.7090450893e+01    0.5303801    0.3336387 -39.07  0.001052511    1.750    0.429
       128 -11.9350     20.1668     75.8520   9.2261823114e+01   6.0045735822e+01    0.2670074    0.1961588 -27.32 0.0002975094    1.197    0.164
       129 -10.4676    154.9305     76.9254   4.5581462440e+01   3.5768462658e+01    0.4336324    0.1959832  37.12  0.001549639    3.167    0.684
       130 -11.6398    230.4551     75.3996   3.3872065888e+01   2.0729477142e+01    0.2813128    0.1629106 -28.19 0.0008270196    1.961    0.490
       131 -12.2378    229.2815     70.8436   3.3097660005e+01   2.1563298402e+01    0.2974602    0.2010869 -22.14  0.001540885    1.882    0.469
       132 -10.2296    247.7837     75.1729   3.2020129210e+01   1.7824863544e+01    0.1884047     0.141265  29.75   0.00122635    2.078    0.519
       133 -10.7706     78.1987     71.4146   6.5341779471e+01   5.3205944446e+01    0.2645633    0.2374202  87.69 0.0007817068    1.542    0.352
       134  -9.7112    240.4670     70.9878   3.1958774919e+01   1.9600438282e+01     0.167968   0.09440559 -41.38 0.0003626204    1.493    0.330
       135 -10.9076    176.3060     69.7921   3.9904318722e+01   3.2185140732e+01    0.3612347    0.2223719 -45.17  0.001790746    1.594    0.372
       136 -10.5366    249.9856     69.0318   3.0675253374e+01   1.8279013118e+01    0.1644172    0.1298463 -52.20  0.001206165    1.017    0.016
       137  -9.8232    241.6732     66.0226   3.0898805670e+01   2.0052936087e+01    0.1678668      0.12272 -49.24  0.001155261    1.125    0.111
       138 -12.2077    232.0927     62.7023   3.1201371882e+01   2.2151184805e+01    0.3498836     0.216315 -87.27  0.001467525    1.960    0.490
       139 -12.3864     63.1707     45.0607   6.1884062160e+01   6.0594156303e+01    0.6461338    0.5831084  22.92  0.002509879    1.144    0.126
       140  -9.1445    250.2933     63.2879   2.9595630217e+01   1.8970759997e+01   0.09386541   0.08415778  -7.70 0.0006965138    1.545    0.353
       141 -10.5988    223.8580     60.2736   3.1563532275e+01   2.3960405708e+01    0.1952677    0.1354219 -54.01 0.0004604122    1.259    0.206
       142 -13.4000    117.1260     61.8673   4.9927973003e+01   4.6708231057e+01    0.9875162    0.5672445 -30.93  0.004464692    1.966    0.491
       143  -9.3381    248.7224     56.7315   2.8535587576e+01   2.0057398141e+01   0.09000617   0.08361667  -9.91 0.0003920801    1.484    0.326
       144 -11.1238    230.2623     48.0022   2.8513975281e+01   2.4343945505e+01    0.7697551    0.2436251 -35.82  0.002905423    2.873    0.652
       145 -11.5124    227.3231     46.6869   2.8524901708e+01   2.5041204304e+01    0.3331587    0.1927635 -42.30  0.001748441    1.513    0.339
       146 -10.5586    223.0459     56.0156   3.0790773067e+01   2.4663407457e+01    0.2175888      0.15902  86.08 0.0007366298    1.406    0.289
       147 -11.1636    219.7335     52.7265   3.0463051504e+01   2.5703711629e+01    0.4748685    0.3112646  34.49  0.002178201    2.519    0.603
       148 -10.8352    100.5245     46.7566   4.9530027556e+01   5.2687580059e+01     0.408289    0.3022642  56.20  0.002102934    1.304    0.233
       149 -11.8609    102.0293     53.1943   5.1283346871e+01   5.1416404579e+01    0.4194676    0.3104281  31.49 0.0004382383    1.330    0.248
       150 -10.3800     97.3455     54.3428   5.3067119707e+01   5.2267668389e+01    0.2558644    0.1895581 -27.09  0.001331836    1.488    0.328
       151  -9.3214    244.3617     54.2747   2.8457672591e+01   2.1095008144e+01   0.09573667    0.0850601  26.12 0.0002321315    1.661    0.398
       152 -10.5281    237.5736     53.1891   2.8850463048e+01   2.2400044669e+01     0.265501     0.183134 -17.04 0.0009494621    2.146    0.534
       153 -10.1813    111.1537     52.4523   4.8507181725e+01   4.9482601009e+01    0.2143634      0.12591  49.54 0.0009984664    1.519    0.342
       154 -12.7583    171.7173     55.8152   3.7183223656e+01   3.5173001293e+01    0.8131796    0.4151722  64.40  0.001843603    1.934    0.483
       155 -11.0296    208.1720     45.4044   3.0138471558e+01   2.8856595728e+01    0.3518412     0.186911  75.87  0.001897025    1.988    0.497
       156 -11.3416    207.4061     41.3851   2.9367277764e+01   2.9496998666e+01    0.4107407    0.2001013 -64.29  0.001590047    2.416    0.586
       157  -9.8752    214.4193     43.2299   2.9051778672e+01   2.7897152592e+01    0.1993211    0.1213526 -78.08 0.0008363249    1.769    0.435
       158 -10.2334    136.2103     41.9312   3.9544125357e+01   4.5101562745e+01    0.2499756    0.1759212  14.32  0.001014438    2.034    0.508
       159  -9.9334    135.4297     37.9216   3.8513151808e+01   4.5776255978e+01    0.2746072    0.1519924 -40.83   0.00129806    1.962    0.490
       160 -11.1435    131.3783     34.3101   3.8206592371e+01   4.7152676401e+01    0.4332565    0.2592644  47.39  0.001740929    1.586    0.369
       161  -9.1427    105.3299     42.6803   4.6808389475e+01   5.2165015229e+01    0.1362282    0.1079403 -85.17 0.0007048103    1.689    0.408
       162 -11.3946     41.1682     39.6624   6.9853365569e+01   6.5090130478e+01    0.4188224    0.2247717  32.04  0.001908947    1.691    0.409
       163 -10.8173     35.2180     42.8657   7.4209211223e+01   6.5355331277e+01    0.3609524    0.1861352  33.79  0.001027989    1.888    0.470
       164 -10.1718    109.4617     39.0516   4.4517676494e+01   5.1691020101e+01    0.2098624     0.168804  53.34 0.0005533773    1.096    0.088
       165 -10.1374     16.3051    227.3416   1.1168929615e+02   2.3053891138e+01    0.1174604   0.08749224 -38.37  0.000704121    1.683    0.406
       166  -9.2370    237.2662     38.6653   2.6143762572e+01   2.4202832327e+01    0.1146605   0.06456165 -60.27 0.0005535081    1.586    0.370
       167 -12.5504     26.4321     35.9756   7.6305496529e+01   6.7654612561e+01    0.3631138    0.2498063   5.55 0.0008212659    1.274    0.215
       168 -10.6549     92.3052     34.2555   4.7468578059e+01   5.6172792249e+01    0.3381656    0.2812876  -2.43  0.001924724    1.334    0.251
       169  -9.9465    205.9900     32.4955   2.7630735642e+01   3.0817222344e+01    0.1698023    0.1377421 -57.43 0.0003675943    1.118    0.106
       170  -9.8604    111.7877     32.2320   4.1675542925e+01   5.1978477257e+01    0.1872856    0.1431332  33.20  0.001048908    1.349    0.259
       171 -11.5641    159.9256    219.5947   7.5445074355e+01   7.1568062044e+00    0.2304688    0.1949044 -14.84 0.0002810945    1.128    0.114
       172 -10.3574    141.2597     29.4622   3.5021167440e+01   4.5383226589e+01    0.3458368    0.1078929  61.84  0.001331746    2.682    0.627
       173  -8.9209    102.7539     22.6916   4.0524917847e+01   5.5117104801e+01    0.4021661    0.2199286  -7.21 0.0009740966    2.780    0.640
       174 -10.7517    104.4555     28.3194   4.2087533587e+01   5.4120104293e+01    0.3278409    0.2188289  54.82  0.001099199    1.273    0.215
       175  -9.6597    100.0613     27.5654   4.2920315936e+01   5.5212603589e+01    0.2044607    0.1525882  68.73 0.0006926453    1.379    0.275
       176 -12.4483    154.7007     64.3540   4.2290745372e+01   3.7766723580e+01    0.9620793    0.6523261   0.88  0.004387752    2.450    0.592
       177  -9.4353    230.6154    124.2231   4.3534030428e+01   1.3391108903e+01     0.112021   0.09200325 -78.69 0.0003393949    1.616    0.381
       178  -9.7987    207.5338     27.0551   2.6351720464e+01   3.1114307259e+01    0.1487107    0.1018117 -42.84 -2.030093e-06    1.396    0.284
       179 -12.5406    163.0766     66.6840   4.1369585873e+01   3.5543293546e+01    0.7882249     0.407001  41.50  0.001179017    2.301    0.565
       180 -10.6099    147.6033     25.5023   3.2907680892e+01   4.4330192621e+01    0.3637294    0.2380102  -1.21  0.001868617    2.380    0.580
       181 -13.6885    183.2525     63.8440   3.7398683995e+01   3.1558946179e+01     1.507362    0.4509565 -40.10  0.005741903    3.065    0.674
       182  -9.7262    160.1648     24.1266   3.0780632278e+01   4.1586105637e+01    0.1734424    0.1310016 -74.65   0.00052474    1.312    0.238
       183  -9.9991    132.4035     24.6689   3.5123844325e+01   4.7971200754e+01    0.2237722    0.1048251  62.87 0.0005222264    1.815    0.449
       184 -10.3425    112.4759     23.9973   3.8770909545e+01   5.2722389022e+01    0.2644079    0.1460285  47.33 0.0008138831    1.610    0.379
       185 -10.3113     97.7279     21.9295   4.1482046496e+01   5.6350571767e+01    0.2689592    0.1871812 -26.22  0.001511027    1.677    0.404
       186 -10.1902    181.8151     21.9799   2.7719231280e+01   3.7002671359e+01    0.1701327    0.1502528  58.88  0.000565375    1.280    0.219
       187 -10.1741    163.2252     21.6131   2.9747804644e+01   4.1151546081e+01    0.2264421     0.162506 -50.01  0.001383091    1.422    0.297
       188 -10.0286    160.8160     18.7637   2.9319352151e+01   4.1982901508e+01    0.2538195     0.111596  55.46  0.001218461    2.108    0.526
       189 -10.0839    118.7113     22.1391   3.6875332475e+01   5.1450804731e+01    0.2894216    0.1394304  54.25  0.001376216    1.721    0.419
       190 -10.1148     90.1299     20.8423   4.3069666234e+01   5.8185101422e+01    0.3630694    0.2060463   6.94  0.001620077    2.761    0.638
       191  -9.9770    162.2173    123.2108   5.5599882446e+01   2.5896600405e+01    0.1914929    0.1734373 -81.44 0.0002592954    1.333    0.250
       192  -9.6552    162.2645    119.0062   5.4595487997e+01   2.6700086564e+01    0.1999712    0.1796119 -31.88  0.001099286    1.080    0.074
       193 -10.2865    201.8841     20.0927   2.5391591059e+01   3.2992562265e+01     0.175413    0.1266573 -67.03 0.0005875847    1.208    0.172
       194  -9.8722    139.9971     17.3331   3.1753966085e+01   4.6920696377e+01    0.2541242    0.1236422 -56.51  0.001143537    2.640    0.621
       195  -9.1510    195.6608     16.7036   2.5212007797e+01   3.4614070739e+01    0.1088647   0.08207998  48.29 0.0003941108    1.657    0.397
       196  -9.7694    212.1289     14.8530   2.3491940531e+01   3.1487622250e+01    0.1317126    0.1143477  80.15 0.0003153018    1.243    0.195
       197 -10.4579    181.5974    115.4369   4.9788842224e+01   2.3544324201e+01    0.2355939    0.2244143  17.31  0.001414977    1.088    0.081
       198 -11.9340    131.7111    111.4998   6.0135002325e+01   3.4430344818e+01    0.4685209    0.2801916  43.02  0.001182638    1.645    0.392
       199  -9.7277    102.8303     14.8425   3.7732321058e+01   5.5865212730e+01    0.1499796    0.1383315 -85.82 0.0002854911    1.234    0.190
       200  -9.7566    123.4974     13.4620   3.3238120697e+01   5.1150321604e+01    0.1287305     0.108115  75.04 2.069828e-05    1.078    0.072
       201  -9.9700    216.7354    108.0712   4.2279954574e+01   1.8276022719e+01    0.1763128    0.1480814 -36.40 0.0004612756    1.074    0.069
       202 -10.1907    183.5920    105.7956   4.7202627745e+01   2.4853848989e+01    0.2570144    0.1898035 -63.09  0.001332172    1.598    0.374
       203 -10.6577    134.9499    105.0140   5.7606284459e+01   3.5064310166e+01    0.2292027    0.2149508   7.19 0.0003611065    1.054    0.052
       204  -9.3882     85.2786     12.6734   4.1226793738e+01   6.0068512877e+01    0.1183037     0.097893 -78.94 0.0005314983    1.593    0.372
       205  -9.2551    130.2351     11.3322   3.1486559142e+01   4.9755523612e+01    0.1191507   0.08616226  38.09 0.0003900591    1.532    0.347
       206  -9.2314     78.2723     11.3531   4.2672424017e+01   6.1739640315e+01    0.1336059   0.08236705  29.85 0.0006999462    1.637    0.389
       207  -9.6387    213.3988    103.7589   4.1868585662e+01   1.9553903540e+01    0.1783912    0.1116401 -29.50 0.0006540028    1.648    0.393
       208 -11.5261    165.4129    102.7367   4.9999161354e+01   2.9087604595e+01    0.3991005    0.2609518 -40.28  0.001133859    1.500    0.333
       209  -9.9166    144.1755    103.3887   5.4889614540e+01   3.3433902988e+01    0.2140632     0.139592  55.19 0.0009568787    1.673    0.402
       210 -11.9747     70.1549    101.7525   7.7341357386e+01   4.8111540014e+01       0.3408    0.2364779  -4.62 0.0004003326    1.700    0.412
       211 -12.3544     53.4288     99.8950   8.3422951481e+01   5.0941705422e+01    0.4678246    0.3030336 -17.40  0.001288508    1.765    0.434
       212 -12.6590     49.8029     95.2538   8.3753248669e+01   5.2508279184e+01    0.5652556    0.2895559  39.54  0.001742496    2.150    0.535
       213 -12.5304     52.9641     90.4362   8.1183952079e+01   5.3225967712e+01    0.4430157    0.3750069  75.20  0.001096442    1.645    0.392
       214 -12.2257     52.9845     86.0696   7.9984306982e+01   5.4219606718e+01    0.4281258    0.2038047  26.71 0.0002893087    2.049    0.512
       215 -10.6435    218.5849    100.3791   4.0422335299e+01   1.9160128349e+01    0.2237315    0.1947737 -19.37  0.000576684    1.247    0.198
       216 -12.9056    126.0451    100.2772   5.8701193012e+01   3.7877445992e+01    0.6317854    0.2993456  34.57  0.002222539    2.383    0.580
       217 -12.1369    123.9578     95.4410   5.7950006448e+01   3.9270609939e+01    0.3059554    0.2803738   2.37  0.001646159    1.108    0.098
       218 -11.0469    191.8711     99.3166   4.4274285540e+01   2.4319008277e+01    0.3738969    0.2032654  55.82 0.0009435885    2.019    0.505
       219 -10.7784    153.4198     99.7835   5.1828234726e+01   3.2147341021e+01     0.207221    0.1380781 -27.89 0.0009511191    1.682    0.406
