#   1 NUMBER                 Running object number                                     
#   2 MAG_AUTO               Kron-like elliptical aperture magnitude                    [mag]
#   3 X_IMAGE                Object position along x                                    [pixel]
#   4 Y_IMAGE                Object position along y                                    [pixel]
#   5 X_WORLD                Barycenter position along world x axis                     [deg]
#   6 Y_WORLD                Barycenter position along world y axis                     [deg]
#   7 A_WORLD                Profile RMS along major axis (world units)                 [deg]
#   8 B_WORLD                Profile RMS along minor axis (world units)                 [deg]
#   9 THETA_WORLD            Position angle (CCW/world-x)                               [deg]
#  10 FWHM_WORLD             FWHM assuming a gaussian core                              [deg]
#  11 ELONGATION             A_IMAGE/B_IMAGE                                           
#  12 ELLIPTICITY            1 - B_IMAGE/A_IMAGE                                       
         1 -13.9627    221.1231     26.5742   3.4971503678e+02   2.9181960989e+01    0.9820631    0.7788174 -31.60  0.004431337    1.392    0.282
         2 -10.8326     60.9187     21.5373   1.4021459828e+01   6.6405862067e+01    0.2992599     0.215941  58.12 0.0008771758    1.334    0.250
         3 -11.8084    222.1827      7.8376   3.4563833656e+02   3.1011008797e+01    0.5532733    0.1329273 -41.05  0.002623281    2.528    0.604
         4  -9.9001     86.1622    240.7967   5.7252821266e+01   1.2716826558e+01    0.1972983    0.1362045 -47.43 0.0006947059    1.692    0.409
         5 -12.8903    248.2099    245.2103   2.6881319364e+01  -4.4474635381e+00    0.8491964    0.5188003  -9.10  0.006704188    1.195    0.163
         6  -9.6892     42.9507    194.8048   6.3965680467e+01   2.7343979766e+01    0.1660381     0.141925  37.01 0.0009701697    1.082    0.076
         7  -9.6401     48.8851    194.1533   6.2266718717e+01   2.6865493304e+01    0.1735247    0.1538952  46.68            0    1.012    0.012
         8  -8.3827     55.4042    193.4637   6.0396425477e+01   2.6303316978e+01    0.1787122    0.1293782 -86.60  5.14947e-05    1.498    0.332
         9 -10.5080     54.0194    190.1390   6.0447778335e+01   2.7261367504e+01    0.1947976    0.1752329  45.78 0.0002484872    1.012    0.011
        10 -11.5599     34.2273    189.8504   6.5994550188e+01   2.9436216829e+01    0.5835395    0.3212804  63.77   0.00252738    1.885    0.469
        11  -9.2337     44.3714    188.2263   6.2986515281e+01   2.8793605041e+01    0.1327763    0.1030896 -13.76 0.0006881336    1.595    0.373
        12  -9.9565     28.7214    250.6937   7.1002036159e+01   1.6688152696e+01    0.1027483   0.08653123 -19.09 0.0006968344    1.553    0.356
        13  -9.9895    163.0571    184.3264   3.2161601767e+01   1.3613331691e+01     0.185397     0.160572  11.84 0.0006108342    1.111    0.100
        14 -11.9762    179.5296    169.4671   2.6189390208e+01   1.3970752609e+01    0.9169803     0.655731 -12.43  0.005166828    1.481    0.325
        15 -11.1647    172.7649    176.8095   2.8855662016e+01   1.3616952038e+01    0.3386153    0.3350341  27.39  0.001265263    1.293    0.227
        16  -9.6275     73.6944    181.3293   5.3870994561e+01   2.7000817813e+01     0.208345    0.1782311  88.36 0.0008706147    1.256    0.204
        17 -11.6382     55.3847    180.6461   5.9051297583e+01   2.9439436363e+01    0.4144465    0.2977418 -25.17  0.001222644    1.765    0.433
        18 -12.6925    248.0493    231.9434   2.5032534773e+01  -2.8975618922e+00    0.5454861     0.209353 -38.86  0.003236535    2.352    0.575
        19 -10.6571    160.6502    177.8274   3.1517427268e+01   1.5173367411e+01    0.3137276    0.2165734 -62.60  0.001318954    1.997    0.499
        20 -11.1861    135.3752    176.7532   3.6969588668e+01   1.9147474381e+01     0.256589    0.1726374 -38.11  0.001296042    1.488    0.328
        21 -10.5379    238.4809    169.4906   1.6498510761e+01   6.2864830792e+00    0.1146921   0.08640712 -25.64 3.306817e-05    1.020    0.020
        22 -11.4704    230.0075    166.8949   1.7252575395e+01   7.6652950994e+00     0.369299     0.136414 -44.56  0.001719592    2.579    0.612
        23 -10.5030    174.7069    180.6446   2.9158254190e+01   1.2653672263e+01    0.2811491    0.2055685 -19.19  0.000843739    1.311    0.237
        24 -10.7285     53.8063    239.3771   6.4639576428e+01   1.6458027961e+01    0.1148285   0.09577697 -81.95 0.0002806838    1.390    0.280
        25  -9.9630    235.3065    158.3549   1.4976777686e+01   8.2877428918e+00    0.1201914   0.07466594 -15.45 0.0007041736    1.719    0.418
        26 -12.1811     52.8856    232.3154   6.4355753886e+01   1.7965768553e+01    0.2424463    0.1612511 -59.31  0.001083365    1.745    0.427
        27 -11.7032    133.7043    145.5798   3.1394093100e+01   2.6106828410e+01     1.181806    0.3217301 -54.17  0.003176389    4.795    0.791
        28 -11.1837     98.2792    150.7510   4.1911166468e+01   3.0928095799e+01    0.3664964    0.2860896 -84.49   0.00176974    1.541    0.351
        29 -10.2380    112.1810    150.6467   3.7991890742e+01   2.8655298904e+01    0.2391088    0.1845151  51.54  0.001174651    1.399    0.285
        30 -11.2229     88.4152    149.5552   4.4599917647e+01   3.2800353690e+01    0.2981952    0.2805428  17.19 0.0004996999    1.089    0.082
        31 -12.6557     93.8353    144.3325   4.1984801821e+01   3.3239749831e+01    0.7540103    0.6607697 -36.11  0.001834638    1.192    0.161
        32 -11.6439    106.0050    133.2544   3.6112280489e+01   3.3872903699e+01    0.6045757    0.3940871 -26.70  0.002508506    2.055    0.513
        33 -11.9113     94.6201    131.7377   3.9165651849e+01   3.6251698913e+01    0.3774289    0.2938245 -63.01   0.00181772    1.317    0.241
        34 -10.8815    135.7550    131.3721   2.7804130746e+01   2.8841220287e+01    0.4923886    0.2532325 -54.57  0.001974412    2.084    0.520
        35 -11.2312     47.2937    234.0235   6.5808866095e+01   1.8189620797e+01    0.1522556    0.1427885 -66.63 0.0004723753    1.271    0.213
        36  -9.5801    160.6048    127.7787   2.1431790615e+01   2.4985854396e+01    0.2123684    0.1250798 -52.07 0.0009598752    1.727    0.421
        37 -10.7002    114.0077    125.9937   3.2211396188e+01   3.4130698589e+01    0.3593979    0.2894487 -13.31 0.0008532299    1.523    0.344
        38 -10.8117    118.8039    123.6531   3.0352222973e+01   3.3765130455e+01    0.4181781    0.3179592 -75.56  0.001576826    1.615    0.381
        39 -11.7925     58.8891    232.5703   6.2938453070e+01   1.7285563704e+01    0.1779304    0.1682179 -62.99 0.0004018829    1.250    0.200
        40 -10.5227    101.5604    120.9688   3.4624973965e+01   3.7653374557e+01    0.2975675    0.2582689 -12.46 0.0007210156    1.331    0.249
        41  -9.9943    162.1765    119.9571   1.9329324987e+01   2.6227832281e+01    0.2112188     0.207577  66.39  0.000367669    1.117    0.105
        42 -10.5742    158.3463    114.5325   1.8831800229e+01   2.8017379696e+01    0.4148237    0.2635574 -69.51 0.0008830588    2.361    0.576
        43  -9.6322    109.6502    116.0159   3.1052617964e+01   3.7295404814e+01    0.2169084    0.1886737 -51.70 0.0003332582    1.126    0.112
        44 -11.6729    116.1098    109.1643   2.7510813569e+01   3.7591110653e+01    0.7006897     0.488342  82.80   0.00291207    2.180    0.541
        45 -12.5612    116.7069    102.3176   2.5547596035e+01   3.8994895743e+01    0.9172012     0.589005  72.70   0.00362115    2.383    0.580
        46 -10.4126     81.4357    102.4321   3.6517672660e+01   4.5929150326e+01    0.3238626    0.2556294  66.46 0.0001176449    1.447    0.309
        47 -10.5619     70.9719     99.2369   3.9470249924e+01   4.8587924771e+01    0.4792428    0.2603546  36.97  0.001709085    1.843    0.457
        48  -8.9947    151.5821    106.6835   1.8323325363e+01   3.0896576496e+01    0.2083217    0.1280176 -53.41 0.0009352956    1.649    0.394
        49 -10.7646    134.5760    104.5917   2.1597543369e+01   3.4800932669e+01    0.5934739    0.1403989 -44.54  0.001644051    4.036    0.752
        50 -19.4863     14.1567    142.6561   6.8429314494e+01   4.3600268703e+01     20.09994     6.506185 -83.56   0.06692553    3.212    0.689
        51  -9.3791    136.0518     90.6553   1.7531776490e+01   3.7316796171e+01    0.3473632    0.2181196 -84.83  0.001297192    2.888    0.654
        52 -10.3999    153.4904    212.4040   3.8703038742e+01   9.8211160263e+00    0.2347106    0.1197561 -47.67 0.0007277827    2.063    0.515
        53 -11.8918    121.3345     99.3348   2.3508200501e+01   3.8678037620e+01    0.4936046    0.4262499 -66.79  0.002557592    1.187    0.157
        54 -11.1368    162.3798    205.0367   3.5727976084e+01   9.9847775026e+00    0.3617913    0.3313935 -63.50  0.001698328    1.509    0.337
        55 -10.0041    160.0893    196.3055   3.4801304853e+01   1.1830753395e+01    0.2230155     0.174854 -43.10 0.0004390425    1.337    0.252
        56 -11.6712     88.0341    220.1211   5.4722825973e+01   1.6525788731e+01    0.4057853     0.312909  13.16  0.001417522    1.262    0.208
        57  -8.6086     95.2991     73.6955   2.3333470588e+01   4.9714423103e+01     0.152244    0.1189162 -87.50 0.0003078477    1.588    0.370
        58 -12.9416    177.4464     66.2997   3.4683368433e+00   3.2622548856e+01    0.6641219    0.4509546 -46.97 0.0008834013    1.285    0.222
        59 -15.8283     69.8420    143.2230   4.9305746510e+01   3.7247108426e+01     4.882529     2.780773  60.07   0.01081007    2.251    0.556
        60 -13.7931    193.4927     53.5087   3.5827848749e+02   3.1171619806e+01     1.036117     0.918454  37.46  0.003529888    1.516    0.340
        61 -12.3921    200.0534     47.7164   3.5620691526e+02   3.0638075686e+01    0.4393116     0.422245  18.61  0.001657074    1.414    0.293
        62  -8.8887    118.5510     54.4532   1.0549857417e+01   4.7947429927e+01    0.1447092    0.1348176 -84.61 0.0001402209    1.007    0.007
        63 -10.2931    192.9567    194.5864   2.8119211081e+01   7.8988662495e+00    0.5346188    0.2806621 -60.33  0.001945373    5.351    0.813
        64 -10.6858     59.8005    245.9753   6.3720435597e+01   1.4570554562e+01    0.1417432    0.1115951 -49.32  0.000741083    1.553    0.356
        65 -11.3445     24.6743    245.4727   7.1674322868e+01   1.8057512957e+01     0.157199    0.1032516  10.91 0.0009332285    1.685    0.406
