#   1 NUMBER                 Running object number                                     
#   2 MAG_AUTO               Kron-like elliptical aperture magnitude                    [mag]
#   3 X_IMAGE                Object position along x                                    [pixel]
#   4 Y_IMAGE                Object position along y                                    [pixel]
#   5 X_WORLD                Barycenter position along world x axis                     [deg]
#   6 Y_WORLD                Barycenter position along world y axis                     [deg]
#   7 A_WORLD                Profile RMS along major axis (world units)                 [deg]
#   8 B_WORLD                Profile RMS along minor axis (world units)                 [deg]
#   9 THETA_WORLD            Position angle (CCW/world-x)                               [deg]
#  10 FWHM_WORLD             FWHM assuming a gaussian core                              [deg]
#  11 ELONGATION             A_IMAGE/B_IMAGE                                           
#  12 ELLIPTICITY            1 - B_IMAGE/A_IMAGE                                       
         1 -13.0308    189.9422     32.0263   6.1131633430e+01   3.4131874657e+01     1.284212    0.9481442  20.57   0.00705549    2.322    0.569
         2 -10.5075     49.1748      8.4803   8.3995816707e+01   6.5574773192e+01    0.2017419    0.1468626 -10.66  0.001425633    1.337    0.252
         3 -11.2203    213.9212      2.6347   5.2533121980e+01   3.2236805770e+01    0.6208028    0.2500356  72.83  0.003261363    2.072    0.517
         4  -7.9227    198.6407    222.7887   1.0139334418e+02  -3.1278091108e+00    0.1781977    0.1241117 -49.69 0.0005321967    1.597    0.374
         5 -10.2853    139.5999    250.0415   1.1822555330e+02   1.4100238358e+00    0.4140179    0.1794455  38.69  0.001813132    2.039    0.510
         6 -10.1504    134.2661    246.7137   1.1887544101e+02   2.9108282284e+00    0.2760673    0.1953294 -62.30  0.001505374    1.630    0.387
         7 -19.4364     18.1739    140.1333   1.3161722678e+02   4.4394077525e+01      20.2743      3.13633 -68.34    0.0508681    6.382    0.843
         8 -10.1723    193.4890    192.3565   9.6683088323e+01   3.6503716019e+00    0.7360659    0.3968704 -52.03  0.003140961    2.001    0.500
         9  -8.7299    100.5882    198.2292   1.1913234932e+02   1.9170763093e+01    0.2066782    0.1316027 -49.27 0.0006761777    1.634    0.388
        10  -9.4986    183.5048    215.6353   1.0322513774e+02   7.3037124455e-01    0.2800684    0.2089153 -83.31  0.001322573    2.245    0.555
        11 -10.1093    113.0537    196.4515   1.1582158619e+02   1.7469319336e+01    0.3901749    0.2452017 -23.68  0.001500237    2.786    0.641
        12  -9.0786     82.3997    195.1954   1.2306878570e+02   2.2833569561e+01    0.2722036    0.2374054  63.58 0.0009284434    1.108    0.098
        13 -12.2310     69.7746    190.8903   1.2551028498e+02   2.5779158146e+01    0.8272746    0.7236287 -65.48  0.002938161    1.129    0.114
        14  -8.9281     99.6282    180.8345   1.1641612596e+02   2.3597877259e+01    0.2399021    0.2079962  27.30 0.0005659753    1.288    0.223
        15  -8.4473    121.2886    212.6530   1.1657451532e+02   1.2264492894e+01    0.1489364    0.1094953  76.47 0.0007024185    1.658    0.397
        16 -10.4165     80.6063    177.1525   1.2064319245e+02   2.7605539136e+01    0.3826768    0.2770922 -45.04   0.00111591    1.475    0.322
        17 -11.1834     84.3042    171.5928   1.1872600752e+02   2.8431886805e+01    0.5434187    0.4842914  72.10  0.002093978    1.128    0.114
        18 -10.0465    104.0032    172.8068   1.1382192083e+02   2.4843590497e+01    0.3858227    0.2381026  67.32  0.001052908    2.269    0.559
        19  -9.6962    195.2915    168.8768   9.1498624765e+01   8.1954934219e+00    0.3214914    0.2879739  13.76 0.0006241534    1.206    0.171
        20 -10.1678     72.2654    180.4310   1.2330932343e+02   2.8031824576e+01    0.4290184    0.2490674  62.09  0.001836089    2.101    0.524
        21  -8.3299    141.5304    158.8833   1.0143853542e+02   2.1153921658e+01    0.2321774    0.1520671 -51.18 0.0004533318    1.492    0.330
        22 -10.8009     96.7237    155.3728   1.1232213024e+02   3.0473231515e+01    0.6762875    0.4090941 -35.73  0.002142716    2.023    0.506
        23  -9.1349    189.3659    155.4566   8.9832077561e+01   1.2207626756e+01    0.3240585    0.1840961 -41.61  0.001370391    1.678    0.404
        24  -8.4152    124.6099    171.7771   1.0836486613e+02   2.1346098450e+01    0.2213027    0.1462274 -64.38 0.0009449604    1.644    0.392
        25  -9.6507    134.1022    146.0090   1.0041129315e+02   2.5712293602e+01    0.8442076    0.2092737 -55.26   0.00173363    6.859    0.854
        26 -10.2788    108.1876    140.2184   1.0591801902e+02   3.2166561540e+01    0.5693027    0.3062216 -34.51   0.00209002    2.411    0.585
        27 -10.7741     96.3726    140.3760   1.0922899670e+02   3.4260092635e+01     0.317464    0.2838888 -27.19  0.000804359    1.197    0.165
        28 -10.3017    115.2623    130.3717   1.0167921581e+02   3.3174686240e+01    0.4008493    0.2537305 -42.83  0.001065349    1.571    0.363
        29  -8.7695    107.2943    210.3051   1.1945449853e+02   1.5188227331e+01    0.1379312    0.1142374 -20.14 0.0002282031    1.580    0.367
        30  -9.2932    135.6096    129.2070   9.6055664735e+01   2.9320470861e+01    0.2336917    0.1437916 -37.52 0.0009526427    1.741    0.426
        31  -9.4575    105.9934    130.5558   1.0427538595e+02   3.4899597118e+01    0.3892875    0.3022618 -72.72  0.001772889    1.482    0.325
        32  -9.6086    103.1018    126.5632   1.0413010873e+02   3.6381430750e+01    0.3239639    0.2566619  -9.82 0.0007141646    1.583    0.368
        33  -8.1262    135.6661    122.7190   9.4441077411e+01   3.0774509314e+01    0.1549271     0.125086   1.48  0.000448647    1.613    0.380
        34  -9.0401    110.5786    119.5003   1.0028890376e+02   3.6605987328e+01    0.2651253    0.2299796 -39.18 0.0005817707    1.135    0.119
        35  -8.9327     65.0682    114.3189   1.1256877766e+02   4.5469978313e+01     0.193503    0.1836482  15.58 0.0005095203    1.135    0.119
        36  -8.6903    167.9947    112.9567   8.4471278015e+01   2.5802575730e+01    0.2471713    0.1840777 -78.95 0.0006580834    1.669    0.401
        37  -9.2700    120.4888    110.9912   9.5395515375e+01   3.6527596982e+01    0.2225781     0.133971 -68.53 0.0008105843    2.610    0.617
        38  -8.4496    114.6697    111.6706   9.7151436752e+01   3.7555290575e+01    0.1575606    0.1209666  -6.45 0.0003518159    1.714    0.417
        39  -8.5841    205.7990    110.3491   7.6595696902e+01   1.8048547810e+01    0.1917115    0.1335573  46.04 0.0004414029    1.625    0.384
        40  -7.9839    163.3479    203.7193   1.0539460794e+02   6.7231702924e+00    0.1458382    0.1149199  71.35 0.0002514338    1.643    0.391
        41  -9.3182     95.0810    200.1764   1.2076912581e+02   1.9608737785e+01    0.2589633    0.2043736 -89.95 0.0004591453    1.321    0.243
        42  -8.6638    129.4927     96.4635   8.9169970776e+01   3.7666656693e+01    0.1469597    0.1461328  47.54 4.031263e-05    1.004    0.004
        43  -8.3287    209.7157    199.3432   9.4768604103e+01  -5.3752734253e-01    0.1315472    0.1111958 -76.05  0.000554696    1.640    0.390
        44  -9.9651    167.1608     67.1912   7.3120794035e+01   3.4401378349e+01     0.320443    0.2212181 -84.23 0.0008465709    1.788    0.441
        45 -11.4349    175.1461     46.9596   6.6711800118e+01   3.5552505996e+01    0.4897248    0.3896264 -43.86  0.001178118    1.336    0.252
        46  -9.9700     66.9242    225.4677   1.3063011310e+02   1.7936325934e+01    0.3558111    0.2505719  39.85  0.001499396    1.437    0.304
        47  -9.5927    177.8535    224.6675   1.0603995050e+02  -6.7467772704e-02    0.2761246    0.1215388  29.96  0.001071784    2.543    0.607
