#   1 NUMBER                 Running object number                                     
#   2 MAG_AUTO               Kron-like elliptical aperture magnitude                    [mag]
#   3 X_IMAGE                Object position along x                                    [pixel]
#   4 Y_IMAGE                Object position along y                                    [pixel]
#   5 X_WORLD                Barycenter position along world x axis                     [deg]
#   6 Y_WORLD                Barycenter position along world y axis                     [deg]
#   7 A_WORLD                Profile RMS along major axis (world units)                 [deg]
#   8 B_WORLD                Profile RMS along minor axis (world units)                 [deg]
#   9 THETA_WORLD            Position angle (CCW/world-x)                               [deg]
#  10 FWHM_WORLD             FWHM assuming a gaussian core                              [deg]
#  11 ELONGATION             A_IMAGE/B_IMAGE                                           
#  12 ELLIPTICITY            1 - B_IMAGE/A_IMAGE                                       
         1 -14.1734     67.6058    144.0950   1.3245216300e+02   3.7734964192e+01     3.177218     1.479143 -83.50   0.00436591    3.768    0.735
         2 -13.2600    204.1763      2.3034   6.4022341668e+01   3.2862552541e+01     1.477184      0.78439  76.28   0.00241223    1.805    0.446
         3 -14.2320    183.2216     25.0273   7.3150759691e+01   3.5904264448e+01     1.852717     1.340465  -3.72  0.005372154    1.628    0.386
         4 -14.0126    190.5156     17.8265   6.9993601485e+01   3.4812189847e+01     1.919822     1.089689 -31.67  0.006462899    1.756    0.431
         5 -12.7194    196.7232      9.8591   6.6926841409e+01   3.4032948345e+01     0.586437    0.5539116  43.52   0.00116669    1.127    0.113
         6 -10.4910     40.4961      2.9868   9.9970709766e+01   6.9073621744e+01    0.1798895   0.09735931 -28.11 0.0007711653    1.586    0.369
         7 -12.0520     32.4557     23.6787   1.1320037037e+02   6.7031109918e+01    0.3236025    0.2147587 -33.47   0.00205723    1.201    0.168
         8  -9.7228    186.0010    238.2881   1.2249910431e+02   1.6218599063e+00    0.1658477    0.1214161  38.84 0.0003682168    1.079    0.074
         9 -11.5797    247.2715    249.6974   1.1411264231e+02  -8.9455368660e+00     0.478735    0.1587755  39.31  0.002460791    2.349    0.574
        10 -12.1720    140.2002    248.3776   1.3154885747e+02   7.5317462127e+00    0.4542265    0.3159213  66.45  0.002871028    1.553    0.356
        11 -12.2545     94.4172    238.8299   1.3829598320e+02   1.5719868113e+01     1.133343    0.3719022 -70.87  0.004530144    5.283    0.811
        12 -10.7940    110.9115    248.4985   1.3644736493e+02   1.1886915582e+01    0.2177517    0.1579523  55.04 0.0006761784    1.049    0.047
        13 -12.1625    105.8058    245.9448   1.3705182695e+02   1.3002918889e+01    0.3995873     0.286352  77.06  0.001638756    1.407    0.289
        14 -11.5638     98.2896    247.6659   1.3845036231e+02   1.3809119033e+01    0.3854552    0.2017625  78.23  0.002029124    2.720    0.632
        15 -11.7546    101.0463    245.4308   1.3779385085e+02   1.3759555818e+01    0.3262598    0.2066134 -74.73 0.0003340916    1.838    0.456
        16 -16.4159     57.3983    211.4699   1.4229269105e+02   2.5324457365e+01     6.661231     3.132908  56.32   0.03847901    1.833    0.454
        17 -10.0510    229.2814    206.3900   1.1000278056e+02  -1.5438361673e+00    0.2279475    0.1993571 -52.80 0.0008481574    1.721    0.419
        18 -10.8995    192.8229    194.2922   1.1434821171e+02   6.4908483020e+00    0.7953113     0.399226 -60.21  0.002557517    5.988    0.833
        19 -11.9992     77.0256    192.4279   1.3675408412e+02   2.6357612273e+01    0.3637656    0.2391765 -47.33  0.001746284    2.015    0.504
        20 -11.9715     81.0128    185.9342   1.3520367049e+02   2.7075416509e+01    0.2891254    0.2193481 -54.68  0.000905815    1.517    0.341
        21 -11.4941     62.4162    191.6456   1.3952230677e+02   2.8448523868e+01    0.5271952    0.2644841  58.33  0.002243619    1.884    0.469
        22  -8.8840    181.5359    192.4101   1.1613519198e+02   8.8482187662e+00    0.1316911    0.1137725  34.25 6.735641e-05    1.014    0.014
        23  -8.6639    166.9616    190.3082   1.1857180902e+02   1.1873062833e+01    0.2193066   0.09533429  59.01 0.0007043934    4.279    0.766
        24  -9.4544     66.4259    185.3424   1.3806791267e+02   2.9178518742e+01    0.2054971    0.1110538  58.62 0.0007547286    1.763    0.433
        25 -11.6666     88.5372    174.2991   1.3214120968e+02   2.8326615611e+01    0.2659463    0.2376657 -59.71 0.0003776271    1.267    0.211
        26 -13.5825     76.8486    171.2898   1.3422524672e+02   3.0635567561e+01    0.4565941     0.283063 -42.50  0.001958229    2.229    0.551
        27 -13.6040     90.3621    164.6661   1.3036120546e+02   3.0047353090e+01     4.722398    0.8371658  47.09  0.002307421    6.076    0.835
        28 -18.5629      2.6540    126.6532   1.4576654917e+02   4.8028212720e+01     16.46328    0.4636266 -73.16   0.02663949   21.081    0.953
        29 -10.0779     29.7970    169.6370   1.4387239279e+02   3.6619117274e+01    0.1455383    0.1374331  86.06 0.0004642262    1.343    0.255
        30 -11.3564    198.0152    250.0000   1.2208763694e+02  -1.6598283761e+00    0.3800537    0.1098016  44.50  0.001682313    2.796    0.642
        31 -10.7551     39.8926    161.8498   1.4100882808e+02   3.7197442303e+01    0.2068843     0.146668  52.27  0.001041829    1.396    0.284
        32  -8.7091    194.3116    156.6470   1.0671619482e+02   1.2202320995e+01    0.1386542    0.1146277 -81.80 0.0001981732    1.727    0.421
        33 -10.8540     22.8041    155.1400   1.4398399784e+02   4.0321882211e+01     0.238854    0.1969324  87.37 0.0005843129    1.089    0.082
        34 -10.0656     22.5460    150.4930   1.4359034593e+02   4.1332647974e+01     0.170313   0.08987295 -83.61 0.0006890356    1.636    0.389
        35 -10.7147    105.2598    149.0199   1.2439397060e+02   3.0977487723e+01    0.3156402    0.3063483 -40.19 0.0008041881    1.180    0.152
        36 -10.0411    107.4829    145.0095   1.2313157824e+02   3.1457331856e+01    0.3262397    0.2052641 -39.75 0.0008432404    1.879    0.468
        37 -12.4087     94.2771    148.7758   1.2691339839e+02   3.2826137126e+01    0.2621418    0.2505349  50.10 0.0004558269    1.167    0.143
        38 -10.1429    133.7638    143.5309   1.1673381979e+02   2.6956838303e+01    0.6188413    0.1577464 -54.54  0.001465842    6.591    0.848
        39 -11.8741     46.1832    145.5922   1.3770503965e+02   4.0013313072e+01    0.3728158    0.2298696  88.69  0.002093582    1.638    0.389
        40 -10.2386    114.0659    135.2939   1.1963882594e+02   3.2383039492e+01     0.321942    0.2471775 -14.01   0.00101824    1.880    0.468
        41 -10.9570    102.0098    132.1717   1.2193764286e+02   3.5174145328e+01    0.3092314    0.2469723 -27.36  0.001060439    1.563    0.360
        42  -9.3346    106.3886    131.2009   1.2065807958e+02   3.4631992369e+01    0.2421055     0.195246  87.89  0.001292138    1.390    0.281
        43 -12.4656     44.0553    128.8894   1.3592147175e+02   4.3945232529e+01    0.5337836    0.3146372  87.49  0.002786602    1.938    0.484
        44  -9.5601    160.7583    127.7399   1.0710612704e+02   2.4571081268e+01    0.2423439    0.1176741 -51.56 0.0008942256    2.418    0.586
        45 -10.2342    119.0968    127.8111   1.1681073975e+02   3.3059164174e+01    0.2702585     0.187031 -23.75 0.0009056554    2.025    0.506
        46  -9.9182    109.9394    122.7884   1.1795690358e+02   3.5830194482e+01     0.220748    0.1944036 -53.91  0.000371149    1.095    0.087
        47  -9.5623    135.0000    119.9897   1.1114232336e+02   3.1579099565e+01    0.2475553   0.08345809 -45.18 0.0008015586    2.936    0.659
        48 -10.8159    168.2523    112.9777   1.0179292948e+02   2.5740925160e+01    0.3700747    0.3033324 -76.40  0.001133495    1.539    0.350
        49 -15.7029     19.2643    243.5096   1.5056630621e+02   2.4084095781e+01     1.986523    0.9557875 -71.03  0.009624843    2.102    0.524
        50  -9.7362    204.9965    110.5064   9.3820920116e+01   1.7745187502e+01    0.3862357     0.230296  28.16  0.001570049    2.167    0.538
        51 -12.4185    173.3812    221.0438   1.2224775877e+02   6.0062989798e+00    0.6745211    0.3132794  33.30  0.003208002    2.212    0.548
        52 -10.5918     26.9922     94.3774   1.3499425128e+02   5.3295941215e+01    0.3782951    0.1404195  35.98  0.001789946    3.050    0.672
        53 -10.9709     21.0320     92.7722   1.3647767014e+02   5.4133244411e+01     0.228389    0.1997722 -39.60 0.0009006215    1.276    0.216
        54  -8.8620    184.5404     77.4613   8.8685720621e+01   2.8187621713e+01    0.1531133    0.1459626   8.02 6.046125e-05    1.057    0.054
        55  -9.3921    153.4123     75.7480   9.4582903865e+01   3.6083815864e+01     0.210343    0.1471673 -22.49 0.0004870211    1.551    0.355
        56  -9.5876    172.3038    213.6602   1.2133840597e+02   7.2600152181e+00    0.1199421   0.09311417  71.48 0.0005652501    1.675    0.403
        57 -11.7478    126.1212    244.9061   1.3354368363e+02   1.0163882511e+01     0.308896     0.183796  58.05  0.001944164    1.525    0.344
        58  -9.7891    198.3029    245.6602   1.2144661821e+02  -1.2118728770e+00    0.1041006   0.08263704  61.41 0.0004053947    1.673    0.402
        59 -10.2058     41.4964     16.5096   1.0620798466e+02   6.7098059884e+01    0.1223714   0.09588216 -15.56 -3.124182e-05    1.005    0.005
        60 -11.2648    163.5158    250.0124   1.2782837247e+02   3.7075469550e+00    0.3224925    0.2102861  55.05  0.001929669    1.484    0.326
        61  -9.8777    226.5002    237.9811   1.1566299915e+02  -4.7303093488e+00     0.127777    0.1007293 -60.93 0.0007986572    2.460    0.593
