#   1 NUMBER                 Running object number                                     
#   2 MAG_AUTO               Kron-like elliptical aperture magnitude                    [mag]
#   3 X_IMAGE                Object position along x                                    [pixel]
#   4 Y_IMAGE                Object position along y                                    [pixel]
#   5 X_WORLD                Barycenter position along world x axis                     [deg]
#   6 Y_WORLD                Barycenter position along world y axis                     [deg]
#   7 A_WORLD                Profile RMS along major axis (world units)                 [deg]
#   8 B_WORLD                Profile RMS along minor axis (world units)                 [deg]
#   9 THETA_WORLD            Position angle (CCW/world-x)                               [deg]
#  10 FWHM_WORLD             FWHM assuming a gaussian core                              [deg]
#  11 ELONGATION             A_IMAGE/B_IMAGE                                           
#  12 ELLIPTICITY            1 - B_IMAGE/A_IMAGE                                       
         1 -14.8608    166.3004     41.0808   7.6179675397e+01   3.8800447910e+01      1.30251     1.099141  -1.36  0.004062544    1.386    0.279
         2 -14.7713    183.6482      8.1421   6.3606297469e+01   3.8108924997e+01     1.906658    0.8997797  63.73  0.006352676    1.853    0.460
         3 -11.2771    133.7950    247.4592   1.2857955432e+02   7.1975860904e+00    0.1581496    0.1406549  59.35 0.0002540187    1.171    0.146
         4 -20.1055     67.6116    175.5082   1.3366646765e+02   3.1045012585e+01     17.12333     6.453478 -68.19   0.07212474    2.612    0.617
         5 -13.6076    165.4488    188.6060   1.1388653850e+02   1.1564672304e+01    0.6430468    0.4130851  39.74  0.002448348    1.409    0.290
         6 -14.0139    174.5421    188.0737   1.1190790462e+02   9.9240620661e+00      1.15278    0.4644791 -43.62  0.004621738    2.754    0.637
         7 -10.5358    113.3938    195.6303   1.2613274150e+02   1.9686001351e+01    0.4230504    0.2843448  -9.64  0.001689082    3.878    0.742
         8 -10.1648    125.1114    245.1127   1.2991377535e+02   8.9240900980e+00    0.3450651    0.0969238 -55.17  0.001431959    4.389    0.772
         9 -12.0988    152.3683    183.7688   1.1580572766e+02   1.4963967203e+01    0.4038076    0.2555031 -78.19  0.001686997    2.760    0.638
        10 -13.4280    206.3843    178.2903   1.0369891162e+02   5.4836992517e+00    0.5724981    0.4791803  -8.21  0.003322582    1.206    0.171
        11 -11.7176    203.3275    170.7262   1.0277111531e+02   7.3274304066e+00    0.4996201    0.2644028  34.28  0.002189216    1.945    0.486
        12 -13.2287    195.6503    169.4197   1.0401685673e+02   9.0683937469e+00    0.5353277    0.4368797 -43.39 0.0006417055    1.335    0.251
        13 -12.2181    193.5867    164.7508   1.0346785812e+02   1.0303101803e+01    0.4208606    0.3540775  33.97  0.001688478    1.120    0.107
        14 -11.9798    170.5032    184.8011   1.1214695461e+02   1.1283230606e+01      0.36412     0.283841 -66.16   0.00180569    1.636    0.389
        15 -12.1071      9.4709    175.1273   1.4638764703e+02   3.7575614147e+01    0.2032775    0.1543547  57.74 0.0006496694    1.267    0.211
        16 -13.2967    137.8475    171.5539   1.1683063103e+02   2.0179167725e+01    0.7878428    0.4974474  61.24  0.003598642    1.805    0.446
        17 -10.7094    165.5761    172.3558   1.1084561024e+02   1.4562471183e+01    0.2562013    0.1417154 -50.58 0.0009927041    2.032    0.508
        18 -11.8527    125.7171    172.0527   1.1969205486e+02   2.2364200197e+01    0.3178315    0.2659706 -88.28  0.001384893    1.272    0.214
        19 -10.5216    150.6975    245.8691   1.2529253585e+02   4.7430096822e+00     0.147194    0.1315783  52.21 0.0004874961    1.165    0.142
        20 -12.7661    143.3174    167.4274   1.1482306616e+02   1.9965769379e+01    0.7184075    0.4366398 -86.55  0.002550583    3.527    0.717
        21 -11.6383    177.3985    169.6546   1.0780026645e+02   1.2693101733e+01    0.2633325    0.1396295 -47.06  0.001126201    2.072    0.517
        22 -11.0566     35.8034    168.7006   1.4016450891e+02   3.6441621310e+01    0.2886291    0.1743875  65.99  0.001666234    1.530    0.346
        23 -10.5834     12.0691    240.6112   1.4938645860e+02   2.4574741289e+01    0.3562086    0.2244747  44.09  0.002690037    1.546    0.353
        24 -11.4468    200.6974    163.2236   1.0173309421e+02   9.1339663344e+00    0.5043581    0.3754977 -51.34  0.002586462    1.574    0.365
        25 -10.4206    139.3863    250.0048   1.2784701599e+02   5.9346036749e+00    0.2298539     0.124518  51.42 0.0009618091    1.576    0.365
        26 -11.4776     16.4238    250.2036   1.4910280159e+02   2.2477017765e+01    0.1395978    0.1146678  68.47 0.0008620897    1.347    0.258
        27 -10.2785     13.1607    164.8897   1.4487694800e+02   3.9466043475e+01    0.1706275    0.1387209 -81.53  0.000749624    1.182    0.154
        28 -10.8165     17.0463    163.4447   1.4390616953e+02   3.9442720545e+01    0.2389323    0.1897995  -1.07  0.001216824    2.022    0.505
        29 -10.7507      1.8809    165.3169   1.4734025016e+02   4.0294590273e+01    0.1383089    0.1156233  83.39 0.0003910726    1.169    0.145
        30 -10.4038     12.9120    228.3361   1.4870057704e+02   2.6685839574e+01    0.1150282   0.09389833  80.89 0.0009375101    1.290    0.225
        31 -10.4466    191.2700    158.0177   1.0251531779e+02   1.1986949965e+01    0.3212613    0.1767692  24.29  0.001201249    2.719    0.632
        32 -12.2444    134.6577    109.3686   1.0389049392e+02   3.4251920861e+01     1.172648    0.1845076 -45.87   0.00251389    6.436    0.845
        33 -14.8279    132.4789    145.1398   1.1291665131e+02   2.6872700734e+01     1.472108    0.7402214 -57.87  0.003869324    2.275    0.560
        34 -14.0316    135.7407    127.4682   1.0814648592e+02   3.0080441239e+01     1.910583    0.3562491 -49.40  0.004328081    6.039    0.834
        35 -11.2498    174.3736    148.8304   1.0405923400e+02   1.7291292618e+01    0.3100805    0.2669552  84.07 0.0009034611    1.395    0.283
        36 -13.7702    144.4733    145.6028   1.1013028970e+02   2.4313494910e+01    0.9091203    0.5057904 -65.59  0.003379613    2.668    0.625
        37 -10.3472    219.1522    224.1525   1.0960957423e+02  -3.4289665157e+00    0.1489795    0.1351565  32.80 0.0003366578    1.306    0.235
        38 -11.5424      1.5754    214.4418   1.5000325530e+02   3.0356896483e+01    0.1730406   0.09961632 -74.70 0.0007582453    1.651    0.394
        39 -10.2467    104.4288    201.6639   1.2885485978e+02   1.9966547862e+01    0.5835743    0.1471975 -54.04  0.002042389    4.245    0.764
        40  99.0000    111.9757    214.0523   1.2885285952e+02   1.6359094860e+01    0.5576452    0.1723062  51.06 0.0003681977    3.274    0.695
        41 -11.9598    160.4101    127.6992   1.0227385911e+02   2.4620413815e+01    0.4441357    0.3006404 -56.36  0.001535594    1.657    0.396
        42 -12.0245    109.2339    209.8049   1.2888522572e+02   1.7604636420e+01    0.4778944    0.2296509  48.26 0.0009164099    1.775    0.437
        43 -12.9970     30.8887    118.6711   1.3553526310e+02   4.8460641232e+01    0.4099943    0.2962981 -62.27    0.0013307    1.203    0.169
        44 -12.0357    107.4222    206.5053   1.2884492111e+02   1.8532573724e+01     0.274925    0.2238226  42.05 5.933478e-05    1.227    0.185
        45 -12.1802    161.5251    153.5346   1.0790867706e+02   1.9090393511e+01    0.3123803    0.2676144  76.23  0.001052472    1.325    0.246
        46 -10.7884    167.9071    112.8161   9.6826433269e+01   2.5914685603e+01    0.3616866    0.2473126  88.64  0.001404589    2.377    0.579
        47 -11.1170    116.5198    212.0905   1.2768261767e+02   1.5981117140e+01    0.2874658    0.1590151 -66.47  0.001430064    2.159    0.537
        48 -13.7136    117.7495    109.5808   1.0842596588e+02   3.7789370974e+01     0.753105    0.4607269  69.88  0.002841606    2.598    0.615
        49 -10.1318    130.2423    212.5444   1.2494666678e+02   1.3592476788e+01      0.13112    0.0909121  78.59  0.000685584    1.812    0.448
        50 -10.8255    205.4388    110.1826   8.8518507683e+01   1.7577005855e+01    0.3288105    0.2129608  43.36 0.0009814932    1.613    0.380
        51 -10.4686     19.2262    108.5878   1.3750843479e+02   5.1783183717e+01    0.1730612    0.1507751 -12.52 0.0008885792    1.475    0.322
        52 -12.5949    163.7097    202.8775   1.1667249426e+02   9.3681710155e+00    0.3741873    0.2815017  70.13  0.001010605    1.681    0.405
        53 -12.2307    157.0981    200.3700   1.1761636863e+02   1.1015995722e+01    0.5894986    0.3823561  80.90  0.002562436    2.856    0.650
        54 -10.9317    153.8005    194.9917   1.1741931831e+02   1.2593294437e+01    0.2755714    0.2006193 -82.69  0.001177469    1.964    0.491
        55 -10.7118    145.4393     80.7322   9.3045696182e+01   3.7589512514e+01     0.215502     0.152354 -25.26 0.0009433374    1.604    0.377
        56 -10.5694     98.5317     80.8089   1.0595257719e+02   4.7829726862e+01    0.2503332    0.2014132  41.54 0.0006992062    1.290    0.225
        57 -10.4245    139.6723    200.5742   1.2127022246e+02   1.4140269069e+01    0.2972154    0.1877349  40.42 0.0008004628    1.418    0.295
        58 -14.5308    154.4019     56.0495   8.3276943223e+01   3.9665743802e+01     1.483593     1.163298  53.13  0.001016653    1.232    0.188
        59 -10.1991    160.0101    248.5052   1.2391594462e+02   2.8719414951e+00    0.1547602    0.1525962  36.89   0.00063576    1.275    0.216
        60 -12.9114    170.3956     33.2604   7.3027266837e+01   3.8760619565e+01    0.3935018    0.3586014  -3.02 0.0008473491    1.243    0.195
        61 -10.8324     13.6243     59.9179   1.3068476916e+02   6.3071476933e+01    0.1801804     0.171861  35.52 0.0004399899    1.322    0.244
        62 -12.7934    180.3837    193.5031   1.1169698065e+02   7.8806794306e+00     0.376782    0.3412429  81.70   0.00176754    1.367    0.268
        63 -10.6846    119.0432     33.4798   8.3587351430e+01   5.1687591678e+01    0.2156736    0.1363175  57.09 0.0006739943    1.552    0.356
        64 -11.1215    138.2043     31.5946   7.8475325524e+01   4.7272347337e+01    0.3428323    0.2313922  76.60  0.001599683    1.706    0.414
        65 -11.3012    169.8301    195.1860   1.1413338854e+02   9.5690046443e+00    0.2054084    0.1752375  56.78  0.001200084    1.216    0.178
