#   1 NUMBER                 Running object number                                     
#   2 MAG_AUTO               Kron-like elliptical aperture magnitude                    [mag]
#   3 X_IMAGE                Object position along x                                    [pixel]
#   4 Y_IMAGE                Object position along y                                    [pixel]
#   5 X_WORLD                Barycenter position along world x axis                     [deg]
#   6 Y_WORLD                Barycenter position along world y axis                     [deg]
#   7 A_WORLD                Profile RMS along major axis (world units)                 [deg]
#   8 B_WORLD                Profile RMS along minor axis (world units)                 [deg]
#   9 THETA_WORLD            Position angle (CCW/world-x)                               [deg]
#  10 FWHM_WORLD             FWHM assuming a gaussian core                              [deg]
#  11 ELONGATION             A_IMAGE/B_IMAGE                                           
#  12 ELLIPTICITY            1 - B_IMAGE/A_IMAGE                                       
         1 -14.3115     24.7080     46.0521   1.0355485758e+02   6.4218430591e+01     1.707568     1.303147 -51.16   0.01133437    1.160    0.138
         2 -14.5462     37.1942     82.0177   1.0840974899e+02   5.5396952880e+01     3.205338    0.8236605 -55.04   0.01222764    2.774    0.640
         3 -14.0635     38.1653     33.4837   9.3402091862e+01   6.5335284068e+01     1.974547    0.5990197  36.10  0.008077842    3.841    0.740
         4 -15.3558     74.1864     62.2902   9.0051040904e+01   5.5084566723e+01     2.891183     2.214047 -77.16   0.01468739    1.981    0.495
         5 -11.9172     32.6266      3.8292   8.2242268905e+01   7.0627915027e+01    0.5424134    0.3237751  18.95  0.002821355    1.664    0.399
         6 -12.3702     30.1948     16.9397   8.9939670350e+01   6.8993054494e+01    0.7219097    0.3578005 -26.72   0.00383982    1.883    0.469
         7 -11.9955     28.3349     10.8084   8.7906170078e+01   7.0137676279e+01    0.4613928    0.3096792 -17.32  0.002517626    1.227    0.185
         8 -15.0456      7.7734     21.2078   1.0271952670e+02   7.0181063694e+01     1.899457    0.7076701 -44.73    0.0101175    1.890    0.471
         9 -14.9657     58.2756     70.6460   9.8201920881e+01   5.5593673006e+01     2.081658     1.208823  46.83  0.007228447    2.225    0.551
        10 -12.0003     73.3237      1.5065   6.4782054716e+01   6.4514494712e+01     0.366467    0.1506358  53.35 0.0005807498    2.503    0.600
        11 -12.8963     83.4923     22.6791   7.1386909147e+01   6.0166030491e+01    0.5539071     0.490887  22.87 0.0005851233    1.129    0.115
        12 -12.1005    115.4563     11.6086   5.7858351999e+01   5.4624083569e+01    0.6100186    0.4423735 -50.51   0.00260082    1.743    0.426
        13 -12.7031    123.8431     10.2488   5.5482326165e+01   5.2776053126e+01    0.6491957    0.3079685  40.21 0.0003702936    2.063    0.515
        14 -12.7067    110.2873      5.2476   5.6428360692e+01   5.6419249659e+01    0.9877252    0.5591636  50.72  0.004937972    1.548    0.354
        15 -12.5047     75.7789     13.3754   6.9702709093e+01   6.2780523139e+01    0.4396146    0.3470744 -15.21 0.0007882798    1.181    0.153
        16 -13.7252     86.1151     11.9360   6.5743145903e+01   6.0957929848e+01     1.693164    0.5422135  45.25  0.006656857    2.776    0.640
        17 -13.6428     86.8977      3.3102   6.1536321970e+01   6.1677312399e+01      1.84182    0.4351339  53.99  0.006499198    3.622    0.724
        18 -11.8300     64.5112     17.9150   7.5832823726e+01   6.4175308409e+01    0.4120452    0.2815936  22.08   0.00135477    1.415    0.293
        19 -11.4616    175.4276     13.7428   4.7927741929e+01   3.9381567964e+01    0.3873932    0.2603497  23.98  0.001860107    1.870    0.465
        20 -12.6201    186.1320     11.6389   4.5894559872e+01   3.6826412533e+01    0.5334755    0.3794271  73.08  0.002078003    1.314    0.239
        21 -12.3380    192.9200      6.5243   4.3617499778e+01   3.5594123992e+01    0.5016793    0.3803807 -39.00  0.001612519    1.344    0.256
        22 -10.6397    150.3819      8.5436   4.9964902092e+01   4.6349375111e+01    0.3291934    0.2177658  47.81 0.0008468754    1.405    0.288
        23 -12.1284    137.3524      5.1317   5.0951634703e+01   4.9940117990e+01     0.615791    0.3369226  53.71   0.00239927    1.589    0.371
        24 -10.3091     49.1643      4.5824   7.5260741899e+01   6.8281128924e+01    0.1944028    0.1471083 -22.99 0.0009459552    1.279    0.218
        25 -12.0687    193.9192    136.5394   7.9617358713e+01   1.4914559296e+01    0.7396064    0.5226642  25.27  0.003409728    1.611    0.379
        26 -13.2295    203.8123    125.6571   7.5007897123e+01   1.4734753696e+01    0.9646271    0.8376895 -30.56  0.005078815    1.111    0.100
        27 -11.7688     34.3221    135.6005   1.1839121831e+02   4.3168994526e+01    0.3497618    0.1933214  27.81  0.001774557    2.254    0.556
        28 -11.3138    223.2811    133.0646   7.3160196437e+01   9.2211113719e+00    0.5491318    0.4362535 -58.87  0.002804084    1.582    0.368
        29 -13.4739    219.0911    122.3518   7.1334646328e+01   1.1951890105e+01     0.996503    0.8195664  76.07  0.005082403    1.577    0.366
        30 -10.5470     64.3956    129.6801   1.0968414393e+02   4.1152190938e+01    0.2896996    0.2144319 -67.36  0.001621499    1.187    0.158
        31 -11.1837    122.3573    127.4296   9.3900699869e+01   3.2155768148e+01    0.3979971    0.3711184  62.87  0.001470639    1.089    0.081
        32 -10.1114     21.3779    133.6619   1.2138645857e+02   4.4793042165e+01    0.1965576    0.1194466  74.78  0.001120938    1.667    0.400
        33 -11.7150     82.3119    134.0123   1.0572359061e+02   3.7603617484e+01    0.2722487    0.2197163 -56.98  0.001513439    1.176    0.150
        34 -10.3579    120.0149    103.7213   8.8576321877e+01   3.7939490044e+01     0.213428    0.2105945  20.22  0.001161187    1.055    0.052
        35 -10.5109    244.6673    249.6784   9.2041547491e+01  -1.0499164121e+01    0.1179253    0.0664054  13.94 0.0005795804    1.701    0.412
        36 -10.3892    193.3343    248.6709   1.0060233808e+02  -2.7637207618e+00    0.1100784   0.08344362  59.12 0.0007051981    1.723    0.420
        37 -10.1286    224.3397    199.3330   8.7012479992e+01  -1.3734712649e+00    0.1381652   0.08831847   9.99 0.0007051577    1.748    0.428
        38 -11.0037    187.1297    197.4761   9.3678905043e+01   5.5240256482e+00    0.3709797    0.2386084 -71.14  0.001543488    3.444    0.710
        39 -13.1663     42.5946     42.3792   9.4914382982e+01   6.3205017881e+01    0.7258332    0.3736795  17.77  0.002686131    2.477    0.596
        40 -11.6841    141.5698     96.3135   8.0893362570e+01   3.4877976541e+01    0.5982131     0.361966 -32.32  0.002443392    1.775    0.436
        41 -10.7116    135.0149     98.4381   8.3159916699e+01   3.5900204026e+01    0.5519637    0.2715913  33.98  0.001878015    2.650    0.623
        42 -14.7474     96.5306     71.3643   8.5773947812e+01   4.9429568597e+01     1.452287      1.25136  -7.27  0.001992097    1.209    0.173
        43 -11.3941    114.2918     97.2023   8.8352355153e+01   4.0525575404e+01    0.3263873    0.2875555 -54.72 0.0007688666    1.124    0.110
        44 -10.5424     74.1577     98.1280   1.0035536028e+02   4.7263092422e+01    0.1908383    0.1634236 -89.06 0.0004710634    1.313    0.239
        45 -12.1766     83.7705     95.3238   9.6724903850e+01   4.6441926116e+01    0.4714941    0.2908345  54.61  0.002130143    2.051    0.512
        46 -10.4729    188.2552     94.3358   6.9872716512e+01   2.4126391945e+01    0.3836121    0.2321276 -57.21  0.001497305    2.115    0.527
        47 -12.4924     69.7582     89.5446   9.9568641891e+01   4.9862669891e+01    0.3995477    0.2712765  35.55  0.002068976    1.660    0.398
        48 -10.2396    135.6548     92.2862   8.1224801403e+01   3.7042898223e+01    0.1571976    0.1256849 -86.96  0.000318598    1.648    0.393
        49 -12.9638      5.9677     82.6129   1.1885559672e+02   5.7571392643e+01    0.9088066     0.366052 -52.19  0.004733254    1.918    0.479
        50 -12.1475      7.9754     65.2253   1.1500614273e+02   6.1309645084e+01     0.432617     0.233504 -54.27  0.002139647    1.364    0.267
        51  -9.7794    250.1993     86.4016   5.7520047499e+01   1.1082947685e+01    0.1831798    0.1374957  79.19   0.00094774    1.674    0.403
        52 -11.6655    128.3793     81.6708   7.9928732684e+01   4.0825235317e+01    0.4173688    0.3316983 -36.86  0.002035028    1.221    0.181
        53 -12.1730    121.1806     81.1952   8.1723546476e+01   4.2488883497e+01    0.4906042    0.3371685  35.39  0.001538536    1.571    0.363
        54 -12.5408    114.9898     78.8739   8.2722803509e+01   4.4265606639e+01    0.7046256    0.4866198 -17.18  0.003095293    1.825    0.452
        55 -13.0561    125.4510     72.7598   7.7887084286e+01   4.3224680967e+01    0.6376868    0.3776018  67.19  0.002394053    2.625    0.619
        56 -12.8701    118.2773     66.9356   7.7923401603e+01   4.5905922130e+01    0.6788644    0.3279296 -34.41  0.002623938    2.087    0.521
        57 -12.0513    144.3803     74.0906   7.3487707459e+01   3.8599939516e+01    0.3582527    0.3320407 -60.46 0.0009119871    1.155    0.134
        58 -12.9223      2.7750     70.4332   1.1785300624e+02   6.0442772025e+01    0.9453261     0.276051 -70.32  0.003962438    2.883    0.653
        59 -12.1083    120.0231     73.0199   7.9447716407e+01   4.4364111767e+01    0.3278248    0.3070745 -16.63 0.0004485458    1.028    0.027
        60 -10.5528    153.0562     72.8090   7.1038633295e+01   3.6735410144e+01    0.4647537    0.1837692  47.16  0.001572462    2.540    0.606
        61  -9.4800    182.6039     72.1834   6.4640623643e+01   2.9447652392e+01    0.1982547    0.1490751 -20.22 0.0003127934    1.443    0.307
        62 -11.3794    128.0184     67.7028   7.5546897536e+01   4.3601114114e+01    0.2143599    0.2020472  32.72 0.0004304724    1.072    0.067
        63 -10.8415    146.7603     65.3966   7.0131456343e+01   3.9593004048e+01    0.3362413    0.2600091   1.72 0.0009609315    1.562    0.360
        64 -10.4012    214.3251     61.1897   5.6137653586e+01   2.3240422141e+01    0.3946387    0.2495072 -20.32  0.001748591    1.792    0.442
        65 -10.5377    169.2634     63.0638   6.4498847335e+01   3.4361267296e+01    0.4369512    0.2050636  55.47  0.001637048    2.106    0.525
        66 -12.5924     59.2447     57.4510   9.3730867316e+01   5.8218028821e+01    0.3907054    0.3330421  -7.51  0.001558373    1.187    0.157
        67 -12.5322    124.6789     57.5378   7.2974009049e+01   4.6178344038e+01    0.3872524     0.326097  40.68 0.0006415825    1.187    0.158
        68  -9.6802    227.9551     57.2152   5.3163040225e+01   2.0521079479e+01    0.1897313    0.1171678  65.86 0.0008766282    1.720    0.419
        69 -11.3133    174.6792     56.4629   6.1397626535e+01   3.4032221811e+01    0.2615288    0.2524693 -54.98 0.0004674545    1.041    0.040
        70 -10.5812    137.9894     55.1926   6.8809506907e+01   4.3451890670e+01    0.3731636    0.1911694  40.00  0.001316292    2.122    0.529
        71 -11.5191    132.9991     53.7011   6.9512093490e+01   4.4889672603e+01    0.3771457    0.2835635  48.31 0.0007871183    1.320    0.242
        72 -10.5198    144.4742    181.4859   9.9594174116e+01   1.6337310604e+01    0.1394528     0.127476  54.63 0.0002539894    1.024    0.023
        73 -10.7947     34.0259    177.4429   1.2291559509e+02   3.3787400968e+01    0.2403526    0.2082623   4.96   0.00166651    1.829    0.453
        74 -12.1502    203.4733    171.5929   8.5495287141e+01   6.6975299853e+00    0.5081987    0.3043319 -24.57  0.002349417    1.895    0.472
        75 -13.4485      3.2269     46.5726   1.1263546545e+02   6.5511327215e+01    0.8227952    0.6831426  86.00  0.003418463    1.557    0.358
        76 -10.7948      2.6316    171.3240   1.2877494882e+02   3.8000704362e+01    0.1843468   0.09474801  69.88  0.001116753    1.682    0.406
        77 -12.5952     22.0319     22.2649   9.6168549113e+01   6.8905620032e+01    0.5899535    0.3281605   4.36  0.002966949    2.154    0.536
        78 -11.1197    152.0949     53.6400   6.5061651336e+01   4.0229556661e+01    0.3961266    0.2277488  23.30  0.001422294    2.749    0.636
        79  -9.8826    122.0160     52.7257   7.1983823729e+01   4.7599275873e+01    0.2018874    0.1857321  25.36 0.0002577948    1.062    0.059
        80 -11.5157     92.8666     52.9542   8.0564006028e+01   5.3641963723e+01    0.2629866    0.2166941   5.48 0.0005659725    1.248    0.198
        81 -11.5258     96.9914     51.2653   7.8646872910e+01   5.3148510403e+01    0.2544022    0.2059511  33.82 0.0004730423    1.257    0.204
        82 -11.2457    100.7690     49.3386   7.6773676163e+01   5.2730578509e+01     0.278777    0.2205684   4.70 0.0007161873    1.343    0.255
        83 -10.5265    137.2775     48.2838   6.6589188725e+01   4.4726740277e+01    0.2965909    0.2450103 -68.65 0.0009712174    1.488    0.328
        84 -10.6242    119.3136     49.0640   7.1386166160e+01   4.8811241438e+01     0.209895    0.1853078 -26.44 0.0005053887    1.115    0.103
        85 -11.2593    197.6349    168.0951   8.5918690653e+01   8.4402831196e+00    0.2539388    0.1947523  50.99  0.001128812    1.397    0.284
        86 -10.4341    176.2748     45.9744   5.7851549202e+01   3.5188330779e+01    0.3454677    0.2475951  18.06   0.00156186    1.797    0.444
        87 -11.1752    157.0746     43.8187   6.0758544066e+01   4.0449223666e+01    0.3043293    0.2449563  39.31 0.0006529606    1.254    0.202
        88 -10.5350    181.9228     43.5494   5.6137680944e+01   3.4065846892e+01    0.2343148    0.2090428  -6.08  0.000397139    1.225    0.184
        89 -10.5083    139.7579     43.5982   6.4372942863e+01   4.4828173228e+01    0.4374854    0.2384865  65.89  0.001742514    2.178    0.541
        90 -10.8975    122.3186     43.5504   6.8577353529e+01   4.8993508665e+01    0.2831806    0.2293918  31.18  0.001472135    1.219    0.180
        91 -11.1625    145.4136     50.5649   6.5504100866e+01   4.2377738681e+01    0.3118649    0.2857679 -17.86 0.0007122048    1.095    0.087
        92 -11.9420    216.9456     38.8610   4.9718815475e+01   2.5761923140e+01    0.4647735    0.2872398  52.86   0.00220856    1.698    0.411
        93  -9.6596    197.2169     41.1751   5.3041895479e+01   3.0439427456e+01    0.2023418    0.1623924 -62.48 0.0004871814    1.282    0.220
        94 -13.3074     42.2846     47.7800   9.6945541009e+01   6.2198579695e+01    0.5784683     0.467219   4.19   0.00126016    1.327    0.247
        95 -10.1060    204.5626     37.1565   5.0861452032e+01   2.9098047769e+01    0.2738026    0.2003441  69.11  0.001177717    1.354    0.261
        96  -9.9534    159.9526     36.3117   5.7707129771e+01   4.0747922062e+01    0.2027699    0.1763566  56.16 0.0002025383    1.108    0.097
        97 -12.0356     82.4300     33.7566   7.6479392087e+01   5.8781476808e+01     0.418066    0.2971301   0.61  0.001014422    1.509    0.337
        98 -12.6972     79.5517     30.8537   7.6233562668e+01   5.9743526256e+01    0.5443786    0.4282437  -6.89  0.002188632    1.174    0.148
        99 -10.8262    176.6370     33.2686   5.3828700292e+01   3.6815138271e+01    0.2618234    0.2317488  46.48 0.0005667846    1.138    0.121
       100  -9.6604     97.1927     33.8159   7.1811407227e+01   5.5913719017e+01     0.195931    0.1511087  11.72 0.0005389561    1.310    0.237
       101 -11.1482    185.5196    167.2274   8.8184872633e+01   1.1014136463e+01    0.2740439    0.1950857  42.48  0.000732663    1.339    0.253
       102 -12.7427    216.3358    161.0878   8.0805873975e+01   5.9279368093e+00    0.6499845    0.4237352  -4.91  0.002990545    1.959    0.490
       103 -11.3797    239.6354    156.6447   7.5627033506e+01   2.1709298091e+00    0.5899047    0.2828221 -39.99  0.002594327    2.119    0.528
       104 -12.4952    233.4614    154.2497   7.6182501506e+01   3.7083284486e+00    0.4947303    0.3439023  31.25  0.002202588    1.439    0.305
       105 -12.2476    198.6681    153.3410   8.2531857149e+01   1.0828160152e+01     0.412969    0.2936897  33.29  0.002030069    1.403    0.287
       106 -11.2324    190.6246    154.2496   8.4360047507e+01   1.2335173787e+01    0.4275472    0.3436174 -78.73  0.002099808    1.783    0.439
       107 -12.1840     20.3546    152.8744   1.2360867445e+02   4.0517764137e+01    0.4705973    0.2322934 -45.86   0.00236367    2.781    0.640
       108 -12.9522    247.5134    144.3329   7.1572987162e+01   2.5862475194e+00     1.279223    0.6932666 -31.67  0.006064899    1.678    0.404
       109 -11.3265    241.9088     22.8435   4.2938080142e+01   2.1780216575e+01    0.3285308    0.2528432 -76.78 0.0008368237    1.235    0.190
       110 -10.6150    153.9983     21.3227   5.3740842880e+01   4.4114237263e+01    0.2592054    0.1739705  67.85 0.0004293369    1.464    0.317
       111 -10.6771    149.5741     21.1397   5.4469896572e+01   4.5265628374e+01     0.306877    0.1894156  52.31  0.001235683    1.488    0.328
       112 -10.1429    139.3566     20.9017   5.6328664016e+01   4.7869467832e+01    0.2366534    0.1879121  69.77 0.0006242254    1.300    0.231
       113 -10.4226    208.8370     18.9095   4.5284166294e+01   3.0244863673e+01    0.2755072    0.2171503 -51.57  0.001531803    1.217    0.179
       114  -9.8325    187.2244     19.0582   4.7950014738e+01   3.5753972985e+01    0.1846747    0.1176876 -24.51 0.0008785199    1.678    0.404
       115 -10.0785    138.7943    152.2350   9.5313792559e+01   2.3430974496e+01    0.2028012    0.1788423   2.50 0.0009077718    1.351    0.260
       116 -11.5595     58.6817    144.3566   1.1349849041e+02   3.8418943130e+01    0.5368381    0.3200587  85.01  0.002619603    1.954    0.488
       117 -12.9180     49.7598    141.9612   1.1537692095e+02   4.0046089700e+01    0.8073583    0.5722842  41.52  0.004622198    1.546    0.353
       118 -10.2903     90.0432    145.7096   1.0587889774e+02   3.3669330151e+01    0.1973406    0.1820619  78.04  0.001165115    1.058    0.055
       119 -12.2087    214.3707    142.1199   7.6926128966e+01   9.5337449022e+00      0.99006    0.4206131  51.47  0.003705435    2.624    0.619
       120 -12.0669     76.4914    136.5234   1.0770008231e+02   3.7870827987e+01    0.4003397    0.2171895 -62.85  0.001861825    1.697    0.411
