#   1 NUMBER                 Running object number                                     
#   2 MAG_AUTO               Kron-like elliptical aperture magnitude                    [mag]
#   3 X_IMAGE                Object position along x                                    [pixel]
#   4 Y_IMAGE                Object position along y                                    [pixel]
#   5 X_WORLD                Barycenter position along world x axis                     [deg]
#   6 Y_WORLD                Barycenter position along world y axis                     [deg]
#   7 A_WORLD                Profile RMS along major axis (world units)                 [deg]
#   8 B_WORLD                Profile RMS along minor axis (world units)                 [deg]
#   9 THETA_WORLD            Position angle (CCW/world-x)                               [deg]
#  10 FWHM_WORLD             FWHM assuming a gaussian core                              [deg]
#  11 ELONGATION             A_IMAGE/B_IMAGE                                           
#  12 ELLIPTICITY            1 - B_IMAGE/A_IMAGE                                       
         1 -16.5197     53.8084    134.7375   1.3014892940e+02   4.2292885281e+01     9.087136     3.896514  31.45    0.0396485    2.594    0.614
         2 -12.5934    167.5202     39.3195   7.4300975594e+01   3.8103790793e+01     1.338756     1.057263  29.38  0.006870246    1.468    0.319
         3  -8.8066    231.9157     15.3094   5.9857426230e+01   2.4754229752e+01    0.2820968     0.179135 -33.69  0.001052134    1.599    0.374
         4  -9.5802    182.8807     11.2434   6.3816489779e+01   3.7347790655e+01    0.3719423    0.1529497  87.38  0.001277552    3.346    0.701
         5 -10.0493    183.4046      3.2828   6.1538731255e+01   3.7978685158e+01     0.421339     0.221828  81.67   0.00195983    1.797    0.443
         6  -9.3957      3.8403      2.9603   1.1455213643e+02   7.3985199472e+01    0.2738708    0.1584495  -3.18   0.00179856    1.716    0.417
         7  -8.4899     76.6658      3.2994   8.1648606071e+01   6.3699393630e+01    0.1131954   0.09990139 -71.80  0.000610539    1.652    0.395
         8 -11.1701    133.3121    219.1058   1.2379004958e+02   1.1841626007e+01    0.2032686    0.1533171  34.86 0.0006929367    1.273    0.214
         9 -15.6478    189.7925    222.7481   1.1317113084e+02   1.4372672502e+00     4.363448     3.555071 -32.29   0.02812541    1.437    0.304
        10 -12.2446    125.7543    226.1474   1.2623013895e+02   1.1893223597e+01    0.3797742    0.2363184  19.91  0.001824124    2.549    0.608
        11  -9.9847    115.7558    229.2962   1.2859327559e+02   1.2985535622e+01    0.1660723      0.13304  67.44 0.0002069999    1.191    0.160
        12 -12.7488    120.2544    232.7753   1.2812001116e+02   1.1661106614e+01    0.3703265    0.2434897  77.78  0.002068997    1.937    0.484
        13 -11.2310    116.2510    232.6318   1.2888393430e+02   1.2330649519e+01    0.1869821    0.1425653  70.70  0.001184788    1.322    0.244
        14 -12.6991    122.7397    248.9385   1.2946870027e+02   8.6327720744e+00    0.3877079    0.1970437  39.18  0.002126893    1.626    0.385
        15 -12.2948    126.5068    246.4837   1.2849627847e+02   8.4226800079e+00     0.231693    0.1579723  42.68 0.0004941914    1.172    0.147
        16 -13.1249    121.4931    243.5119   1.2910804501e+02   9.6893995607e+00    0.3453803    0.2429058 -25.94  0.001960261    2.553    0.608
        17 -12.9836    123.2147    239.1833   1.2829247513e+02   1.0116867907e+01    0.4744251    0.2688687  42.97   0.00268722    1.403    0.287
        18  99.0000    114.3466    246.8987   1.3081301878e+02   1.0264725185e+01     0.386836    0.2897997 -75.06  0.002606282    1.610    0.379
        19  -9.7431    108.4082    243.8779   1.3160938520e+02   1.1673486252e+01    0.4587435    0.3793135 -45.54  0.003172453    1.687    0.407
        20  99.0000    115.3052    213.5414   1.2674517828e+02   1.5895359175e+01     1.176296    0.7674261 -83.52   0.00623732    1.990    0.498
        21 -13.4524    105.6926    229.0990   1.3055053521e+02   1.4623268825e+01    0.8874341    0.7927195   1.03  0.005948969    1.631    0.387
        22 -15.2624     41.7620    194.9001   1.4011796567e+02   3.0270062142e+01     1.065256    0.8155555 -37.08  0.006658559    2.085    0.520
        23 -15.3368     60.1039    204.7255   1.3721155668e+02   2.5957697982e+01    0.8365047    0.6022986 -79.10   0.00535794    1.343    0.255
        24 -18.8867     60.7558    233.8736   1.3959849044e+02   2.0265663264e+01     5.235181     3.205527  58.75   0.03380483    1.277    0.217
        25 -16.4021     88.6924    222.1916   1.3316750940e+02   1.8494535879e+01     1.739769     0.927565 -82.56  0.008784535    2.410    0.585
        26  99.0000    131.1465    210.6274   1.2305969859e+02   1.3730552942e+01      0.37021    0.1619154  27.53  0.001213017    4.334    0.769
        27 -10.7698    129.0177    205.2475   1.2273564477e+02   1.5096868233e+01    0.2686184    0.1728139 -57.75  0.001419053    1.793    0.442
        28  -8.8498      1.0000    207.2515   1.4888171630e+02   3.1965005137e+01    0.1382404   0.04840869 -80.78 0.0007204779    2.403    0.584
        29  -8.6810    109.2446    203.1705   1.2665792209e+02   1.8887214209e+01    0.3647781     0.222808 -45.65  0.001503271    2.089    0.521
        30 -10.1319     10.2658    205.2819   1.4707496249e+02   3.1495682630e+01     0.112481   0.08169548 -70.95 0.0002920873    1.493    0.330
        31 -12.9205      9.0195    201.4289   1.4709315681e+02   3.2375566867e+01    0.2888199    0.2036607  33.68  0.002061679    1.714    0.416
        32  -9.2266    111.2737    195.2565   1.2512514189e+02   2.0115128966e+01    0.1519712    0.1228489  67.77 0.0002199817    1.169    0.145
        33 -11.0339    121.4590    203.4659   1.2408675182e+02   1.6752958097e+01    0.2036363    0.1637171  52.91 0.0001224818    1.066    0.062
        34 -12.3779    118.0524    201.3366   1.2451502858e+02   1.7751810406e+01    0.2570168    0.2188073 -81.81 0.0004548625    1.266    0.210
        35 -13.1167    114.7740    197.8496   1.2472926293e+02   1.8999250745e+01     0.321861    0.2377706  46.27  0.001227822    1.190    0.160
        36 -12.3481     98.2069    201.6404   1.2882606837e+02   2.0996510829e+01    0.2200417    0.1806218  64.79 0.0005688788    1.056    0.053
        37 -11.8514    100.6062    194.9568   1.2742892207e+02   2.1958650189e+01    0.4006308     0.335129  15.87  0.002339142    1.608    0.378
        38 -10.6045      1.4820    200.9879   1.4848282201e+02   3.3146684528e+01    0.2295638   0.09227271 -88.84 0.0008312574    2.129    0.530
        39  -9.8818      5.9528    197.2964   1.4744404203e+02   3.3481972902e+01    0.1266631   0.09707747  70.25 0.0001602642    1.099    0.090
        40 -10.0186     68.0788    192.2543   1.3423889178e+02   2.7456324630e+01    0.1378007    0.1151088  61.14 0.0001858676    1.090    0.082
        41 -10.4916    108.4809    188.9829   1.2483898563e+02   2.1867869508e+01    0.3371985    0.1524941 -54.80  0.001466294    2.387    0.581
        42 -10.3813     83.4872    190.1534   1.3059245055e+02   2.5659521008e+01    0.3740377    0.1499229  38.66 0.0002594972    2.340    0.573
        43  -9.6906     17.0432    187.0076   1.4460821671e+02   3.4553624156e+01    0.1344752    0.1098527  79.48            0    1.108    0.097
        44 -12.5219     20.3608    183.2313   1.4364835553e+02   3.5024763115e+01    0.3080617    0.1590548 -83.26   0.00177254    1.669    0.401
        45 -12.7043      2.6498    184.1744   1.4733831761e+02   3.6437965227e+01     0.322769    0.1655474  57.42  0.002009314    1.660    0.398
        46  -9.3666    118.5081    182.8047   1.2162592097e+02   2.1388610436e+01    0.1540593    0.1362088 -74.82 0.0008896487    1.195    0.163
        47 -10.0029     92.9115    181.8799   1.2735430452e+02   2.5946634973e+01    0.1595757     0.132751  68.49 0.0009335633    1.079    0.073
        48  -8.3136    151.9585    181.2982   1.1387197249e+02   1.5402329462e+01    0.2089472    0.1549935  37.79  0.001079308    1.256    0.204
        49  -9.3988     84.4006    180.9157   1.2918140334e+02   2.7493673168e+01    0.1254462   0.09965308  45.46 0.0002172162    1.227    0.185
        50  -9.3175     21.3319    178.0541   1.4304476540e+02   3.6030927412e+01    0.1045739   0.08732611  81.07 0.0002898081    1.106    0.096
        51 -11.1832     33.2230    176.2033   1.4029081439e+02   3.5214553449e+01     0.174369    0.1505644  82.84 0.0003615369    1.122    0.109
        52 -10.6465     89.1359    175.6098   1.2733631607e+02   2.7908323767e+01    0.1910768    0.1671325  80.77 0.0003228556    1.050    0.047
        53  -8.1780     24.8365    172.7541   1.4184453069e+02   3.6830048425e+01   0.09924404   0.07101877 -68.97            0    1.350    0.259
        54  -8.2663     73.6396    168.7299   1.3005167856e+02   3.1790285626e+01    0.3510102    0.2291298 -82.27  0.001230649    1.581    0.368
        55  -8.8971     77.5467    167.8049   1.2897986263e+02   3.1423203306e+01    0.1960193     0.148695  66.41 0.0001165619    1.246    0.197
        56  -7.6332    155.4744    168.4568   1.1067773388e+02   1.7204838613e+01    0.1468266    0.1349354  37.62  0.000567044    1.039    0.038
        57  -8.4229     53.0279    168.0493   1.3489127922e+02   3.4723942708e+01     0.140231    0.1150662 -89.43            0    1.064    0.060
        58  -8.0681     40.6579    167.6868   1.3776073496e+02   3.6272812583e+01    0.3488972    0.1552871  54.44  0.001379328    2.238    0.553
        59  -9.6453     21.5510    168.0746   1.4217638997e+02   3.8169497785e+01    0.1859342    0.1404621  56.41  0.001009656    1.260    0.206
        60 -11.9771     81.9228    163.6536   1.2730296883e+02   3.1695080617e+01    0.2608267    0.2369736  83.59 0.0002539305    1.044    0.043
        61 -12.4023     56.7493    160.3828   1.3304412974e+02   3.5986276893e+01    0.4571868    0.3488723  79.57  0.001131197    1.214    0.176
        62  -9.7569    137.2887    243.5528   1.2612774708e+02   7.1489595538e+00    0.1136519    0.0953768  53.25 0.0002137424    1.109    0.098
        63 -11.6393    244.9729    130.2202   8.4982635231e+01   5.4736014097e+00    0.6498705    0.3537957 -34.73  0.003093893    1.690    0.408
        64  -8.8356    196.7653    107.0634   8.7827334912e+01   1.9810439828e+01    0.2525001    0.2106839  52.99 0.0004979335    1.204    0.169
        65 -11.3221    249.5584    128.2546   8.3840565970e+01   4.8909038638e+00    0.9314445    0.2587909 -33.02  0.003118843    3.494    0.714
        66 -11.6192    247.3714    118.7591   8.2068123290e+01   6.7782568809e+00    0.8315971    0.4576856 -23.31   0.00360946    2.000    0.500
        67  -9.2072    160.8577    127.6920   1.0053458587e+02   2.4265602711e+01    0.4535605    0.3241635  88.33  0.001830573    2.130    0.531
        68  -9.5956    228.1634    138.4999   8.9592239366e+01   7.4949168647e+00    0.2493081    0.2321247 -27.27 0.0003946862    1.083    0.076
        69  -8.2628    184.7703     75.7617   8.1795512088e+01   2.8176515620e+01    0.2188115    0.2064033   3.59  0.001170525    1.171    0.146
        70  -9.3122    240.4165     63.9637   7.0370427383e+01   1.6546484267e+01    0.2273165    0.2070747  68.85 0.0003131222    1.172    0.147
        71 -10.2539    165.0000     59.9974   8.1026005392e+01   3.5776051819e+01    0.3185945    0.2366809 -22.61  0.001201222    1.522    0.343
        72  -8.2387    128.1004     62.5744   9.0173425374e+01   4.4541502192e+01    0.3415689    0.2303425  87.96  0.001026216    2.481    0.597
        73  -7.9450    126.5346     59.4284   8.9539861182e+01   4.5440867945e+01    0.2247159    0.1925924 -17.96  0.000109249    1.240    0.194
        74 -11.9154    156.8389     54.9892   8.1135605419e+01   3.8645044550e+01     1.446935    0.5687755  45.66  0.004990753    2.664    0.625
        75 -11.6061     15.5439    243.2322   1.4807415143e+02   2.3909603831e+01    0.1231528   0.09924489  87.52   0.00101651    1.347    0.258
        76  -9.4907    137.0958     38.3367   7.9896235828e+01   4.6044291102e+01    0.2443412    0.2257514  -7.07 0.0003213044    1.160    0.138
        77 -10.2859    170.9249     31.7019   7.1435525869e+01   3.8183757654e+01    0.3738685    0.3243853  25.74   0.00104171    1.325    0.245
        78  99.0000     11.9050    235.0950   1.4830104615e+02   2.5723054145e+01    0.2026777    0.1214288 -39.93  0.001035114    4.788    0.791
        79 -11.5819    244.1440    139.5181   8.7149561854e+01   4.1952794948e+00     1.090939    0.6784776  11.97  0.004944113    2.343    0.573
        80 -10.7661    124.8780    231.9490   1.2711837061e+02   1.1048217988e+01    0.1410793     0.115322  57.67 0.0009152516    1.092    0.084
        81 -11.4907    125.2819    219.2027   1.2543430682e+02   1.3190433472e+01    0.2466541    0.1985887 -19.38  0.001450232    1.849    0.459
        82 -10.3324    139.0507    219.1250   1.2262946327e+02   1.0850056980e+01    0.1719656    0.1448712  45.09   0.00107704    1.033    0.032
