#   1 NUMBER                 Running object number                                     
#   2 MAG_AUTO               Kron-like elliptical aperture magnitude                    [mag]
#   3 X_IMAGE                Object position along x                                    [pixel]
#   4 Y_IMAGE                Object position along y                                    [pixel]
#   5 X_WORLD                Barycenter position along world x axis                     [deg]
#   6 Y_WORLD                Barycenter position along world y axis                     [deg]
#   7 A_WORLD                Profile RMS along major axis (world units)                 [deg]
#   8 B_WORLD                Profile RMS along minor axis (world units)                 [deg]
#   9 THETA_WORLD            Position angle (CCW/world-x)                               [deg]
#  10 FWHM_WORLD             FWHM assuming a gaussian core                              [deg]
#  11 ELONGATION             A_IMAGE/B_IMAGE                                           
#  12 ELLIPTICITY            1 - B_IMAGE/A_IMAGE                                       
         1 -11.2710     33.0928     23.6062   5.6144601734e+01   7.1255176616e+01    0.4089026    0.2799126 -62.02  0.001409687    2.300    0.565
         2 -10.2165     36.0713      8.1441   4.4825425635e+01   7.2981690693e+01     0.202722     0.170791  -4.68 0.0003569235    1.162    0.139
         3 -11.3377     34.7009     17.1398   5.1386373100e+01   7.2004402550e+01    0.5262395    0.2749804  49.26  0.002503435    2.099    0.524
         4 -10.6962     35.3904     12.1700   4.7861330854e+01   7.2587174610e+01    0.2370518    0.2140805 -58.58 0.0006322471    1.483    0.325
         5 -10.5828     25.8395     13.2183   5.4446177666e+01   7.4064207549e+01    0.2570611    0.2151183   7.31  0.001064585    1.058    0.055
         6 -10.5213     38.7522     13.9626   4.7141762362e+01   7.1726161128e+01    0.2420598    0.2033125  22.46 0.0003766387    1.065    0.061
         7 -10.1132     97.1144     11.9602   2.6170299743e+01   5.8772385324e+01    0.4176694    0.1976271 -12.70  0.001727097    2.853    0.649
         8 -11.6042     91.6188     10.2735   2.6585712403e+01   6.0296510528e+01    0.3928664    0.3066947  40.85 0.0004314076    1.294    0.227
         9  -9.7023    185.2551     12.0395   1.5221553702e+01   3.7209651868e+01    0.1749985     0.137808 -53.33 0.0003984986    1.108    0.097
        10 -11.5932    126.0496     10.9301   2.0891550785e+01   5.1585072851e+01    0.2492981    0.2052465 -65.38 0.0002870742    1.179    0.152
        11 -10.5841    123.5515      5.7528   1.9360101984e+01   5.2677451779e+01     0.336202     0.203851  -1.82  0.001255262    2.288    0.563
        12 -10.8550     43.5011     10.7315   4.2674431728e+01   7.1226692893e+01     0.307544    0.2413028  22.12  0.001846124    1.214    0.176
        13 -10.0142     11.4985     11.4883   6.4098146979e+01   7.6346836925e+01    0.2103723    0.1685425  62.69    0.0012435    2.065    0.516
        14 -10.2182      7.9515      8.9314   6.5476126452e+01   7.7193361047e+01    0.1999287    0.1461763  48.27 0.0003647468    1.939    0.484
        15 -10.2160      3.4238      6.4869   6.8026324747e+01   7.8095526767e+01    0.3128017    0.1268122  29.59  0.001509793    2.386    0.581
        16 -10.1300    225.9533     11.2749   1.2501176714e+01   2.8764866064e+01    0.1559647    0.1208504 -64.05 0.0002706577    1.069    0.064
        17 -10.2609    101.7573     10.7091   2.4723891348e+01   5.7729560691e+01     0.358146    0.1381147  65.53 0.0006682854    2.231    0.552
        18  -9.9647    132.9858     10.2694   1.9748868106e+01   4.9903753532e+01    0.1886098    0.1554986  85.51 0.0003370662    1.080    0.074
        19 -10.9569    116.2991      9.5441   2.1791719391e+01   5.4172835657e+01    0.2436324    0.2165845  58.43 0.0001801095    1.134    0.119
        20 -10.4729     30.0165      1.2095   4.3344296559e+01   7.4928499595e+01    0.2106314    0.1116349  48.43 0.0003837835    1.751    0.429
        21  -9.0972    168.3174      9.2919   1.5818830050e+01   4.1377608913e+01    0.1206298   0.09245463  47.29 0.0002592863    1.600    0.375
        22  -9.6225     16.9893      8.7649   5.7814681032e+01   7.6069591273e+01    0.1612391   0.09453669  32.21  0.000876236    1.612    0.380
        23  -9.9338    247.1940      5.8770   1.0408991375e+01   2.5372710188e+01    0.1607674    0.1027168 -54.70 0.0002731876    1.134    0.118
        24 -10.4772    221.9030      6.1631   1.1593217027e+01   3.0070538218e+01    0.1846546    0.1153386 -58.02 0.0003979841    1.246    0.197
        25 -10.2589    224.7210      3.1795   1.0812478486e+01   2.9811919936e+01    0.1686369     0.148974  60.19 0.0008639438    1.532    0.347
        26 -12.5276     29.5915      5.1829   4.6512244205e+01   7.4537325229e+01     0.332933    0.2619166 -26.00 0.0002841964    1.331    0.249
        27 -10.4786     67.0034      5.7769   3.0647218590e+01   6.6636397805e+01    0.2282573    0.1743757  59.87 0.0002216469    1.186    0.157
        28 -11.2347    194.0125      4.7150   1.2776775644e+01   3.5991966491e+01    0.2078517    0.1722991 -68.09  0.000233565    1.054    0.051
        29  -9.8979    190.1284      3.8283   1.2793261443e+01   3.6926129408e+01    0.1888151    0.1305955 -58.92 0.0007809593    1.188    0.158
        30 -10.7612     47.2065      4.3490   3.6911852655e+01   7.1178031120e+01    0.5048151    0.2264588  61.54   0.00222217    2.390    0.582
        31  -9.8647     49.4952      1.4565   3.4115531833e+01   7.0967758683e+01    0.2037304    0.1250718 -17.41 0.0005536185    1.786    0.440
        32 -11.7909     19.8996      2.5308   5.1010254809e+01   7.6520864637e+01    0.3110911    0.2078859   9.49  0.001223642    1.590    0.371
        33 -10.2257     39.2945      3.6847   4.0110876949e+01   7.2871300314e+01    0.1945826     0.175938  49.96 0.0005454725    1.201    0.168
        34 -10.8506    148.5821      2.3690   1.5494169692e+01   4.6743509752e+01    0.2244102    0.1921785  83.83  0.000482683    1.097    0.088
        35 -10.2554      1.5293      2.6659   6.7205209358e+01   7.8935436703e+01    0.1894529    0.1146157 -32.23 0.0002084106    1.509    0.337
        36 -10.2735    210.7605      2.0932   1.1234897003e+01   3.2703265240e+01    0.1772053     0.117815 -56.93 0.0003327679    1.173    0.148
        37  -9.7134    138.1562      1.8838   1.6339417114e+01   4.9349785380e+01    0.1677241    0.1426307  54.48 0.0004165969    1.283    0.221
        38 -12.7015     55.0144      9.7780   3.7057291131e+01   6.8938404833e+01    0.4729494    0.2861315  34.89  0.001307661    1.648    0.393
        39 -10.0495    108.6819      2.0328   2.0004717957e+01   5.6728455937e+01    0.1742104    0.1627831 -77.64 0.0004809826    1.096    0.087
        40 -10.1269     12.0834      2.2976   5.7018436141e+01   7.7721800877e+01    0.2319425    0.1446473  55.81  0.001137101    2.946    0.661
        41 -10.1408    245.1565      1.4014   9.6022477942e+00   2.6174112185e+01    0.1358829   0.09032466 -85.25 0.0004394692    1.461    0.316
        42  -9.2087     80.2878      1.6665   2.5030459589e+01   6.3816428047e+01     0.130586   0.09423643 -63.36  0.000469748    1.626    0.385
        43 -10.9237     70.7966      4.9833   2.9118559837e+01   6.5818720376e+01    0.2291353     0.181832  54.25 0.0003818362    1.107    0.097
        44  -9.1034     92.2650    129.3145   6.7335761921e+01   3.7488408427e+01    0.1526577    0.1191913 -23.80 0.0001859198    1.545    0.353
        45  -9.3237    109.7013    250.7251   8.1248005991e+01   8.8789983616e+00    0.1136402   0.08217689   1.16 0.0002499242    1.532    0.347
        46 -11.7622      1.5556    233.7062   1.0371857109e+02   2.3608332206e+01    0.4735371    0.1310747 -84.21  0.002024137    3.714    0.731
        47 -12.7475     17.0213    248.6787   1.0095217157e+02   1.9358686205e+01     1.177387    0.2602808  22.89   0.00407663    5.059    0.802
        48  -9.7715     38.4870    126.9744   8.5173608920e+01   4.5996681459e+01    0.2173072    0.1162235  78.44 0.0008102639    2.556    0.609
        49 -11.0279     25.5446    124.9999   8.9629011443e+01   4.7841563060e+01    0.2300889    0.1320155 -74.26  0.001039715    1.625    0.385
        50  -9.3982    208.5276    123.4698   3.9554628405e+01   1.6593272158e+01     0.132059    0.1125015 -34.12 0.0001446612    1.017    0.016
        51 -11.7846     11.7572    120.2912   9.4204100299e+01   5.0232028062e+01    0.5365601    0.2675145 -19.17  0.001764706    2.935    0.659
        52  -9.4506    114.0045    119.9513   5.8708219786e+01   3.5636086912e+01    0.1784236    0.1773581  55.69            0    1.018    0.017
        53 -10.6881     27.0653    116.9615   8.7928814997e+01   4.9878813565e+01    0.2113934    0.1949529 -76.52 0.0003190034    1.010    0.010
        54 -10.9374     69.2997    115.3575   7.1797664879e+01   4.4912890618e+01    0.2879165    0.2694899  37.78  0.000148665    1.091    0.084
        55 -10.3158     58.1235    115.9162   7.5954453739e+01   4.6462457023e+01    0.2324975    0.2009161  76.12 0.0005498547    1.224    0.183
        56 -10.1392     38.2004    116.4148   8.3551608423e+01   4.8879302875e+01    0.2134275    0.1276943  39.37 0.0009537378    1.694    0.410
        57 -11.6055      5.8301    113.6817   9.5774806978e+01   5.2399127028e+01    0.3860442    0.1946279 -50.82  0.001143598    1.916    0.478
        58 -10.3403    115.6182    113.9970   5.6755866645e+01   3.6672008050e+01    0.2933889    0.2138301  21.63 0.0009794455    1.701    0.412
        59 -11.6457     23.4551    113.0451   8.8761216662e+01   5.1268327209e+01    0.3269317     0.230356 -48.06 0.0003235236    1.413    0.292
        60  -8.8714    127.3834    112.3096   5.3166859387e+01   3.4619375586e+01    0.1599641    0.1224183   2.04 0.0007021584    1.804    0.446
        61  -9.7187     81.9961    108.0075   6.5602182118e+01   4.4612599863e+01    0.1781279     0.172254  44.93 0.0009397455    1.048    0.046
        62  -9.3779     67.9800    103.9725   6.9560201352e+01   4.8040127199e+01    0.1789384    0.1777915  67.81 0.0003775092    1.026    0.026
        63  -9.9320      1.3047    103.6202   9.6549040573e+01   5.5346289006e+01    0.2416197    0.1074705 -74.24  0.001038576    1.929    0.482
        64 -11.0359    112.6638    102.1734   5.4431729486e+01   3.9936921955e+01    0.2633323    0.2557559  46.42 0.0002428439    1.047    0.045
        65 -11.0849     20.6631    100.0620   8.7889130225e+01   5.5007175751e+01    0.5336562    0.2532008  56.78  0.002052404    2.736    0.634
        66 -10.7782     18.5192     93.8007   8.7770035945e+01   5.6853815014e+01    0.4113142    0.3547525  -6.45  0.002349528    1.276    0.216
        67  -9.8625    103.9692    101.5036   5.6786942990e+01   4.1899532762e+01    0.2275874    0.1538336  41.80 0.0003853452    1.502    0.334
        68  -9.9218    218.0609     98.1897   3.2655485423e+01   1.8943193892e+01    0.1836538    0.1603329 -15.84 0.0005604288    1.246    0.198
        69  -9.5155    139.7092     98.2822   4.6400643164e+01   3.4899518766e+01    0.1480234    0.1174361 -79.78 0.0001745889    1.530    0.347
        70 -10.3112     37.7903     97.2325   8.0007770062e+01   5.4049932577e+01    0.2039028    0.1612494 -36.52 0.0004578725    1.312    0.238
        71 -12.7760     57.8167     91.8236   7.0334799605e+01   5.2726873175e+01    0.3983877    0.3543659 -80.14 0.0004472417    1.192    0.161
        72 -10.2482    125.2021     93.0778   4.8472999143e+01   3.9162778170e+01    0.2163463    0.2024863  -2.16 0.0003104962    1.184    0.155
        73 -10.4719     92.4249     93.0090   5.7981432747e+01   4.6195285125e+01    0.3107205    0.2373684  41.84 0.0008381727    1.322    0.243
        74 -10.3701     74.7309     92.9667   6.4115509749e+01   4.9600702713e+01    0.2422719    0.2163776  40.35 0.0004815269    1.136    0.120
        75 -11.3465     66.6828     91.6802   6.6785302073e+01   5.1323403294e+01     0.264748    0.2514208 -39.10 0.0002830454    1.046    0.044
        76 -10.5403    104.2762     91.4399   5.3800819496e+01   4.4082142697e+01    0.4058626    0.1496081  48.13  0.001321227    2.814    0.645
        77  -9.8262      7.7598     91.0566   9.2193091401e+01   5.8336221863e+01    0.1906124    0.1564175 -60.40 0.0004516128    1.093    0.085
        78 -11.4448    159.9431     88.8421   3.9552778276e+01   3.2215685944e+01    0.2786847    0.2306105 -32.74 0.0003766988    1.215    0.177
        79  -9.6683     45.7041     89.5840   7.4814357652e+01   5.5045850888e+01    0.3903912    0.2182246  55.16  0.001553429    2.360    0.576
        80 -10.3011      1.7569     89.6120   9.4735305271e+01   5.9044226667e+01    0.2358815     0.158519 -71.60 0.0002598251    1.300    0.231
        81 -13.8049     65.5191     82.0393   6.4405808121e+01   5.3844209608e+01    0.5069153    0.4705982  50.34 0.0009068618    1.118    0.105
        82 -10.1373     27.0170     82.9782   8.1684699318e+01   5.8931266199e+01    0.2147952     0.183504 -43.53 0.0005007547    1.113    0.101
        83  -9.7967     47.9427     79.3136   7.1027170454e+01   5.7303998553e+01    0.1964925    0.1897411 -16.07 0.0009345334    1.036    0.035
        84 -10.0109     22.5030     76.4642   8.2375659695e+01   6.1032157135e+01    0.2381218     0.169977  81.97 0.0007310725    1.711    0.416
        85 -10.4472    178.2585     76.5305   3.3104562100e+01   3.0283409856e+01    0.4756982    0.1988666  52.09  0.001927024    2.583    0.613
        86  -9.6863     74.8220     76.7857   5.9112300965e+01   5.3346461965e+01    0.1983393    0.1712846  65.75 0.0003319364    1.290    0.225
        87 -10.1808     43.1897     76.1798   7.2275523274e+01   5.8736645482e+01    0.1970316    0.1740293  79.68  0.000810174    1.302    0.232
        88  -9.9394     11.4606     76.5496   8.7966317726e+01   6.1893061778e+01    0.2032334     0.135105  15.79 3.814496e-05    1.636    0.389
        89 -10.7884     14.8143     75.1326   8.5969397529e+01   6.2015837627e+01    0.2400545    0.1845639 -23.57 0.0008459825    1.355    0.262
        90  -9.6827     57.9483     73.4712   6.4819175077e+01   5.7138361419e+01     0.215846    0.1454078  34.77  0.000338037    1.508    0.337
        91 -11.4805      5.0095     73.0418   9.0630580913e+01   6.3188760909e+01    0.4364572    0.1563669 -66.31 0.0003176464    2.286    0.563
        92 -10.9449      9.9235     69.7857   8.7399617609e+01   6.3721286016e+01    0.4059935    0.1789032  -3.93  0.001579254    3.066    0.674
        93  -9.9999    105.8244     71.8141   4.7148706702e+01   4.7807902214e+01    0.2011281    0.1733389  85.17  0.000462148    1.288    0.224
        94 -10.1966     74.9251     70.3458   5.6889282923e+01   5.4735166369e+01    0.3012215    0.2149414 -40.39  0.001426344    1.420    0.296
        95 -12.7150     81.2507     67.0746   5.3403725417e+01   5.4138839251e+01    0.3828552    0.3176584 -57.73 0.0004937986    1.287    0.223
        96  -9.2524      1.3109     70.3259   9.2105450517e+01   6.4069325328e+01    0.1464685   0.08137758 -42.93 0.0005616088    1.659    0.397
        97  -9.4287     45.4236     69.1394   6.9051215486e+01   6.0108003157e+01    0.1948925    0.1390855 -68.68 0.0004225049    1.608    0.378
        98  -9.7444    131.5930     68.6026   3.9540693674e+01   4.2367033094e+01    0.1435685    0.1408402 -87.63 0.0001257429    1.048    0.046
        99  -9.5154     49.9992     67.0000   6.6196929494e+01   5.9912065301e+01     0.214736     0.155742  10.24 0.0006284376    1.630    0.386
       100 -10.1139     51.9346     63.9464   6.4238445908e+01   6.0291900783e+01    0.2141408    0.2034124 -36.17  0.000346845    1.041    0.040
       101 -11.7239     16.3239     65.0461   8.2823164966e+01   6.4433196465e+01    0.3975535    0.3194451 -15.71 0.0005304634    1.280    0.219
       102 -10.3216      7.6524     63.1030   8.7200742167e+01   6.5540959684e+01    0.2483322    0.1424992 -56.97 0.0007687559    1.490    0.329
       103 -11.7449     11.6996     59.6483   8.4051719957e+01   6.6116572097e+01    0.2893436    0.2322877 -20.13 0.0002934017    1.243    0.195
       104  -9.1531     69.2201     65.9818   5.7555287911e+01   5.6775212498e+01    0.1807496    0.1203265 -46.78 0.0008246396    1.505    0.335
       105  -9.1068    166.4865     64.4761   3.1703776339e+01   3.4832075798e+01    0.1399444    0.1298167 -60.46 0.0008097939    1.035    0.034
       106  -9.9313    128.5259     63.7298   3.8676182428e+01   4.3944091872e+01    0.1950337    0.1362062 -50.67 0.0004322513    1.448    0.309
       107 -10.9575     78.3955     59.3390   5.1581591434e+01   5.6280543808e+01     0.495668    0.2421428 -51.95 0.0006949584    2.388    0.581
       108 -10.3259     97.7229     60.8827   4.5737424628e+01   5.1729870232e+01    0.2453934    0.2104132  54.62 0.0006985136    1.148    0.129
       109 -10.3790     42.1676     60.0710   6.7545276469e+01   6.2664940289e+01    0.3367482    0.2415657 -76.61  0.001610274    1.884    0.469
       110 -12.9873     21.0770     58.0924   7.8215621506e+01   6.5692047110e+01    0.4181198     0.252894 -53.41 0.0007938129    1.488    0.328
       111  -9.4165    201.7919     60.3918   2.5862268744e+01   2.7701762892e+01    0.1379533   0.07799748 -52.00 0.0006815023    1.611    0.379
       112 -11.1954     58.4911     58.9558   5.9436971651e+01   6.0249555684e+01    0.2825979    0.2019362  36.54 0.0005881382    1.398    0.285
       113  -9.8970    216.9662     58.3441   2.3755693974e+01   2.4932970081e+01    0.1648427    0.1415592 -63.10 0.0003617903    1.095    0.087
       114  -9.4043     71.7608     57.3671   5.3320623375e+01   5.8034546035e+01    0.1435252    0.1147789 -74.20  0.000224463    1.606    0.377
       115  -9.3929    229.4427     56.4918   2.2162094119e+01   2.2805282288e+01    0.1238543   0.09640183 -49.64  0.000155586    1.017    0.017
       116  -9.3353    130.7259     56.7513   3.5924966712e+01   4.4568491667e+01    0.1355119    0.1122077  29.18 0.0002809157    1.449    0.310
       117 -12.7417     62.3793     50.1330   5.4219752609e+01   6.1293581937e+01    0.4457643    0.3778691  75.93 0.0009423184    1.486    0.327
       118  -9.6832    182.2545     54.4065   2.6706968866e+01   3.2749612540e+01    0.1700444    0.1235843  88.26 0.0003037643    1.457    0.314
       119 -12.0663    115.2914     53.0394   3.8156382709e+01   4.8924098529e+01     0.294499    0.2628712  61.27 0.0009703639    1.090    0.083
       120 -10.4346     86.2149     54.1713   4.6865008200e+01   5.5554271992e+01    0.3901046    0.1989236  39.08   0.00128408    2.159    0.537
       121  -9.3661     34.6647     54.7484   6.9519159531e+01   6.4899965788e+01     0.140197    0.1015097 -14.46 0.0001290688    1.563    0.360
       122 -10.6381    105.1598     51.7210   4.0262936191e+01   5.1582740430e+01    0.2663152    0.2278043  -8.32 0.0006755488    1.373    0.271
       123  -9.6242    225.4717     51.5126   2.1411936892e+01   2.4195404364e+01    0.1242193   0.09792805 -51.30 0.0001875109    1.009    0.009
       124  -9.2154    177.5170     51.4493   2.6527148306e+01   3.4231643027e+01    0.1323465    0.1235656 -62.08 0.0001762073    1.090    0.083
       125 -10.6370    138.2502     50.1697   3.2286154382e+01   4.3747656002e+01    0.2447122    0.2169677  69.57 0.0005405561    1.108    0.098
       126 -10.9509    142.2368     48.7450   3.1103162058e+01   4.2981381979e+01     0.259569    0.2166876 -75.46 0.0005003675    1.186    0.157
       127 -10.2695     14.0008     48.7160   7.9503291479e+01   6.8530094848e+01     0.339384    0.1484435 -48.63  0.001508026    1.971    0.493
       128 -10.3538      9.8313     46.5136   8.1464218828e+01   6.9372251195e+01    0.2752765    0.2075021 -59.48 0.0007952001    1.259    0.206
       129  -9.9199     83.5249     50.5406   4.6336177937e+01   5.6798944442e+01    0.1443289     0.140063  62.38 3.792878e-05    1.046    0.044
       130 -11.3803     78.3271     49.9750   4.7916962355e+01   5.8041037124e+01    0.2565756    0.2167649  48.68 0.0002723273    1.156    0.135
       131  -9.4142    159.2624     48.7206   2.8311026051e+01   3.8867926176e+01    0.1392784   0.09647615 -64.29 0.0001712694    1.478    0.323
       132 -10.1191    102.2566     47.9818   3.9645647795e+01   5.2884517679e+01    0.2489001    0.1958918  31.26 0.0003297456    1.436    0.304
       133 -11.3177    103.0341     41.8459   3.7084857809e+01   5.3644312609e+01    0.4662614    0.3105052 -27.44  0.001496001    1.662    0.398
       134  -9.6577     74.5317     47.1069   4.8112934403e+01   5.9366213044e+01    0.2069333    0.1420048 -39.61 0.0005241794    1.500    0.333
       135  -9.7506    123.5301     46.0486   3.3835218310e+01   4.7985989629e+01    0.1970182     0.142198 -34.54 -3.272891e-05    1.433    0.302
       136 -10.4341      2.6703     45.8526   8.5977092740e+01   6.9996918170e+01     0.221868    0.1733832  16.80 0.0005564741    1.379    0.275
       137 -11.5830     85.7227     42.9339   4.2507013151e+01   5.7578173220e+01    0.3068282     0.250613  -8.86 0.0003471967    1.426    0.299
       138  -9.5010    120.4770     43.9821   3.3760879342e+01   4.9044383963e+01    0.2006758    0.1412361 -35.92 0.0003091087    1.459    0.315
       139 -11.3852     92.0360     41.0892   3.9812562898e+01   5.6395283729e+01    0.4279415    0.2487649 -44.53 0.0007751176    1.832    0.454
       140 -10.0850     27.1911     42.5988   6.9047491786e+01   6.8497879301e+01    0.3476601    0.1539097  30.85  0.001501966    2.254    0.556
       141 -12.0769    141.3030     40.8512   2.8736803253e+01   4.4321594048e+01    0.3392956    0.2218402  82.66 0.0007855453    1.633    0.387
       142 -10.5384     69.7911     41.6950   4.7572383354e+01   6.1307685656e+01    0.2594895    0.1856997 -67.46   0.00121292    2.002    0.500
       143 -11.2641     37.8330     41.5332   6.2414974962e+01   6.7237168723e+01     0.432514    0.2386135  40.95  0.001492828    1.888    0.470
       144 -10.8950    184.6728     40.7336   2.2803845246e+01   3.4050933424e+01    0.3715818    0.2225346  83.94  0.001535466    1.787    0.440
       145 -10.1015    116.6959     40.6206   3.3372530329e+01   5.0464121242e+01    0.2704623    0.1718185 -39.55 0.0007250233    1.594    0.373
       146 -10.1632    109.0188     40.6622   3.5143439761e+01   5.2354866648e+01     0.207673    0.1798684  67.13 0.0006548676    1.102    0.093
       147 -10.1842      1.9101     39.8786   8.4766026120e+01   7.1419606290e+01    0.2373629    0.1532085   5.46 0.0009838825    1.611    0.379
       148 -10.2188     81.1775     38.8413   4.2248825387e+01   5.9262147443e+01    0.1992123    0.1882979 -84.49 0.0002982375    1.150    0.130
       149 -10.7730     50.5967     38.8538   5.4566383725e+01   6.5601603453e+01    0.3393213    0.2782348  71.15  0.001354153    1.642    0.391
       150 -10.4296     21.5735     37.6573   7.0479400425e+01   7.0207073801e+01     0.534714     0.179466 -37.84  0.001833456    3.641    0.725
       151 -12.2863    121.5526     37.4195   3.1195713869e+01   4.9698177323e+01    0.3148464    0.2605771 -30.11  0.001724149    1.298    0.230
       152 -10.0724     30.3969     37.3121   6.4791895479e+01   6.9155931035e+01    0.2166971    0.1479493  16.61 0.0004129567    1.533    0.348
       153 -11.0443    112.6088     34.7496   3.2086879540e+01   5.2286503712e+01    0.2668617    0.2554271 -61.11 0.0002786489    1.077    0.072
       154  -9.5109     71.3528     35.2987   4.4095954514e+01   6.2004827265e+01    0.1477981    0.1046687  21.83 0.0007036214    1.694    0.410
       155  -9.6196     65.4596     34.4433   4.5948250091e+01   6.3406375003e+01    0.1376685    0.1306687  35.00 2.012207e-05    1.041    0.039
       156 -10.0142    145.1780     32.5607   2.5462607420e+01   4.4439169501e+01    0.1935295    0.1280853  73.01 0.0003654532    1.451    0.311
       157  -9.8022     39.9417     29.7818   5.5559131629e+01   6.9075046549e+01    0.3168486    0.1447807  28.56  0.001190282    2.703    0.630
       158 -10.8095    135.7385     29.0474   2.5750000377e+01   4.7213736195e+01    0.2169894    0.1820908  80.88 0.0003239515    1.108    0.098
       159 -11.0630     80.1312     27.4312   3.7481129350e+01   6.1143292527e+01    0.3898913    0.3404673  65.50   0.00162138    1.140    0.123
       160  -9.5831     69.9462     28.9813   4.1634706353e+01   6.3251168418e+01    0.1626354    0.1534177  28.50 0.0003669563    1.025    0.024
       161 -10.8956    129.4261     27.7015   2.6310227084e+01   4.8956091344e+01    0.3854019    0.1868142  53.00 0.0009837633    2.034    0.508
       162  -9.1595    117.3163     28.3091   2.8701246850e+01   5.1927644735e+01    0.1425625    0.1023296  35.77  0.000703096    1.634    0.388
       163 -10.4152     48.1518     28.1229   5.0422542647e+01   6.7875929162e+01    0.3299702    0.1952415  46.65 0.0006925739    1.668    0.401
       164 -11.4691     47.6697     23.5889   4.8218130421e+01   6.8666990807e+01    0.4605852    0.2680276  26.00  0.001784973    2.048    0.512
       165 -12.7970     10.2079     29.5925   7.4887854572e+01   7.3052332670e+01    0.3699431    0.2136847  30.22  0.001957033    1.811    0.448
       166 -11.9433     91.1092     26.3759   3.3855236852e+01   5.8663642487e+01    0.3152037    0.2290082 -43.43 0.0005757485    1.476    0.322
       167 -11.0664    216.9609     25.7853   1.6275189371e+01   2.8976665462e+01    0.2015363     0.149011 -52.69 0.0003143672    1.072    0.067
       168 -11.8219    212.9030     23.7656   1.6094652636e+01   3.0024047632e+01    0.2705404    0.1618711 -57.83 0.0002018322    1.403    0.287
       169  -9.8757    183.0580     25.6631   1.8981576274e+01   3.6241522751e+01    0.1722156    0.1461728 -82.77 0.0004192261    1.101    0.092
       170  -9.6258     59.8355     25.8577   4.3980439707e+01   6.5881627624e+01    0.1785051    0.1613271  82.02 0.0004070491    1.333    0.250
       171 -10.5900     31.7160    247.9734   9.7820262129e+01   1.8093200126e+01    0.1971128    0.1648012 -27.92 0.0009160172    1.678    0.404
       172  -9.9821    230.0844    247.1464   5.8101139488e+01  -4.1521476255e+00    0.1614647    0.1025165  -3.53 0.0004806935    1.214    0.177
       173 -10.2304     40.2305     20.4290   5.0244599108e+01   7.0530962549e+01    0.2217569    0.1965721  41.22  0.001375702    1.194    0.162
       174 -10.1880    131.3564    247.1560   7.6320335145e+01   6.8328197451e+00    0.1574917    0.1387698  16.44  0.001127167    1.123    0.109
       175 -10.2903    116.2575    246.9294   7.9457887973e+01   8.7101967495e+00    0.1594704    0.1441106  26.49  0.001143227    1.144    0.126
       176  -9.5794     25.6644     25.2027   6.1724695829e+01   7.2104714081e+01    0.1694356    0.1101466 -34.39  0.000209999    1.495    0.331
       177  -9.5203    250.7968     23.3834   1.3720306222e+01   2.2916734558e+01    0.1179598   0.05369562 -48.85 0.0005186312    1.591    0.371
       178 -11.1721    130.6794     22.0695   2.4148779768e+01   4.9285148516e+01      0.36446    0.2325072  33.42  0.001443626    2.079    0.519
       179  -9.7209     52.2950     23.4419   4.5961778540e+01   6.7779047271e+01    0.1805954    0.1261245  56.35 0.0009406201    1.548    0.354
       180 -10.4224    163.2092     20.3903   1.9481535340e+01   4.1455420581e+01    0.2505033    0.2038042  12.55 0.0009264031    1.691    0.409
       181 -10.0173    100.5662     21.1337   2.9329676364e+01   5.6958921204e+01    0.3170082    0.1427967 -22.59  0.001090808    2.609    0.617
       182  -9.9877     95.8854     22.1566   3.0833490717e+01   5.8002107591e+01    0.4262254    0.1061909  54.00  0.001191729    3.246    0.692
       183 -10.0774     21.8049     22.3565   6.2777932799e+01   7.3145136022e+01     0.223454    0.1430879   9.89 0.0006722439    1.736    0.424
       184  -9.4668     26.5092     21.4509   5.9063052744e+01   7.2638383199e+01    0.1954125    0.1214161 -40.34 8.173207e-05    1.607    0.378
       185 -12.0515     24.2232     17.9747   5.8541333955e+01   7.3558419838e+01    0.2444888    0.1975505   7.49 0.0003720388    1.138    0.121
       186  -9.8248    243.3225    244.3637   5.5643581096e+01  -5.0752560645e+00    0.1114459   0.05791361  -7.10  0.000704044    1.785    0.440
       187 -10.3021     15.9814     21.6770   6.6625491818e+01   7.4004438088e+01    0.2389426     0.196712 -30.18    0.0010691    1.129    0.114
       188  -9.6364    107.0510     21.0830   2.7939394849e+01   5.5344460588e+01    0.1528756    0.1470201  79.78 0.0009257349    1.057    0.054
       189  -9.7750     78.5904     21.1932   3.5024130162e+01   6.2291652711e+01    0.2307531    0.1414104  53.12  0.001052383    1.472    0.321
       190  -9.9026     64.5171     21.0374   3.9652403073e+01   6.5525381560e+01    0.2162582     0.165854  49.84 0.0006611758    1.204    0.169
       191 -10.5343    124.4054     17.6078   2.3534766696e+01   5.1342139858e+01     0.531372    0.1654228  54.10  0.001717017    2.962    0.662
       192 -10.9603     70.3766     18.2624   3.6169428995e+01   6.4548538089e+01    0.2482939    0.2254325 -51.26 0.0007543216    1.244    0.196
       193  -9.5211    207.5999     17.8459   1.5075240233e+01   3.1764558865e+01    0.1686419    0.0871873 -44.33 0.0002918573    1.550    0.355
       194  -9.7236     91.2897     17.9723   3.0108646811e+01   5.9600787157e+01     0.183949    0.1747549  54.54 0.0003698955    1.050    0.048
       195 -10.5769     52.2947    243.9775   9.3128230603e+01   1.6718007807e+01     0.198181    0.1637696 -49.44  0.001359332    1.542    0.351
       196 -10.1589    147.9464     16.5898   2.0019096015e+01   4.5564059529e+01    0.1885959    0.1614706 -53.52 0.0001110057    1.134    0.118
       197 -10.1459     14.2445     15.8161   6.4582573961e+01   7.5268933676e+01    0.2032157    0.1617685  11.87 0.0004069502    1.159    0.138
       198  -9.9610    147.5093    243.4823   7.2564389906e+01   5.4361862707e+00    0.1203612   0.09558848  13.94  7.53693e-05    1.016    0.016
       199 -13.2603     10.5532    246.8811   1.0223510402e+02   2.0279262280e+01    0.7637526    0.5718048  17.09  0.005332881    1.529    0.346
       200 -10.0944    153.4573     12.7574   1.8222462369e+01   4.4599873731e+01    0.2340876    0.1619716  80.10 0.0005280798    1.325    0.245
       201 -10.3224     38.6452    242.3599   9.6024228398e+01   1.8460344777e+01    0.1938021   0.09821311  53.94 0.0005377823    1.724    0.420
       202 -12.7045      5.0501    243.2784   1.0326609934e+02   2.1443336393e+01    0.5416174    0.3502234 -50.37  0.003428848    2.194    0.544
       203 -10.2433     31.7816    233.0289   9.7025918994e+01   2.0982234459e+01    0.3983261    0.1125175  29.19  0.001469189    2.752    0.637
       204 -11.3679     25.7446    232.6550   9.8362460081e+01   2.1649117388e+01    0.2944664    0.1968587  16.42  0.001364119    1.671    0.401
       205  -9.9695     55.0637    231.2828   9.1601914071e+01   1.8870100960e+01    0.1786223    0.1317055  39.13 0.0003657789    1.114    0.103
       206  -9.4669    242.5123    230.5264   5.3725569211e+01  -3.4122174307e+00    0.1070113   0.07550961  -7.53 0.0001156324    1.005    0.005
       207 -10.5369      7.5014    228.9902   1.0226855935e+02   2.4056503032e+01    0.1697893     0.104624 -89.18  0.001042716    1.620    0.383
       208  -9.7110    139.6690    226.6698   7.1985972858e+01   9.1370468371e+00    0.1299441   0.08729528  -5.40 0.0007051863    1.718    0.418
       209  -9.7061    203.0027     11.5204   1.3873374443e+01   3.3390853038e+01      0.17483   0.07499184 -68.95 0.0004024844    2.385    0.581
       210  -9.4575    172.2917     11.7110   1.6160152250e+01   4.0210078267e+01    0.1336414   0.07892849 -61.50 0.0002298305    1.544    0.353
       211 -11.7929      2.8236    221.2169   1.0304421062e+02   2.6057965379e+01    0.4448823    0.1834408  70.92  0.002095158    2.280    0.561
       212 -10.1619      7.7551    221.8172   1.0194760611e+02   2.5518305575e+01    0.2230733    0.1272428  87.09  0.001294098    1.704    0.413
       213  -9.4920     85.7235    215.0200   8.2828808204e+01   1.8469734407e+01    0.1638981    0.1558519  37.17 0.0001971923    1.089    0.082
       214  -9.5095    210.3687    215.8047   5.6641218544e+01   1.9030494958e+00    0.1611196   0.08861032 -25.78 0.0005975811    1.654    0.395
       215  -9.8201    111.3297    214.6645   7.6704039551e+01   1.5124994395e+01    0.1347024   0.09359388  57.03 0.0004992507    1.728    0.421
       216  -9.3937     16.6885    212.7152   9.9466676540e+01   2.6682498272e+01    0.1099053   0.09308283 -33.29 0.0002276675    1.574    0.365
       217  -9.4696     39.4717    207.5123   9.3557450456e+01   2.5594734372e+01    0.1309732    0.1091932  53.66 0.0002319683    1.022    0.022
       218 -10.2263      4.2729    206.1557   1.0215751821e+02   2.9195509360e+01    0.3842545   0.06624954  47.05  0.001399177    3.559    0.719
       219  -9.9745    237.6793    186.6059   4.7337362470e+01   2.7312376500e+00    0.2001728    0.1084977 -24.96 0.0007090577    1.572    0.364
       220  -9.2796    229.5036    165.5318   4.4783475186e+01   6.7765246248e+00    0.1218465   0.09602688 -19.67  0.000266078    1.014    0.013
       221 -11.2481     13.5991    164.7098   9.7464659438e+01   3.8354896394e+01    0.2530835    0.2077621  46.76 0.0003491901    1.158    0.137
       222  -9.5424    213.2334    155.2048   4.5359173678e+01   1.0671360163e+01    0.1640834    0.1375299 -44.11  0.001044455    1.312    0.238
       223 -10.4547      6.9319    153.8903   9.8734926260e+01   4.1646379868e+01    0.2404899    0.1801493  50.02 0.0006552212    1.254    0.202
       224 -10.3193     22.7996    148.7967   9.3289006851e+01   4.1704488646e+01    0.2465762    0.1160923 -39.90 0.0009531826    2.832    0.647
       225 -11.2071      5.2923    145.4864   9.8673692903e+01   4.3951824691e+01    0.3850914    0.2649629   7.08  0.001237142    1.739    0.425
       226  -9.2208    206.6717    145.3074   4.4448927860e+01   1.3294777184e+01    0.1222274   0.09992152 -65.15 0.0004627292    1.657    0.397
       227  -9.1869     32.2482    140.9908   8.9299369815e+01   4.2883470960e+01    0.1755642     0.115417 -74.85 0.0008415788    1.438    0.305
       228  -9.6200     54.1292    139.9204   8.1769717377e+01   4.0640143427e+01    0.1893846    0.1706236 -19.86 0.0003424156    1.263    0.208
       229  -9.2097    235.4930    137.5347   3.8545598781e+01   1.0113994848e+01    0.1227718   0.09772631 -28.89 0.0001526337    1.008    0.008
       230 -10.6301     21.5565    135.9290   9.2372888682e+01   4.5245673414e+01    0.3001558    0.1832458  55.18  0.001130848    1.660    0.398
       231  -9.8091     16.8413    137.6227   9.4173122717e+01   4.5184795400e+01    0.2054835    0.1120579  37.01 0.0009498235    1.789    0.441
       232  -9.5221     96.4575    134.4787   6.7189537613e+01   3.5473743808e+01    0.1509804    0.1495825  89.60 0.0008087545    1.003    0.003
       233 -10.1428      4.9863    134.0000   9.7917378396e+01   4.7007922792e+01    0.2039588   0.07808757  16.11  0.000652584    2.904    0.656
       234  -9.8158     70.6861    129.9249   7.4419205293e+01   4.0918401133e+01    0.2489171    0.1727606 -43.44  0.001131134    1.530    0.347
       235 -10.3082     28.0821    129.8462   8.9341334947e+01   4.6292880597e+01     0.211028    0.1747003  63.84 0.0002798132    1.194    0.162
       236 -10.1139      2.5051    130.5217   9.8504382343e+01   4.8087166942e+01    0.1358969    0.1197227 -83.08  0.000809903    1.043    0.041
