#   1 NUMBER                 Running object number                                     
#   2 MAG_AUTO               Kron-like elliptical aperture magnitude                    [mag]
#   3 X_IMAGE                Object position along x                                    [pixel]
#   4 Y_IMAGE                Object position along y                                    [pixel]
#   5 X_WORLD                Barycenter position along world x axis                     [deg]
#   6 Y_WORLD                Barycenter position along world y axis                     [deg]
#   7 A_WORLD                Profile RMS along major axis (world units)                 [deg]
#   8 B_WORLD                Profile RMS along minor axis (world units)                 [deg]
#   9 THETA_WORLD            Position angle (CCW/world-x)                               [deg]
#  10 FWHM_WORLD             FWHM assuming a gaussian core                              [deg]
#  11 ELONGATION             A_IMAGE/B_IMAGE                                           
#  12 ELLIPTICITY            1 - B_IMAGE/A_IMAGE                                       
         1 -15.3654    246.3699     99.9077   7.2151467664e+01   9.6700131834e+00     4.858724    0.9787521 -34.65   0.01319642    4.696    0.787
         2  -9.5762     40.5363     14.4689   9.5875680794e+01   6.6033659437e+01    0.1168411   0.08600393 -12.07 8.475769e-05    1.086    0.079
         3 -10.1147     84.3465    227.6930   1.2768450325e+02   1.8432040641e+01    0.1244627   0.06970993  68.91 0.0005082328    1.699    0.411
         4 -10.6020    162.8108    225.3321   1.1330216283e+02   5.8938829537e+00    0.3023586    0.2019032  29.89  0.001681752    1.675    0.403
         5 -10.2765    126.2099    220.8708   1.1944404482e+02   1.3047834060e+01    0.1888199    0.1437645  69.90 0.0005874672    1.217    0.178
         6  -9.6927     74.5035    219.5364   1.2860405643e+02   2.1297753862e+01     0.118497   0.08851947  72.13  0.000113477    1.047    0.044
         7  -9.7077    143.6953    216.5152   1.1560599517e+02   1.0759839960e+01     0.200471    0.1174272 -53.75  0.001064192    1.987    0.497
         8  -9.3900    199.4808    215.4584   1.0499674153e+02   6.8649513385e-01    0.1303646    0.1097051  39.06 0.0001489519    1.040    0.038
         9  -9.9083    185.7173    214.1443   1.0733727505e+02   3.4357134497e+00    0.1894579    0.1652534 -83.71  0.001011052    1.468    0.319
        10  -9.9000    131.5904    214.2029   1.1756775616e+02   1.3291695184e+01    0.1578598    0.1204559 -44.89 0.0007435065    1.667    0.400
        11  -9.9590    116.0345    210.2542   1.1998691524e+02   1.6654622381e+01     0.188402    0.1270691  83.02    0.0010496    1.661    0.398
        12 -10.9415    185.9012    203.9185   1.0559948196e+02   5.0085909123e+00     0.331477    0.1888763 -50.80  0.001617787    2.166    0.538
        13 -11.1600    164.4791    201.4160   1.0932122313e+02   9.5230932275e+00    0.4383155    0.2332322 -50.05  0.002094553    2.174    0.540
        14 -10.5556     88.7570    198.8279   1.2376945043e+02   2.3165742655e+01    0.2542236    0.1345806 -89.70  0.001177306    2.566    0.610
        15 -10.3297    177.4064    198.1924   1.0625648212e+02   7.5878336540e+00    0.1768934    0.1300223 -60.90 0.0007024431    1.700    0.412
        16 -10.7103    125.2967    197.7623   1.1648199658e+02   1.7403371295e+01    0.3093502    0.1691806  49.42  0.001544654    1.619    0.382
        17 -11.0916    172.9060    195.9429   1.0674980294e+02   8.8450565001e+00    0.2132716     0.186902  52.02  0.000985625    1.053    0.051
        18 -10.0618     66.6897    194.8788   1.2752831033e+02   2.7077814875e+01     0.261439     0.124357  85.28  0.001152838    2.976    0.664
        19 -11.0481    162.1616    193.5124   1.0846139885e+02   1.1356401715e+01    0.3061168    0.2185795 -70.39  0.001587191    1.807    0.446
        20 -10.1563     44.1455    193.9655   1.3162229598e+02   3.0066879099e+01    0.1972864    0.1006487  78.88  0.001050719    2.026    0.506
        21  -9.5612     78.3247    193.6380   1.2516609440e+02   2.5719744015e+01    0.1334421   0.07881246  74.56 0.0007041379    1.786    0.440
        22 -10.3844    173.1891    191.3307   1.0588918733e+02   9.5904911454e+00    0.2479401    0.1800828 -85.10  0.001137104    2.049    0.512
        23  -9.6405    179.4957    190.9874   1.0457952607e+02   8.4064063358e+00    0.1841431    0.1210565 -72.87 0.0008103871    2.542    0.607
        24 -10.3457    139.0986    189.5341   1.1244967053e+02   1.6475727067e+01    0.3075877    0.1970327  82.60  0.001404669    2.295    0.564
        25 -10.2646     87.3123    189.6516   1.2292332833e+02   2.5204945352e+01    0.1341651   0.08337944  75.58 0.0005621891    1.717    0.418
        26 -10.4967    156.1742    187.5927   1.0865405522e+02   1.3593904171e+01    0.2929624    0.1581198 -64.61  0.001211795    2.726    0.633
        27 -10.5902     55.2993    187.1183   1.2887415970e+02   3.0098393605e+01    0.3070078    0.1427161  72.26  0.001421886    2.746    0.636
        28  -9.4606    192.3531    187.6785   1.0144794030e+02   6.4143614749e+00    0.1389023     0.107996  77.96 0.0007047288    1.753    0.429
        29 -10.1363    149.4857    198.9883   1.1187658965e+02   1.2783228600e+01     0.182491    0.1145222 -81.13 0.0008103972    2.563    0.610
        30 -10.7869    120.6923    185.9760   1.1565457876e+02   2.0499692233e+01     0.318014    0.1558851 -63.03  0.001413236    2.331    0.571
        31 -10.9807     94.7729    186.5429   1.2102476586e+02   2.4691620824e+01    0.3123425    0.1652844  82.48  0.001289728    3.051    0.672
        32 -10.0213     34.4970    187.0112   1.3276089160e+02   3.2522227521e+01    0.1669894   0.07474166  83.48 0.0008104604    2.580    0.612
        33 -10.3399    109.7912    186.2086   1.1792402704e+02   2.2325941948e+01    0.2317686    0.1264268  74.71 0.0009552748    2.813    0.645
        34 -10.4178    204.1226    184.4832   9.8559616011e+01   4.5939628118e+00    0.2199429    0.1984448 -73.25  0.001064424    1.397    0.284
        35  -9.4021    183.3234    184.6347   1.0265851704e+02   8.7429449247e+00    0.1416691    0.1091575  83.69 0.0007038888    1.792    0.442
        36 -10.4461    174.0883    182.9774   1.0420061652e+02   1.0893100220e+01    0.2900599    0.1878011 -62.63  0.001359232    2.058    0.514
        37  -9.8383     74.6492    184.3274   1.2478172721e+02   2.8119850655e+01    0.1339173   0.07998437  72.99 0.0007048259    1.763    0.433
        38  -9.6279    211.4928    182.5150   9.6767998100e+01   3.4443610988e+00    0.1392595    0.1239301  26.84 0.0001048775    1.010    0.009
        39 -10.0194     44.4170    182.2186   1.3045513555e+02   3.2386623113e+01    0.1691763   0.09070226 -85.28 0.0009512897    1.740    0.425
        40  -9.6683     11.6700    182.3127   1.3649491203e+02   3.5698446613e+01    0.1128161   0.05988277  71.95 0.0006857727    1.673    0.402
        41 -10.6223    147.8666    180.8023   1.0918253805e+02   1.6486831940e+01    0.2638889     0.180821 -86.34  0.001238276    2.068    0.516
        42 -10.5772    137.5790    178.3389   1.1090503183e+02   1.8934560097e+01     0.258659    0.1343966 -57.50  0.001141629    2.143    0.533
        43  -9.8550    192.2130    177.2685   9.9483480230e+01   8.2182417029e+00     0.213312    0.1102295 -51.17 0.0008370516    2.400    0.583
        44 -11.2940     77.7298    176.2013   1.2313437654e+02   2.9365744285e+01    0.4878894    0.1708921  54.69  0.001875743    3.393    0.705
        45 -10.2391     59.9879    177.0115   1.2684681366e+02   3.1581035307e+01    0.2068059    0.1215085  73.33  0.001138426    1.767    0.434
        46 -10.0845    182.9922    175.7455   1.0103126656e+02   1.0380125968e+01    0.2514862    0.1878454 -61.16   0.00127697    1.647    0.393
        47 -10.2200    106.0013    175.4992   1.1711462594e+02   2.5143408767e+01    0.1974999   0.09759387  61.85 0.0008104008    2.533    0.605
        48  -9.8460      2.6213    173.0234   1.3742828722e+02   3.8296056350e+01    0.2912051    0.0764222 -86.29 0.0009507578    6.151    0.837
        49  -9.6820     12.8221    176.6002   1.3585331384e+02   3.6722338794e+01    0.1428723   0.07970876  54.71 0.0009450337    1.695    0.410
        50 -10.4575    122.0735    169.8725   1.1276354068e+02   2.3515892892e+01    0.3170218    0.1948192  77.70  0.001375781    2.357    0.576
        51 -10.4037     55.1099    169.6511   1.2697732142e+02   3.3723227148e+01    0.2167772    0.1424541 -85.44  0.001004835    1.369    0.270
        52 -10.1350    149.8160    169.6057   1.0675034962e+02   1.8289505498e+01    0.2107005    0.1240033  55.60 0.0008189986    1.727    0.421
        53 -10.1338    192.3230    165.2140   9.7035935805e+01   1.0322677845e+01    0.3507327    0.1205363 -49.76  0.001090004    3.967    0.748
        54  -9.4103    185.3200    166.6779   9.8754223282e+01   1.1535003232e+01    0.1445122     0.114694  85.19 0.0005915049    1.672    0.402
        55 -10.8587    139.1940    164.7429   1.0813095359e+02   2.1355406129e+01    0.3999712    0.2466728 -81.56   0.00161723    2.681    0.627
        56  -9.5715     19.6635    166.3374   1.3370824679e+02   3.8172052656e+01    0.1187078   0.06531168  73.43 0.0007051574    1.751    0.429
        57 -10.4741     80.0450    164.0499   1.2097479780e+02   3.1604061545e+01    0.3841211    0.1970071  83.38  0.001474389    3.501    0.714
        58 -10.4160    213.1376    163.5191   9.2588568373e+01   6.2390289174e+00    0.2334109    0.2035057 -65.02  0.001280457    1.423    0.297
        59  -9.8733    159.4799    163.9822   1.0360777519e+02   1.7441748004e+01    0.2002524    0.1264509 -73.45 0.0007299109    2.490    0.598
        60 -10.0138     37.7287    164.1876   1.2991260698e+02   3.6841572129e+01    0.1937632    0.1204804  88.45 0.0009889216    1.457    0.313
        61 -10.9048    205.0786    161.8371   9.3795518339e+01   8.2203030263e+00    0.3183631    0.2079943 -32.34  0.001515416    1.646    0.393
        62  -9.8058     69.9846    163.4892   1.2306886963e+02   3.3126366641e+01    0.1792625   0.08753606  61.00 0.0008090972    2.432    0.589
        63  -9.5617     47.3101    163.6680   1.2788635154e+02   3.5901113895e+01    0.1252631   0.07633981  76.28 0.0004251855    1.672    0.402
        64 -10.0631    177.7492    160.4319   9.9031018669e+01   1.4296863068e+01     0.350738    0.2014097 -61.86  0.001382852    2.582    0.613
        65  -9.7626    151.4906    160.9619   1.0473219715e+02   1.9674278091e+01     0.205514    0.1260796 -73.81 0.0008098849    2.591    0.614
        66 -10.3319     93.1945    160.7760   1.1759355914e+02   3.0327499140e+01    0.2326673    0.1290059  75.62 0.0009527159    2.797    0.642
        67  -9.7762     62.2911    160.6602   1.2434405110e+02   3.4738722384e+01    0.1291929   0.08276576  79.04 0.0003452352    1.647    0.393
        68 -10.1476      8.5089    159.5377   1.3527059789e+02   4.0517135047e+01    0.2489953    0.0766717 -88.85 0.0008102471    5.893    0.830
        69  -9.7143     22.8022    159.2014   1.3241868660e+02   3.9352011009e+01    0.1981201   0.08778561  70.51 0.0009514311    2.829    0.646
        70 -10.6691    196.5216    156.8878   9.4438003094e+01   1.0924432251e+01     0.395581    0.2324393 -52.15  0.001704032    2.050    0.512
        71 -10.2306    105.6963    158.3207   1.1439792934e+02   2.8817969348e+01    0.2286889    0.1526401  77.85  0.001109426    1.832    0.454
        72  -9.9729    167.6683    157.3441   1.0051666132e+02   1.7030130676e+01    0.1524747    0.1156989  86.31 0.0007050518    1.756    0.431
        73 -10.3682    119.8292    155.6600   1.1074013361e+02   2.6903752724e+01    0.3129387    0.1663619 -76.76  0.001091686    3.517    0.716
        74 -10.5924     49.4533    154.8622   1.2636504510e+02   3.7530288661e+01    0.3006238    0.1718452  78.78  0.001587731    2.009    0.502
        75 -10.6375    204.8919    154.6680   9.2294769674e+01   9.5167586943e+00    0.2862079    0.2130609 -44.98  0.001242237    1.443    0.307
        76 -10.3795     81.5115    154.5038   1.1921794400e+02   3.3450499228e+01    0.3064313    0.1759198  75.71  0.001382807    2.417    0.586
        77 -10.5299    133.7249    153.2975   1.0715434328e+02   2.4784944900e+01    0.3429542    0.1993541  82.29  0.001134659    3.897    0.743
        78 -10.3383     67.8928    153.7814   1.2216412839e+02   3.5496546090e+01    0.2516021    0.1477481  86.26  0.001185115    2.092    0.522
        79 -10.6311    190.1369    149.6265   9.4155052960e+01   1.3643748077e+01    0.4238287    0.2909867 -62.44  0.001899807    1.925    0.480
        80 -10.7420    200.0634    147.7198   9.1723260825e+01   1.1811728326e+01    0.4033524    0.2151755 -42.02  0.001691653    1.951    0.487
        81 -10.8643     39.5204    147.1990   1.2757128380e+02   4.0253835842e+01    0.4199852    0.2002006  80.36  0.001826764    3.183    0.686
        82 -11.3301    234.1176    146.7225   8.5039434995e+01   4.6491324256e+00    0.2554363     0.185458 -41.93 0.0008415467    1.439    0.305
        83 -11.1876     55.8257    145.1292   1.2364275917e+02   3.8890365422e+01    0.4687332    0.2440108  87.03  0.002079353    2.777    0.640
        84 -10.9852    149.3600    145.2496   1.0198251891e+02   2.3309750088e+01    0.4627088    0.2866602  86.39  0.001627256    3.337    0.700
        85 -10.9627    107.1539    144.9914   1.1166724821e+02   3.1449705709e+01    0.4533236    0.2666581  79.57  0.001763428    2.985    0.665
        86 -10.1006     13.1843    146.0443   1.3308928296e+02   4.2911864485e+01    0.1914187   0.09884659  81.20   0.00108345    2.015    0.504
        87 -10.8098    125.3105    143.2198   1.0707072091e+02   2.8538979896e+01    0.3774816    0.2354288 -88.24  0.001473954    2.774    0.640
        88 -10.5369     88.2039    144.0859   1.1595813438e+02   3.4728775173e+01    0.2620138    0.1599843  67.67  0.001237155    2.053    0.513
        89 -10.1236      2.0000    140.0059   1.3483847330e+02   4.4999597075e+01    0.1858566   0.04668448 -72.81 0.0008088975    2.987    0.665
        90 -10.8866     22.7393    136.3253   1.2997429689e+02   4.4159463858e+01     0.592854    0.2159634 -79.11  0.002572177    2.996    0.666
        91  -9.6949    219.6211    137.7998   8.5685516017e+01   9.2599217827e+00    0.2151451     0.133067 -46.00 0.0009556292    1.738    0.425
        92 -10.3393    197.5851    136.0217   8.9559609670e+01   1.4507417991e+01    0.5067428    0.1472759 -39.23  0.001533131    3.539    0.717
        93 -10.3029     28.8486    149.9474   1.3020207527e+02   4.0724841617e+01    0.2900571    0.1248543  88.16  0.001245281    3.246    0.692
        94 -10.5219    160.3810    239.2207   1.1564859487e+02   4.2099929416e+00    0.1503835    0.1142161 -71.85 0.0008297812    1.709    0.415
        95  -9.7847    192.6121    129.7892   8.9105717388e+01   1.6801876251e+01    0.2159503    0.1415925 -49.30 0.0009472289    1.651    0.394
        96 -10.2445    153.0065    129.7004   9.7687727138e+01   2.5737911056e+01     0.312379    0.1893643 -69.97  0.001164123    2.663    0.624
        97 -10.6441     12.2755    128.7210   1.3144493546e+02   4.6601287179e+01    0.3662417    0.1544403 -88.78  0.001698464    2.931    0.659
        98  -9.9617    112.5110    133.0328   1.0801925704e+02   3.3110100276e+01    0.2041292    0.1222121 -76.89 0.0008098746    2.531    0.605
        99  -9.8899    168.4080    129.2419   9.4120192200e+01   2.2427231919e+01    0.2197754    0.1432889 -54.17 0.0007724839    1.707    0.414
       100 -10.7334     99.2151    128.4124   1.1032914224e+02   3.6420963657e+01    0.3521488     0.234924 -85.99  0.001629269    2.045    0.511
       101 -10.3175     73.3694    129.1989   1.1690360449e+02   4.0154066353e+01    0.1951033    0.1130406 -70.53 0.0009499989    1.775    0.437
       102 -10.9117     59.3082    123.7820   1.1945498091e+02   4.3148115627e+01    0.5392402      0.27974 -88.40  0.002113856    3.515    0.716
       103 -10.3898    117.6393    125.2887   1.0510050744e+02   3.3848796637e+01    0.2340271    0.1720361  87.88  0.001105466    1.781    0.439
       104 -11.5109     43.3700    121.3763   1.2304511164e+02   4.5443628835e+01    0.8709382    0.3765578 -82.76  0.003109161    4.354    0.770
       105 -11.3360     27.9379    121.6378   1.2687964770e+02   4.6843678158e+01    0.6810435    0.3079385  83.02  0.002532361    4.694    0.787
       106 -10.0187    179.4773    124.0482   9.0472931733e+01   2.0923499191e+01    0.2395957    0.1519352 -41.51   0.00103821    1.612    0.380
       107  -9.4754    188.4949    123.4934   8.8441244580e+01   1.8940237522e+01    0.1519487    0.1486499  69.21 5.749456e-05    1.045    0.043
       108 -10.6542     38.8771    135.7740   1.2623373720e+02   4.2777970041e+01     0.241146    0.1344747  85.89  0.001247088    2.138    0.532
       109 -10.0214    158.4058    121.2520   9.4442693501e+01   2.6273534147e+01     0.221312    0.1432262 -54.33 0.0009517194    1.700    0.412
       110 -10.8777    142.2656    119.7044   9.7826387702e+01   3.0109669181e+01    0.4019369    0.2617404 -68.81    0.0016708    2.118    0.528
       111  -9.5813    172.3068    120.6491   9.1192010945e+01   2.3239269194e+01    0.1587206    0.1224219 -80.85 0.0006753674    1.709    0.415
       112 -10.5874    130.7095    118.6971   1.0037239404e+02   3.2715317260e+01    0.3080076    0.1807391 -67.96  0.001177129    2.549    0.608
       113 -10.9293      2.3712    115.1718   1.3217531098e+02   5.0103748905e+01    0.6029325      0.17281 -77.53  0.002421532    3.721    0.731
       114 -10.9559     83.4278    131.7179   1.1488091393e+02   3.8169656849e+01    0.3511825    0.2509951 -88.32  0.001262409    1.607    0.378
       115  -9.8428    193.0000    114.9968   8.5425461263e+01   1.9479015117e+01    0.2546631   0.08774485 -38.37 0.0008029235    2.946    0.661
       116  -9.7284    185.6232    115.2318   8.7001829693e+01   2.1178012760e+01    0.2188152    0.1480616 -28.84 0.0009533428    1.638    0.390
       117 -10.6723    108.9332    113.5774   1.0462469395e+02   3.7970238349e+01    0.4048473    0.2022443 -64.63   0.00147712    2.911    0.656
       118 -10.8727     78.8843    112.1430   1.1216306249e+02   4.3131244161e+01    0.4853212    0.2665032 -77.38  0.001938911    2.984    0.665
       119 -10.8063     92.5343    112.1705   1.0856635083e+02   4.1058828940e+01    0.4593186    0.2103811 -63.95  0.001718146    2.875    0.652
       120  -9.9673    122.3054    112.6560   1.0100477173e+02   3.5661654855e+01    0.1503296    0.1153768 -87.45 0.0004491477    1.689    0.408
       121 -10.9582     14.0918    109.3321   1.2858575606e+02   5.0543620627e+01    0.4531694    0.1851507 -70.78  0.002367467    1.993    0.498
       122  -9.7181    174.4976    111.0115   8.8302662543e+01   2.4606658785e+01    0.2271836    0.1299399 -61.26 0.0008105172    2.601    0.615
       123  -9.8363    159.3002    111.6535   9.1850334406e+01   2.7999881767e+01    0.1577767    0.1221178 -80.63 0.0007037548    1.683    0.406
       124 -11.0744     66.3488    110.4549   1.1514759937e+02   4.5193480304e+01    0.3221165    0.1885556 -79.81  0.001479294    2.362    0.577
       125  -9.7725    189.0000    107.0257   8.4226943709e+01   2.1913844586e+01    0.2595195   0.08821245 -38.05 0.0008084787    2.984    0.665
       126 -11.9510     45.2380    101.7935   1.1916271268e+02   4.9482212409e+01    0.6940905    0.3842933  87.10  0.002960679    3.416    0.707
       127 -11.8665     21.8489     99.7475   1.2514637520e+02   5.1989171285e+01    0.8982546    0.3792133 -78.94  0.003930776    3.116    0.679
       128 -10.9339    150.1128    103.1161   9.1776817623e+01   3.1776679846e+01    0.4504884    0.1508496 -49.63  0.001322944    3.646    0.726
       129 -10.2157    139.3968    104.2274   9.4640235700e+01   3.3906613044e+01    0.2195568    0.1398806 -54.07 0.0009492636    1.707    0.414
       130 -10.4953      6.4838    102.4755   1.2957055346e+02   5.2478925317e+01    0.2794826   0.09248392 -73.88  0.001262657    2.795    0.642
       131 -10.3721     81.4252     99.2220   1.0859658252e+02   4.5548942887e+01    0.1993124    0.1214274 -62.95 0.0009582927    1.749    0.428
       132 -10.7641    108.0237     98.0430   1.0105676772e+02   4.1423641564e+01    0.2920352    0.2277014 -89.66  0.001458772    1.717    0.418
       133 -11.4194     63.5280     95.8324   1.1283311481e+02   4.8694105968e+01     0.395002    0.2425187 -80.38  0.001716796    2.436    0.589
       134 -10.7769    131.9919    131.4519   1.0299542161e+02   2.9751112543e+01    0.3839113    0.2369784 -72.40    0.0015447    2.387    0.581
       135 -11.7953      4.9914     89.1423   1.2804371689e+02   5.5310818578e+01    0.5504823    0.1552794 -59.64  0.002705576    2.310    0.567
       136 -11.0304     34.7483     87.1884   1.1927068575e+02   5.3559588745e+01    0.7549348    0.1837897 -58.37  0.002969914    3.090    0.676
       137 -10.5672     86.0226     86.3902   1.0411110389e+02   4.7534114989e+01    0.2493047    0.1893571 -73.85 0.0009173956    1.669    0.401
       138 -11.6259     48.1175     82.6385   1.1434106536e+02   5.3212618170e+01    0.6692812    0.2806682 -59.25  0.003096497    2.188    0.543
       139 -10.5203    104.2524     82.5213   9.7912520901e+01   4.5255124898e+01    0.3276808    0.2120753 -77.23  0.001287971    3.053    0.673
       140 -11.6629     25.2899     76.1954   1.1983833735e+02   5.6591741630e+01    0.9459663    0.2386168 -49.18  0.004029795    2.884    0.653
       141 -10.0156    179.4820    133.4973   9.2722819314e+01   1.9090669220e+01    0.2809722    0.1394562 -52.16  0.001034325    2.414    0.586
       142 -10.0234    142.8459    131.0533   1.0034822241e+02   2.7618768580e+01    0.2522827    0.1737962 -76.42  0.001081342    2.028    0.507
       143 -10.6136    124.4859     90.6341   9.4749999103e+01   3.9761222132e+01    0.2979923    0.2043971 -72.18  0.001274197    2.180    0.541
       144 -11.0802     51.1363     68.5622   1.0994754433e+02   5.5717632869e+01    0.5104055    0.1903827 -61.14  0.001866687    3.846    0.740
       145 -10.8808     82.2789     72.5883   1.0142315806e+02   5.0856072933e+01    0.2902897     0.199988 -70.43  0.001416408    2.162    0.537
       146 -10.8484     16.4868     69.1058   1.2108363966e+02   5.8639236678e+01    0.3631768    0.1140643 -62.01  0.001662292    2.605    0.616
       147 -10.5221     62.0067     76.3368   1.0859276772e+02   5.2911703454e+01    0.3443282    0.1217711 -56.22  0.001333231    2.946    0.661
       148 -10.6950     37.2882     61.9964   1.1271178752e+02   5.8387216157e+01    0.5301644    0.1350215 -48.02  0.002170468    2.909    0.656
       149 -10.0663    204.8104    130.0414   8.6719872771e+01   1.3960169014e+01    0.2484879    0.1734648 -66.18  0.001072384    1.999    0.500
       150 -10.4034     73.2171     59.5418   1.0033622764e+02   5.4646054940e+01    0.3460643    0.1576383 -53.09  0.001475229    2.565    0.610
       151 -10.2517     24.8932     57.4860   1.1568962689e+02   6.0295323355e+01    0.3492351   0.09047362 -48.89  0.001534095    2.684    0.627
       152 -11.8629      7.6523     54.4698   1.2078528535e+02   6.2014595543e+01    0.6574244     0.123079 -56.83  0.002781014    3.195    0.687
       153 -10.8394     44.3032     52.8001   1.0781308125e+02   5.9429875315e+01    0.5326139    0.1368591 -43.18  0.002067116    3.240    0.691
       154  -9.9166    100.6386     54.1487   9.0300167529e+01   5.1114960071e+01    0.1882772    0.1576215 -21.57 0.0003547572    1.126    0.112
       155  -9.6235     92.3291     50.9883   9.1693124488e+01   5.3122497525e+01    0.2159064    0.1007521 -55.53 0.0007051532    4.401    0.773
       156 -10.5495     30.6096     50.0539   1.1175595847e+02   6.1221616222e+01    0.3633192    0.1311165 -57.49  0.001618498    2.849    0.649
       157 -10.5011     16.7658     42.4995   1.1458848946e+02   6.3655535593e+01     0.454702   0.07978642 -51.17   0.00183413    3.449    0.710
       158 -11.4811      4.9242     39.7777   1.1819013630e+02   6.4873085571e+01    0.5257885    0.1300332 -59.78  0.002205275    3.631    0.725
       159 -10.2038     20.0173     50.3349   1.1553383214e+02   6.1999043384e+01    0.3445582   0.08612587 -50.28  0.001540263    2.684    0.627
       160 -10.0815     36.6871     39.3602   1.0636976630e+02   6.2568828914e+01    0.3314867   0.09266887 -50.00  0.001355513    3.235    0.691
       161  -9.4929     84.3123     40.2849   9.0464215349e+01   5.6194868160e+01    0.1312653   0.09225213   3.00  0.000271246    1.576    0.366
       162 -10.8073     27.6180     29.6057   1.0654774837e+02   6.5031264025e+01     0.305205   0.08709675 -38.12  0.001314513    3.062    0.673
       163  -9.0871     44.2966     25.7218   9.8820047677e+01   6.3980844790e+01   0.09649254   0.09030727 -46.52 0.0003177274    1.534    0.348
       164  -9.1066    110.4869     24.5270   7.7246094866e+01   5.3512713233e+01    0.1351133    0.1170265  19.42 0.0001946535    1.024    0.023
       165 -10.2054     13.3373     21.6476   1.0950138440e+02   6.7440243912e+01    0.1392318    0.1288731 -73.59  0.001120599    1.702    0.412
