#   1 NUMBER                 Running object number                                     
#   2 MAG_AUTO               Kron-like elliptical aperture magnitude                    [mag]
#   3 X_IMAGE                Object position along x                                    [pixel]
#   4 Y_IMAGE                Object position along y                                    [pixel]
#   5 X_WORLD                Barycenter position along world x axis                     [deg]
#   6 Y_WORLD                Barycenter position along world y axis                     [deg]
#   7 A_WORLD                Profile RMS along major axis (world units)                 [deg]
#   8 B_WORLD                Profile RMS along minor axis (world units)                 [deg]
#   9 THETA_WORLD            Position angle (CCW/world-x)                               [deg]
#  10 FWHM_WORLD             FWHM assuming a gaussian core                              [deg]
#  11 ELONGATION             A_IMAGE/B_IMAGE                                           
#  12 ELLIPTICITY            1 - B_IMAGE/A_IMAGE                                       
         1 -14.4964    217.7582     37.5940   2.8944410163e+02   6.1025791725e+00   0.08307262   0.07302655  14.63   0.00533701    1.097    0.089
         2 -16.6220    186.0901     82.8201   2.9008549737e+02   5.7592673925e+00    0.2489062    0.1609262  82.50   0.02087556    2.104    0.525
         3 -15.6315    215.1979     55.4390   2.8957333771e+02   5.9101727735e+00    0.2246516   0.08730612  51.67  0.006737468    3.770    0.735
         4 -18.1396    217.5335     92.6129   2.8974678069e+02   5.4651094992e+00    0.3902638    0.2817833 -31.04   0.03720829    1.555    0.357
         5 -11.7571    225.2858     23.7901   2.8927492731e+02   6.2194601885e+00    0.0246156   0.01972272  44.87  0.001556686    1.237    0.192
         6  -9.6971    247.7115     15.9033   2.8895236240e+02   6.1818878030e+00   0.01647309   0.01052396 -61.71  0.001654242    1.642    0.391
         7 -11.0393    202.9807     14.3033   2.8950134018e+02   6.4577375068e+00   0.01542698   0.01447056 -69.47 0.0008618051    1.143    0.125
         8 -10.9328    238.3733     10.3635   2.8903847990e+02   6.2998819903e+00   0.01638972   0.01338103  -3.60  0.001056964    1.301    0.231
         9  -9.3806    142.8406      8.1490   2.9021869977e+02   6.8742097906e+00   0.01012015  0.008744948  49.31 0.0003292167    1.175    0.149
        10  -9.2546    117.1510      7.8291   2.9053805035e+02   7.0249697996e+00   0.01024045  0.008815965  55.02 0.0005046493    1.214    0.176
        11  -9.4877    209.8977      6.3587   2.8937168463e+02   6.5101326144e+00  0.009295658  0.007950965  14.74 0.0003747151    1.132    0.116
        12 -11.1496    166.4028      2.3838   2.8989290985e+02   6.8060326093e+00   0.01420778   0.01212047  14.91 0.0006739746    1.133    0.118
        13  -9.3030    151.4243      2.7264   2.9008188550e+02   6.8879473389e+00   0.01303748  0.007014174 -73.51   0.00114818    2.222    0.550
        14 -10.9708    100.2137    106.6327   2.9128685075e+02   5.9738260685e+00   0.01924122    0.0150236 -23.89  0.001518549    1.416    0.294
        15  -9.0098    222.4753    250.4830   2.9054295654e+02   3.6022083936e+00  0.006823417  0.006409206  21.02 0.0001023103    1.006    0.006
        16  -9.9351     59.3803    214.6190   2.9238083709e+02   4.9502322277e+00   0.02250281  0.004881304  28.83  0.001364975    3.629    0.724
        17 -10.0737      3.4672    214.1582   2.9307577990e+02   5.2731974653e+00   0.01604292  0.009478039  16.70  0.001511126    1.724    0.420
        18  -9.9060    202.6687    210.4646   2.9057248701e+02   4.1807088795e+00   0.01190174  0.007479354 -40.56 0.0007237037    1.752    0.429
        19  -9.4750    158.0142    209.7695   2.9112492670e+02   4.4441766821e+00  0.009655406  0.008323637  20.37            0    1.098    0.089
        20  -9.5752    237.6828    207.2965   2.9011948785e+02   4.0170328943e+00   0.01809573  0.009071663 -48.28  0.001598625    2.094    0.522
        21  -9.3244     96.9088    208.8708   2.9188177236e+02   4.8034036455e+00   0.01012769  0.008697839 -21.59 0.0003316508    1.236    0.191
        22  -9.1524     89.8205    206.1948   2.9195570496e+02   4.8749381573e+00  0.009280208  0.007680545 -21.90 0.0003888226    1.303    0.232
        23  -8.8477    250.5543    202.4373   2.8993297099e+02   3.9997387594e+00  0.006833862  0.006315879  33.38 0.0001259876    1.038    0.037
        24 -10.4288    190.6367    201.2040   2.9067209297e+02   4.3572281184e+00   0.02069354  0.009226132  42.23  0.001714654    2.218    0.549
        25 -10.7506    214.2543    197.6657   2.9035879771e+02   4.2631621488e+00    0.0217615   0.01563271  56.38  0.002142839    1.540    0.351
        26 -11.3664    200.7158    193.2686   2.9050351287e+02   4.3917967222e+00   0.03124122     0.016977 -38.63    0.0027763    2.157    0.536
        27 -12.4227    155.5091    194.1777   2.9107167137e+02   4.6398300381e+00   0.03403602   0.01500801  39.64  0.002853812    2.142    0.533
        28 -10.9765    149.4829    195.9579   2.9115642779e+02   4.6535649740e+00   0.01355871   0.01116295  33.95 0.0006995302    1.143    0.125
        29 -11.0997    142.2302    193.6113   2.9123412263e+02   4.7222967109e+00   0.02258478  0.009279078  50.03  0.001636722    3.112    0.679
        30  -9.3165     46.6451    194.7155   2.9243229698e+02   5.2542864227e+00   0.00713119  0.005040054 -19.68 0.0005958201    1.667    0.400
        31 -10.0575    226.8042    190.9459   2.9016608583e+02   4.2693772073e+00   0.01604537   0.01001805 -65.11  0.001584355    1.710    0.415
        32 -11.2530    207.9602    190.8425   2.9040013060e+02   4.3785195971e+00   0.02072758   0.01313933 -56.07 0.0007152173    1.627    0.385
        33  -9.3899    129.8886    192.2060   2.9138037870e+02   4.8091283745e+00   0.01010477  0.008659124  52.43 0.0005850697    1.204    0.169
        34 -10.6721    117.8418    190.4605   2.9152114750e+02   4.8982021044e+00   0.02069724   0.01274472 -77.89  0.001197385    1.961    0.490
        35 -10.4104    231.5091    187.9012   2.9009098791e+02   4.2778002861e+00   0.01503074   0.01290071  70.04 0.0009560817    1.288    0.224
        36  -9.6057    212.7174    187.6348   2.9032348074e+02   4.3885608173e+00   0.01238814  0.009711697 -59.62 0.0007090549    1.342    0.255
        37  -9.4696    214.5398    184.5015   2.9028377548e+02   4.4145425677e+00   0.01091987   0.01025212  17.56 0.0007060419    1.018    0.017
        38 -12.6751    188.5365    179.9656   2.9058302971e+02   4.6161765473e+00   0.03755872    0.0175621 -48.26  0.003219438    2.248    0.555
        39 -11.4491    197.7818    184.9911   2.9049513352e+02   4.5048231041e+00    0.0218587   0.01207599  36.49  0.001626344    1.675    0.403
        40 -11.9738    193.8556    182.0712   2.9052819289e+02   4.5612469883e+00   0.03043441   0.01804099 -56.64   0.00296659    1.732    0.423
        41 -12.1738    179.5160    184.5865   2.9072049403e+02   4.6140742018e+00   0.02367171    0.0153493  17.83  0.002366059    1.527    0.345
        42 -10.8573    179.4803    181.4622   2.9070398982e+02   4.6506056891e+00   0.01154228   0.01029571  10.27 0.0007020537    1.096    0.087
        43 -10.8746    207.0131    182.0200   2.9036402919e+02   4.4864997031e+00   0.01391178  0.009840315 -64.92  0.001293933    1.508    0.337
        44 -11.7216    203.1280    178.5358   2.9039350030e+02   4.5492518180e+00   0.01845788   0.01569845 -42.14   0.00129462    1.235    0.190
        45 -11.3821    202.1904    173.7436   2.9037915719e+02   4.6103291279e+00   0.01889214   0.01105989 -77.80  0.001665483    2.107    0.525
        46  -9.6188     33.3064    177.6830   2.9250683177e+02   5.5283142657e+00   0.01698004  0.008331294 -66.50  0.001412337    2.210    0.547
        47  -9.4110    236.3820    177.6381   2.8997457854e+02   4.3691344984e+00   0.01014995  0.007265674  55.10 0.0007245986    1.530    0.346
        48 -11.3867    161.4654    176.9325   2.9090393884e+02   4.8063317966e+00   0.01719817   0.01099516  66.20  0.001359746    2.022    0.505
        49 -12.7020    147.5302    176.1389   2.9107336323e+02   4.8952305980e+00   0.02623464   0.01898007 -45.03  0.002795281    1.459    0.314
        50 -10.8079    177.5303    175.0706   2.9069360929e+02   4.7360823083e+00   0.01032804  0.008876834  21.63 0.0003819923    1.097    0.089
        51  -9.1323    247.3043    173.9981   2.8981886565e+02   4.3487997975e+00  0.008736822   0.00853243 -33.48  0.000278584    1.076    0.070
        52 -11.1809    213.8851    172.4611   2.9022653611e+02   4.5582415958e+00   0.02296664    0.0120521  69.73   0.00171756    3.328    0.700
        53  -9.0466    165.3072    249.6605   2.9125003368e+02   3.9385942292e+00  0.007242864  0.004911254  57.32 0.0006975296    1.683    0.406
        54 -14.0873    194.8667     63.6128   2.8987142384e+02   5.9320056337e+00   0.04952486   0.03807859  55.91  0.002097168    1.403    0.287
        55  -9.1064    131.9088    246.8242   2.9165067335e+02   4.1622562091e+00  0.009703834  0.007283454  45.19 0.0003949899    1.328    0.247
        56 -14.3835    189.7969     73.7350   2.8998979670e+02   5.8435384507e+00   0.04976357   0.03276027  22.93  0.002896184    1.439    0.305
        57 -14.7126    210.9824     63.9046   2.8967204126e+02   5.8361038241e+00   0.05895984   0.04819628   8.58  0.004413608    1.231    0.188
        58 -10.3470    215.1345    244.3099   2.9060082913e+02   3.7159510856e+00   0.01224351    0.0108674  67.76 0.0004778442    1.221    0.181
        59 -15.7355    232.4679     79.2938   2.8948812229e+02   5.5340096887e+00    0.1162451   0.07193056 -13.14   0.01029492    2.163    0.538
        60 -10.8518    226.0361    241.5598   2.9045028900e+02   3.6855355880e+00   0.01255354    0.0104236 -63.66 0.0004730544    1.281    0.220
        61  -9.5026     29.3769    106.8457   2.9217306633e+02   6.3747850998e+00   0.01025025  0.008506787  78.20 0.0005591842    1.375    0.273
        62 -14.7173    222.4806     75.5815   2.8959234504e+02   5.6344866384e+00   0.03387449   0.02723331 -73.97   0.00130062    1.369    0.269
        63 -11.6724    124.6787     90.0954   2.9089152971e+02   6.0263383722e+00   0.01894015    0.0160682 -41.42  0.002035015    1.238    0.193
        64  -8.9355      7.9972    153.0279   2.9268976486e+02   5.9589170050e+00  0.008192098  0.007191213  23.86            0    1.069    0.064
        65 -10.9545    231.7272    164.6139   2.8996173428e+02   4.5471675836e+00   0.04089639   0.01377899  21.30  0.002845308    3.128    0.680
        66  -9.8117     87.5188     88.9726   2.9134960524e+02   6.2515877205e+00   0.01026666  0.004724259 -41.21 0.0008102918    2.585    0.613
        67 -10.6703    116.0518     84.7303   2.9097012216e+02   6.1380030968e+00   0.01849431    0.0103698  35.63 0.0006831698    1.643    0.391
        68 -10.2400    121.6076    150.4350   2.9125734777e+02   5.3422888687e+00   0.01632879  0.009296212  53.60  0.001175603    2.057    0.514
        69 -11.3237    126.0186     77.4313   2.9080597451e+02   6.1658655271e+00   0.01469984   0.01171642   7.32 0.0008320071    1.279    0.218
        70 -10.3291    219.4902    168.3347   2.9013431788e+02   4.5740785579e+00    0.0248716   0.01516855  58.66  0.002311345    2.008    0.502
        71 -10.6690    136.2368     74.8427   2.9066429177e+02   6.1375052718e+00   0.01331882  0.009479102  -2.67  0.001355025    1.601    0.375
        72 -11.2633    131.9808     72.7898   2.9070627841e+02   6.1857061163e+00   0.01646486   0.01201502   8.27  0.001189234    1.433    0.302
        73 -11.0332     11.4226    146.5875   2.9261221719e+02   6.0144183419e+00   0.02068637   0.01192924  50.35  0.001911229    1.912    0.477
        74 -12.7401    141.3858     68.4795   2.9056538686e+02   6.1819776841e+00   0.03967099   0.02211116  65.65  0.003300051    2.649    0.623
        75 -10.9815    145.4824     68.2488   2.9051297813e+02   6.1612104151e+00   0.01306404   0.00999335 -26.46 0.0007294249    1.453    0.312
        76 -10.5757    119.6730     69.6413   2.9084288860e+02   6.2926681686e+00   0.01445502  0.009478694  44.12 0.0007865843    1.518    0.341
        77  -9.4628    101.2970     69.6666   2.9107261239e+02   6.3973584914e+00   0.00714713  0.004934649  57.57 0.0007029682    1.645    0.392
        78  -9.4054     32.5979    135.2666   2.9228654607e+02   6.0258829742e+00   0.00969707  0.006042722 -50.77 0.0009473149    1.662    0.398
        79  -9.6395    107.5114     66.4553   2.9097751136e+02   6.3991856524e+00  0.006825428  0.006388985  18.16 8.854414e-05    1.017    0.016
        80 -12.0007    129.8118    130.7505   2.9104820339e+02   5.5243417185e+00   0.01918971   0.01242352  -1.17  0.001575031    1.861    0.463
        81  -9.2272     18.4644     62.4575   2.9206915568e+02   6.9528786042e+00  0.006825663  0.006363125  28.21 0.0001117754    1.018    0.018
        82  -9.0730     45.9735     58.2125   2.9170205425e+02   6.8458403208e+00  0.009091587  0.005216285  25.22 0.0003448301    1.625    0.385
        83  -9.8077     88.1991     57.1467   2.9116828948e+02   6.6176137609e+00  0.009575832  0.007587974  52.20 0.0002510622    1.318    0.241
        84 -11.0003    129.2406    164.7169   2.9123953883e+02   5.1325789199e+00   0.01543865  0.009975412  65.29  0.001413445    1.967    0.492
        85 -10.9862    126.8314     56.1433   2.9068006185e+02   6.4085677606e+00   0.01272217   0.01011798   1.92  0.001241019    1.319    0.242
        86  -9.2125     48.0270    124.3127   2.9203454754e+02   6.0655823029e+00   0.00957022  0.008609946  16.22 0.0005558109    1.062    0.058
        87 -11.3520    133.8664     48.3147   2.9054958302e+02   6.4592599877e+00   0.02365079   0.00994873  35.14  0.001963648    2.122    0.529
        88 -11.1492    123.2186     48.6502   2.9068443508e+02   6.5162736052e+00   0.01903358  0.009253439  33.74  0.001685741    1.854    0.460
        89 -12.6614    128.3570    156.0481   2.9120357025e+02   5.2384539251e+00   0.03338963   0.01445029  41.74  0.002742975    2.266    0.559
        90 -11.4872     98.8994    117.7785   2.9136372639e+02   5.8517196481e+00   0.02163201   0.01471498  24.07  0.002238091    1.381    0.276
        91 -10.9575    243.5419     37.4481   2.8912193425e+02   5.9560017575e+00   0.02252908   0.01696863 -15.92  0.001800651    1.512    0.339
        92 -11.3739    205.9324    167.4218   2.9029821263e+02   4.6623798181e+00   0.02423356  0.009160981  35.19   0.00161111    2.329    0.571
        93 -10.3748    147.3939     37.0887   2.9031949121e+02   6.5121868077e+00   0.01916269  0.007946406  35.16  0.001576781    2.149    0.535
        94 -10.0488    141.9591     34.9642   2.9037580792e+02   6.5679787068e+00   0.01769488   0.01001511  20.09  0.001393345    1.739    0.425
        95 -10.3320    246.7975     30.9368   2.8904583284e+02   6.0127990631e+00   0.02746365   0.01528152  66.19  0.002268962    2.687    0.628
        96  -9.8734     89.8523    116.6307   2.9147048399e+02   5.9166816426e+00    0.0101366  0.005602066  35.22 0.0004292132    1.662    0.398
        97  -9.7516    132.8122     31.9789   2.9047382712e+02   6.6550059976e+00   0.01635703  0.008565177 -56.55  0.001496786    1.940    0.485
        98  -9.0772     21.5360     30.9753   2.9186003078e+02   7.3012526250e+00  0.009577085  0.006793374 -64.19 0.0003211656    1.499    0.333
        99 -10.2476    141.0262     29.9348   2.9036007117e+02   6.6317171242e+00   0.01093877  0.009675131 -35.98            0    1.186    0.157
       100 -11.0254    250.2770     24.8670   2.8896934604e+02   6.0631710451e+00   0.02078453   0.01168366 -66.03  0.001430416    1.919    0.479
       101 -11.5180    240.3390     23.5952   2.8908622989e+02   6.1351219757e+00   0.02256838   0.01470624  65.66  0.001806319    1.947    0.486
       102  -9.4511     65.9931    242.4704   2.9244860515e+02   4.5885079649e+00   0.01040394  0.006330338  26.41 0.0003998755    1.524    0.344
       103  -9.3625     56.9128    116.3475   2.9188041383e+02   6.1076640160e+00  0.009435558  0.008379092  16.89  0.000400479    1.075    0.070
       104 -10.8094    201.5687     21.7219   2.8955943438e+02   6.3797824964e+00    0.0122948   0.01107718  -0.49 0.0002739742    1.121    0.108
       105 -10.6625    159.9549     19.9783   2.9006937938e+02   6.6388443561e+00   0.01393229  0.009406631 -53.19 0.0004743263    1.535    0.349
       106  -9.4622    197.5547     18.1731   2.8959015577e+02   6.4440166605e+00    0.0104605  0.008747912 -10.93 0.0004512443    1.276    0.216
       107  -9.0163    127.3239    238.2862   2.9166164846e+02   4.2877313965e+00  0.006997648  0.005060134 -21.06 0.0002731826    1.602    0.376
       108 -10.0352    236.9223    234.6332   2.9027730548e+02   3.7037186311e+00   0.01143825  0.009474877 -40.44 0.0008902238    1.272    0.214
       109 -11.1139    125.0485    109.5135   2.9099238139e+02   5.7984924765e+00   0.01497375  0.009465691  31.53   0.00149505    1.453    0.312
       110  -8.9674     69.4277    230.4773   2.9234110705e+02   4.7085193620e+00  0.006756155  0.006408721  17.37 4.581074e-05    1.017    0.017
       111 -10.0108    204.2493    226.0092   2.9063710050e+02   3.9909550615e+00    0.0168286  0.008042185  32.72   0.00130742    1.877    0.467
       112 -10.3133    238.0855    223.9603   2.9020492889e+02   3.8210823188e+00    0.0123657   0.01061814   8.78 0.0004559621    1.154    0.134
       113  -9.0599     76.9867    154.2893   2.9183512619e+02   5.5519842758e+00  0.009412287  0.008338455  25.66  0.000168024    1.057    0.054
       114 -10.3942    180.9797    223.0892   2.9091100175e+02   4.1580020984e+00   0.02297059  0.009401312  23.83  0.001830025    2.327    0.570
       115 -10.1283     63.2395    219.9069   2.9236123960e+02   4.8667387894e+00   0.01250116  0.008321655  46.46 0.0008111512    1.530    0.346
       116  -9.4713    124.2845    215.9800   2.9157890995e+02   4.5645593186e+00  0.009229114   0.00917047   6.03 0.0008145048    1.061    0.057
