#   1 NUMBER                 Running object number                                     
#   2 MAG_AUTO               Kron-like elliptical aperture magnitude                    [mag]
#   3 X_IMAGE                Object position along x                                    [pixel]
#   4 Y_IMAGE                Object position along y                                    [pixel]
#   5 X_WORLD                Barycenter position along world x axis                     [deg]
#   6 Y_WORLD                Barycenter position along world y axis                     [deg]
#   7 A_WORLD                Profile RMS along major axis (world units)                 [deg]
#   8 B_WORLD                Profile RMS along minor axis (world units)                 [deg]
#   9 THETA_WORLD            Position angle (CCW/world-x)                               [deg]
#  10 FWHM_WORLD             FWHM assuming a gaussian core                              [deg]
#  11 ELONGATION             A_IMAGE/B_IMAGE                                           
#  12 ELLIPTICITY            1 - B_IMAGE/A_IMAGE                                       
         1 -14.0713    183.5273    191.1064   8.2070334419e+01   6.7817611745e+00     5.711954     3.217992   0.73   0.01911053    4.049    0.753
         2 -13.5912    132.0391    121.7882   7.8951769123e+01   3.1755580564e+01       3.1655    0.6316225 -46.26   0.00762002    4.895    0.796
         3 -15.0551    148.7705    157.3815   8.3053106705e+01   2.0276830658e+01     4.726296      2.95604  66.25    0.0181595    2.533    0.605
         4 -14.6050    165.6058    147.1928   7.6811932901e+01   1.9106151810e+01     6.577681     2.127434 -54.99    0.0143575    6.935    0.856
         5 -15.9133    183.1489    136.8170   7.0516655134e+01   1.7629413268e+01     10.21242     3.543175 -38.23   0.03291179    2.951    0.661
         6 -14.6532    171.4197    132.7357   7.2092285216e+01   2.0952431041e+01      5.88572     1.660208 -51.82   0.01291474    6.519    0.847
         7  -8.8630     97.5879     12.2222   5.2454638646e+01   5.8164834353e+01    0.1747243    0.1181238   1.05 0.0009482726    1.674    0.403
         8  -9.8192    167.9083    242.4763   9.3980169757e+01   3.9823176181e-01     0.192605    0.1068226  34.47 0.0005028095    1.530    0.346
         9 -10.1197    107.9727    236.9661   1.0555545713e+02   1.0547435358e+01    0.2151154    0.1360751  62.71  0.001146234    1.753    0.429
        10 -10.1075     99.9795    234.2039   1.0690081155e+02   1.2256989262e+01    0.2143158    0.1825024 -71.82   0.00118395    1.298    0.230
        11  -9.2104    170.0513    232.6551   9.2073343425e+01   1.6587905902e+00    0.3303835    0.1391891  25.31  0.001147093    3.060    0.673
        12  -9.9709    237.3683    231.6610   7.8988515308e+01  -8.0522425189e+00     0.237107    0.1970594  -2.17  0.001156614    1.160    0.138
        13 -11.8435     99.0713    226.3997   1.0618537561e+02   1.3922585509e+01    0.4174223    0.3165421  31.60  0.001430389    1.335    0.251
        14  -9.6855     72.8121    229.0192   1.1201279166e+02   1.7122095423e+01    0.2019344    0.1423796  66.35  0.001108835    1.308    0.236
        15  -9.4580    171.0550    225.6924   9.0773714172e+01   2.6687295361e+00    0.2626302    0.1775062  52.78 0.0003389687    1.794    0.443
        16 -11.0207    164.3779    226.2360   9.2243439688e+01   3.6466959195e+00    0.4358608    0.3320231  20.90  0.002542616    1.235    0.190
        17 -10.0161    160.5223    227.4571   9.3236565696e+01   4.0538687215e+00    0.2779962    0.2461821  18.24  0.001400591    1.046    0.044
        18 -11.4877    128.4414    227.3979   1.0001811645e+02   9.2027618950e+00    0.4049269    0.3212621 -37.01  0.002399092    1.489    0.329
        19 -12.2310    125.4621    221.4921   9.9840748973e+01   1.0810248456e+01    0.5544379    0.4304549  36.70  0.001531842    1.163    0.140
        20 -11.2059    132.1647    220.8780   9.8295219092e+01   9.8509330859e+00    0.3418536     0.308623  31.96  0.002126722    1.053    0.050
        21 -11.4357    131.4851    214.7956   9.7548088530e+01   1.1150177158e+01    0.3572968    0.3274178 -57.50  0.001440545    1.206    0.171
        22 -11.2376    117.1648    226.7357   1.0234587580e+02   1.1099933326e+01    0.4628837     0.285445  65.32  0.001748106    2.080    0.519
        23 -10.2643    114.8275    220.9345   1.0208396825e+02   1.2605554728e+01    0.2214246    0.1808111 -33.53 0.0004696719    1.504    0.335
        24  -9.4275    185.5712    225.7355   8.7820799227e+01   3.5920795062e-01    0.4318097    0.1526276 -39.25  0.001738375    3.107    0.678
        25 -11.6904     88.4128    224.7753   1.0827843832e+02   1.5810895814e+01    0.4592237    0.1907807 -56.25  0.002069325    2.586    0.613
        26  -9.3384     19.7806    223.1638   1.2220494106e+02   2.4604632482e+01    0.1451246    0.1288691 -74.42  0.001078044    1.377    0.274
        27  -9.2943    157.4636    221.7330   9.2987587985e+01   5.5638038695e+00    0.2437441    0.1628226  35.76 0.0006070806    1.332    0.249
        28 -10.6120    108.3489    223.2849   1.0380199752e+02   1.3142067098e+01     0.315815    0.2458023   5.20  0.001760274    1.743    0.426
        29  -9.8494     83.4108    220.2380   1.0884560681e+02   1.7461740548e+01    0.1745546    0.1167675 -85.93 0.0007053197    1.649    0.393
        30 -10.2265     74.5738    219.8014   1.1070426426e+02   1.8786296218e+01    0.2423779    0.1607832  42.06  0.001327705    1.369    0.269
        31 -10.8392     99.3918    217.6026   1.0503950560e+02   1.5664215602e+01     0.351472    0.2468175 -84.12  0.001500334    1.652    0.395
        32 -10.5475    143.8557    217.4483   9.5239935902e+01   8.5959831030e+00    0.2908457    0.2050871  48.63 0.0008978845    1.403    0.287
        33  -9.2554     61.6876    217.3001   1.1321230829e+02   2.1029567550e+01    0.1333463   0.08047192  64.54 0.0003119351    1.607    0.378
        34 -11.3635     78.4298    212.1516   1.0902266327e+02   1.9882218101e+01    0.3984244    0.3079351 -23.70  0.002206589    1.952    0.488
        35 -10.2683    117.4566    211.2504   1.0015551172e+02   1.4153817180e+01    0.3104058    0.1371823  47.63  0.001281017    2.227    0.551
        36  -9.3782    149.2083    210.5631   9.2977792275e+01   9.0218919287e+00    0.2703989     0.119558  41.93  0.001124539    2.089    0.521
        37 -10.9786    135.9783    208.7578   9.5620527228e+01   1.1608210721e+01    0.2652287    0.2409768  54.34  0.000455367    1.109    0.098
        38 -10.6562    140.0071    208.3219   9.4651190254e+01   1.1016805890e+01    0.2638403    0.1984808  41.69 0.0007789851    1.228    0.185
        39 -10.3049    127.3149    208.6861   9.7555055382e+01   1.3068662861e+01    0.2222245     0.165253  39.66 0.0007918727    1.229    0.187
        40 -10.6535    124.0035    205.9801   9.7891313163e+01   1.4176271281e+01    0.1988851    0.1819197  49.47  0.001179559    1.025    0.025
        41 -10.6965     99.3528    206.3420   1.0357738738e+02   1.8055013433e+01    0.3094524    0.2220765  86.12  0.001188454    1.626    0.385
        42  -9.7586     56.5028    205.5151   1.1317517194e+02   2.4259383205e+01    0.2309276    0.1128065 -85.70 0.0008576377    2.384    0.581
        43 -11.3666    246.2723    247.9079   8.0131642650e+01  -1.1254877679e+01    0.5386264    0.2701265  27.89  0.002979728    1.751    0.429
        44 -10.6105    250.2313    241.7684   7.8445876590e+01  -1.0984180811e+01    0.2872054    0.1683246 -26.77  0.001469681    1.559    0.359
        45 -13.7032    141.9183    116.4277   7.5011082326e+01   3.0849082338e+01     2.719261    0.9492485 -40.82   0.00846662    2.952    0.661
        46 -14.9919    150.7905    185.2778   8.8194074270e+01   1.3845607698e+01      2.71945     1.942674  34.60   0.01353713    1.354    0.262
        47 -15.3625    138.5710    166.3336   8.7407794084e+01   2.0245802980e+01      3.13062     2.224325  -1.33   0.01351008    2.077    0.519
        48 -10.4990    166.4245    248.7132   9.5169786352e+01  -3.5427412779e-01    0.2676612    0.1871431  15.34  0.001552897    1.448    0.309
        49 -10.8640    166.6830    187.3642   8.4997256169e+01   1.0523909836e+01    0.4309686     0.230319  44.31  0.001331837    1.883    0.469
        50  -9.5272     54.9973    187.2620   1.1156600301e+02   2.8628543642e+01    0.2866879    0.1436083  78.95  0.001167142    2.734    0.634
        51 -11.3502    176.7773    184.8335   8.2296506375e+01   9.1898836491e+00    0.4517663    0.3654865  53.49  0.002398346    1.430    0.301
        52 -12.2848    109.0352    184.4877   9.8016590396e+01   2.1377192095e+01    0.6361386    0.4008906 -68.90  0.002355814    1.806    0.446
        53  -8.5524     34.3359    187.6547   1.1644196038e+02   3.0907721464e+01    0.1401294   0.07900191  66.99 0.0007049131    1.771    0.435
        54 -10.2077     15.8632    183.7998   1.2030460477e+02   3.3606709782e+01    0.4564872    0.2337416 -33.04  0.001921709    4.119    0.757
        55 -10.0303     73.9717    183.4010   1.0648766423e+02   2.7037256319e+01    0.3352588    0.1788732 -77.21  0.001461644    2.125    0.529
        56  -9.0887     65.9866    184.5058   1.0858775621e+02   2.7867540789e+01    0.1964215   0.09251162  55.33 0.0005868631    2.362    0.577
        57 -12.3893    120.6714    184.2500   9.5142080427e+01   1.9452317335e+01    0.8758414     0.336457 -57.75  0.003111432    2.908    0.656
        58  -9.9116     83.2929    181.7789   1.0395414217e+02   2.6076513005e+01    0.2481993    0.1696738 -70.60 0.0008956532    1.466    0.318
        59  -8.8432     44.3399    182.6652   1.1359910285e+02   3.0980748033e+01    0.1431571   0.08454759  67.22 0.0007051288    1.753    0.430
        60 -12.2532    105.3343    175.1510   9.7369154487e+01   2.4163803930e+01    0.5646343     0.532298 -43.83  0.003120837    1.134    0.118
        61  -9.2235      9.3111    179.3204   1.2143414205e+02   3.5206100640e+01    0.1173051   0.08082696 -53.16 0.0002635748    1.647    0.393
        62 -10.6242     88.6088    176.7258   1.0185866320e+02   2.6476234474e+01    0.2810091    0.2267795 -86.42  0.001375805    1.269    0.212
        63 -11.5892     77.4114    175.1898   1.0446655905e+02   2.8513422826e+01    0.5575048    0.3826825 -68.68  0.002273073    1.414    0.293
        64 -10.2976    193.4123    172.2117   7.6218809191e+01   8.5795630814e+00    0.2473227    0.1887746  24.58 0.0009333285    1.333    0.250
        65  -9.5501     94.4253    172.2251   9.9651477647e+01   2.6642923180e+01    0.2059246    0.1369743 -74.74 0.0009506416    1.670    0.401
        66  -9.1991     54.9001    169.7218   1.0945530495e+02   3.2852145390e+01    0.2769276    0.1578761  79.07  0.001227518    2.167    0.539
        67 -12.1333    126.0666    197.8325   9.6133165948e+01   1.5548108320e+01    0.4886842    0.4157965  49.86  0.001657082    1.126    0.112
        68 -11.5574    193.6963    166.9644   7.5058101190e+01   9.5335811314e+00     0.475743    0.2851457  21.76  0.001571357    2.140    0.533
        69 -11.5079    111.9226    166.5055   9.4141349441e+01   2.5080317134e+01    0.5527881    0.3201773 -61.79  0.001729007    1.853    0.460
        70  -9.8421     88.8174    168.5276   1.0048764386e+02   2.8418921514e+01    0.2916589    0.1886261 -83.22  0.001082574    1.888    0.470
        71 -11.2733     99.5107    165.6548   9.7203417413e+01   2.7397946550e+01    0.4627539     0.375438 -79.14  0.001706198    1.296    0.228
        72  -9.9586    228.8290    160.3562   6.6912235125e+01   4.3847487588e+00    0.4334924    0.1984859 -30.33  0.001791317    2.234    0.552
        73 -10.6423     79.3241    162.8475   1.0205311174e+02   3.1247801850e+01    0.6519032    0.3073481 -76.08  0.002318779    2.999    0.667
        74 -10.5082    206.9613    163.4691   7.1649522146e+01   7.7304200338e+00    0.3592855    0.2336558  25.87  0.001356964    1.727    0.421
        75  -8.9176     69.7682    163.1904   1.0464968657e+02   3.2525512521e+01    0.2472825    0.1338669  70.13   0.00094596    2.755    0.637
        76 -10.6222     92.7283    159.4467   9.7884889823e+01   3.0016526245e+01    0.5177607    0.3252181 -73.17  0.001909907    1.818    0.450
        77  -8.9346     61.6787    160.3429   1.0637818228e+02   3.4311690410e+01    0.2268396    0.1496231  71.63  0.001021997    1.734    0.423
        78 -10.8126    219.3833    156.5813   6.7815341222e+01   6.7250519707e+00    0.3533963    0.2297169 -46.81 0.0005459341    1.587    0.370
        79 -12.0365    119.6039    154.1181   8.9708592815e+01   2.6639208677e+01    0.7354517     0.420977 -56.74  0.002367102    1.806    0.446
        80 -10.7196     81.6633    153.6351   9.9850339091e+01   3.3181079479e+01    0.5487427     0.299537 -69.63  0.002050509    1.999    0.500
        81  -9.8527     67.5099    153.2271   1.0368617403e+02   3.5314086091e+01    0.3439109    0.2169397  85.08  0.001227119    2.016    0.504
        82 -10.4226     98.4354    149.4881   9.4450680972e+01   3.1520096296e+01    0.5124936     0.241144 -59.72  0.001742969    2.186    0.542
        83  -9.8446     91.0217    150.0567   9.6606327342e+01   3.2606049378e+01    0.3915747     0.206904 -58.46  0.001626227    1.831    0.454
        84 -11.9330    105.7452    156.4656   9.3843877821e+01   2.8564232207e+01    0.6725041    0.4278196 -56.71  0.002500476    1.553    0.356
        85 -11.7250    106.8710    144.6595   9.1142303204e+01   3.1233688189e+01    0.7894597    0.5013803  75.00   0.00276649    2.612    0.617
        86  -9.2282     39.2456    147.6562   1.1068619863e+02   4.0095359652e+01    0.3276281    0.1453796  66.29  0.001125291    3.878    0.742
        87  -9.3446     49.4368    155.1274   1.0892518950e+02   3.7111759233e+01    0.2679693    0.1483227  65.52  0.001170781    2.252    0.556
        88 -10.1046     55.6863    145.0774   1.0568413188e+02   3.8887283277e+01    0.5485992     0.296701  85.02  0.002121937    2.829    0.646
        89  -9.4866     56.3792    137.8146   1.0428229218e+02   4.0631567418e+01    0.3684949    0.1760697 -37.93  0.001397318    2.852    0.649
        90  -8.1284     13.3260    146.6792   1.1760134926e+02   4.2656874315e+01    0.1324205   0.08153334  69.06  0.000487627    1.683    0.406
        91  -9.3638    210.1995    145.4459   6.7086118482e+01   1.0490115848e+01    0.2577713    0.1404273  40.39  0.001122659    1.981    0.495
        92 -10.3590     87.8417    142.4538   9.6015467303e+01   3.5004239478e+01    0.6533602    0.2771471 -61.21  0.002364169    2.447    0.591
        93 -11.4155    106.7856    138.8069   8.9904359177e+01   3.2671736627e+01    0.4550481    0.3409152 -13.87  0.002034168    1.804    0.446
        94 -10.4173     69.0249    140.0159   1.0097227408e+02   3.8424500792e+01    0.4354718    0.2325499 -83.45  0.001592563    2.904    0.656
        95  -9.4999     23.4512    138.2755   1.1387595096e+02   4.3912331894e+01    0.3625662    0.1680233  74.54  0.001401449    3.256    0.693
        96 -10.2280    109.4134    205.3063   1.0112700499e+02   1.6696911692e+01    0.2449878    0.1506931  55.15 0.0006821644    1.697    0.411
        97 -11.2028    141.5214    201.6003   9.3209655512e+01   1.2112663802e+01    0.3965197    0.2333279  54.78  0.001761311    2.020    0.505
        98  -9.4851     38.8694    136.0828   1.0914090652e+02   4.3030742151e+01     0.231811    0.1392734  78.77  0.001068587    2.067    0.516
        99 -11.1390    112.9856    131.8569   8.6600508920e+01   3.3201588138e+01    0.6567721    0.3506156 -47.44  0.002201197    1.819    0.450
       100 -10.9018     83.4020    129.3154   9.4591400988e+01   3.8975383457e+01     1.095289    0.3176653 -56.39  0.003377941    3.267    0.694
       101  -9.1909     22.7624    131.6199   1.1321591662e+02   4.5617373918e+01    0.2983671   0.07590356 -47.67 0.0009588206    4.238    0.764
       102  -9.6533    221.9915    130.5607   6.1599010951e+01   1.0952597142e+01    0.2043013    0.1412281  45.01 0.0009967327    1.601    0.375
       103 -10.6994     98.6746    127.2683   8.9616276551e+01   3.6926711477e+01    0.6757754    0.4072789 -74.96  0.002472145    2.499    0.600
       104 -10.1951     98.3749    120.8178   8.8179023208e+01   3.8540145804e+01    0.4994003    0.3537243   8.31  0.002172844    1.958    0.489
       105 -10.0216     72.8196    128.2611   9.7559561797e+01   4.0836812451e+01    0.4824304    0.2064981 -64.27  0.001751979    2.519    0.603
       106  -9.3489     12.5083    129.1616   1.1588256389e+02   4.6998873479e+01     0.305766    0.1266014  69.31  0.001077489    4.195    0.762
       107 -12.1344    118.1564    123.0064   8.3025835570e+01   3.4297023414e+01    0.9018227    0.5114673 -46.23  0.003120032    1.715    0.417
       108 -10.1424     59.1058    123.6907   1.0086359505e+02   4.3839974334e+01    0.5814296    0.3126764 -88.89  0.002022121    3.496    0.714
       109 -10.2527     43.3126    122.0871   1.0551060358e+02   4.6075735583e+01    0.6638186    0.3411938  86.15  0.002371546    3.558    0.719
       110 -11.5610    213.9245    124.0152   6.1509089262e+01   1.3746068987e+01    0.4702203    0.2377224  40.30  0.001950941    2.296    0.564
       111 -10.0781     28.3423    122.2333   1.1020021098e+02   4.7475569569e+01    0.6043819     0.275445  78.42  0.001917167    4.892    0.796
       112  -9.4714     70.8871    118.7901   9.6142910352e+01   4.3467084678e+01    0.4730786    0.1969618 -64.97  0.001633855    2.854    0.650
       113 -10.3537      2.7119    116.8832   1.1730866162e+02   5.0596037595e+01     0.551472    0.2172365  80.62  0.001918746    4.413    0.773
       114  -9.2663    107.3090    212.6737   1.0263401736e+02   1.5471301955e+01    0.1402941   0.09636254  67.02  0.000429111    1.656    0.396
       115 -11.2224    108.9601    111.3470   8.2667174353e+01   3.8808858012e+01    0.9855891     0.381268 -50.59  0.003324196    2.584    0.613
       116  -8.7941     58.3239    115.3191   9.9408141647e+01   4.6019585341e+01    0.1494323    0.1012226 -31.61 0.0003233881    1.674    0.402
       117 -10.5550     92.5525    109.4540   8.7112035285e+01   4.2277177177e+01     1.133568    0.3418425 -50.04  0.003534086    3.099    0.677
       118 -10.2899     78.6439    111.7623   9.2061918682e+01   4.4025101352e+01    0.6302068    0.3384269 -74.55  0.002152342    3.292    0.696
       119 -11.5610    122.7823    109.9797   7.8372460786e+01   3.6347627901e+01     0.778088    0.4840087 -29.66  0.003151951    1.928    0.481
       120 -11.4368      8.3793     92.8609   1.1208805864e+02   5.6018345358e+01    0.8592408    0.3761202  20.99  0.004235906    2.688    0.628
       121 -11.9314      4.3244    100.7204   1.1468797884e+02   5.4380508501e+01    0.6953268    0.4174185  68.97  0.003707497    2.120    0.528
       122  -9.7070     65.9968    108.8884   9.5478310051e+01   4.6580142301e+01    0.5737968    0.2013062 -56.44  0.002034058    2.598    0.615
       123  -9.2989     59.7558    107.5022   9.7226930115e+01   4.7751855657e+01    0.4150358    0.1555573 -43.05  0.001467564    2.803    0.643
       124 -11.6647     88.6694    197.9717   1.0492330778e+02   2.1528980325e+01    0.6247343    0.2793321 -64.62  0.002635515    2.357    0.576
       125 -11.6336    139.9261    102.3715   7.1736996711e+01   3.4309440183e+01    0.8067101    0.4244358 -38.51  0.002968902    1.929    0.482
       126 -10.9395     22.9118    102.7151   1.0874593809e+02   5.2701257562e+01    0.6332518    0.3386391  71.47  0.002636825    3.166    0.684
       127 -10.2675     45.3920    102.2820   1.0093819656e+02   5.0727022482e+01    0.6367598    0.3555008  74.33  0.002262051    3.987    0.749
       128 -11.2195    129.0100     99.7553   7.3857687521e+01   3.7262362782e+01    0.7269035    0.4617087 -26.85  0.002482803    1.911    0.477
       129 -11.4710    113.0231    197.9247   9.9193209292e+01   1.7709070884e+01    0.4146407    0.2786336  67.51  0.001294347    1.829    0.453
       130  -9.7911    107.5067     92.9838   7.8008066540e+01   4.3202981610e+01    0.6346797    0.3738407  14.16  0.002175638    3.207    0.688
       131  -9.1146     81.7197     99.6873   8.7999433302e+01   4.6395805472e+01    0.2982079    0.1823377 -72.99  0.001158651    2.556    0.609
       132  -9.8069     96.3168     91.1735   8.0913003910e+01   4.5756775984e+01    0.6550794    0.3425217 -21.25  0.001960996    4.186    0.761
       133  -9.7568     63.4872     95.7351   9.3109294164e+01   5.0061649899e+01    0.4227212    0.2655139 -89.48  0.001612391    3.187    0.686
       134 -10.4192    108.2006     98.1293   7.9281571116e+01   4.1944016984e+01    0.5510136    0.3864714 -80.12  0.001727117    2.308    0.567
       135 -11.7243     14.1090    108.8670   1.1267290233e+02   5.1841736922e+01    0.6856319     0.317932 -76.77   0.00237549    2.052    0.513
       136 -10.6986    157.7970     90.9841   6.4270621548e+01   3.2515759778e+01    0.5190411    0.2828738 -32.78  0.001959961    1.980    0.495
       137 -10.3237    140.6112     73.4180   6.3126897414e+01   3.9816421299e+01    0.4978115    0.2991708 -22.09  0.002018626    2.141    0.533
       138 -11.1721    138.7991     89.9803   6.8505961927e+01   3.7100807996e+01    0.6849917    0.3488757 -36.49  0.002503897    2.031    0.508
       139 -11.0188    140.9536     81.3018   6.5418459230e+01   3.8287856836e+01    0.5885313    0.3174817 -33.60  0.002350159    1.970    0.492
       140 -10.5422    124.2440     90.2896   7.2420663043e+01   4.0277081751e+01    0.4111452    0.2893998 -56.56  0.001108302    1.612    0.380
       141 -10.7198    124.7991     85.7987   7.0932485048e+01   4.1066300450e+01    0.6631332    0.4165626   2.70  0.002289126    3.218    0.689
       142  -9.8352     34.4472     89.3840   1.0197826213e+02   5.4899728187e+01    0.4036676    0.2202984 -82.02  0.001661544    2.883    0.653
       143 -10.1191     35.7694     81.7437   9.9673595041e+01   5.6538071931e+01    0.5140678     0.195942 -40.35  0.002048599    2.591    0.614
       144 -13.5414    149.6597    142.6562   7.9540623849e+01   2.3380825265e+01     2.111674     1.019445 -49.73  0.007913057    2.116    0.527
       145 -14.5329    197.8808    143.8389   6.9115188173e+01   1.3216160197e+01      2.47122     1.447925 -37.65  0.001223924    1.616    0.381
       146 -11.0455    158.2318     82.0723   6.1652728898e+01   3.4087174367e+01    0.5749929    0.3343171 -22.37  0.002231098    2.320    0.569
       147  -9.9914    157.5326     75.0373   5.9777363141e+01   3.5516231423e+01    0.4044796    0.2634481 -27.82  0.001493009    1.703    0.413
       148 -10.6565      9.9117     73.7819   1.0794974139e+02   6.0323087989e+01    0.2947611     0.206759 -40.40  0.001303698    1.221    0.181
       149 -11.1426      8.0558     83.1678   1.1051312151e+02   5.8293473475e+01     0.457445    0.3048723 -26.61  0.001876825    1.571    0.363
       150 -11.8905      4.2289     79.3959   1.1126058907e+02   5.9357398409e+01    0.8055217    0.2226117 -58.29  0.003469268    2.370    0.578
       151 -10.3537    104.7208     80.1548   7.4971583974e+01   4.6437894292e+01    0.8350227      0.35777 -37.22  0.003028502    2.455    0.593
       152  -9.2250     48.0079     84.0312   9.5632158118e+01   5.4719719245e+01    0.2139562     0.166977  75.11  0.001129722    1.828    0.453
       153  -9.4432     43.1745     92.4228   9.9495667187e+01   5.3315516286e+01    0.2255526    0.1542861 -62.24 0.0007163198    1.377    0.274
       154  -9.8425     24.6293     81.1657   1.0381080828e+02   5.7646915599e+01    0.3016611    0.2054863  71.82  0.001561946    2.220    0.549
       155  -9.6386    151.3860     72.3256   6.0318630034e+01   3.7459257995e+01    0.3708116    0.2307339 -32.84  0.001245495    1.676    0.403
       156  -9.3136     87.0988     80.6847   8.0741640695e+01   4.9682967292e+01    0.3118798    0.1803248  13.15  0.001142296    2.948    0.661
       157 -10.9968    167.3570     76.8780   5.8263322420e+01   3.2843323375e+01    0.5378072    0.3582275 -14.53  0.002260734    2.088    0.521
       158 -10.7331    170.6512     70.1391   5.5720104405e+01   3.3203668183e+01    0.4733624    0.2263292 -27.98  0.001767913    2.525    0.604
       159  -9.5167    119.3817     78.3898   7.0154841530e+01   4.3707402811e+01    0.4839431    0.2349893 -34.66  0.001841828    2.201    0.546
       160  -9.8584     66.2859    194.2281   1.0970795675e+02   2.5554297191e+01    0.3358273    0.1827932  82.32  0.001461919    2.399    0.583
       161  -9.7393    127.5276     75.0392   6.6907802700e+01   4.2534558434e+01     0.361838    0.2463721 -66.21  0.001382739    2.101    0.524
       162 -10.2195    128.3506     70.5206   6.5275682950e+01   4.3172207745e+01    0.5125536    0.3469196  10.31  0.002132493    2.222    0.550
       163  -9.4157     86.3255     86.5414   8.2772796905e+01   4.8570518325e+01    0.3041018     0.234009  78.25 0.0009487046    1.961    0.490
       164 -11.1806    163.3544     71.3348   5.7495617607e+01   3.4759024372e+01    0.6329728    0.2515283 -33.00  0.002214471    2.718    0.632
       165  -8.6829    107.2327    248.6319   1.0702292832e+02   8.5221812139e+00    0.1723972    0.1032208  30.54 0.0007911054    1.643    0.391
       166 -10.5098    150.3959     78.6672   6.2413253001e+01   3.6564282190e+01    0.5101908    0.2763595 -32.56  0.001944324    1.978    0.494
       167 -10.8450    157.1394     68.7589   5.8026671855e+01   3.6691003861e+01    0.4066805    0.2472539 -21.13  0.001294425    2.115    0.527
       168 -10.5903    151.5102     87.3226   6.4667657615e+01   3.4686613109e+01    0.5577838    0.3331785 -18.35  0.002078763    2.548    0.608
       169  -9.4612    187.6537     68.0178   5.2093912195e+01   2.9482579469e+01     0.326781    0.1308661 -36.02  0.001220449    2.430    0.588
       170  -9.9742    187.5495     62.4605   5.0630165823e+01   3.0385867470e+01    0.3443554    0.1305285 -36.84  0.001278795    2.518    0.603
       171 -10.3989    147.2469     65.9987   5.9335402757e+01   3.9529916272e+01    0.5689123    0.2831997 -28.85   0.00219899    2.320    0.569
       172 -11.4853    203.4406     66.1821   4.9127642810e+01   2.6080678992e+01    0.3765826    0.2008832 -34.64  0.001677762    1.846    0.458
       173  -9.8339    182.1307     67.6122   5.2927786345e+01   3.0862968024e+01    0.2862049    0.2139361 -30.24  0.001065585    1.411    0.291
       174 -10.3004    138.5430     64.4370   6.0845083227e+01   4.1860684906e+01     0.506808    0.2422271 -32.09  0.001966079    2.256    0.557
       175  -9.6221    121.8766     63.5089   6.4713941297e+01   4.5870412204e+01    0.5391825    0.2471394 -28.10  0.001955651    2.695    0.629
       176  -9.0650    115.6251     71.0046   6.8863305037e+01   4.5919160044e+01    0.3479212    0.1415361 -38.88  0.001253813    2.472    0.595
       177 -11.5913    169.7483     62.7797   5.3810601698e+01   3.4619440806e+01    0.3865348    0.2546497 -23.03  0.001768759    1.795    0.443
       178 -10.7366    102.8224    193.9186   1.0099689468e+02   2.0250958806e+01    0.2625912    0.1951619  55.94 0.0008022106    1.327    0.247
       179  -9.6788     77.8032    192.9997   1.0683418812e+02   2.4250233894e+01    0.2343122    0.1430356  76.95  0.001080718    2.012    0.503
       180  -8.9432     43.5038    193.0306   1.1485733111e+02   2.8652136708e+01    0.1949933   0.09251407  80.18 0.0008099519    2.677    0.626
       181 -11.2904    164.5034     59.5059   5.3854946263e+01   3.6407580060e+01    0.2879553    0.2050854  38.03 0.0009451072    1.585    0.369
       182  -9.2743    111.2477     59.1083   6.6153951599e+01   4.8972837593e+01    0.3427058    0.2107023   8.43  0.001303994    2.816    0.645
       183  -8.8798     73.4055     60.1981   7.8760635405e+01   5.6118854500e+01     0.194929    0.1281669 -51.01 0.0009452346    1.722    0.419
       184 -11.5375      2.5800     66.8591   1.0945932062e+02   6.2242027870e+01    0.5394334     0.263204 -63.15  0.002899862    1.645    0.392
       185  -9.9105    147.0438     57.9321   5.6908930465e+01   4.0887705810e+01     0.336836    0.1957234 -16.27  0.001337445    2.473    0.596
       186 -11.0374      7.4402     58.3387   1.0545431950e+02   6.3833406844e+01    0.3071503    0.1745572  38.98  0.001691176    2.376    0.579
       187 -10.3230    201.2906    192.4327   7.8671781177e+01   3.4656577592e+00    0.2897502    0.1576393  25.16  0.001284418    2.071    0.517
       188  -9.7076    130.8258     55.8232   5.9932633884e+01   4.5077620819e+01    0.3775767    0.2071475 -21.12  0.001510147    2.371    0.578
       189 -10.9345      2.2308     54.5172   1.0681969644e+02   6.4908134360e+01    0.4604365    0.0964763 -51.10  0.001914746    2.741    0.635
       190 -10.8912    204.0139    188.4902   7.7360543290e+01   3.6998015088e+00    0.3091193    0.2354419  47.38  0.001239308    1.537    0.349
       191 -11.7478    209.9672    184.2027   7.5340623590e+01   3.4424015080e+00     0.917161    0.3538077  30.28  0.003241919    3.386    0.705
       192  -9.0697     82.2619     72.4558   7.9767016399e+01   5.2225894977e+01    0.2369876    0.1783751 -65.19 0.0008358335    1.769    0.435
       193 -10.1071    139.8592     54.0598   5.7269155238e+01   4.3213106322e+01    0.3803899    0.2022585 -17.90  0.001436195    2.763    0.638
       194  -9.3573    100.6296     54.5392   6.7671800258e+01   5.1992468018e+01    0.2413441    0.1837127  21.61 0.0005248248    1.379    0.275
       195 -10.4182    207.4800     54.0742   4.5532567588e+01   2.6973695441e+01    0.2071847    0.1272533 -37.66 0.0005526957    1.562    0.360
       196  -9.1770     25.5147     54.4788   9.6369813292e+01   6.3353922851e+01      0.17302    0.1128355  30.66 0.0009902815    1.788    0.441
       197 -10.0564    201.4203     52.7295   4.6018109287e+01   2.8570029541e+01     0.185495      0.13336 -23.49 0.0008522527    1.628    0.386
       198  -8.6937     31.6028     52.2976   9.2969198865e+01   6.3224385423e+01     0.117043   0.09897343  62.96 0.0007002648    1.808    0.447
       199 -12.1237     95.5329    186.9281   1.0170353302e+02   2.3000288808e+01    0.7401183    0.3958226  59.93  0.002497304    2.366    0.577
       200  -8.2006     45.3446     49.2941   8.5933590451e+01   6.2260914350e+01    0.1366699   0.08853348 -13.45 0.0003122712    1.664    0.399
       201  -9.7169    130.1814     46.6438   5.7061512658e+01   4.6614577141e+01    0.2663061    0.1806172   7.84 0.0006597854    2.068    0.516
       202 -11.4406    131.3275    204.0212   9.5918586675e+01   1.3356651656e+01    0.4106361    0.2893352  72.62   0.00198517    1.935    0.483
       203  -9.2568     22.8146     46.4346   9.5021996198e+01   6.5181973230e+01    0.2118427    0.1112205  25.66  0.001133667    2.076    0.518
       204 -10.5269      5.8338     43.1641   1.0207612977e+02   6.7033635032e+01    0.1959802    0.1604021  32.89  0.000931251    1.617    0.381
       205 -11.3128     94.3453    181.3238   1.0113629512e+02   2.4494071207e+01    0.3576668    0.2720237 -36.34  0.001833215    1.586    0.370
       206  -9.4058    113.5813     42.0365   5.9565232885e+01   5.1099926780e+01    0.2946059    0.1927823  22.13  0.001039431    1.870    0.465
       207  -9.7891    173.6581    243.5509   9.2991128573e+01  -6.4293143582e-01     0.195532    0.1177437 -44.15   0.00108071    1.933    0.483
       208  -8.8464     84.2007     39.7898   6.7389597255e+01   5.7599182894e+01    0.1849135    0.1432775  11.66 0.0003494166    1.288    0.224
       209  -9.0157    106.2831     37.0196   5.9691324756e+01   5.3413409421e+01    0.1886195    0.1702415  -1.80 0.0003211662    1.113    0.101
       210  -8.7451    217.3777     34.2709   3.9580608207e+01   2.7417314771e+01    0.1247173   0.09521257  42.77 0.0006996167    1.689    0.408
       211  -9.3508    123.0778     41.2332   5.6907853693e+01   4.9038989346e+01     0.284451    0.1736118   7.12  0.001160134    2.629    0.620
       212 -11.0813    237.3336    240.6338   8.0501161453e+01  -9.2300870348e+00    0.3794655    0.2287205  31.31  0.001740814    1.558    0.358
       213  -8.3009    110.3386     24.7053   5.4085554876e+01   5.4032979535e+01    0.1305206    0.1049746 -77.94 0.0004344008    1.652    0.395
       214 -10.7093     86.7782    188.3658   1.0404634424e+02   2.4010545940e+01    0.3569353    0.1906873 -71.24    0.0015636    2.079    0.519
       215  -8.4972     41.0176     21.0075   7.6239145221e+01   6.7471306162e+01     0.146493    0.1151911  -9.63 0.0004035117    1.063    0.059
       216  -9.2154     13.0621     21.1610   9.0435909708e+01   7.0540287284e+01    0.1849615    0.1217396 -16.79 0.0008109565    1.277    0.217
       217  -9.2703     40.8487     13.8947   7.2935286909e+01   6.8452914744e+01    0.1788895    0.1290659   3.24 0.0002492686    1.189    0.159
