#   1 NUMBER                 Running object number                                     
#   2 MAG_AUTO               Kron-like elliptical aperture magnitude                    [mag]
#   3 X_IMAGE                Object position along x                                    [pixel]
#   4 Y_IMAGE                Object position along y                                    [pixel]
#   5 X_WORLD                Barycenter position along world x axis                     [deg]
#   6 Y_WORLD                Barycenter position along world y axis                     [deg]
#   7 A_WORLD                Profile RMS along major axis (world units)                 [deg]
#   8 B_WORLD                Profile RMS along minor axis (world units)                 [deg]
#   9 THETA_WORLD            Position angle (CCW/world-x)                               [deg]
#  10 FWHM_WORLD             FWHM assuming a gaussian core                              [deg]
#  11 ELONGATION             A_IMAGE/B_IMAGE                                           
#  12 ELLIPTICITY            1 - B_IMAGE/A_IMAGE                                       
         1 -13.8897    159.8168     52.9239   8.0262777805e+01   3.8453195963e+01     1.689502     1.207935  20.12  0.005894488    1.808    0.447
         2 -13.7977    171.7704     37.1753   7.3234303666e+01   3.7640276311e+01    0.9465748    0.9310636 -25.60  0.003337884    1.079    0.073
         3 -11.5586    189.7130     14.6089   6.4119520070e+01   3.5736483255e+01    0.3460881     0.218737 -57.49  0.001396558    1.644    0.392
         4 -13.5105    188.4635      5.2582   6.1659090324e+01   3.6981740185e+01    0.9783334    0.6796963  72.69   0.00401789    1.305    0.234
         5 -10.4238    168.9138    234.2074   1.1960812771e+02   3.3208417528e+00    0.1837274    0.1482306  50.88 0.0007513473    1.243    0.196
         6 -18.6747     67.2027    244.9383   1.3945738927e+02   1.6881868787e+01     5.643079     4.721827  53.27   0.03695669    1.259    0.205
         7 -11.6276    155.0937    196.9695   1.1659291599e+02   1.1817329909e+01    0.3869057    0.2584248 -84.00  0.001742627    2.667    0.625
         8  -9.8522    180.1652    192.2297   1.1067305263e+02   8.0837659864e+00    0.1815578    0.1556384  61.60 0.0004975089    1.355    0.262
         9 -11.1697    167.5038    190.3928   1.1290447243e+02   1.0738449361e+01    0.3424648    0.2684015 -11.18  0.001828872    1.559    0.359
        10 -11.1452      6.3233    221.0471   1.4844130372e+02   2.8104784238e+01    0.1350228   0.08594584 -62.67 0.0009429337    1.912    0.477
        11 -10.5365    163.3565    210.5192   1.1712733922e+02   7.9881711471e+00    0.2018917    0.1250781 -44.93 0.0006015146    1.841    0.457
        12 -13.5198    137.4261    199.1603   1.2061154272e+02   1.4551170521e+01    0.7563536    0.4195225  50.29  0.003655675    1.713    0.416
        13 -11.6252     10.3867    206.6936   1.4697649086e+02   3.0481400409e+01    0.3559434    0.2870694  73.06  0.002813216    1.171    0.146
        14 -12.0205     38.0975    183.7184   1.3987503056e+02   3.2400464672e+01    0.2099645    0.1677024  82.19 0.0004084507    1.011    0.011
        15 -10.2212     31.6142    207.2056   1.4308339357e+02   2.8229309163e+01    0.1723504    0.1366405   2.38  0.001123381    2.313    0.568
        16 -11.6598    205.7464    180.5691   1.0346394675e+02   5.3189547425e+00    0.5048915    0.2731748  43.36  0.002158061    1.790    0.441
        17 -11.4831    208.5380    178.5063   1.0252655544e+02   5.1405111684e+00    0.3880701    0.3085471  16.26  0.002207888    1.226    0.184
        18 -10.1368     26.9602    179.9721   1.4188597656e+02   3.4386426474e+01    0.1605492    0.1440547  46.45 0.0007660981    1.378    0.274
        19 -10.3422     17.5820    180.6083   1.4388149996e+02   3.5162401536e+01    0.1121802   0.08915683  88.48 0.0003561048    1.087    0.080
        20 -10.9432    161.0624    198.3181   1.1559594259e+02   1.0499908632e+01    0.3246993    0.2283475  86.53   0.00154008    2.413    0.586
        21 -10.2852     34.6562    178.1101   1.4008871188e+02   3.3990670859e+01    0.2048547    0.1570447  10.40  0.000446919    2.051    0.512
        22 -11.9875    196.0579    171.7085   1.0356234336e+02   8.6353514564e+00    0.5991501    0.3596356 -44.03   0.00226375    1.777    0.437
        23 -10.4534    194.1925    166.1261   1.0278184455e+02   9.9761225187e+00    0.3047054    0.2319836  34.13  0.001052093    1.271    0.213
        24 -10.5158    122.9870    165.9919   1.1821592094e+02   2.3850009192e+01    0.2148214    0.1957025  69.25  0.001226127    1.056    0.053
        25 -11.4397    142.2247    165.7989   1.1377395151e+02   2.0285746522e+01    0.2918743     0.197828 -62.69 0.0005614102    1.709    0.415
        26 -10.2445    223.7526    163.8732   9.6719584674e+01   4.6877849620e+00    0.2390197    0.1797805 -48.88  0.000724975    1.579    0.367
        27 -11.8987    111.8860    158.7179   1.1950894611e+02   2.7433653825e+01    0.4388081    0.3053197 -76.98  0.002122174    1.680    0.405
        28 -10.8529    163.5135    204.2399   1.1608429166e+02   9.0270215426e+00    0.2525322    0.2327519 -42.02 0.0005615532    1.223    0.182
        29 -11.6012     24.9782    156.5720   1.4017270591e+02   3.9758256801e+01    0.4825035    0.2695428  49.29  0.002767354    1.783    0.439
        30 -11.6235     27.4627    150.9201   1.3899823101e+02   4.0808693382e+01    0.3699863    0.1996989  60.14  0.001978835    1.929    0.482
        31 -10.8571    139.9925    156.5087   1.1244427764e+02   2.2662964142e+01     0.255191    0.2138943 -53.07 0.0003421783    1.224    0.183
        32 -10.7934    158.7659    204.7325   1.1711839937e+02   9.7819048776e+00    0.3280346    0.1592123  48.11  0.001146491    1.961    0.490
        33 -12.9018    193.5077    192.9319   1.0817645365e+02   5.5353851156e+00    0.9457623    0.5281722 -52.91  0.002914243    2.455    0.593
        34 -12.8837    134.0507    145.5227   1.1155285848e+02   2.6191998471e+01     1.280105    0.3217493 -54.15   0.00311022    5.742    0.826
        35 -10.2014    174.8657    149.1144   1.0309377962e+02   1.7065920541e+01     0.227407    0.2066435  89.73 0.0006528159    1.286    0.222
        36 -11.0695    208.3787    196.8646   1.0607497662e+02   2.2745966415e+00    0.2197718    0.1700247  42.36 0.0006072399    1.309    0.236
        37 -13.4750      4.4802    130.0231   1.4249286669e+02   4.7461137598e+01     1.910265     0.677742 -77.82  0.008848182    2.335    0.572
        38 -12.1489      5.5975    112.0985   1.4023041423e+02   5.1477473307e+01    0.4789266    0.2554629   6.40  0.002071788    2.844    0.648
        39 -12.9276    114.1777    138.6465   1.1498582675e+02   3.1537807848e+01    0.7524948    0.5318042   6.31  0.003239115    2.338    0.572
        40 -12.1732    104.1480    138.3241   1.1748360259e+02   3.3424046956e+01    0.3051964    0.2650039  56.54 0.0003611936    1.162    0.139
        41 -12.0115    106.0461    130.8665   1.1541283416e+02   3.4801663364e+01    0.4411649    0.3499769 -65.45   0.00136776    1.262    0.208
        42 -10.9385    107.9880    125.4351   1.1368968279e+02   3.5693686167e+01    0.2895741    0.2644239  -8.08 0.0006986791    1.271    0.213
        43 -11.9809    119.2989    129.3431   1.1162920880e+02   3.2671141337e+01    0.4179339    0.3374171 -55.82  0.001083824    1.219    0.180
        44 -12.3300    124.1553    126.5940   1.0974922689e+02   3.2334151085e+01    0.6567705    0.4204475  79.33  0.002470221    2.770    0.639
        45 -11.9573    135.4405    122.3921   1.0589799221e+02   3.0953162292e+01    0.6659241    0.2013616 -48.07  0.002000681    3.352    0.702
        46 -10.7573    113.3468    118.5808   1.1065207131e+02   3.6243994134e+01    0.2756627    0.2397151  71.90 0.0004422362    1.252    0.201
        47 -10.1573    117.2725    115.9635   1.0896623830e+02   3.6068057110e+01     0.308944    0.1849521  67.38  0.001153468    2.653    0.623
        48 -10.6640    168.0478    113.2235   9.5932182405e+01   2.5665759826e+01    0.4196346    0.3064791 -89.63  0.001459735    2.025    0.506
        49 -10.7644    160.6443    127.9818   1.0129723898e+02   2.4349079309e+01    0.3442281    0.2418206 -63.11   0.00151689    1.752    0.429
        50 -12.1627     84.7543    109.0209   1.1633897025e+02   4.3495949288e+01     0.508074    0.2464396 -45.03  0.002095278    2.021    0.505
        51 -10.2230    205.5504    110.1882   8.7660960487e+01   1.7658598151e+01    0.2632947    0.2143611  50.24 0.0006209613    1.286    0.223
        52 -10.2337    198.8429    222.6803   1.1230973011e+02   9.3028195766e-02    0.1748275     0.137107  32.52 0.0004676043    1.100    0.091
        53 -11.9287     18.6669    141.7776   1.4015609824e+02   4.3694162329e+01    0.3051786    0.1789688  16.64  0.001442286    2.451    0.592
        54  -9.2845    100.9844    105.9542   1.1090377079e+02   4.1405933773e+01     0.174796    0.1652948 -51.86 0.0003029289    1.003    0.003
        55  -9.7823    147.4900     79.5320   9.1150844886e+01   3.6989575082e+01    0.1516191    0.1502535 -15.17 8.569409e-05    1.002    0.002
        56 -10.5052     92.4165     79.0741   1.0591194413e+02   4.8791598983e+01    0.2455053    0.2078275  46.80 0.0003526121    1.285    0.222
        57 -10.8384     13.4953    244.9000   1.4838912604e+02   2.3099230082e+01    0.1628983   0.07940743 -76.82  0.001092471    1.915    0.478
        58 -18.9954     51.9234     93.8152   1.2288226788e+02   5.1598603539e+01     19.33767     1.189438 -58.35   0.03055218   15.345    0.935
        59 -12.5687    175.6216     29.8444   7.0413555169e+01   3.7580539309e+01    0.4904009    0.4085081  16.76  0.001308815    1.425    0.298
        60  -9.9739     13.4019     59.4958   1.2848066668e+02   6.2710274309e+01    0.2201831    0.1219002 -62.83 0.0005647782    1.540    0.351
        61 -10.0379    129.4159     27.9924   7.8134128050e+01   4.9344910260e+01    0.2623964    0.1929199  77.76 0.0006982594    1.594    0.373
        62 -12.0331    158.9931    235.8331   1.2168194116e+02   4.6860951158e+00    0.3236738    0.2504612  19.89  0.001008769    1.388    0.279
