#   1 NUMBER                 Running object number                                     
#   2 MAG_AUTO               Kron-like elliptical aperture magnitude                    [mag]
#   3 X_IMAGE                Object position along x                                    [pixel]
#   4 Y_IMAGE                Object position along y                                    [pixel]
#   5 X_WORLD                Barycenter position along world x axis                     [deg]
#   6 Y_WORLD                Barycenter position along world y axis                     [deg]
#   7 A_WORLD                Profile RMS along major axis (world units)                 [deg]
#   8 B_WORLD                Profile RMS along minor axis (world units)                 [deg]
#   9 THETA_WORLD            Position angle (CCW/world-x)                               [deg]
#  10 FWHM_WORLD             FWHM assuming a gaussian core                              [deg]
#  11 ELONGATION             A_IMAGE/B_IMAGE                                           
#  12 ELLIPTICITY            1 - B_IMAGE/A_IMAGE                                       
         1 -13.8160    204.1232     51.5456   1.4642928266e+01   2.9711700400e+01     1.061603    0.8842085  31.55   0.00478179    1.751    0.429
         2 -11.8612    238.3623     27.4380   7.2391807611e+00   2.6640009716e+01    0.4319227    0.3224716  20.38  0.002743528    2.542    0.607
         3 -12.9818    234.4546     23.2504   6.6121226716e+00   2.7711926440e+01    0.6312177    0.5695809 -31.41  0.004599101    1.422    0.297
         4 -12.9275    210.3769     46.8959   1.3080113662e+01   2.9162292125e+01    0.6020669    0.4836048 -42.07  0.001667757    1.153    0.132
         5 -10.3401    249.7582     11.1807   3.6650698537e+00   2.6500018847e+01     0.185563    0.0878385 -39.50 0.0007331173    1.468    0.319
         6 -10.1606     11.8183      9.6089   5.2603334348e+01   7.7716334497e+01     0.184502    0.1083598  41.06 0.0009470266    1.690    0.408
         7 -10.3066    103.0143    237.9190   6.9491498618e+01   1.2317167035e+01    0.3163836    0.1550362 -47.57  0.001651318    2.237    0.553
         8  -9.5083    101.0000    249.4870   7.1138163613e+01   1.0524752150e+01    0.2602256    0.2125699 -67.31  0.001784505    1.669    0.401
         9  -9.4298    100.3426    244.5138   7.0789666802e+01   1.1438126755e+01    0.3533143    0.2415884  77.10  0.001964904    2.578    0.612
        10 -10.2752     76.0030    245.0330   7.6481304582e+01   1.3765875963e+01    0.2774717    0.1652654 -57.46 0.0006160446    1.997    0.499
        11 -14.6134     69.5575    144.5231   6.6092755033e+01   3.7140829531e+01     3.968025     2.410354  71.82   0.01542351    2.459    0.593
        12 -14.2224     31.3815    247.3088   8.7247718879e+01   1.7406090686e+01    0.9591588    0.4961508  -2.03     0.004103    2.542    0.607
        13 -18.5124     11.2094    224.5383   9.1238058375e+01   2.3620778264e+01     6.751897     4.502441 -78.43   0.02578284    1.691    0.409
        14 -11.7515    132.2862    230.3324   6.2040004257e+01   1.0533277709e+01    0.6169555    0.3726299  -6.56  0.003414333    1.766    0.434
        15  -8.7235     71.2892    232.3173   7.6516479525e+01   1.6627559333e+01    0.1243396   0.08865827 -16.62  0.000332923    1.595    0.373
        16 -11.9648     88.8791    222.9073   7.1244082628e+01   1.6620746737e+01     1.399164    0.5340626  45.72  0.005448612    3.221    0.690
        17  -9.5905    165.8611    215.0878   5.2983158506e+01   9.3983570857e+00     0.226925    0.1416445 -42.44  0.001000743    1.640    0.390
        18  -8.4434    112.2847    215.3065   6.4656779986e+01   1.5451632599e+01     0.130113   0.08900067 -14.08 0.0002900994    1.565    0.361
        19 -13.6648     20.7550    195.5389   8.7293849497e+01   2.9455392882e+01    0.4056494    0.3256168  86.58  0.001661513    1.299    0.230
        20  -8.7567    102.3377    211.2971   6.6555162912e+01   1.7390305610e+01    0.1366693   0.09224004 -11.99 0.0002510291    1.655    0.396
        21  -9.0184     93.8643    236.3563   7.1457825783e+01   1.3547982058e+01    0.2522401    0.1549087 -11.91  0.001340176    1.912    0.477
        22 -10.9731    118.4681    201.0200   6.1228630796e+01   1.7470756556e+01    0.3046896    0.1768903  11.94  0.001473394    1.822    0.451
        23 -10.0071    211.1342    198.7463   4.2422214603e+01   7.0632939797e+00    0.1911514    0.1353534 -16.11 0.0004950826    1.104    0.094
        24 -10.2413    192.8666    194.5957   4.4797166764e+01   9.6203166572e+00    0.6295891     0.331859 -61.26  0.001663272   11.704    0.915
        25 -11.3874     68.9553    193.9443   7.3264490904e+01   2.5035953628e+01    0.3941467    0.2623877  72.01 0.0006834632    1.956    0.489
        26 -10.3529     55.3419    194.3895   7.7185067178e+01   2.6449758264e+01    0.3758771    0.2560543  63.68  0.001104328    1.657    0.396
        27  -9.3847    207.6860    189.7832   4.1536519118e+01   8.7135447569e+00    0.1837207    0.1115276 -23.24 0.0009484538    1.401    0.286
        28 -11.3352     72.7232    187.2028   7.1389249924e+01   2.6153001679e+01    0.4380837    0.2704644  60.78 0.0008801291    2.051    0.512
        29  -9.9361    141.9566    183.0244   5.2939905893e+01   1.7909336720e+01     0.161365    0.1415034  -6.05 0.0003857666    1.003    0.003
        30  -9.1736    121.6466    182.2894   5.7582371882e+01   2.0825892291e+01    0.1349606    0.1040309  55.72 0.0005717525    1.674    0.403
        31 -10.2527    116.0833    181.9816   5.8914868697e+01   2.1653675926e+01    0.2168964    0.1932259  -1.02 0.0007164662    1.036    0.035
        32 -11.4700    179.7923    169.3947   4.2832975433e+01   1.5270301786e+01    0.6286934    0.4179898 -30.89  0.003707672    1.321    0.243
        33 -10.0012    174.5167    180.5120   4.5778500059e+01   1.4074612533e+01    0.2461157    0.1862685 -21.05 0.0007381499    1.151    0.131
        34 -11.0318    172.7805    176.8051   4.5465261561e+01   1.4929965137e+01    0.2773423    0.2601347   6.71  0.001381508    1.246    0.197
        35 -10.7736     71.9932    224.5331   7.5630571289e+01   1.8098650774e+01    0.2694515     0.226394   6.24 0.0004453674    1.136    0.120
        36  -8.7669     91.4554    176.2394   6.4556340863e+01   2.6295790325e+01    0.1830641    0.1430075 -78.61 0.0004889072    1.570    0.363
        37  -9.8829     75.3015    175.6805   6.9123109404e+01   2.8562887048e+01    0.2316712    0.1816798  40.63 0.0003559323    1.230    0.187
        38 -10.3090     74.4924    172.4775   6.8913782058e+01   2.9440759718e+01    0.2791228    0.2491112  66.11 0.0008101306    1.216    0.177
        39 -11.6177    111.4817    169.0551   5.7942314252e+01   2.5083655474e+01    0.7019741    0.4076163 -71.28  0.002877762    2.668    0.625
        40  -9.6058     33.0372    163.4364   8.1010343740e+01   3.6497783887e+01    0.3794204    0.1805172  21.96  0.001144747    1.991    0.498
        41 -11.6860    238.2124    161.9016   3.2451697326e+01   9.3507649011e+00    0.2201428    0.1864467  31.48    0.0017712    1.581    0.367
        42 -10.4032     95.4943    160.4528   6.0838140549e+01   2.9401152728e+01     0.321346    0.2520788 -86.47 0.0007166339    1.630    0.387
        43  -9.3443    117.6124    159.1031   5.4555258782e+01   2.6344234172e+01    0.2158705    0.1932468  45.20 0.0007861733    1.211    0.174
        44 -11.2201     35.2493    157.2108   7.9620579545e+01   3.7938434682e+01    0.5818712    0.2662878  48.37  0.001565499    2.224    0.550
        45 -11.0996     29.1521    153.7735   8.1380371833e+01   3.9450427267e+01    0.6065441    0.3954721 -52.88  0.002865152    1.597    0.374
        46 -10.6898     22.9171    155.6637   8.3741481599e+01   3.9492586613e+01    0.5777056    0.3360947  89.95  0.001969589    1.828    0.453
        47 -10.6346     23.7270    148.4780   8.2790298739e+01   4.1378351499e+01    0.5568228     0.328928  46.10  0.002511994    1.633    0.388
        48 -10.1756     76.2671    220.7658   7.4181763488e+01   1.8411074837e+01    0.3831795    0.2831009  81.01   0.00217687    1.801    0.445
        49  -9.2959     52.1726    156.0236   7.3710731472e+01   3.6403505045e+01    0.3581663    0.2067258  15.23  0.001509666    1.862    0.463
        50 -10.1844     88.8790    150.9898   6.1102272474e+01   3.2661002274e+01    0.2465613     0.222665  53.22 0.0004217398    1.161    0.139
        51 -12.0640     87.9673    145.1651   6.0298857303e+01   3.4225336216e+01    0.7152283    0.5311598 -15.32  0.001486583    1.650    0.394
        52 -11.5867    133.1571    145.0528   4.7914379977e+01   2.6855524094e+01    0.9826759    0.3181731 -52.65  0.002673516    3.515    0.715
        53 -10.6959     81.6205    150.4178   6.3229685440e+01   3.3891460690e+01    0.2665351    0.2556892  10.05  0.000232957    1.027    0.026
        54  -9.4155     42.6176    148.7025   7.6040191945e+01   3.9454391787e+01    0.4167991    0.1783726  43.64 0.0009694056    2.295    0.564
        55  -9.5060    119.8930    145.8858   5.1390124661e+01   2.8878085420e+01    0.3596205    0.1758958 -45.86  0.001095351    2.004    0.501
        56 -10.9479    108.9464    145.3557   5.4211054587e+01   3.0805503390e+01    0.3041145    0.2804529  14.55 0.0006625176    1.069    0.065
        57 -10.9172    101.4443    221.9847   6.8074651645e+01   1.5412790663e+01    0.4357664    0.2068254 -32.44  0.001478938    2.721    0.632
        58  -9.6217     32.7980    144.7949   7.9093609027e+01   4.1548583132e+01    0.4984383     0.190493  39.03  0.001808857    2.389    0.581
        59 -10.2799    147.0040    143.0367   4.4323194891e+01   2.4975036395e+01    0.2103328    0.1937959 -23.19  0.000436903    1.006    0.006
        60 -10.4423     36.8178    142.4983   7.7335917567e+01   4.1768619100e+01    0.3231401    0.2522169 -78.32 0.0008035043    1.307    0.235
        61  -9.5672    127.4724    137.2812   4.7668806623e+01   2.9458764472e+01    0.2341433    0.2234825  54.48 0.0004077599    1.146    0.127
        62 -10.2657    107.6209    135.2854   5.2491944630e+01   3.3341052808e+01    0.3348522    0.2566061 -67.44  0.001021592    1.498    0.332
        63 -11.9643    105.4342    130.7786   5.2133970964e+01   3.4762971914e+01    0.7459556    0.5024121 -19.32   0.00259364    2.064    0.515
        64  -9.8881    241.8808    135.3866   2.7408784840e+01   1.2554774687e+01    0.1855071    0.1121896 -39.32 0.0005013631    1.282    0.220
        65 -11.4012     90.0386    131.9804   5.7013549835e+01   3.7125218658e+01    0.3344005    0.2747593 -39.29 0.0003775124    1.256    0.204
        66 -10.3202     43.9552    130.4769   7.2931222622e+01   4.4272481113e+01    0.3380266    0.3195988  38.59  0.001109461    1.037    0.036
        67 -11.3618    135.3643    125.2476   4.3100121371e+01   3.0579377832e+01     1.071211    0.2257168 -49.78  0.002687178    5.566    0.820
        68  -9.5565    149.8825    128.7965   4.0660589138e+01   2.7277385080e+01    0.2522713    0.1769082 -69.20  0.001204639    1.999    0.500
        69  -8.9831     38.8440    127.8054   7.4504828019e+01   4.5600676846e+01    0.2142131    0.1610283  48.42 0.0002497763    1.336    0.251
        70 -10.4305    111.8558    126.0496   4.9266947473e+01   3.4696465147e+01    0.3594289    0.2674097   8.25 0.0008579151    1.724    0.420
        71 -10.8429    116.7632    121.7752   4.6945609807e+01   3.4746933803e+01    0.2897378    0.2259998 -19.43  0.001238036    1.520    0.342
        72  -9.4113     79.5569    126.2246   5.9194020245e+01   4.0297239150e+01     0.309812    0.2226808  83.94  0.001342117    1.884    0.469
        73  -9.9312     44.3242    123.2512   7.1593382233e+01   4.6212263536e+01     0.275932    0.2242812 -43.33  0.001088238    1.279    0.218
        74  -9.1653    146.0402    122.9083   4.0165550517e+01   2.9110028841e+01     0.318942    0.1889386 -68.84  0.001224717    3.052    0.672
        75 -10.4530     98.6054    121.6224   5.2070852239e+01   3.8121981710e+01    0.3421812    0.2667557 -20.66  0.001349965    1.535    0.349
        76 -10.4240     82.3574    221.3434   7.2701935772e+01   1.7639367964e+01    0.4443879    0.2370465  35.38   0.00155275    1.635    0.388
        77 -10.3316     54.1139    118.3947   6.6826720232e+01   4.6246113713e+01    0.3007852    0.2598779 -59.64 0.0006039392    1.163    0.140
        78 -10.0337    107.9116    116.3423   4.8084781712e+01   3.7618139025e+01    0.2812325    0.2179337 -52.44 0.0002919566    1.289    0.224
        79  -9.8236    123.5203    116.5070   4.3934132318e+01   3.4613747354e+01    0.1454519    0.1406085 -36.35 0.0008102785    1.011    0.011
        80 -10.1157     40.6574    113.2451   7.1312412458e+01   4.9410832668e+01    0.4660217    0.1881559  29.29 0.0009795736    2.315    0.568
        81 -10.5879     56.7292    110.9032   6.4230599651e+01   4.7868836974e+01    0.3843445    0.2336754  43.35 0.0006940641    1.652    0.395
        82 -11.3048    115.3260    108.7326   4.4145114483e+01   3.7867543379e+01    0.3268292     0.264727 -35.06   0.00166002    1.281    0.219
        83 -10.3670    134.2630    105.1641   3.8542040604e+01   3.4851786249e+01    0.4132789    0.1595546 -52.36  0.001406844    3.016    0.668
        84 -12.0883    109.1653    229.8689   6.7172321564e+01   1.3103665853e+01     1.300597    0.2876519  29.66  0.004733642    3.370    0.703
        85 -10.6469    112.1606    103.9831   4.3778144497e+01   3.9521109063e+01    0.2762086    0.2220196  46.42  0.001396158    1.263    0.208
        86 -11.3213     36.1974    101.9075   7.1086334273e+01   5.3056495891e+01    0.7742491    0.3753964  46.13  0.002934393    2.231    0.552
        87  -8.8872     92.9931    105.1149   4.9747322739e+01   4.3043115566e+01    0.2360762    0.1838632  82.08 0.0005886332    1.635    0.388
        88 -11.1661    114.8755    229.1231   6.5770223969e+01   1.2619278916e+01     0.422609    0.3898974  83.39  0.001456768    1.522    0.343
        89  -8.6302     64.4718     95.4463   5.7380892745e+01   5.0619379665e+01    0.2356179    0.1375757  44.04 0.0003517253    1.717    0.418
        90  -9.3016     61.6434     93.3232   5.7956441456e+01   5.1632715437e+01    0.2462117    0.1436048  39.75  0.001018509    1.672    0.402
        91  -9.3640    113.5221     94.5121   4.0862211908e+01   4.1248076414e+01    0.1478076    0.1432108 -74.31 8.845223e-05    1.008    0.008
        92  -9.8275    102.5759     91.2291   4.3003320471e+01   4.4225324391e+01    0.4909166    0.2916186 -61.99  0.001995104    2.083    0.520
        93 -10.0242     55.9994     92.0326   5.9975632438e+01   5.2891513990e+01    0.2475442    0.1808174  65.21 0.0005081481    1.656    0.396
        94 -10.2693     15.0576     89.2363   7.9044361035e+01   5.8636157629e+01    0.3285103    0.1778345  27.17  0.001149448    1.809    0.447
        95 -11.7809    147.6329    228.9787   5.8611753247e+01   9.1267717706e+00    0.4508412    0.2582714   8.18  0.002399448    1.669    0.401
        96 -11.2002     27.6204     87.0642   7.2122900524e+01   5.8061057012e+01    0.4022455    0.2797061 -24.78  0.001002332    1.626    0.385
        97  -9.2565     32.9152     86.9361   6.9415508117e+01   5.7492063675e+01    0.2666389    0.1909568  49.05  0.000419809    1.489    0.329
        98  -9.8554     97.3482     84.0793   4.2465453408e+01   4.6845254489e+01    0.4027737    0.2725038  86.19  0.001196491    2.348    0.574
        99 -10.7575     56.0343     84.1599   5.7774296952e+01   5.4857918921e+01    0.5581604    0.3497881  59.16 0.0009782006    2.037    0.509
       100  -9.8164     51.6675     83.7252   5.9597484491e+01   5.5682867345e+01    0.2729715    0.1835949 -42.46 0.0004553371    1.567    0.362
       101 -10.7195     21.8117     82.4586   7.4179973746e+01   5.9894442349e+01    0.2783137    0.2525801  28.49  0.000502047    1.115    0.103
       102  -9.8792    184.0417     76.7367   2.2658036623e+01   2.9975867829e+01     0.175799      0.15828 -62.53  0.001133044    1.085    0.079
       103 -10.1759    160.7717    226.5937   5.5629358231e+01   8.1299017539e+00    0.1617491   0.09468322  30.27 0.0009522889    1.681    0.405
       104 -11.0789     31.1490     72.6777   6.6703134773e+01   6.1426901562e+01    0.3663765    0.2937017  24.83  0.001440528    1.231    0.187
       105 -12.2426    187.5557     63.0895   1.8998075066e+01   3.1279344574e+01    0.4211043    0.3833102 -53.81 0.0007709357    1.120    0.107
       106  -8.9201     66.4993     65.4441   4.7220693057e+01   5.7248319999e+01    0.1498095    0.1428373  54.34 0.0001074554    1.026    0.026
       107 -11.3106     83.0065    245.8462   7.4910922798e+01   1.2933136969e+01    0.1859182    0.1717582 -11.12 0.0003132251    1.212    0.175
       108  -8.4468     46.2724     50.6353   5.0847370895e+01   6.4260774723e+01    0.1438524    0.1153089  83.10 0.0006894863    1.663    0.399
       109 -10.7177    173.9144    223.8444   5.2705074693e+01   7.1988457007e+00    0.3821669    0.1799145   3.50  0.001775984    2.888    0.654
       110 -11.3397    229.9924     39.0228   1.0014814796e+01   2.6727799168e+01    0.2935722    0.1495512 -42.34  0.001856723    1.424    0.298
       111 -10.0178     34.8536     38.1409   5.1750518452e+01   6.8814749749e+01    0.3493757    0.1908836  41.63   0.00152703    1.753    0.430
       112  -9.8633     53.1488     31.4221   3.8565379410e+01   6.6480584067e+01    0.3625011    0.2198493  65.48    0.0011465    2.084    0.520
       113 -10.5597     68.6021    244.3736   7.8179256343e+01   1.4603350361e+01    0.3411851    0.2494185 -30.83  0.002134075    1.595    0.373
       114  -8.9408    241.6353    245.2578   4.4569631158e+01  -1.4102009172e+00     0.132631   0.06267454 -26.54 0.0005712056    1.567    0.362
       115  -9.7675     60.8305     21.1861   3.0043294902e+01   6.6263459118e+01    0.2326509    0.2092526  66.73 0.0006061848    1.070    0.066
       116  -9.5779    125.0968    243.4525   6.5183950727e+01   9.1121909651e+00    0.2232283    0.1502827 -41.71 0.0008062582    1.623    0.384
       117  -8.8335    147.1434    243.2225   6.0543850972e+01   6.9488439305e+00    0.1466197    0.1240475  21.90 0.0007907328    1.340    0.254
       118  -8.8185     17.6210     11.2811   4.8518676383e+01   7.6543008526e+01    0.1268879   0.09939519  61.22 0.0007009644    1.716    0.417
