#   1 NUMBER                 Running object number                                     
#   2 MAG_AUTO               Kron-like elliptical aperture magnitude                    [mag]
#   3 X_IMAGE                Object position along x                                    [pixel]
#   4 Y_IMAGE                Object position along y                                    [pixel]
#   5 X_WORLD                Barycenter position along world x axis                     [deg]
#   6 Y_WORLD                Barycenter position along world y axis                     [deg]
#   7 A_WORLD                Profile RMS along major axis (world units)                 [deg]
#   8 B_WORLD                Profile RMS along minor axis (world units)                 [deg]
#   9 THETA_WORLD            Position angle (CCW/world-x)                               [deg]
#  10 FWHM_WORLD             FWHM assuming a gaussian core                              [deg]
#  11 ELONGATION             A_IMAGE/B_IMAGE                                           
#  12 ELLIPTICITY            1 - B_IMAGE/A_IMAGE                                       
         1 -11.6830    199.3624     34.3016   2.8975487683e+02   6.1699508430e+00   0.05264176   0.03264074  72.91  0.004710371    2.395    0.583
         2 -13.3528    171.2883     37.2500   2.9010422743e+02   6.3085778489e+00   0.05013552   0.03555402 -58.77  0.001192371    1.424    0.298
         3 -12.8151    206.7919     25.8486   2.8961550419e+02   6.2210400642e+00   0.05597662    0.0482523 -81.55  0.005689855    1.258    0.205
         4 -14.5880    188.0123     16.6238   2.8978062544e+02   6.4420007231e+00    0.1092453    0.0833755   3.95  0.001646947    1.467    0.318
         5 -14.0123    180.7205     29.8390   2.8994755684e+02   6.3355287300e+00     0.111116   0.05617149 -62.67  0.008970899    2.039    0.510
         6 -13.3881    225.7200     13.4173   2.8931617059e+02   6.2468670677e+00   0.08891268   0.06448381  43.13   0.00781261    1.382    0.277
         7 -12.2887    241.9609      3.5938   2.8906454784e+02   6.2592500022e+00   0.06262268   0.03436366  25.02  0.005860029    1.834    0.455
         8 -12.0630      5.6216      5.2473   2.9186805689e+02   7.6874631528e+00   0.03893892   0.03136905   7.71  0.004406176    1.322    0.243
         9  -9.4494    167.1265    212.2533   2.9122048886e+02   4.3279303873e+00   0.01212918  0.008374858  75.35  0.000747893    1.908    0.476
        10 -13.3035    166.9011    249.4355   2.9144906614e+02   3.9028285339e+00    0.1374751   0.03650451  20.82  0.006620338    7.178    0.861
        11 -14.7931     74.8138    202.0292   2.9224688746e+02   5.0091391421e+00    0.2170407    0.1327524  66.36   0.01864598    2.302    0.566
        12 -15.4849     64.3155    213.7853   2.9244202205e+02   4.9381962291e+00    0.4341555    0.1401912  42.65     0.029676    3.270    0.694
        13 -13.5562     18.7626    228.5744   2.9306892358e+02   5.0457079413e+00   0.05363218   0.04537349 -51.11  0.006235056    1.194    0.163
        14 -10.8645    136.8162    172.2876   2.9133475817e+02   4.9718008982e+00   0.02808697   0.01090776  33.89  0.002271369    2.368    0.578
        15  -8.7007     34.7632    171.3609   2.9253359849e+02   5.6051720407e+00  0.008960685  0.006307587  14.47 0.0003699737    1.526    0.345
        16  -9.4222    228.3169    172.6644   2.9025866008e+02   4.4070559784e+00  0.007096245  0.005004158  62.38 0.0003833228    1.696    0.411
        17  -9.1764      5.9654    161.7533   2.9281545247e+02   5.8906169231e+00   0.00984484  0.008718526 -20.53 0.0006759624    1.190    0.159
        18 -16.2262     33.1754    243.7899   2.9299094565e+02   4.7833762258e+00    0.1822804    0.1362265  -2.08   0.01947897    1.558    0.358
        19  -8.2812    130.2841    206.6574   2.9162073736e+02   4.6174046087e+00  0.006925058  0.005053663  65.40 0.0007016077    1.638    0.390
        20 -11.0020     14.3029    155.4419   2.9267870473e+02   5.9123762305e+00   0.03701084   0.01091985  28.11  0.002579652    3.239    0.691
        21 -13.0369      6.0689    228.4301   2.9321778649e+02   5.1245158190e+00   0.04446903   0.03513334 -37.27   0.00499922    1.334    0.250
        22 -10.1635    133.0473    142.3835   2.9119721042e+02   5.3378938033e+00   0.04746306    0.0133521 -69.75  0.002259421    7.672    0.870
        23 -14.6001     67.7840    144.4191   2.9198007465e+02   5.7131864328e+00    0.2470486    0.1439201 -85.01   0.01386651    2.489    0.598
        24  -9.9709    109.6781    144.4782   2.9148577440e+02   5.4567445188e+00   0.02351738  0.009805868 -47.50  0.001906451    2.483    0.597
        25 -11.4559     98.3200    145.2028   2.9162426635e+02   5.5178218090e+00   0.01280467   0.01175853  -0.68 0.0003970768    1.116    0.104
        26 -11.6576      6.8971    142.7533   2.9268924538e+02   6.1030349983e+00   0.03173605   0.02041554 -82.51  0.003058269    1.977    0.494
        27 -12.4030      4.2252    134.5856   2.9267127254e+02   6.2130141693e+00   0.04067658    0.0361067   8.35  0.004863432    1.152    0.132
        28 -12.0335      2.5889    127.1714   2.9264562449e+02   6.3080435936e+00   0.04461271   0.01695042 -60.76   0.00353214    2.612    0.617
        29  -9.5470    116.1644    133.5698   2.9134280774e+02   5.5422362315e+00   0.01303776   0.01015462 -36.51 0.0007581111    1.363    0.266
        30 -11.0158     48.7060    132.1653   2.9213096392e+02   5.9700972454e+00   0.01648102   0.01118362  35.93 0.0008350845    1.427    0.299
        31 -10.8078     44.0164    130.5024   2.9217626783e+02   6.0177495195e+00   0.01521059   0.01134548  39.16  0.001080503    1.318    0.241
        32 -10.1269    104.2960    130.1725   2.9146224656e+02   5.6537462792e+00   0.01323048   0.01090174 -35.19 0.0006630601    1.275    0.216
        33 -13.8898     66.0703    245.0260   2.9261056119e+02   4.5689128862e+00   0.07609806   0.06205591  17.96   0.00394419    1.241    0.194
        34  -9.2267    120.1577    126.2171   2.9125088987e+02   5.6021573881e+00  0.009455321  0.007686933  55.31  0.000669272    1.312    0.238
        35  -9.9382    135.2144    122.6535   2.9105144636e+02   5.5509218132e+00   0.01974803  0.005990191 -65.56  0.001278063    3.946    0.747
        36  -9.1418    111.1593    121.7867   2.9133014727e+02   5.7079892073e+00  0.009718092  0.008638148  51.90 0.0003992345    1.156    0.135
        37 -10.5982    242.8901    118.7487   2.8975806129e+02   4.9354470409e+00   0.01377585   0.01115652  26.46 0.0004993402    1.211    0.174
        38 -13.6522     86.7856    182.1662   2.9198507165e+02   5.1640840468e+00   0.09566147   0.04453415 -42.57  0.004153387    2.436    0.590
        39  -8.6360    168.5471    114.0379   2.9060558602e+02   5.4455833117e+00  0.009137357   0.00576749  79.99  0.000691373    2.345    0.574
        40  -8.4094    129.5271    123.4376   2.9112335552e+02   5.5767278116e+00  0.006639251  0.006409671  -1.09 0.0001470088    1.037    0.035
        41 -10.3881     31.5020    108.0023   2.9218742251e+02   6.3521177779e+00   0.01420938   0.01018901  25.51  0.001072209    1.376    0.273
        42 -10.1907      1.7092    104.2055   2.9251659755e+02   6.5769010553e+00   0.01210368  0.008551647 -67.47  0.001273028    1.495    0.331
        43 -12.7539    232.5366     81.8944   2.8965482598e+02   5.4211875952e+00   0.04409463   0.03760936  35.69  0.005180911    1.147    0.128
        44 -12.1551    213.1233     76.9937   2.8985367334e+02   5.5965848106e+00   0.02899292   0.01560328 -61.65  0.002701183    1.893    0.472
        45 -12.2844    214.1938     69.5366   2.8979546749e+02   5.6754136982e+00   0.04677101    0.0292353  84.54  0.004209629    2.378    0.579
        46  -8.3600    184.5007     77.4792   2.9019419521e+02   5.7667369213e+00  0.006660798  0.006440185  -5.84 9.465648e-06    1.039    0.037
        47  -9.4834    145.8679     75.5764   2.9063853592e+02   6.0254005469e+00   0.01556306   0.01018546  65.20  0.001489301    1.986    0.496
        48  -9.9769    166.0031     72.6736   2.9038311195e+02   5.9352556202e+00  0.009806749  0.008749817  27.31 0.0007494044    1.096    0.088
        49 -11.2201    190.7951    193.5472   2.9082781526e+02   4.3975917639e+00   0.05012535   0.02645761  71.22  0.003536986    3.914    0.744
        50  -9.8649    164.1725     64.2382   2.9035319044e+02   6.0431254256e+00   0.01414086  0.008761169 -43.93  0.001389636    1.696    0.410
        51 -10.7627    160.3232     61.0452   2.9037912354e+02   6.1033079041e+00   0.01784059   0.01610305  29.68  0.002148411    1.082    0.076
        52 -10.6272    121.4272    248.5676   2.9197951817e+02   4.1906273595e+00   0.01339447   0.01229701  58.49 0.0007703879    1.131    0.116
        53 -13.3768    149.9325    248.1600   2.9164119214e+02   4.0211816055e+00    0.1443485   0.05097381  15.70  0.007839311    5.886    0.830
        54 -14.0091     44.1539    248.5484   2.9289027416e+02   4.6619457232e+00   0.06696429   0.01984156  28.44  0.004703102    3.196    0.687
        55 -11.1590    105.9583    241.8992   2.9212139482e+02   4.3615680640e+00   0.02817426   0.01652183  84.01 0.0003623791    2.805    0.644
        56 -14.4991     85.7171    165.5131   2.9189652370e+02   5.3617164901e+00    0.2096314   0.06094661  40.57  0.004409846    3.374    0.704
        57  -8.4552    135.6411     47.1742   2.9058586506e+02   6.4134775497e+00  0.009202647  0.005874161 -49.88 0.0002768053    1.577    0.366
        58  -9.6080    250.2219     42.7842   2.8920722192e+02   5.7601330635e+00   0.01098916  0.009184905 -40.81 0.0004796141    1.233    0.189
        59 -14.2864     18.3993    242.5925   2.9315795088e+02   4.8869837051e+00   0.04009137    0.0370001 -72.67  0.001700734    1.126    0.112
        60 -10.2683    144.7591     23.4526   2.9033315872e+02   6.6292697622e+00   0.01146968    0.0109446 -52.59 0.0003096545    1.066    0.062
        61 -13.5570     12.0339    206.9177   2.9301731090e+02   5.3352452872e+00    0.1255343   0.03630966  32.22  0.008986859    3.047    0.672
        62  -8.5190    195.5764     57.1607   2.8993935573e+02   5.9314870143e+00  0.008795959  0.006072295 -47.52 0.0009085612    1.474    0.322
        63 -10.7313      7.0522    217.6547   2.9314104278e+02   5.2422528750e+00   0.04756927   0.02286137   3.65  0.003112311    4.353    0.770
