#   1 NUMBER                 Running object number                                     
#   2 MAG_AUTO               Kron-like elliptical aperture magnitude                    [mag]
#   3 X_IMAGE                Object position along x                                    [pixel]
#   4 Y_IMAGE                Object position along y                                    [pixel]
#   5 X_WORLD                Barycenter position along world x axis                     [deg]
#   6 Y_WORLD                Barycenter position along world y axis                     [deg]
#   7 A_WORLD                Profile RMS along major axis (world units)                 [deg]
#   8 B_WORLD                Profile RMS along minor axis (world units)                 [deg]
#   9 THETA_WORLD            Position angle (CCW/world-x)                               [deg]
#  10 FWHM_WORLD             FWHM assuming a gaussian core                              [deg]
#  11 ELONGATION             A_IMAGE/B_IMAGE                                           
#  12 ELLIPTICITY            1 - B_IMAGE/A_IMAGE                                       
         1 -10.5625    110.3657     40.7985   2.1640352402e+01   5.2326898921e+01    0.9206613    0.6602944  17.44  0.004267964    1.834    0.455
         2 -12.3697     58.1367     29.8873   3.4739304255e+01   6.5762842429e+01    0.7132502    0.3452003 -26.62   0.00116925    2.466    0.595
         3 -11.4249     78.8050     35.6259   2.9116677007e+01   6.0588568795e+01    0.7844142    0.5202541 -29.58  0.003839703    1.586    0.370
         4 -12.0312    104.5398     13.1536   1.1763822700e+01   5.7206635798e+01    0.5314662     0.384172  -5.32  0.002800557    1.653    0.395
         5 -12.4245    105.6684     20.0377   1.4412499765e+01   5.6200726433e+01    0.3689246    0.3519562 -24.92 0.0003216514    1.148    0.129
         6 -11.5943    155.1089     22.9485   6.8034163883e+00   4.3088907488e+01    0.6563376      0.46913 -10.26   0.00336015    1.799    0.444
         7 -12.1932    165.0116     17.8967   4.0243657910e+00   4.1120680421e+01    0.6752018    0.4043436  32.78  0.003051185    2.501    0.600
         8 -11.9604     36.0563     18.9289   4.0242166922e+01   7.1352482631e+01    0.8266996    0.5369841 -23.93  0.004524651    1.534    0.348
         9 -12.2219     48.9704     13.0029   2.9817795543e+01   6.9935413426e+01    0.6693903    0.2604961  48.10  0.002831668    2.413    0.586
        10 -11.5737     20.2623     21.8286   5.2052255082e+01   7.2997329258e+01    0.5681109    0.3381071 -32.54  0.001784033    1.547    0.354
        11  -9.7359     12.7759      2.2070   4.5677074731e+01   7.7145805471e+01    0.2034256    0.1412842 -15.71 0.0007637753    1.279    0.218
        12 -11.3472      6.8692     10.3322   5.5969337216e+01   7.6417424602e+01     0.548368    0.4326295  36.59  0.002848551    1.643    0.391
        13 -10.8083     12.9853      8.4490   4.9752561914e+01   7.6136390949e+01    0.3751683    0.2538142 -57.41  0.001314266    2.109    0.526
        14 -12.1092     22.7627     11.0950   4.4061506258e+01   7.4516648006e+01    0.5997669    0.4088605  11.27  0.002307229    1.413    0.293
        15 -11.5401     15.3854     15.5923   5.2184898881e+01   7.4654505527e+01    0.4860712    0.2629171 -17.48  0.002393627    2.176    0.540
        16 -10.7747     67.9113     19.0982   2.5127797975e+01   6.5289803039e+01     0.417583    0.3723957 -74.26  0.002467701    1.451    0.311
        17 -11.4914     86.0878     14.1472   1.6721253582e+01   6.1679854924e+01    0.7885461    0.4743067  22.31  0.003645005    2.085    0.520
        18 -10.6600     89.2913      8.4812   1.3188098552e+01   6.1457884056e+01    0.3710966    0.2413321 -30.03  0.001162651    1.683    0.406
        19 -11.3270    128.5364     12.4934   7.1039158800e+00   5.1082646949e+01    0.5159936    0.2710592 -72.82  0.002109758    2.519    0.603
        20 -12.1321    135.1476     14.9545   6.9714373956e+00   4.9118814946e+01    0.8327733    0.2569295  62.75  0.003053188    2.646    0.622
        21 -11.4274    227.7756     14.9954   3.5795636648e+02   2.6849282310e+01    0.4429065    0.2088991 -70.78  0.001475023    2.114    0.527
        22 -10.8946    191.0000     12.4725   3.5998563366e+02   3.5321368640e+01      0.39088    0.1289076 -37.06  0.001644835    2.505    0.601
        23 -11.4621    192.7402      7.5162   3.5856121818e+02   3.5418158842e+01    0.3773476    0.2709796 -23.48  0.002211541    1.608    0.378
        24 -10.2265    114.5054     13.4066   9.8667037210e+00   5.4631737042e+01    0.3406225    0.2036852  21.08   0.00103892    2.331    0.571
        25 -10.2905    218.5296     13.4715   3.5820420907e+02   2.8976365030e+01    0.2888911    0.1149492 -39.57  0.001399872    2.000    0.500
        26 -11.9117    212.1458      9.4500   3.5768141537e+02   3.0797145551e+01    0.5338928    0.3495458 -12.53  0.002695218    2.137    0.532
        27 -10.4208    218.4464      3.7043   3.5596247903e+02   3.0012394101e+01    0.2423485     0.190982  71.78 0.0007786155    1.419    0.295
        28 -10.6360    120.7664     11.6327   8.0516076403e+00   5.3183608466e+01    0.3564848    0.1431686  66.24 0.0009606457    2.144    0.534
        29 -10.4636    164.8041      4.5146   6.4881131140e-02   4.2503713491e+01    0.3964719     0.240631  30.66  0.001683475    2.467    0.595
        30 -11.1709    168.7908      9.6299   1.1849576885e+00   4.1020727812e+01    0.4573178    0.2523219  60.55  0.001246505    1.774    0.436
        31 -10.4441    163.5017      9.5315   1.6829942614e+00   4.2357994200e+01    0.2204993    0.1866046  61.55 0.0008507614    1.251    0.200
        32  -9.8475     64.3812      2.0844   1.7079189000e+01   6.7885205894e+01    0.2007892    0.1573291   9.74 0.0005200411    1.308    0.235
        33 -11.0087     64.2718     10.1359   2.1667952794e+01   6.7125182539e+01    0.2737071    0.2316843  43.71 0.0003609762    1.082    0.075
        34 -10.6302     62.6975      6.5457   2.0225708662e+01   6.7840095199e+01    0.4270693    0.2105485  57.59  0.001998728    1.903    0.474
        35 -11.5851    156.3760      7.7918   1.8986884637e+00   4.4331000878e+01    0.4371924     0.280627  58.76  0.001936946    1.532    0.347
        36 -10.3187    145.3514      9.2491   3.6332163848e+00   4.7024514057e+01    0.3523719    0.1983194  15.52  0.001462397    3.050    0.672
        37 -11.4183    184.7818      6.3028   3.5885477622e+02   3.7427831739e+01    0.4073845    0.2176828 -53.85  0.002079773    1.678    0.404
        38 -10.8588     72.9562      3.0526   1.4896838027e+01   6.5844591113e+01    0.5171244     0.176935  40.90  0.001940057    2.962    0.662
        39  -9.8712     77.9386      7.3730   1.5694659889e+01   6.4291673862e+01    0.2039541     0.186228 -46.75 0.0006259541    1.275    0.216
        40 -10.4426    122.0603      5.7146   5.5860833275e+00   5.3380669068e+01    0.2588087    0.1730306 -20.81   0.00126271    1.708    0.414
        41 -10.0964    231.5136      6.0407   3.5576821277e+02   2.7030408927e+01    0.1970382     0.144788 -77.68 0.0003315519    1.194    0.162
        42 -10.4852    233.0579      2.3195   3.5488714023e+02   2.7095516678e+01    0.3898242    0.1475694 -54.75  0.001528607    2.084    0.520
        43 -10.8399    176.2645      5.6751   3.5938013282e+02   3.9553970479e+01    0.3226525    0.1898231 -82.40 0.0009855871    1.597    0.374
        44  -9.9634      1.1284      8.4790   5.9926895120e+01   7.7210112153e+01    0.3244202   0.05436161 -53.70  0.001122073    4.481    0.777
        45 -11.1786    113.1756      2.3963   5.6977875413e+00   5.5946858603e+01    0.4273979    0.2279693  83.49  0.001521916    1.929    0.482
        46 -10.8683     41.9231      3.6382   2.7426795494e+01   7.2389755962e+01    0.4164194    0.2346487  20.67  0.002059632    2.029    0.507
        47 -11.5217    137.8523      4.1651   2.8478811179e+00   4.9418909452e+01    0.3962738    0.2430263  73.80 0.0004193055    1.430    0.300
        48 -12.5724    133.1131      2.5449   2.8792847873e+00   5.0781068452e+01    0.9511451     0.304454  73.15   0.00353194    2.738    0.635
        49  -9.9333    242.7738      4.0262   3.5477979433e+02   2.4984627245e+01    0.2584469   0.09360602 -67.05  0.001197923    2.719    0.632
        50 -10.3549    223.7303      2.6757   3.5544121218e+02   2.8990564565e+01    0.2256531    0.1545903 -59.06 0.0003234792    1.141    0.124
        51 -10.6978    207.7896      2.6113   3.5632989199e+02   3.2456343015e+01    0.3348313     0.195021  88.84  0.001645764    1.576    0.366
        52 -10.0022    204.0229      1.5081   3.5629390700e+02   3.3409225215e+01    0.2557913    0.1968947 -78.19  0.001238146    1.101    0.091
        53 -10.4580      2.0603      2.0688   5.5138938570e+01   7.8266610326e+01    0.2450322    0.1448429 -26.28  0.001128626    1.479    0.324
        54  -9.0272     21.6702      3.3076   3.9574470285e+01   7.5815960589e+01    0.1047079    0.1001922  65.96 0.0007039328    1.661    0.398
        55 -10.4329    105.2555      1.8696   6.8368908792e+00   5.8015308200e+01     0.294781    0.1766832  89.69  0.001132623    1.841    0.457
        56  -9.3961    245.7912      1.3250   3.5408902329e+02   2.4674168724e+01    0.1358121   0.09193532  79.56  0.000310877    1.565    0.361
        57  -9.8502    152.0470      1.4573   3.6873090001e-01   4.6000205834e+01    0.2011287    0.1164178  79.01 0.0005417785    1.526    0.345
        58 -10.6106    122.8234      1.3744   3.8348503664e+00   5.3538344075e+01    0.3497314    0.1066857  69.45  0.001287722    2.691    0.628
        59  -9.8353     82.1837      1.3085   1.1475285090e+01   6.3799235474e+01    0.2298726    0.1046625  62.13 0.0004371852    1.871    0.465
        60 -11.0349     17.1542     10.6271   4.7874366849e+01   7.5301445237e+01    0.2939599    0.1865928 -36.97 0.0008014834    1.469    0.319
        61 -12.1019     25.7843    106.4532   7.3935533269e+01   5.2494894313e+01    0.8833815    0.5591475 -61.57   0.00439736    1.393    0.282
        62 -11.5596     22.6280    114.1481   7.6273861927e+01   5.0708505240e+01     0.598876    0.3101142  -2.12  0.002455163    2.853    0.650
        63 -11.1304     28.3484    112.9472   7.3960732752e+01   5.0531429035e+01    0.3456663    0.2920885 -30.78 0.0009001966    1.315    0.240
        64  -9.6793     12.6489    114.8964   8.0048446076e+01   5.1259455322e+01    0.2212984    0.1843569 -10.61 0.0009268248    1.436    0.303
        65 -10.2633     12.4168    111.2698   7.9714216625e+01   5.2236650696e+01    0.3487571    0.1250923 -76.57 0.0007968402    2.488    0.598
        66 -10.8696     16.5817    109.7647   7.7958758846e+01   5.2346410370e+01    0.3351965    0.2274769  44.17 0.0002669534    1.566    0.361
        67 -12.3531      2.5500    111.7078   8.3406362978e+01   5.2707980420e+01    0.5903904    0.3996054  51.85  0.002183685    1.542    0.351
        68 -11.4959      4.2322    105.7500   8.2184528324e+01   5.4181973774e+01    0.4106319    0.3689601  13.51  0.001789992    1.308    0.236
        69  -9.7094     48.7183    112.0795   6.6150275584e+01   4.8559607856e+01    0.2524778    0.1959074  44.50 0.0008308152    1.342    0.255
        70 -11.9928     80.0363    108.0634   5.3854305115e+01   4.4883250190e+01    0.5371847    0.3300047  32.73  0.000782811    1.709    0.415
        71  -9.7050     85.7611    103.3589   5.0649609247e+01   4.5026033828e+01     0.247998     0.221431 -51.15  0.000607265    1.101    0.092
        72 -10.8220     51.3700    100.0894   6.2587346678e+01   5.1383051733e+01    0.6130236     0.316673 -40.72  0.002434568    2.159    0.537
        73 -11.6327    248.4863     95.2564   1.3800389609e+01   1.2228106342e+01    0.4094366    0.2615238  -0.46  0.001964007    2.802    0.643
        74 -11.7293      9.0654     97.0090   7.9242740931e+01   5.6207354279e+01    0.4257335    0.3773959  55.01 0.0005177807    1.230    0.187
        75 -10.2741    210.2964     98.3467   1.9506753294e+01   1.8896957446e+01    0.2341967    0.2021932 -46.05 0.0003109874    1.052    0.049
        76 -12.1383     67.2784     95.0379   5.5125047902e+01   5.0333673731e+01    0.4844039    0.3924041  28.49  0.001151877    1.297    0.229
        77 -12.6125     75.8077     79.3508   4.7218311842e+01   5.2642453872e+01    0.7218783    0.5193773  70.70  0.003152757    1.966    0.491
        78 -10.5726     79.4578     97.2508   5.1204852493e+01   4.7691795465e+01    0.5490358    0.2619975  50.90  0.001931547    2.568    0.611
        79 -10.8473     79.4577     92.1545   4.9762461382e+01   4.8937573456e+01    0.6520829     0.566537 -78.83  0.003286054    1.276    0.216
        80 -10.4329     30.3052     96.6238   7.0405506895e+01   5.4690215804e+01    0.4412438    0.2595148  52.02   0.00171147    1.989    0.497
        81 -10.8846     23.2252     94.4177   7.2959970831e+01   5.5897576022e+01    0.3386495    0.3097869  -8.70  0.001401204    1.212    0.175
        82 -10.2596     19.1646     91.8584   7.4237720595e+01   5.6887366913e+01    0.3286047    0.2497461  76.01   0.00150453    1.432    0.302
        83 -10.8738     27.1341     85.8789   6.9620895900e+01   5.7786297503e+01    0.5767227    0.4686082 -45.76  0.001787326    1.151    0.131
        84 -10.4664     19.0285     86.3195   7.3312964168e+01   5.8339437762e+01    0.4974466    0.3171644 -27.63   0.00248051    1.756    0.431
        85 -11.9741    126.0251     94.5722   3.5698676204e+01   3.8567792627e+01    0.2732846    0.2562964 -51.02 0.0001920305    1.060    0.056
        86 -10.3017     35.5017     92.5693   6.7408218813e+01   5.5233501712e+01    0.2872073    0.2492359 -78.63 0.0008696133    1.144    0.126
        87 -11.5254     44.9982     84.3892   6.1393354473e+01   5.6240539607e+01    0.5767235    0.4567198  23.31  0.001630799    1.349    0.259
        88  -9.6655     37.1516     85.7456   6.5159455155e+01   5.6819673299e+01    0.2996098    0.1981799  28.94 0.0007510662    1.610    0.379
        89 -11.8075     43.0594     90.8328   6.3822356351e+01   5.4834217046e+01    0.5233055    0.2777989 -64.22 0.0003365176    1.804    0.446
        90  -9.9380     39.6731     89.7220   6.4999710461e+01   5.5516056072e+01    0.2766663    0.1864697 -29.76 0.0008535612    1.679    0.404
        91 -10.6753     98.3122     91.0142   4.2901400782e+01   4.5488686173e+01     0.275103    0.2259547  43.97 0.0002612741    1.224    0.183
        92  -9.7812     50.5837     91.4901   6.0843810770e+01   5.3710734290e+01    0.2985794    0.1484882  28.05  0.001205654    2.148    0.535
        93 -11.6174      6.4851     88.5071   7.9169713749e+01   5.8565456491e+01    0.6059088    0.3288197  18.91  0.002966514    2.079    0.519
        94 -10.0377      9.4737     86.5063   7.7573179684e+01   5.8919792597e+01    0.2912188    0.2284207  76.54  0.001048379    1.353    0.261
        95  -9.9465     66.9292     88.5697   5.3468042574e+01   5.1999228693e+01    0.3165315    0.2205399 -29.62 0.0007968896    1.669    0.401
        96  -9.9692     52.0960     87.1782   5.9101237808e+01   5.4599485902e+01    0.2424369    0.1963539 -55.65 0.0003245826    1.165    0.142
        97 -10.0886     90.1922     85.7915   4.4027320460e+01   4.8361911996e+01    0.3871023    0.2687457 -67.53  0.001651671    1.803    0.445
        98 -10.4538    143.1475     84.2571   2.8319722787e+01   3.6632224094e+01    0.2661151    0.2135935 -47.25 0.0004332405    1.229    0.186
        99  -9.8824    112.5511     82.9212   3.5954224903e+01   4.4145010758e+01    0.4796559    0.2245698  54.95  0.001672804    2.423    0.587
       100  -9.1001     59.4897     83.4647   5.4989436913e+01   5.4440247451e+01    0.1504595    0.1405464 -32.69 0.0001141317    1.043    0.041
       101  -9.3081    103.1956     79.8177   3.7810706391e+01   4.6915370680e+01    0.2123474      0.18553  -7.10 0.0004396653    1.306    0.234
       102  -9.4224     92.4987     71.5055   3.8524927513e+01   5.1015180479e+01     0.260999    0.1519091 -44.21 0.0007736683    1.728    0.421
       103 -10.7476     89.3283     77.6646   4.1712577679e+01   5.0363591221e+01    0.4576857    0.3314963  46.97  0.001194258    1.401    0.286
       104 -10.3117     94.2402     76.5824   3.9664308751e+01   4.9564092447e+01    0.3648695    0.3134473  30.78  0.001091516    1.202    0.168
       105 -10.8147     53.4670     76.8551   5.5585167301e+01   5.6951349856e+01    0.4800335    0.3113255 -56.70  0.002243096    1.502    0.334
       106  -9.8528     52.4975     72.4896   5.4663667933e+01   5.8136112583e+01    0.2427606    0.2204362   0.91 0.0001372268    1.125    0.111
       107  -9.0900    118.8032     78.0683   3.2606697567e+01   4.3691899482e+01    0.2061514    0.1228318 -42.70 0.0003899981    1.684    0.406
       108  -9.9724     58.1143     77.6413   5.3825616188e+01   5.6063199632e+01    0.2422297    0.2031338 -64.96 0.0005359977    1.256    0.204
       109 -11.4654    247.4046     76.7791   9.9605940474e+00   1.5084149526e+01    0.3375127    0.2250881 -87.16   0.00192847    1.967    0.492
       110 -10.0337     46.8327     75.7280   5.8188753712e+01   5.8151272152e+01    0.3500573    0.2124697 -50.55  0.001526901    1.517    0.341
       111 -11.0546      1.9472     71.9522   7.8764010444e+01   6.3003070913e+01    0.8248892    0.1663041 -70.50  0.002722508    3.652    0.726
       112 -10.6490     13.9574     56.4422   6.9233985586e+01   6.6150777715e+01    0.3664268    0.1943309 -37.82  0.001189197    1.767    0.434
       113 -12.2855      5.6955     61.7927   7.4997463576e+01   6.5348920367e+01    0.6103575    0.3990304  -5.01  0.003371747    1.701    0.412
       114 -10.4870      9.5297     56.5181   7.1719032255e+01   6.6416315642e+01    0.2767588    0.2257579  59.46  0.001181482    1.508    0.337
       115 -10.9876     13.9624     74.6093   7.3414241269e+01   6.1689736013e+01    0.3551775    0.2636951 -85.70   0.00196786    1.406    0.289
       116  -9.5143    103.0811     74.6900   3.6147109082e+01   4.8018631734e+01     0.226083    0.2062764  42.97  0.001156872    1.089    0.082
       117 -11.0143     27.0029     73.4189   6.6839315530e+01   6.0961273021e+01    0.5245472    0.3262214 -15.23  0.001438503    1.960    0.490
       118 -10.4427     34.7381     71.7121   6.2665499381e+01   6.0601632024e+01     0.434037    0.1966569  40.10   0.00177128    2.479    0.597
       119 -10.3047     40.5152     73.1265   6.0330813783e+01   5.9589080811e+01     0.383405      0.24483   9.32  0.001430129    1.882    0.469
       120 -11.2504     40.6326     69.0026   5.9055739309e+01   6.0570286178e+01    0.3114524    0.2743514  24.37 0.0006385114    1.201    0.168
       121 -10.0080     67.4521     81.1386   5.1053186530e+01   5.3710265079e+01    0.3733086    0.2735054 -10.47  0.001499053    1.776    0.437
       122 -10.1232     80.9253     72.8189   4.3111508578e+01   5.3129255815e+01    0.3865336    0.2467702 -59.33  0.001629199    1.849    0.459
       123  -9.8969     78.1072     67.4177   4.2282030172e+01   5.4852016094e+01    0.3140428    0.2194424  73.20  0.001310798    2.236    0.553
       124 -10.3296    122.7039     68.6909   2.8467876900e+01   4.4576365986e+01    0.4273623    0.2673874  46.90  0.001291905    1.595    0.373
       125  -8.9136    203.6908     67.6889   1.2914878442e+01   2.5201101838e+01    0.1307199    0.1087801  14.12 0.0002044005    1.623    0.384
       126  -9.9447     13.8312     67.4713   7.1978014565e+01   6.3482534096e+01    0.3328312    0.1314568  16.07  0.001380554    2.808    0.644
       127  -9.8090     96.4211     65.7513   3.5177733938e+01   5.1325286114e+01    0.2643882    0.2522413 -38.57  0.000419891    1.063    0.059
       128 -11.1908     92.6890     62.5433   3.5252465544e+01   5.2786977175e+01    0.4147505    0.3156373  64.83 0.0006571903    1.522    0.343
       129 -10.0996    158.7727     63.0084   1.8650753726e+01   3.6585655952e+01    0.2772362    0.2027619  51.26 0.0002731543    1.418    0.295
       130  -9.6300    105.1861     63.4795   3.1599376823e+01   4.9755110181e+01     0.287383    0.1462763  46.92  0.001116585    1.923    0.480
       131  -9.5757     84.4418     62.1986   3.8011065307e+01   5.4637622510e+01    0.2917514    0.1469535 -38.99  0.001142281    2.046    0.511
       132 -11.8063     41.7109     58.6339   5.5142892856e+01   6.2842783209e+01    0.6788838    0.4781318 -89.89  0.001877562    2.338    0.572
       133 -11.8542     46.4829     59.4675   5.3088663872e+01   6.2000969430e+01    0.8415241    0.4301347  34.80  0.003683958    2.009    0.502
       134  -9.0231    151.3962     61.4585   1.9583378192e+01   3.8687054659e+01    0.1522956     0.137329 -69.49 0.0001988186    1.083    0.077
       135  -9.8640    113.8621     60.7676   2.8122624596e+01   4.8183455371e+01    0.2734495    0.2203834 -34.91  0.000738176    1.285    0.222
       136 -10.6361     31.4518     53.2040   5.8579701119e+01   6.5319202912e+01     0.479944    0.2259399  16.99  0.001418629    2.531    0.605
       137  -9.9735     29.7461     59.8635   6.1683752648e+01   6.3974334632e+01    0.3689907    0.2665883 -66.45  0.001959528    1.454    0.312
       138  -9.7599     26.2253     59.4074   6.3400212557e+01   6.4434185274e+01    0.2961374     0.223852  16.12  0.001394681    1.406    0.289
       139 -10.7535     25.5318     55.6255   6.2605597941e+01   6.5384281221e+01    0.3974135    0.2280336 -38.14 0.0008835191    1.649    0.394
       140 -11.9632     76.5609     53.1094   3.7440363652e+01   5.8050009175e+01    0.6524458    0.3979361 -30.71 0.0009218213    1.801    0.445
       141 -11.7019     72.6919     47.2443   3.6538616817e+01   5.9930733129e+01     0.545325    0.3048259 -52.04  0.001646471    2.202    0.546
       142 -10.2507    124.6109     56.7174   2.3897908743e+01   4.6233463969e+01    0.3496552    0.2533439 -33.49 0.0009819756    1.444    0.307
       143 -10.8877    117.6427     55.0733   2.5076551756e+01   4.8248829733e+01     1.337865    0.7265514 -71.52  0.003800318    4.801    0.792
       144 -10.1757    122.9119     44.5253   1.9969308224e+01   4.8604716608e+01    0.2920632    0.2540229  70.47 0.0007319015    1.114    0.102
       145  -9.3165     16.6692    248.6600   8.7650933587e+01   1.9561290158e+01   0.09556846   0.08489842 -31.80 -6.119112e-05    1.743    0.426
       146 -11.7658    117.2820     45.5000   2.1674933905e+01   4.9883244000e+01    0.7150108     0.531418  -5.63  0.002300177    1.741    0.426
       147 -10.7767    120.3029     40.3727   1.9048916502e+01   4.9879074418e+01    0.2935923    0.1920771  41.62 0.0006507861    1.626    0.385
       148 -11.8343    119.1255     36.9013   1.8022001789e+01   5.0668863891e+01    0.4353908    0.3746189 -63.99  0.001245512    1.235    0.191
       149  -9.0593    106.6946     58.3492   2.9291840512e+01   5.0344810102e+01    0.1574443    0.1201796 -75.65 0.0003611842    1.702    0.412
       150  -9.6574     91.7873     57.3664   3.3614172699e+01   5.3977719019e+01    0.2842679    0.2029206 -64.40  0.001267213    1.845    0.458
       151 -10.3235     87.9903     56.0265   3.4399474345e+01   5.5070316987e+01    0.5282123    0.2049391 -32.46  0.001690924    3.310    0.698
       152 -10.0370    156.5469     54.5313   1.6475940418e+01   3.8491043602e+01    0.4568471    0.2853427 -66.00   0.00196813    1.936    0.483
       153 -11.2067    155.0169     48.8920   1.4996731003e+01   3.9729491227e+01    0.2778625    0.2127188 -24.30 0.0003660478    1.466    0.318
       154  -9.0009     33.9385     57.0000   5.8558460263e+01   6.4176402790e+01    0.2175299   0.07797452  26.34 0.0008027214    2.944    0.660
       155  -9.0819    100.6220     55.3001   2.9981236488e+01   5.2328609925e+01    0.1567557     0.120245 -86.17 0.0001557138    1.762    0.432
       156  -9.8076     55.3372     50.4956   4.5418889853e+01   6.2537709714e+01    0.2948797    0.2022039  14.72  0.001411726    1.702    0.412
       157  -9.9327     52.0940     48.1870   4.6005632119e+01   6.3539523855e+01    0.2379525    0.1821684 -28.12 0.0004862353    1.286    0.223
       158 -10.6453     60.5797     52.3005   4.3759736293e+01   6.1269145538e+01    0.5873414    0.2882116 -60.68   0.00198804    3.636    0.725
       159 -10.4035     61.5622     46.6720   4.0979025000e+01   6.2191762996e+01    0.4468637     0.274496 -26.44  0.001876713    1.870    0.465
       160 -10.4929     46.8909     48.8140   4.8824021674e+01   6.4230450131e+01    0.5861325    0.3295383 -20.00  0.002349425    2.648    0.622
       161 -11.9277     43.1258     44.3907   4.8916534548e+01   6.5693163742e+01    0.5956101    0.4161739  32.17 0.0007842387    1.453    0.312
       162  -9.5515     10.8878     51.4912   6.9644634595e+01   6.7522229427e+01    0.1972317    0.1483257 -54.19 0.0004922228    1.148    0.129
       163 -10.0697    243.7599     51.3878   4.8040817464e+00   1.9232894214e+01    0.1474698    0.1126562  62.05  0.000411473    1.586    0.369
       164  -9.4641    189.0889     49.6797   1.0123635296e+01   3.1200994308e+01    0.1847068    0.1661192 -79.44 0.0003057612    1.061    0.057
       165  -9.7366    144.9909     50.0827   1.7213076354e+01   4.2112331179e+01    0.2596132    0.2092387   3.79 0.0006225855    1.618    0.382
       166 -10.1193    146.0948     44.6560   1.5234654849e+01   4.2630392275e+01    0.4982806    0.2015947 -47.84  0.001781253    2.700    0.630
       167  -9.6590      2.0522     48.9882   7.4202841945e+01   6.8584294386e+01    0.1940855    0.1649729 -48.60 0.0006213619    1.029    0.028
       168 -10.1281     13.2395     46.3658   6.6752447037e+01   6.8545193623e+01    0.3326348    0.1705131 -32.14  0.001591879    1.935    0.483
       169  -9.5376     17.8652     41.3891   6.2238203469e+01   6.9287841257e+01     0.336949     0.116201 -43.65  0.001359356    2.519    0.603
       170 -10.6687     31.1890     44.9863   5.5682953533e+01   6.7148860772e+01    0.4091541    0.2614166  15.01  0.002099898    1.673    0.402
       171 -11.1288     20.8438     45.8495   6.2021170283e+01   6.8041478882e+01    0.3761275    0.2372175 -40.46  0.000775334    1.400    0.286
       172 -10.6989     26.0980     42.6602   5.7723747068e+01   6.8216342254e+01    0.4592301     0.299818 -68.67  0.002314562    1.956    0.489
       173 -10.3404     23.5684     37.4154   5.7149575876e+01   6.9588126980e+01    0.4315555    0.1760843  36.20  0.001843897    2.714    0.632
       174  -9.5375     82.9410     46.9547   3.2541175006e+01   5.7817756682e+01    0.2361513    0.1740985  11.36 0.0006797261    1.693    0.409
       175  -9.6581    200.6747     45.4125   7.6060495512e+00   2.9090182296e+01    0.2491496    0.1289335  77.12 0.0009951047    2.128    0.530
       176  -9.4621    140.3909     43.7695   1.6011576034e+01   4.4226967221e+01    0.2023579    0.1758385  86.21 0.0004619965    1.121    0.108
       177 -10.2188    156.1546     42.4884   1.2803075765e+01   4.0356228948e+01    0.2823744     0.232904 -41.23  0.001128703    1.219    0.180
       178 -10.6716     98.2075     41.5537   2.5312254612e+01   5.5193012984e+01    0.2875997    0.2512823  72.81 0.0002303337    1.218    0.179
       179 -10.1688     56.9854     42.0120   4.1018109460e+01   6.3893616041e+01    0.3041072    0.1959309  45.72 0.0009764017    1.646    0.392
       180 -10.5328      9.5486     30.5401   6.3604688098e+01   7.2270429130e+01    0.5071378    0.3053288   0.78  0.002784466    1.744    0.427
       181 -10.6195      4.2009     35.7533   6.9155511122e+01   7.1490504213e+01    0.5659941    0.3655724 -73.03  0.003171909    1.698    0.411
       182 -10.3686     68.4107     32.7851   3.1762146546e+01   6.3255511015e+01    0.5050265    0.2868437  53.34  0.002294385    1.859    0.462
       183 -11.1814     60.6307     36.6153   3.6881214989e+01   6.4179497180e+01    0.4163657    0.3065538  -6.51  0.000625932    1.553    0.356
       184  -9.8556    172.5824    242.7450   5.4789665606e+01   9.4763387575e-01    0.1302186    0.1154945 -35.75 0.0002781744    1.467    0.318
       185 -11.5791     49.0750     30.4773   3.9373395724e+01   6.7323018916e+01    0.7266928    0.3900065  39.11  0.002959519    1.814    0.449
       186  -9.3365    231.4844     37.4594   2.7405567110e+00   2.3444849583e+01    0.1246231    0.1031014 -55.39 0.0001316165    1.049    0.047
       187  -8.8636    195.4223     37.4920   6.1304647045e+00   3.1353408019e+01    0.1345444    0.1180354 -63.43 9.179212e-05    1.034    0.033
       188 -10.6287    153.3010     35.9192   1.1186701890e+01   4.1973365098e+01    0.3101605    0.1970445  64.17 0.0003243715    1.490    0.329
       189  -9.4546    131.6025    240.7777   6.2885778977e+01   6.8245803035e+00    0.1439263    0.1224467 -76.87 0.0009437529    1.622    0.384
       190 -11.1562    175.2866     31.8215   6.8921641227e+00   3.6930388272e+01    0.5546448    0.4684623 -13.28   0.00258937    1.452    0.311
       191  -9.9116     67.6439    240.9121   7.6660694524e+01   1.5335960628e+01    0.1652652    0.1502583 -47.55  0.001020696    1.440    0.305
       192 -10.2239    147.5036    239.4886   5.9401262322e+01   4.8292509617e+00    0.2078283    0.1516969  51.90  0.001007621    1.670    0.401
       193 -12.4988    104.3653     32.6702   1.9961614060e+01   5.4973956757e+01    0.6888012    0.3405325  52.20  0.002898909    1.840    0.456
       194 -12.6036    113.5961     25.2483   1.4759297728e+01   5.3582795498e+01     1.454442    0.3723813  57.67  0.004743779    3.123    0.680
       195 -10.1364    216.9937     32.1530   2.7154595664e+00   2.7154532075e+01    0.2084159    0.1569216 -46.51  0.000301108    1.150    0.130
       196 -10.9604    188.7734     27.2155   4.1040999199e+00   3.4203188524e+01    0.5901206     0.338698  43.36  0.002743398    2.389    0.581
       197 -11.3688    183.1692     25.6097   4.2498254949e+00   3.5744864329e+01    0.4539357    0.2855096 -34.04  0.002061737    1.567    0.362
       198  -9.8040     76.2959    240.1685   7.4730367325e+01   1.4386560955e+01    0.1709891     0.155616 -33.15   0.00118729    1.441    0.306
       199  -9.0363     15.5104    233.9508   8.7314740470e+01   2.2484301608e+01    0.1458096   0.08066384 -54.40 0.0008089331    2.525    0.604
       200 -11.4506    144.9409     25.8180   9.1992873800e+00   4.5386755346e+01    0.8412421    0.3453464  86.17  0.002597736    4.056    0.753
       201 -10.8670    148.8799     22.2120   7.4260418661e+00   4.4778462916e+01    0.4430582    0.2053836  56.83  0.001891937    2.025    0.506
       202 -11.2718    158.4762     29.3804   8.3588936520e+00   4.1469721778e+01    0.5151367    0.2628107  73.27  0.001780943    1.911    0.477
       203 -11.6459    164.3245     27.6522   7.0427500540e+00   4.0188111002e+01    0.3156343     0.273604 -89.91 0.0004784648    1.051    0.049
       204 -10.1420    135.6798     30.4222   1.2313350508e+01   4.7239285871e+01    0.3156792    0.2370092  51.35  0.001629895    1.329    0.247
       205 -12.2478    125.6670     27.7184   1.3212554578e+01   5.0173202738e+01    0.5285898    0.3913677 -83.52  0.001144272    1.482    0.325
       206  -9.8654    248.6298    223.7889   3.8325949869e+01  -5.8690135004e+00    0.1434557   0.08735659 -32.87  0.000947248    1.651    0.394
       207  -9.4028     44.5138    215.4779   7.9909637756e+01   2.3219910252e+01    0.1270313    0.1047995  55.95 0.0001868546    1.024    0.023
       208 -11.6504     26.5944     28.2441   5.1091252033e+01   7.1063127415e+01      0.45729    0.3436641 -55.25  0.002094546    1.565    0.361
       209  -9.4387    164.4973    211.8761   5.1847019190e+01   6.8845301731e+00    0.1749491    0.1269729 -40.10 0.0006137367    1.511    0.338
       210 -10.5949    230.6670     27.0559   4.6194377947e-01   2.4877146087e+01    0.2633988    0.1708678  78.76 0.0007443284    1.601    0.375
       211  -9.6951    169.9187     23.4353   5.1007632941e+00   3.9270382059e+01    0.3383509    0.1171758  67.90  0.001201619    2.617    0.618
       212 -11.0254    134.3336     22.1163   9.6263042986e+00   4.8570427403e+01    0.5070308    0.2819013  76.10  0.002191073    1.779    0.438
       213 -10.0961    139.9131     21.4780   8.5094502470e+00   4.7188145936e+01    0.2512747    0.1680588  77.36 0.0005346596    1.410    0.291
       214  -9.7453     13.9480     22.7027   5.7000957844e+01   7.3483024182e+01     0.170538    0.1401391  -1.61 0.0003372754    1.138    0.121
       215  -9.1011    223.9996     22.0294   3.5980085913e+02   2.6853443555e+01    0.1507019    0.1201465 -62.96 0.0004015384    1.023    0.022
       216 -10.9100    179.3628     20.5838   3.2519523848e+00   3.7250353959e+01    0.5427382     0.248735  50.57  0.002311492    2.587    0.614
       217 -11.0070      9.4256    211.3637   8.7690734291e+01   2.7715076902e+01    0.2192584    0.1732158  47.06  0.001497785    1.168    0.144
       218  -9.6382     40.0000    206.9734   8.0353191704e+01   2.5583203552e+01    0.1969413   0.06883888 -74.97 0.0008037038    2.951    0.661
       219  -9.1495    171.4138    208.8030   4.9906097934e+01   6.3594882947e+00     0.175267    0.1143434 -26.95 0.0006433483    1.628    0.386
       220  -9.9982      5.5377     22.4366   6.3173254282e+01   7.4218009341e+01    0.2016056    0.1719258  15.26  0.001196323    1.309    0.236
       221 -10.7490      8.8788     19.8893   5.9428422648e+01   7.4469413356e+01    0.2968404    0.1862373 -20.00  0.001704435    1.507    0.336
       222 -11.1124      5.8451    199.8343   8.8017500611e+01   3.0559878351e+01    0.3622023    0.1007427 -64.81  0.001458033    3.583    0.721
       223  -9.5388     79.0806    204.8987   7.0638262407e+01   2.1118811596e+01    0.2346144     0.138624  70.02  0.001090227    2.096    0.523
       224  -9.2389    233.0000    190.9724   3.5252541448e+01   2.8890048273e-01    0.1950676    0.0592767 -36.75 0.0008022623    2.941    0.660
       225 -10.0266    216.4361     19.9441   3.5986383076e+02   2.8714946386e+01    0.2096797    0.1458247 -72.77  0.000538496    1.273    0.214
       226  -9.7021     74.8333     19.3824   2.2777779207e+01   6.3720568118e+01    0.2494784    0.1712628   4.02 0.0007367019    1.759    0.431
       227  -9.8452     46.4010     20.1001   3.5210161015e+01   6.9434509684e+01    0.2492925    0.1862697  43.35  0.001249288    1.374    0.272
       228 -10.0782    144.1349     19.6490   7.2580205704e+00   4.6290644554e+01    0.2093169    0.1107509  60.21 0.0009428452    1.726    0.421
       229  -9.5914     15.9663    189.9805   8.5097754576e+01   3.1915847868e+01    0.2251834    0.1141452  58.82  0.001142053    1.716    0.417
       230 -12.3304      4.9400    183.5144   8.7498570269e+01   3.4380573593e+01    0.6329131     0.415298  88.09   0.00305416    1.325    0.245
       231  -9.2730    199.1363     17.7973   6.8753733102e-01   3.2843183927e+01    0.1642659    0.1487157  60.83 0.0008980512    1.333    0.250
       232 -10.2283    211.0447     16.1285   3.5935059340e+02   3.0326164886e+01    0.2018311    0.1543936 -47.79 0.0002873998    1.161    0.139
       233  -9.4073     28.0598    175.9675   8.1014867043e+01   3.4116205269e+01    0.1986122     0.150852 -44.65 0.0007178052    1.632    0.387
       234 -10.8547    127.0081     16.7180   8.9042996578e+00   5.1058612927e+01    0.3324497    0.2224293  62.46 0.0006681647    1.341    0.255
       235 -10.1424     15.8070    174.3095   8.4179623041e+01   3.5674331953e+01    0.3307245    0.1432719  79.13  0.001418803    2.377    0.579
       236  -9.3455    190.3396    170.7048   3.9122828249e+01   9.9164374710e+00    0.1255076    0.1120296  84.32 0.0005729126    1.655    0.396
       237  -9.7884    238.4521     16.4602   3.5762770112e+02   2.4511554487e+01    0.1218997   0.09090459 -58.00 9.246352e-05    1.027    0.026
       238  -9.0193     93.4773     16.4897   1.5828434055e+01   5.9632920177e+01    0.1411518    0.1241949  46.42 0.0005111668    1.044    0.042
       239 -10.7269    186.5020     14.9885   1.0371472425e+00   3.6128307984e+01    0.3098645    0.1767794  69.56 0.0005338474    1.675    0.403
       240 -10.2759     18.1608    165.5682   8.2929307434e+01   3.7630403651e+01    0.3910651    0.1887092 -73.81  0.001846815    1.874    0.466
       241 -12.2550      8.9345    166.8832   8.5560130330e+01   3.8075388688e+01    0.6972906    0.4229719 -64.94  0.003363139    1.630    0.387
       242 -11.4189     14.4515    159.4686   8.3527008128e+01   3.9483441106e+01    0.3867126    0.3401008 -27.46  0.001248628    1.446    0.309
       243 -10.8871     13.6721    156.2866   8.3516720110e+01   4.0354700365e+01    0.5104815    0.1563849  33.24 0.0002994009    2.806    0.644
       244 -10.6004    204.9326    163.4472   3.4882419036e+01   8.7362568862e+00    0.2686782    0.2068184 -23.47 0.0009645022    1.169    0.145
       245 -10.0703     29.0202    160.9855   7.9456269285e+01   3.7775173710e+01    0.2365993     0.136709  62.15 0.0009832042    1.691    0.409
       246  -9.7900     31.7793    157.2144   7.8282758151e+01   3.8466379615e+01    0.2508346    0.1065877  61.25 0.0009451497    2.731    0.634
       247  -9.4416    104.4005    155.2101   5.6538023295e+01   2.8701724378e+01    0.2175547    0.1480016 -70.33 0.0009573091    1.710    0.415
       248 -12.7972     22.8382    148.6760   8.0143910328e+01   4.1534132742e+01    0.6253376    0.3262798 -43.78  0.001587031    2.360    0.576
       249 -10.7179     16.8147    147.8744   8.1911278527e+01   4.2259621997e+01    0.3063514    0.2121161 -78.22  0.000416064    1.285    0.222
       250  -9.3710     55.3558    152.8951   7.0647069364e+01   3.6874552312e+01    0.2032891    0.1779048 -76.94 0.0006530671    1.104    0.094
       251 -11.2264     46.9002    148.0909   7.2607527818e+01   3.9180822149e+01    0.7667184    0.4353868 -52.43  0.003463671    1.818    0.450
       252 -10.1827      4.5176    153.4913   8.5970806411e+01   4.1756947924e+01    0.2154569    0.0966256  37.40 0.0008767834    2.075    0.518
       253 -11.9384      4.3961    142.8692   8.5307647269e+01   4.4475472378e+01    0.7772114    0.3398036  52.56  0.002573471    2.206    0.547
       254  -9.4377    104.1021    147.0985   5.5035823530e+01   3.0729453614e+01    0.2175644     0.199159 -15.89            0    1.215    0.177
       255 -10.6143     33.1252    144.4296   7.6490977849e+01   4.1665813204e+01    0.3006964    0.2513352  75.78 0.0008107145    1.104    0.094
       256 -10.4205     40.7834    138.9855   7.3341041340e+01   4.2294658970e+01    0.4295459    0.2393296 -69.68  0.001885714    1.662    0.398
       257 -11.2842     80.4530    138.7350   6.0484019582e+01   3.6911521401e+01     0.289208    0.2482994  53.75 0.0002721753    1.154    0.134
       258 -11.7278     22.7734    136.1074   7.8894644453e+01   4.4842186316e+01    0.6106569    0.4174493  50.83   0.00237045    1.448    0.310
       259 -10.5300     30.2601    132.5644   7.5994079663e+01   4.5099224101e+01    0.3550329    0.2994998 -16.26 0.0009234732    1.444    0.308
       260  -9.5717     25.5755    131.5100   7.7443770341e+01   4.5816142165e+01    0.2527562    0.1549407 -63.04 0.0005428169    1.485    0.327
       261 -11.5800     12.4399    135.4401   8.2193498771e+01   4.5845245185e+01    0.6904172    0.3307799 -57.60  0.003165532    1.967    0.492
       262  -9.2254     32.0455    137.5008   7.6013377798e+01   4.3609490634e+01    0.1988806    0.1390427  27.33 0.0005179155    1.537    0.349
       263  -8.9271     26.4913    127.5031   7.6642808162e+01   4.6802876341e+01    0.1412364    0.1255221 -85.93 0.0008106254    1.002    0.002
       264  -9.5636     23.0366    126.7046   7.7737909896e+01   4.7319556873e+01    0.1789654    0.1741834  80.94 0.0003794316    1.120    0.107
       265 -10.7172     10.5742    126.6521   8.2000220131e+01   4.8289559108e+01    0.2588573    0.2295875  74.94  0.001259652    1.087    0.080
       266  -9.6958     33.6494    126.0239   7.3958006789e+01   4.6515779670e+01    0.2083035    0.1751405 -78.00 0.0009293021    1.081    0.075
       267  -9.5375      2.1473    125.9141   8.4771293398e+01   4.9011778012e+01    0.2146186    0.1541714  72.03  0.001216085    1.294    0.227
       268 -11.1183    104.4100    122.5628   4.9519668974e+01   3.6706734765e+01    0.3721677    0.3642389  73.72 0.0008662848    1.016    0.016
       269  -9.6769     56.0146    121.9457   6.5402111757e+01   4.4981932496e+01    0.2428073    0.1698271  66.05  0.000730546    1.635    0.388
       270  -9.4070     13.2533    122.5623   8.0670100310e+01   4.9184704727e+01    0.1691489    0.1316348 -11.86 0.0009383741    1.590    0.371
       271 -11.8445    245.4344    118.7106   1.9132431112e+01   9.2406098516e+00    0.4392839    0.2510008 -51.61  0.002271051    1.941    0.485
       272  -9.4690     44.5314    120.0247   6.9150108662e+01   4.6942274542e+01    0.2248769    0.1373195 -70.31 0.0004464946    1.553    0.356
       273  -9.6064     43.0696    116.0677   6.8991117570e+01   4.8172551993e+01    0.2686865    0.1934156  80.80 0.0005941537    1.534    0.348
       274  -9.5051     78.8201    115.1540   5.5999255892e+01   4.3283148568e+01    0.2292749    0.2089583  80.89 0.0008092689    1.141    0.123
       275  -9.9362     16.1503     95.4340   7.6093482993e+01   5.6167884819e+01    0.2742711    0.1783347  89.05   0.00137142    1.590    0.371
       276 -10.9575     17.2411    100.6727   7.6439341078e+01   5.4709809200e+01    0.4486425    0.2951686  23.86 0.0004845529    1.685    0.406
       277 -10.6496     35.6064    102.8438   6.9430624135e+01   5.2518883461e+01    0.6059986    0.3136644  -4.60  0.002014806    3.297    0.697
