#   1 NUMBER                 Running object number                                     
#   2 MAG_AUTO               Kron-like elliptical aperture magnitude                    [mag]
#   3 X_IMAGE                Object position along x                                    [pixel]
#   4 Y_IMAGE                Object position along y                                    [pixel]
#   5 X_WORLD                Barycenter position along world x axis                     [deg]
#   6 Y_WORLD                Barycenter position along world y axis                     [deg]
#   7 A_WORLD                Profile RMS along major axis (world units)                 [deg]
#   8 B_WORLD                Profile RMS along minor axis (world units)                 [deg]
#   9 THETA_WORLD            Position angle (CCW/world-x)                               [deg]
#  10 FWHM_WORLD             FWHM assuming a gaussian core                              [deg]
#  11 ELONGATION             A_IMAGE/B_IMAGE                                           
#  12 ELLIPTICITY            1 - B_IMAGE/A_IMAGE                                       
         1 -15.4643     66.6764     40.5602   6.8536721412e+01   6.0103512908e+01     3.871814     1.376268  38.94   0.01542677    2.699    0.630
         2 -14.4916      7.0527     21.7656   8.8227669194e+01   7.0810897508e+01     1.394023    0.8771838 -12.27   0.00717148    1.406    0.289
         3 -13.4438     24.8581     10.9312   7.3744401418e+01   7.0493284385e+01    0.8885718    0.5705155  -8.10  0.005666511    1.458    0.314
         4 -11.4900     65.0329     17.6403   5.9863881744e+01   6.3373709042e+01    0.7059919    0.2592267  41.55  0.002747704    2.376    0.579
         5 -12.0055     74.3224      1.7497   5.0233513924e+01   6.3076966788e+01     0.296824    0.1581406  61.32 0.0007342437    1.841    0.457
         6 -13.1629     87.1788      2.2289   4.7079530107e+01   6.0372339084e+01     2.875683    0.4672512  62.74  0.007005338    8.037    0.876
         7 -13.5766     74.9711     13.4731   5.4903317760e+01   6.1898233011e+01    0.7367084    0.5251516  65.72   0.00431105    1.666    0.400
         8 -14.0456     85.1487     11.5256   5.1221501816e+01   6.0005780464e+01     1.349633     0.724879  52.06  0.007175863    1.555    0.357
         9 -11.1817    115.5014     11.2434   4.4198937112e+01   5.3333513501e+01    0.4124326    0.1257752 -25.07  0.001605035    3.771    0.735
        10 -11.8934    123.7499     10.9349   4.2571108849e+01   5.1454509648e+01    0.2766331    0.2444118  42.30  0.001054716    1.163    0.140
        11 -10.6668    150.7336      8.9941   3.7824511677e+01   4.5289990470e+01    0.2255561    0.1584372  74.91 0.0006388298    1.216    0.178
        12  -9.6694    178.7289      8.6323   3.4410160300e+01   3.8787129441e+01    0.1168833   0.08879855  41.68 0.0006998838    1.667    0.400
        13 -12.3811     34.9188      4.8958   6.5924345676e+01   6.9802420594e+01    0.4672897    0.3419577   6.07   0.00322054    1.161    0.138
        14 -11.6107     38.7556      1.6055   6.2587390725e+01   6.9547498982e+01    0.3759071    0.1726996  41.22  0.001938178    1.860    0.462
        15 -11.3979    137.3701      5.2953   3.8643004211e+01   4.8763888754e+01    0.3826725    0.1978114  73.40  0.001561541    1.727    0.421
        16 -11.7747      8.1975      2.5628   7.8675569128e+01   7.3460448927e+01    0.5150056    0.2220107  18.40  0.002748947    2.403    0.584
        17 -12.0480    139.9403     97.3717   6.5049913344e+01   3.4896457816e+01    0.4885253    0.2727149  42.12  0.002001949    1.860    0.462
        18 -10.1292     57.3224     95.6716   8.9683749109e+01   5.0960928923e+01    0.1398275    0.1115101  74.88 0.0006901706    1.692    0.409
        19 -11.3314    176.4768     93.7363   5.6214796408e+01   2.7264843574e+01     0.324767    0.2368869  45.52  0.001600651    1.464    0.317
        20 -12.4701     71.5539     93.4087   8.4078541510e+01   4.9354643387e+01    0.2643309    0.2365971  37.60  0.001153445    1.179    0.152
        21 -12.2521     40.6005     81.8205   9.2322225183e+01   5.6165122778e+01     0.370394    0.2501152  20.03   0.00190244    1.580    0.367
        22 -12.4807     28.2551     81.4352   9.7094196992e+01   5.7530377718e+01     0.252441    0.2151058 -69.95  0.001441118    1.302    0.232
        23 -13.1031    137.1568     67.9333   5.7402446063e+01   4.0952232353e+01    0.4997525    0.2112647  57.14  0.001628975    2.396    0.583
        24 -13.6992    142.7410     75.9100   5.8437094194e+01   3.8284129880e+01    0.6539316    0.5005748  33.00  0.002266723    1.482    0.325
        25 -14.0980    135.7899     75.2752   5.9855626781e+01   4.0009667345e+01    0.8121106    0.5926303 -45.94  0.003006583    1.417    0.294
        26 -13.3623     81.2062     67.3284   7.2898950433e+01   5.3016329837e+01    0.5391782    0.2979128  35.82  0.002432456    1.808    0.447
        27 -14.0685     84.1759     61.5962   7.0005570710e+01   5.3488741625e+01    0.6597031    0.5433261  29.06  0.003700525    1.158    0.136
        28 -14.6161     66.3108     69.6657   7.8909956990e+01   5.5149580092e+01     1.005453    0.6490077  21.11  0.004928694    1.703    0.413
        29 -14.3554     73.1228     60.2508   7.3330825840e+01   5.5752835401e+01     0.684274    0.5807321  -9.09  0.003978799    1.149    0.130
        30 -13.7155     68.5720     54.7615   7.3063797324e+01   5.7500214797e+01    0.5825289    0.4393778  37.12  0.001968846    1.303    0.233
        31 -14.5092     96.1069     71.1747   6.9336428661e+01   4.9429543104e+01    0.9897904    0.7014747  49.80  0.003928681    1.445    0.308
        32 -14.3972    117.7767     71.0002   6.3085339404e+01   4.4854161614e+01    0.9310094    0.6623753  19.18  0.004313556    1.834    0.455
        33 -12.3074      9.0538     63.9045   1.0080154218e+02   6.2833928202e+01    0.4131432     0.248232 -48.24  0.002409628    1.343    0.255
        34 -14.1848    108.5696     71.6951   6.5821154927e+01   4.6740738100e+01    0.7314597    0.6372375 -76.07  0.003932025    1.382    0.277
        35 -14.4550     27.6274     57.6166   9.0777796955e+01   6.2579726778e+01    0.9845874    0.4768332 -46.82  0.004941327    1.797    0.443
        36 -13.7661     20.7389     58.0096   9.3977373855e+01   6.3148268126e+01    0.6293291    0.3772807   0.90  0.003434964    1.840    0.457
        37 -10.7142    170.1314     62.6799   4.9382510200e+01   3.4004452729e+01    0.2338916    0.1822645 -57.20 0.0003853951    1.283    0.221
        38 -10.7500    165.9997     62.9885   5.0189530998e+01   3.4932491942e+01     0.210292    0.1968847  72.04 0.0003368905    1.062    0.059
        39 -12.9803    151.0829     73.7041   5.6005256514e+01   3.6711147808e+01    0.4642795    0.2895829 -39.11  0.002139822    1.646    0.392
        40 -10.5415    214.3905     61.2474   4.2543689543e+01   2.4185083140e+01    0.2551811    0.1465312 -40.21  0.001298622    1.640    0.390
        41 -12.2718     93.4186     58.4015   6.5986387675e+01   5.2210398517e+01    0.5869997    0.2030507 -45.90  0.002009465    3.467    0.712
        42 -13.1147     58.7092     49.6551   7.4951932451e+01   5.9996207639e+01    0.4692253      0.28709 -34.85  0.001703609    1.610    0.379
        43 -11.0576    246.6992    183.2576   6.3210862417e+01  -2.1044657347e+00    0.2179724    0.1323559 -37.77 0.0006427737    1.431    0.301
        44 -13.8804     42.3557     47.6483   8.0933287854e+01   6.2720226086e+01    0.6447626    0.4123584   7.87   0.00174327    1.717    0.417
        45 -14.4197     42.0171     42.7744   7.9277506677e+01   6.3596455379e+01     1.092129    0.5143015  21.25  0.002228454    2.516    0.602
        46 -11.3078    147.7306     58.5688   5.2427414689e+01   3.9954920723e+01    0.2035139    0.1329088  70.29 0.0009522012    1.622    0.383
        47 -12.7779    122.6107     57.9763   5.7823383640e+01   4.5930681025e+01    0.5716234    0.1757513  47.45   0.00190507    3.061    0.673
        48 -10.8375    174.5011     56.4058   4.7017492879e+01   3.3923538677e+01    0.2338779    0.2066593  81.53 0.0001533348    1.051    0.048
        49 -10.4885    208.9861     55.1700   4.1847068184e+01   2.6242528781e+01    0.1984478    0.1360707  43.87 0.0004820012    1.902    0.474
        50 -12.3063    132.1687     53.5577   5.4233804378e+01   4.4389066102e+01    0.4852404    0.2366569  58.31  0.001737944    1.964    0.491
        51 -11.3075    154.9757     52.0231   4.9188007599e+01   3.9200241249e+01    0.2115913    0.1897894  88.51 0.0003515455    1.069    0.064
        52 -13.4004      3.1053     46.3746   9.8855350393e+01   6.6735307081e+01    0.7247261    0.5315138  62.98  0.003837907    2.326    0.570
        53 -12.3426      2.4513     38.5478   9.6803168236e+01   6.8252803494e+01    0.4017526    0.3128353 -52.07  0.001732861    1.334    0.251
        54 -13.3798    233.2336    163.3810   6.1596493950e+01   3.2428715062e+00    0.5560624    0.4503786  59.84  0.003293609    1.656    0.396
        55 -14.6280    247.4458    147.7005   5.6232567546e+01   3.6441407641e+00     2.242914    0.8835282 -32.12  0.009069456    2.706    0.630
        56 -11.8233    145.4958     50.5638   5.0565248774e+01   4.1671905610e+01    0.2794351    0.2365519 -79.11  0.000728382    1.248    0.199
        57 -11.5990    116.0087     45.1907   5.5353390169e+01   4.9330934323e+01    0.2192031    0.2027134 -27.77 0.0003516177    1.173    0.147
        58 -11.0034    122.0368     44.0758   5.3565618718e+01   4.8102523622e+01    0.2154897    0.1986545  -8.52 0.0005644921    1.197    0.165
        59 -10.9364    156.6913     43.5835   4.6534575967e+01   3.9963156387e+01    0.2593002    0.1829854  59.03  0.001119977    1.311    0.237
        60 -10.1482    204.5084     43.4621   3.9725209736e+01   2.8856649762e+01    0.1292665    0.1119256 -78.85 5.011364e-05    1.030    0.029
        61 -11.5105    217.8621     38.2292   3.7106055738e+01   2.6638703441e+01       0.2439    0.1814757  75.14 0.0003753497    1.298    0.230
        62 -10.4207    130.4303     38.6397   5.0019380703e+01   4.6863095716e+01     0.235934     0.128097 -38.01  0.001100113    1.976    0.494
        63  -9.7216    159.8104     36.3777   4.4037475379e+01   4.0151635427e+01    0.1716785    0.1127741  56.71 8.616486e-05    1.423    0.297
        64 -10.0172    140.3150     35.3128   4.7070882099e+01   4.4939825990e+01    0.1378991    0.0977096  34.83  0.000279692    1.639    0.390
        65 -10.0141    176.4484     33.4821   4.0848108241e+01   3.6569123356e+01     0.132915    0.1141712 -86.10 0.0001027562    1.031    0.031
        66 -10.3381    249.6861     32.1109   3.3037788382e+01   2.0981756914e+01    0.1953605    0.1084033 -58.44  0.001159181    1.488    0.328
        67 -11.3556     45.4677     30.9236   7.3091140981e+01   6.4959489756e+01    0.4648493    0.2003722  25.80   0.00199743    2.758    0.637
        68 -12.9246     27.6157     28.3416   8.0198521497e+01   6.7720760074e+01    0.4130952    0.2661991 -28.76  0.002538198    1.397    0.284
        69 -11.3398    241.7698     22.3668   3.1791237630e+01   2.3704789537e+01    0.2128476    0.1621052 -69.12 0.0003663713    1.008    0.008
        70 -11.5425     83.7820     22.8638   5.6019249698e+01   5.9128815037e+01    0.2246979    0.1948501  44.17  0.000681033    1.097    0.089
        71 -11.3183    153.8168     19.9338   4.0422349166e+01   4.3477810752e+01    0.2229743    0.1668797  77.97 0.0002960736    1.189    0.159
        72 -13.1428    249.1544    131.7440   5.2814919812e+01   6.0412446176e+00    0.7351328    0.3164925 -44.62  0.003376092    1.988    0.497
        73 -12.7328     47.8053    142.1880   1.0246506349e+02   4.0798551474e+01     0.592353    0.2057387  37.08  0.002221149    2.848    0.649
        74 -13.1964    197.3100    137.4200   6.2550461289e+01   1.4472663262e+01    0.5492915    0.5151957 -34.24  0.003173142    1.013    0.013
        75 -11.4369    224.7838    134.5646   5.7093344955e+01   9.7813831835e+00    0.2724913    0.1764203 -39.44  0.001311995    1.366    0.268
        76 -12.6327    203.4708    127.3252   5.9166173207e+01   1.5180246644e+01     0.445087     0.385491  13.31  0.002330157    1.357    0.263
        77 -10.4138    175.3289     14.9132   3.6322959033e+01   3.8938085299e+01    0.1682182     0.150581 -74.67 0.0006361805    1.122    0.109
        78 -12.4068    218.8289    117.9136   5.4485278643e+01   1.3883463141e+01    0.3993096    0.3382609 -40.43  0.002150866    1.077    0.071
        79 -12.1218    202.7829    171.6953   6.8767288889e+01   6.8689354505e+00    0.2971967     0.188123 -48.54  0.001441834    1.640    0.390
        80  -9.9586    242.3134     10.6393   2.9540378923e+01   2.4946340975e+01    0.1259878   0.06185631 -63.54 0.0007042169    1.752    0.429
        81 -12.3120    237.2872    113.3243   5.0737732574e+01   1.1205866758e+01    0.3668647    0.2823668  78.76  0.002126122    1.609    0.378
        82 -11.5673    195.2192    113.3332   5.7466774611e+01   1.9510677710e+01    0.3286335    0.2592111 -45.81  0.001472755    1.184    0.155
        83 -11.5861     74.2218    109.6254   8.7388394074e+01   4.5213299412e+01    0.3121122    0.1827543 -86.99  0.000960772    4.370    0.771
        84 -12.4814    138.3056    104.2445   6.7292227083e+01   3.3865824154e+01    0.3053476    0.2928512 -27.17  0.001637766    1.076    0.070
        85 -11.3315     61.5115    104.5008   9.0414343338e+01   4.8329733465e+01    0.1433205     0.133858 -39.60 0.0008105754    1.007    0.007
