#   1 NUMBER                 Running object number                                     
#   2 MAG_AUTO               Kron-like elliptical aperture magnitude                    [mag]
#   3 X_IMAGE                Object position along x                                    [pixel]
#   4 Y_IMAGE                Object position along y                                    [pixel]
#   5 X_WORLD                Barycenter position along world x axis                     [deg]
#   6 Y_WORLD                Barycenter position along world y axis                     [deg]
#   7 A_WORLD                Profile RMS along major axis (world units)                 [deg]
#   8 B_WORLD                Profile RMS along minor axis (world units)                 [deg]
#   9 THETA_WORLD            Position angle (CCW/world-x)                               [deg]
#  10 FWHM_WORLD             FWHM assuming a gaussian core                              [deg]
#  11 ELONGATION             A_IMAGE/B_IMAGE                                           
#  12 ELLIPTICITY            1 - B_IMAGE/A_IMAGE                                       
         1 -14.1657    169.4966     48.9026   7.0226962035e+01   3.6790478798e+01     1.803533     1.175458  18.98  0.005137062    2.015    0.504
         2 -14.3095    183.3833     34.3364   6.2993573936e+01   3.5160377560e+01     1.135103    0.9909499  17.07  0.004029736    1.194    0.162
         3 -13.5196    187.8046     27.8426   6.0194306730e+01   3.4785087382e+01    0.6299145    0.6052465 -74.89  0.001140323    1.079    0.074
         4 -12.5597    189.6282     14.9380   5.5750234967e+01   3.5733334141e+01      0.32892    0.2799918  -3.63 0.0008927183    1.237    0.192
         5 -13.9978    204.8713      4.1338   5.0542228490e+01   3.2741092141e+01     1.031118    0.6783847  56.66  0.004357326    1.482    0.325
         6 -12.6829     53.2117      5.4078   8.5066972321e+01   6.8041748932e+01    0.3831985    0.2146102  41.71 0.0008559002    2.018    0.504
         7 -10.5863     91.5222    194.4576   1.1860330047e+02   2.5239930221e+01    0.2892029    0.1201793  59.64  0.001066057    2.688    0.628
         8 -19.6419     39.3128    157.8434   1.2538201684e+02   3.8423644715e+01     16.33545     4.926898 -77.31   0.07064792    3.424    0.708
         9 -11.0501     93.6754    205.6704   1.1931514358e+02   2.3082682549e+01    0.2475459    0.2035237 -38.68  0.001430874    1.897    0.473
        10 -11.0401     65.2266    192.7287   1.2330609539e+02   2.8971697426e+01    0.2770244    0.2006525  68.00  0.002034632    1.092    0.084
        11 -13.4437    110.4123    189.0637   1.1445582221e+02   2.3417873584e+01    0.4572749    0.3754926 -39.47  0.003115179    1.688    0.408
        12 -10.4565    167.0210    187.9586   1.0367410055e+02   1.4293553895e+01     0.247026    0.1809473 -55.81  0.001073788    1.734    0.423
        13 -12.1409     99.4751    187.2886   1.1633514601e+02   2.5342055270e+01    0.2769207    0.1938103 -73.10  0.001499683    1.531    0.347
        14 -11.7283     89.0494    203.7789   1.1996368365e+02   2.4021606115e+01    0.3855108     0.191293  54.78  0.001857802    1.689    0.408
        15 -11.5189     90.5073    183.9539   1.1768860278e+02   2.7206295125e+01    0.2770394    0.1581364  67.90 0.0009408448    1.849    0.459
        16 -12.1942     99.4703    180.6049   1.1556225547e+02   2.6515239290e+01    0.2940663    0.2385876 -50.61 0.0005884905    1.552    0.355
        17 -10.7874    208.5064    178.4949   9.4674051168e+01   8.2081814861e+00    0.3375746    0.2041332   9.63  0.001678205    2.288    0.563
        18  -9.0881    179.2653    206.2837   1.0419621938e+02   9.7062322751e+00    0.1102619   0.07948631  21.35 -9.249097e-05    1.490    0.329
        19 -11.8808    144.1088    172.9082   1.0569797743e+02   2.0643431720e+01    0.4050055    0.2555776  88.87  0.001848633    2.967    0.663
        20 -10.1378    163.3252    204.0049   1.0666115520e+02   1.2650120891e+01    0.1529647    0.1378625  45.14 0.0004048601    1.128    0.113
        21 -11.5996    195.8944    169.7120   9.5335017147e+01   1.1688263949e+01    0.3663588    0.3169312 -19.65  0.001566296    1.268    0.211
        22 -10.7789    193.3153    164.5971   9.4864193104e+01   1.2896286228e+01    0.3446523    0.3123406  60.55  0.001614669    1.285    0.222
        23 -10.4811    157.9524    203.7222   1.0757371434e+02   1.3574271707e+01    0.2754284    0.1595261  67.88  0.001357611    2.774    0.640
        24 -10.9465    146.0051    168.5138   1.0462544349e+02   2.1044389443e+01    0.1850106    0.1747893 -66.75 0.0004461543    1.190    0.160
        25 -10.9880    141.6421    158.3479   1.0381729451e+02   2.3574898758e+01    0.2376401     0.205947  65.92 0.0004499622    1.138    0.121
        26  -9.9981    128.9620    156.1965   1.0609283130e+02   2.6211455381e+01    0.2169212        0.136  67.79 0.0006799501    1.989    0.497
        27 -10.9942    119.3380    155.6865   1.0804653700e+02   2.7953383121e+01    0.3974891    0.1645491  57.01   0.00151729    3.175    0.685
        28 -10.5135    164.7048    153.3251   9.8231556168e+01   2.0127329290e+01    0.1951552    0.1300164  57.88 0.0004701854    1.599    0.375
        29 -10.5440    129.5197    140.4386   1.0320792031e+02   2.9062037446e+01    0.2562318    0.2281637  54.33  0.000894244    1.050    0.047
        30 -11.9044    134.3925    148.2100   1.0356622038e+02   2.6717118269e+01    0.5803961    0.2555046 -59.44   0.00230852    3.053    0.672
        31 -12.4265    133.7560    143.5151   1.0285052483e+02   2.7707578484e+01    0.7313649    0.2589984 -56.98   0.00251158    3.924    0.745
        32 -10.6803    152.1084    151.4335   1.0043337638e+02   2.2853756605e+01     0.247781    0.1721412  86.39  0.001180178    2.269    0.559
        33 -11.9495    140.2310    200.2353   1.1029698109e+02   1.6963718732e+01    0.2656637    0.1740211  36.60  0.001269374    1.438    0.304
        34 -13.7353     11.2460    206.7345   1.3349330157e+02   3.2264290928e+01    0.3849343    0.2619771  42.17  0.002661097    1.568    0.362
        35 -10.3572    174.8749    149.0916   9.5396392709e+01   1.8839277755e+01    0.2051265    0.1835221  71.94  0.000697373    1.281    0.219
        36 -12.2996    144.8417    146.1481   1.0096475885e+02   2.5163380412e+01    0.4354499    0.2981496 -89.66  0.002051655    2.303    0.566
        37 -13.2030    110.1701    139.7900   1.0742596113e+02   3.2562111403e+01    0.7437075    0.4885876 -30.24  0.003605445    2.388    0.581
        38 -11.7059    105.9950    131.0085   1.0683606391e+02   3.5026269865e+01    0.3406841    0.2788109 -87.30  0.001245062    1.253    0.202
        39 -11.2850    104.7253    126.5626   1.0631740839e+02   3.6148629296e+01    0.2849624    0.2255471 -47.85 0.0008189085    1.348    0.258
        40 -12.4070    193.4180    192.5635   9.9669361905e+01   9.0675730665e+00    0.6427544    0.4037799 -48.04  0.003057746    2.132    0.531
        41 -12.5323     99.1039    139.7218   1.0993996234e+02   3.4367049386e+01    0.2494726    0.2308546  69.25 0.0004334979    1.078    0.072
        42 -11.7315     96.3740    202.1609   1.1848880286e+02   2.3279639957e+01    0.3449962    0.1912506  79.86  0.001915301    2.359    0.576
        43 -12.5353    117.5674    129.9286   1.0392560570e+02   3.3262112524e+01    0.4570844    0.3202653  36.27  0.001661135    1.527    0.345
        44 -11.1963    161.0445    128.4542   9.3929916995e+01   2.5151759385e+01    0.3535621    0.2740352 -82.16   0.00178004    1.771    0.435
        45 -12.5099    135.5399    124.8979   9.8764930837e+01   3.0925558826e+01    0.9266512    0.1660607 -48.84  0.002327809    6.235    0.840
        46 -11.0445    120.5123    124.4891   1.0216030687e+02   3.3825606341e+01    0.2365558    0.1255491 -40.52 0.0004407119    2.205    0.547
        47 -10.7053    111.5887    119.1208   1.0319946118e+02   3.6509957045e+01    0.2399575    0.1930207  38.63 0.0004052271    1.312    0.238
        48 -10.8663    168.0014    112.8682   8.8864125115e+01   2.6445038233e+01    0.3931859    0.2931226 -82.28  0.001418592    2.000    0.500
        49 -10.6452    209.2108    198.3288   9.7886275477e+01   5.6582747015e+00    0.1838361    0.1566244 -81.79 0.0009359039    1.977    0.494
        50 -10.4837    205.3800    110.2445   8.0882787568e+01   1.8571251383e+01    0.3112205    0.1923838  44.62 0.0008776559    1.559    0.358
        51 -11.0093    154.2973    195.7513   1.0713935851e+02   1.5323685347e+01    0.2890078    0.1893926  76.74  0.001539929    2.408    0.585
        52 -10.0987    138.8187    124.6286   9.7963509888e+01   3.0339257887e+01     0.279092    0.1666323  51.81  0.000360454    1.667    0.400
        53  -9.6799    127.4301     94.4832   9.3547112752e+01   3.8536657753e+01    0.1428202    0.1383022 -69.12 4.644933e-05    1.030    0.029
        54  -9.9082    151.4997     79.9400   8.3737375952e+01   3.6083154823e+01    0.2228429    0.1476764 -36.16 0.0004618617    1.506    0.336
        55 -12.3272    173.9261     72.6250   7.6754111244e+01   3.1989439590e+01    0.6473603    0.4138376 -82.64  0.001180829    2.976    0.664
        56 -10.2574     16.8744    198.0000   1.3218421397e+02   3.3218888116e+01     0.141416   0.04695635  35.90 0.0007939613    2.884    0.653
        57 -10.3640    198.7547    222.7612   1.0323114423e+02   4.5962306054e+00    0.1453812    0.1113492  49.08  0.000569691    1.329    0.247
        58 -11.8222    183.4008    221.8617   1.0562720942e+02   7.1262100671e+00    0.2825783    0.1271188  35.19  0.001509267    1.973    0.493
        59 -11.4693     97.3352    213.4191   1.1939834704e+02   2.1350031299e+01    0.2906738    0.1588714  43.49  0.001843494    1.522    0.343
        60 -10.2105    163.1703    210.6418   1.0757790813e+02   1.1777213577e+01    0.1533149    0.1329986  52.08 0.0008552758    1.148    0.129
        61 -10.8425     87.5417     12.8123   7.6211055560e+01   6.1057854571e+01    0.2393638    0.1818962  45.12 0.0006421573    1.381    0.276
