#   1 NUMBER                 Running object number                                     
#   2 MAG_AUTO               Kron-like elliptical aperture magnitude                    [mag]
#   3 X_IMAGE                Object position along x                                    [pixel]
#   4 Y_IMAGE                Object position along y                                    [pixel]
#   5 X_WORLD                Barycenter position along world x axis                     [deg]
#   6 Y_WORLD                Barycenter position along world y axis                     [deg]
#   7 A_WORLD                Profile RMS along major axis (world units)                 [deg]
#   8 B_WORLD                Profile RMS along minor axis (world units)                 [deg]
#   9 THETA_WORLD            Position angle (CCW/world-x)                               [deg]
#  10 FWHM_WORLD             FWHM assuming a gaussian core                              [deg]
#  11 ELONGATION             A_IMAGE/B_IMAGE                                           
#  12 ELLIPTICITY            1 - B_IMAGE/A_IMAGE                                       
         1 -11.4534     30.7978     15.9393   6.6162843031e+01   7.3237682072e+01    0.3455833    0.1963713 -39.59   0.00117416    1.718    0.418
         2 -10.5948     54.6164     10.9232   4.8448850463e+01   6.9770875191e+01    0.2884904    0.2156086  30.58  0.001550613    1.299    0.230
         3 -11.0132     78.8591      8.0559   3.7105794341e+01   6.4528154802e+01    0.2684922    0.1956329  68.51  0.000860096    1.384    0.277
         4 -12.9320     19.6594      4.9285   6.8180283165e+01   7.6817260903e+01    0.7089224     0.314756  34.08  0.003269395    2.229    0.551
         5 -10.7495     88.3353      4.6177   3.2571658033e+01   6.2496562121e+01    0.2195182    0.1600662 -67.72 0.0009227627    1.650    0.394
         6  -9.9333    103.6504    244.8945   8.7221183497e+01   1.3252419179e+01    0.1276675    0.1056439  82.16 0.0007692464    1.689    0.408
         7 -10.1322    117.0066    250.6674   8.5021817372e+01   1.0896504561e+01    0.1690595   0.07852233  28.84 0.0003458505    1.577    0.366
         8 -10.8666     93.1762    248.9683   8.9727483735e+01   1.3822064560e+01    0.1687229    0.1554449  10.79 0.0003608975    1.277    0.217
         9 -10.4824     83.5800    250.7790   9.1840745749e+01   1.4598731903e+01    0.2631238   0.06601324  29.57 0.0009733396    2.802    0.643
        10 -15.1558     64.3442    242.1166   9.5271046421e+01   1.8001298400e+01     2.320625     1.089632  69.51     0.011859    3.139    0.681
        11 -15.5022     72.0270    209.6591   9.1139722346e+01   2.2845383745e+01     2.797689    0.4792104  34.62   0.01000691    3.446    0.710
        12 -17.2122     68.2928    188.3353   9.0097481417e+01   2.7493962612e+01     4.711353      2.75369  27.95   0.02485727    1.511    0.338
        13 -11.1609    159.6649    221.7885   7.3159497992e+01   9.8131570985e+00    0.2683625     0.153057  15.56  0.001089334    1.643    0.391
        14 -11.1484    223.1052    220.1787   6.1453727267e+01   2.4318247047e+00    0.1671203    0.1310892  -4.61 0.0004110253    1.245    0.196
        15 -11.5963    173.5178    220.0322   7.0215623471e+01   8.3122345205e+00    0.2365378    0.1919564 -11.40   0.00105903    1.244    0.196
        16 -15.1811     21.7265    220.0202   1.0345862987e+02   2.5971605586e+01     1.343619    0.5022389  45.61  0.007186968    1.925    0.480
        17 -10.0576    207.5435    218.4902   6.3805324258e+01   4.3878037081e+00    0.1123701      0.08229   6.27 6.197309e-05    1.010    0.010
        18 -15.3716     15.9695    239.5826   1.0531488834e+02   2.2977582228e+01    0.8593944    0.4827622  76.40  0.004738363    1.819    0.450
        19 -11.0188    184.3804    213.7932   6.7267827694e+01   7.7783960606e+00    0.1856025    0.1452708  -4.45  0.000237581    1.147    0.128
        20 -11.3916    183.5069    210.4825   6.6943043599e+01   8.3279351796e+00    0.2018671     0.179098  11.20 0.0005657853    1.316    0.240
        21 -11.4452    125.0866    212.6172   7.9221997483e+01   1.5680608232e+01    0.2946273    0.1944707 -39.85  0.001019517    1.786    0.440
        22 -10.9399    103.0316    213.9796   8.4327506703e+01   1.8297104342e+01    0.1849628    0.1473059  29.56  0.000354366    1.006    0.006
        23 -12.0251    153.8291    210.6171   7.2818839122e+01   1.2184895363e+01    0.3449297    0.2253027   5.40  0.002023221    1.585    0.369
        24 -10.8544    142.6120    212.1965   7.5379746181e+01   1.3432980284e+01    0.1566419    0.1072725 -28.61  0.000746542    1.653    0.395
        25 -17.1327     28.7328    234.7483   1.0248279320e+02   2.2708310155e+01     2.500581      1.86719  54.69   0.01848433    1.154    0.133
        26 -11.2916    138.7560    209.6831   7.5867495312e+01   1.4340008463e+01    0.3788857    0.2429976  -3.68  0.001865774    1.924    0.480
        27 -11.6046    227.9886    207.5919   5.8759945659e+01   3.2911951584e+00    0.2695352    0.1709784  28.01  0.001875315    1.506    0.336
        28 -10.4064    132.8978    240.7197   8.0819944612e+01   1.0442388181e+01    0.2294964    0.1216091  38.14  0.001365057    1.615    0.381
        29 -10.7519    124.2502    205.8067   7.8548310553e+01   1.6924188848e+01    0.2163386     0.141492  35.45 0.0006204319    1.296    0.228
        30 -10.4293    169.6565    205.7061   6.8907058869e+01   1.0797946496e+01    0.1258632   0.07939441   3.85 0.0002907387    1.662    0.398
        31 -13.2395    147.5334    203.0783   7.3073683538e+01   1.4194875793e+01    0.4630055    0.3306818  28.94  0.002868939    1.177    0.151
        32 -10.3973    212.3880    200.2339   6.0174475537e+01   6.0120320539e+00    0.1425098   0.09817193 -34.82 0.0007679093    1.664    0.399
        33 -10.9614    224.9352    198.9871   5.7891531498e+01   4.6409388545e+00    0.1931489    0.1365143 -23.77   0.00136992    1.362    0.266
        34 -12.0794    134.7888    198.6548   7.5223601296e+01   1.6683709100e+01    0.2728612    0.1907231  28.17 0.0005648621    1.191    0.160
        35 -10.5835    121.5088    200.5151   7.8481199212e+01   1.8204690819e+01    0.1710967    0.1277209 -49.21 8.069352e-06    1.593    0.372
        36 -10.1142    245.4593    197.5394   5.4477843260e+01   2.4455182528e+00    0.1087469   0.07725371  -2.67 9.481625e-06    1.004    0.004
        37 -12.4104    191.5353    194.2033   6.2908835301e+01   9.4853663813e+00    0.5110393    0.2574583  22.65  0.002696708    1.904    0.475
        38 -12.4585    124.0932    195.7974   7.7251712677e+01   1.8673326531e+01    0.4329859    0.3200193 -11.43  0.002400774    1.574    0.365
        39 -10.3969    212.1809    192.9964   5.9035992472e+01   6.9435088812e+00    0.1580407     0.133668 -49.56 0.0008052738    1.994    0.499
        40 -10.5155    163.9541    192.9869   6.8109279229e+01   1.3477411935e+01     0.157258    0.1260756  15.27  0.001006493    1.024    0.023
        41 -11.4603    111.8059    192.3485   7.9675354746e+01   2.1014167832e+01    0.2770008    0.2328963  39.05 0.0005919117    1.127    0.113
        42 -11.7020    110.5030    188.0225   7.9408931696e+01   2.2007310430e+01    0.3757943    0.2741872 -46.11  0.001631413    1.568    0.362
        43  -9.8529     17.4772    179.9592   1.0285094015e+02   3.4427504353e+01    0.2383905    0.1713387   0.62 0.0006770145    1.736    0.424
        44 -11.3351      7.4378    189.2785   1.0577438445e+02   3.3209060457e+01    0.4378123    0.3909757 -47.12  0.003161449    1.438    0.305
        45 -11.9286     10.4600    183.7331   1.0482647408e+02   3.4158569792e+01    0.2984025    0.2796725   4.52  0.002163222    1.309    0.236
        46 -10.7343    123.9843    187.6882   7.6131230024e+01   2.0141202992e+01     0.271943    0.1603871  44.73  0.001087001    1.699    0.412
        47 -11.9895    128.5398    184.3468   7.4564771389e+01   2.0082677081e+01    0.3172312    0.2534331  -5.52 0.0008892498    1.336    0.251
        48  -9.6632    220.2621    187.6436   5.6789940346e+01   6.5899387902e+00   0.09741981   0.08718032 -31.09 0.0005911238    1.624    0.384
        49 -12.4404    116.1497    240.0517   8.4177113501e+01   1.2520778352e+01    0.2153083    0.1998712  15.57  0.000544564    1.255    0.203
        50 -10.5879    248.3266    185.8918   5.2153339225e+01   3.4099281291e+00    0.1950007    0.1280766  14.39 0.0006248422    1.331    0.249
        51 -10.8677    234.1833    191.5415   5.5213106099e+01   4.4144854594e+00    0.2216544    0.1142757  -2.90  0.001200865    2.271    0.560
        52  -9.5793     18.3132    184.3143   1.0283058170e+02   3.3416094717e+01    0.1125183   0.08991768 -35.62 0.0004980584    1.638    0.390
        53 -10.2763    218.3325    194.2991   5.8213895343e+01   6.0079759983e+00     0.119421    0.0709935   2.10  0.000396682    1.648    0.393
        54 -11.0101     24.1395    179.1270   1.0104495182e+02   3.4053971764e+01    0.2884574    0.2102939  78.59    0.0017861    1.322    0.244
        55 -10.4077     22.2642    174.9975   1.0132551928e+02   3.5127196989e+01     0.209877    0.1539939  79.97 0.0005752844    1.309    0.236
        56 -12.6524     50.3647    166.1441   9.2806864194e+01   3.4408633814e+01    0.7037725    0.2180355  41.25   0.00271886    2.632    0.620
        57 -11.3246    113.9383    232.9085   8.3922051433e+01   1.3860532485e+01      0.23687    0.1794343  61.64  0.000664087    1.729    0.422
        58 -13.0389     47.3968    170.8791   9.4086273319e+01   3.3654214571e+01    0.3966148    0.2997459  74.01  0.001697962    1.332    0.249
        59 -11.0574    113.2286    228.0002   8.3564957546e+01   1.4711135557e+01    0.2392331    0.2003241 -24.53 0.0009782582    1.420    0.296
        60 -11.7811    164.4708    177.4309   6.5436943594e+01   1.5864156441e+01    0.3612964    0.2013139  46.32  0.001212127    2.113    0.527
        61 -10.6345    108.9532    237.9163   8.5471104829e+01   1.3688121396e+01    0.2644277    0.1278858 -41.06  0.001428749    2.781    0.640
        62 -10.7968     95.2183    237.6188   8.8353169027e+01   1.5332771571e+01    0.3360694    0.1423427  19.19  0.001552722    2.620    0.618
        63 -11.0871     32.4209    176.9587   9.8688528876e+01   3.3789761395e+01    0.3623876    0.1973239  41.18  0.001522086    1.523    0.343
        64 -11.4678     26.8653    173.1320   9.9963112655e+01   3.5147739153e+01    0.3816451    0.2095902  67.69   0.00110357    1.794    0.443
        65 -11.2188     38.4143    176.3748   9.7017173392e+01   3.3345010693e+01    0.2099231    0.2044529 -44.98 0.0002624367    1.230    0.187
        66 -11.1531    101.0467    175.9965   8.0113554868e+01   2.5715367900e+01    0.1946802    0.1720063  34.79            0    1.030    0.029
        67 -10.9472     83.2844    226.6368   9.0006811620e+01   1.8506012822e+01    0.3519974    0.1890207  46.94   0.00200052    1.687    0.407
        68 -12.6172    131.3578    169.5128   7.1526968884e+01   2.2401116233e+01    0.4132844    0.2397053  28.41  0.001836331    1.606    0.377
        69 -12.9338    124.9079    169.0691   7.3021746350e+01   2.3499136758e+01    0.3759479    0.3453077  46.22   0.00141081    1.182    0.154
        70 -10.3440      2.0828    170.9419   1.0659478958e+02   3.7547201630e+01    0.2125995    0.1427987 -26.77  0.001221232    2.070    0.517
        71 -10.3376    196.6741    170.6919   5.7920808226e+01   1.2080539672e+01    0.1296805   0.08358482   1.78 0.0004411232    1.653    0.395
        72 -12.5189    152.8975    167.3872   6.6170114191e+01   1.9359861586e+01    0.5584828    0.1792995 -38.64  0.001996347    3.600    0.722
        73 -10.4909     90.9395    236.5135   8.9173248112e+01   1.5998462592e+01    0.2508947     0.159734  25.80  0.001159061    1.263    0.208
        74 -11.5886    172.5103    167.1498   6.1944732088e+01   1.6288802494e+01    0.3292612    0.1238896 -41.56  0.001371316    2.765    0.638
        75 -11.3632     88.3055    231.2041   8.9289716159e+01   1.7162355081e+01    0.4570598    0.3465857  70.73  0.002911599    1.633    0.388
        76 -10.0546    102.0570    235.4327   8.6697204898e+01   1.4881746833e+01     0.168828    0.1336208  10.67  0.000275188    1.264    0.209
        77 -10.3789     11.0752    167.9012   1.0404271426e+02   3.7604530454e+01    0.2983219    0.1157729  41.19   0.00128688    2.034    0.508
        78 -11.2989    112.8057    167.1872   7.5758424123e+01   2.5752316112e+01    0.1820772    0.1506499   5.79 0.0002644304    1.268    0.211
        79  -9.6731    104.4681    232.9777   8.5949065744e+01   1.4982781599e+01    0.1322931    0.1118929  77.14 0.0003999103    1.574    0.365
        80 -11.0163    137.8469    166.1733   6.9405840343e+01   2.1994638088e+01    0.1894858    0.1502168   1.09 0.0004073107    1.317    0.241
        81 -11.0953    205.8113    164.8866   5.5224464616e+01   1.1572009748e+01    0.1964523    0.1429659   0.55 0.0006971015    1.254    0.202
        82 -11.7174    103.8399    164.5826   7.7687977561e+01   2.7658637409e+01    0.2318794    0.2036057 -53.97 0.0006026719    1.269    0.212
        83 -10.5351     82.2016    234.4985   9.0893235924e+01   1.7314998784e+01    0.1988017    0.1403932  68.20  0.001306763    1.719    0.418
        84  -9.9895     98.0142    233.6754   8.7401760942e+01   1.5633206172e+01    0.1602043    0.1218237  30.53 0.0005498172    1.004    0.004
        85 -10.9380     35.9100    162.9984   9.6699741023e+01   3.6630628445e+01     0.200271     0.169907  55.29 0.0003429351    1.037    0.035
        86 -12.0779    170.8968    160.4698   6.1030877239e+01   1.7636512266e+01    0.3739343    0.2419474   3.25  0.001867536    1.887    0.470
        87 -10.9416    214.1866    233.1768   6.4781737543e+01   1.9832499184e+00    0.1611367     0.105332   4.88 0.0003648303    1.154    0.133
        88 -11.5373     11.8667    143.1950   1.0260611477e+02   4.3363471987e+01    0.6708845    0.3667751  84.76  0.003389757    1.758    0.431
        89 -13.8394     21.9395    152.8654   1.0009682140e+02   4.0269731382e+01    0.7679902    0.7308741  79.88  0.003457416    1.118    0.106
        90 -11.1601     24.8989    144.8650   9.8611868157e+01   4.1960975844e+01    0.2361051    0.1971695 -52.31 0.0004663957    1.337    0.252
        91 -11.6481    100.7980    155.3620   7.7029095843e+01   3.0090094773e+01    0.2109488    0.1729472  29.16 0.0003254673    1.128    0.113
        92 -12.0316    130.9286    156.8427   6.9406332205e+01   2.4907847544e+01    0.3537889    0.1861752 -37.73   0.00102063    2.157    0.536
        93 -11.5310    182.0526    232.1900   7.0268066901e+01   5.7205047718e+00    0.2898275    0.1404738  11.68  0.001516411    2.327    0.570
        94  -9.9894    130.9085    232.4741   8.0319210981e+01   1.1864163912e+01    0.1897965   0.09105548  28.81   0.00103696    1.608    0.378
        95 -11.1893    126.9876    156.3187   7.0292264118e+01   2.5665761376e+01    0.2330106    0.2089567 -41.11 0.0002804591    1.212    0.175
        96 -10.7920    193.8635    229.3971   6.7754573471e+01   4.6832081026e+00    0.1732387    0.1129526 -20.79 0.0005234779    1.507    0.336
        97  -9.9720     77.7847    229.0184   9.1424832847e+01   1.8726778515e+01    0.1617945    0.1271174  36.29 0.0005807608    1.029    0.028
        98 -12.2758     88.7765    153.7867   8.0152382028e+01   3.2262524190e+01    0.3169089    0.2687604 -82.52  0.001394079    1.334    0.250
        99 -10.2283      3.3196    154.0740   1.0569042077e+02   4.1322087243e+01     0.299696     0.197862 -29.92  0.001664629    2.010    0.502
       100 -11.2985    212.2043    153.9838   5.2071990227e+01   1.2156528648e+01    0.2096657    0.1653045  22.51 0.0006770115    1.233    0.189
       101 -11.3493    214.9779    226.5170   6.3711791579e+01   2.6271725644e+00    0.1636185    0.1330806 -13.04 0.0004381858    1.405    0.288
       102 -12.2895    126.4561    151.6757   6.9569336174e+01   2.6683638644e+01    0.3796011    0.2179064  36.41 0.0005555991    1.603    0.376
       103 -13.5712    102.3560    142.5487   7.4353879944e+01   3.2654715863e+01    0.7901488    0.4319637  46.72  0.002305889    1.862    0.463
       104 -15.2878      4.4040    221.8049   1.0731884471e+02   2.7046432541e+01       1.3659    0.5373873 -83.59  0.007475395    2.739    0.635
       105 -10.4556    180.3159    150.6522   5.7218254788e+01   1.7697174621e+01    0.1217764    0.1085638 -83.44 0.0007047732    1.724    0.420
       106 -11.9475     84.8429    149.3593   8.0597091906e+01   3.3846940253e+01    0.2795275    0.2596813 -58.33 0.0008009972    1.161    0.138
       107 -11.6211     80.4264    148.0201   8.1694460848e+01   3.4798452142e+01    0.2994925    0.1900175  53.22 0.0003550415    1.662    0.398
       108 -10.3801    224.0793    148.2608   4.9049582141e+01   1.1183462935e+01    0.2026303    0.1364568 -38.79  0.000682743    1.571    0.363
       109 -11.2883    154.2411    149.2865   6.2445650549e+01   2.2364874776e+01    0.2441916    0.1586949  33.06 0.0008403432    1.454    0.312
       110 -13.4959    108.9829    148.5832   7.3607281155e+01   3.0246352331e+01    0.8853151     0.342738 -47.33  0.003324839    2.761    0.638
       111 -12.2877     28.0464    160.1038   9.8775409185e+01   3.8034969921e+01    0.3560594    0.2321564 -72.82  0.001196886    1.565    0.361
       112 -10.2906     34.0141    149.5142   9.6141688046e+01   4.0014391508e+01    0.1938174    0.1249027  25.30 0.0004689068    1.515    0.340
       113 -11.4920     55.6131    144.4839   8.8826508929e+01   3.8924764948e+01    0.4441728    0.3523852  21.31  0.002443696    1.295    0.228
       114 -11.4954    125.6652    221.9177   8.0214607280e+01   1.4117197121e+01    0.2953783    0.2301619 -53.81 0.0009806491    1.669    0.401
       115 -10.2617     35.5190    144.9425   9.5253039529e+01   4.0984879239e+01    0.1936833    0.1278595 -77.53 0.0005221821    1.515    0.340
       116 -12.3558     80.1235    142.1309   8.0850191063e+01   3.6218212868e+01      0.54356    0.2658409  49.55  0.002185987    2.211    0.548
       117  -9.7126     99.2965    223.6877   8.6172023473e+01   1.7109713828e+01    0.1201596   0.07669421  49.89 0.0005548884    1.599    0.375
       118 -10.3877    151.4796    141.5375   6.1494624713e+01   2.4273355502e+01    0.1414323    0.1277898   9.23  6.25035e-05    1.018    0.018
       119 -10.3682    139.7030    141.3215   6.4231510210e+01   2.6427810812e+01      0.13642    0.1146067  76.86 0.0003522255    1.619    0.382
       120 -11.1106     93.9693    141.3005   7.6554816130e+01   3.4292641913e+01    0.2042228     0.175262  32.22 0.0002079175    1.095    0.087
       121 -11.2434     31.0108    140.0158   9.6243775432e+01   4.2622346955e+01    0.2777668    0.1570353  37.80  0.001366146    1.604    0.377
       122 -11.2177    159.2898    137.3117   5.8847720052e+01   2.3637039911e+01    0.2970442    0.1870742 -34.17 0.0007646527    1.613    0.380
       123 -10.4720     50.9393    138.1799   8.9526516179e+01   4.1021233725e+01    0.2049665    0.1877084  57.07 0.0002597382    1.014    0.014
       124 -10.7462     53.2736    135.6368   8.8425973814e+01   4.1377956617e+01    0.4304856    0.1548218  47.06  0.001527483    2.880    0.653
       125 -11.7330     38.9822    137.9567   9.3427408226e+01   4.2370785814e+01    0.4451896    0.2264818  10.30  0.001860929    2.507    0.601
       126 -13.5589    155.6254    129.1693   5.7885194316e+01   2.5801404634e+01     1.104764    0.4246129  41.71  0.004164945    2.554    0.608
       127 -11.5695    133.4919    131.4256   6.3677632404e+01   2.9528362668e+01    0.2660649    0.2042975  27.43 0.0008053582    1.285    0.222
       128 -11.8489    138.0102    130.9869   6.2449171358e+01   2.8771956649e+01    0.3662665    0.2992747  64.94 0.0008734079    1.522    0.343
       129 -11.3921    140.5110    134.4962   6.2597343403e+01   2.7614677753e+01     0.270971     0.238919  51.84  0.001085216    1.243    0.196
       130 -12.2828    143.9738    132.0358   6.1225817789e+01   2.7449939967e+01    0.3903949    0.2871474  -6.30  0.001164005    1.668    0.400
       131  -9.6592     19.7296    135.6739   9.9583153992e+01   4.4648282214e+01     0.130517   0.09349003 -46.67 0.0002325783    1.577    0.366
       132 -11.1120     12.8604    133.7327   1.0172146001e+02   4.5627853598e+01    0.3597303    0.2153976  49.29  0.001239377    1.533    0.348
       133 -11.4865     95.1058    134.1047   7.4885391563e+01   3.5756823948e+01    0.2213306    0.1952516   4.58 0.0004266419    1.225    0.184
       134 -10.1834     70.8497    133.8277   8.2404491672e+01   3.9538857556e+01    0.1988746    0.1550254  54.26  0.000264189    1.282    0.220
       135 -10.5563     28.8451    134.1318   9.6414791352e+01   4.4285488566e+01    0.1805498    0.1539232 -44.71 0.0005329127    1.314    0.239
       136 -11.8052    103.9717    132.8982   7.2030700409e+01   3.4538340855e+01    0.4633864    0.1795512  34.38  0.001653292    2.498    0.600
       137 -11.6183     61.5150    134.4835   8.5547637600e+01   4.0639390144e+01    0.5073951    0.2296265  30.59  0.002075559    2.062    0.515
       138 -11.2472     30.4882    130.1645   9.5470916090e+01   4.5140716867e+01    0.3519065    0.1713073  59.46  0.001497154    2.219    0.549
       139 -10.5850     92.5161    129.0182   7.4683063855e+01   3.7362145249e+01    0.2153081    0.1474656 -56.53 0.0003603016    1.536    0.349
       140  -9.3604     69.6832    129.7358   8.2104291012e+01   4.0703172049e+01    0.1410698    0.1118799 -16.71 0.0002979526    1.548    0.354
       141 -10.8247     15.1759    126.8458   1.0046530616e+02   4.7199834448e+01    0.3264688    0.2274979  81.22  0.001475213    1.353    0.261
       142 -10.7927     11.2566    123.8112   1.0161446100e+02   4.8228394886e+01    0.3612424    0.1739797  32.42  0.001709426    1.936    0.484
       143 -10.8948     59.9898    150.1266   8.8179373539e+01   3.7035182669e+01    0.2395731    0.2014863 -48.53 0.0008096631    1.319    0.242
       144 -11.3172     59.1214    126.8122   8.5172164533e+01   4.2856059698e+01    0.2719904    0.2198619 -50.84  0.001447583    1.302    0.232
       145 -11.1397    189.9796    121.9146   4.9294826187e+01   2.0634545317e+01    0.3199656    0.2319633 -82.32  0.001473573    2.791    0.642
       146 -11.1126     67.4277    122.4900   8.1604577133e+01   4.2812427059e+01    0.2510435    0.2364449  61.43  0.000667901    1.034    0.033
       147  -9.8662     49.0531    122.9672   8.8090136231e+01   4.5063758345e+01    0.2391652    0.1496459  59.94 0.0006809753    1.743    0.426
       148 -10.5340    205.6113    121.5690   4.6523919140e+01   1.7905111220e+01    0.2287379    0.1745582 -23.42   0.00057525    1.170    0.146
       149 -10.5727     36.8202    120.7505   9.2172072097e+01   4.6949173017e+01    0.3274598    0.1915502  39.97  0.001557125    1.623    0.384
       150 -11.5700     54.2630    117.0036   8.5292841471e+01   4.5955107959e+01    0.5547726    0.2239319  42.46  0.002094806    2.404    0.584
       151 -11.0184     48.8878    115.8360   8.7064698944e+01   4.6907571872e+01     0.351782    0.3015241 -21.92   0.00119473    1.332    0.249
       152 -10.2739      1.6697    121.0175   1.0480686101e+02   4.9477500746e+01    0.1813645    0.1511693  86.28 0.0004624062    1.079    0.073
       153 -11.2702     41.9957    121.0951   9.0347118382e+01   4.6328937907e+01     0.536339    0.3559779 -12.46  0.001981008    2.030    0.507
       154 -11.8530    101.4701    119.9708   7.0049053341e+01   3.7907035355e+01    0.4493579    0.2096408  42.00  0.001737586    2.058    0.514
       155 -10.4786     24.0000    120.0023   9.6744376060e+01   4.8290440038e+01     0.275545    0.1572155 -78.71 0.0008473915    1.681    0.405
       156 -10.1727     23.3800    115.7925   9.6546400592e+01   4.9426799189e+01    0.2860489    0.1622735 -63.22  0.001185249    1.673    0.402
       157 -10.6061     31.3171    118.8402   9.3946221242e+01   4.7964184649e+01    0.2379169    0.2109231  26.97  0.001391926    1.170    0.145
       158 -11.0337    155.0011    117.4826   5.5332678492e+01   2.8082959316e+01     0.219169    0.1391546  42.83 0.0004624891    1.567    0.362
       159 -11.3714    105.2054    114.8193   6.7747713013e+01   3.8393356752e+01    0.2899245    0.2100181  36.59 0.0006490684    1.336    0.252
       160 -11.3986    191.4692    112.3950   4.6865110939e+01   2.1862276676e+01    0.4112964     0.249424  14.42 0.0007780547    2.506    0.601
       161 -10.3798     82.4910    113.8849   7.4787184301e+01   4.2618810769e+01    0.2282118    0.1485898 -57.41  0.001030058    1.582    0.368
       162 -10.9530    242.2724    111.2151   3.9036357202e+01   1.3293975690e+01    0.1912027    0.1715575 -12.93 0.0003305356    1.138    0.122
       163 -11.5552     50.3004    107.8379   8.5198107278e+01   4.8797089212e+01    0.3617833    0.2422362 -37.74  0.001540687    1.713    0.416
       164 -11.5649     53.5384    110.9048   8.4514322500e+01   4.7606192953e+01    0.3267525    0.2757381  69.80 0.0007091528    1.222    0.182
       165 -11.9488     55.9284    106.2969   8.2765855588e+01   4.8478407717e+01    0.3945141    0.3082447  74.15  0.001470605    1.413    0.293
       166  -9.9382    159.6826    108.6956   5.2170002510e+01   2.8745738360e+01    0.1471817    0.1105659   6.53 0.0005795704    1.626    0.385
       167 -11.7400    152.8159    106.7708   5.3203554792e+01   3.0509876442e+01    0.3507336    0.2466368 -66.31  0.001579828    2.039    0.510
       168 -10.1603    117.1687    103.3526   6.1395924977e+01   3.8582429729e+01     0.239668    0.1870855  24.54 0.0008826794    1.386    0.279
       169 -11.7826     77.7691     99.9738   7.3264941247e+01   4.6783461522e+01    0.7717232    0.4000944  57.35  0.002747399    2.780    0.640
       170 -11.5436     59.6169     92.2480   7.8355190522e+01   5.1546150637e+01     0.328196     0.285145  25.41  0.001746828    1.176    0.150
       171 -12.2825     57.8387     99.6797   8.0703489380e+01   4.9911436442e+01    0.5229142    0.3800814 -56.46  0.002582676    1.358    0.264
       172 -10.4929     60.0291     95.7682   7.8993506775e+01   5.0597174629e+01    0.2320614    0.1970053  61.69  0.000590972    1.242    0.195
       173 -10.9712     21.5898     98.9800   9.5358933998e+01   5.3953346031e+01    0.3509545    0.2902164 -77.17  0.002008095    1.133    0.117
       174  -9.8052    197.4568     96.4316   4.2096522422e+01   2.3170216004e+01    0.1327646    0.1205327 -21.81 4.673982e-05    1.007    0.007
       175 -10.8568    149.9109     96.0871   5.1090647604e+01   3.3097682632e+01    0.2155348    0.2006715 -75.30 0.0003793523    1.206    0.171
       176 -11.3848     54.2521     92.8088   8.0663247734e+01   5.2152757885e+01    0.2713919    0.1883623  42.79  0.001293755    1.451    0.311
       177  -9.5852    135.3133     91.6990   5.3369878928e+01   3.7109721746e+01    0.1494715    0.1210647 -85.60 0.0002058797    1.610    0.379
       178  -9.7205    237.5457     98.5617   3.6964205507e+01   1.5663829714e+01    0.1210181   0.09935662 -31.25 5.250603e-05    1.088    0.081
       179 -11.1415      3.7390     88.5819   1.0191102968e+02   5.7724716804e+01    0.4485305    0.1533781 -66.18  0.001763213    2.439    0.590
       180 -10.0670     95.2957     89.4186   6.4378281448e+01   4.6057073516e+01    0.2062258    0.1438936  49.33 0.0003903846    1.462    0.316
       181 -13.5209     53.1709     84.9445   7.9308410594e+01   5.4299929719e+01    0.9658539    0.6129197  29.58  0.004468141    1.592    0.372
       182 -10.6738    208.0491     86.9990   3.8238612694e+01   2.2488903075e+01    0.1946988    0.1733496 -20.06 0.0003205192    1.047    0.044
       183  -9.6394     11.6809     87.2910   9.8260787986e+01   5.7672556610e+01    0.1407846   0.09150548  56.18 0.0003662994    1.602    0.376
       184 -12.9859     50.7588     79.2590   7.8963095539e+01   5.6064326296e+01    0.9115389    0.2857868  32.79  0.003069713    2.996    0.666
       185 -10.8031    213.0586     80.7666   3.6065334603e+01   2.2388726585e+01     0.280881    0.1839786  28.07  0.001462888    1.984    0.496
       186 -10.5932    207.7103     79.2398   3.6417186989e+01   2.3640570855e+01    0.2574339    0.1915106  -7.13 0.0008668873    1.520    0.342
       187 -10.4195    153.0554     80.2876   4.6037178142e+01   3.5222968503e+01    0.1999339     0.190327  53.97  0.000337795    1.072    0.067
       188 -12.2466     28.8719     79.8671   8.9205879155e+01   5.8374423224e+01    0.3673045    0.2085453  32.25  0.001707612    1.773    0.436
       189 -10.4557    183.4147     77.8585   3.9702145250e+01   2.8860787030e+01    0.2886171    0.1728255  38.22  0.001336117    1.965    0.491
       190 -10.4060     87.8278     78.5966   6.3777793245e+01   4.9971790918e+01    0.2287603    0.1400934  51.09 0.0009535431    1.746    0.427
       191 -10.7922    112.0908     76.1353   5.5075039626e+01   4.5356870794e+01     0.313369    0.2621254  16.26 0.0007137435    1.370    0.270
       192 -11.0319    115.5157     74.9411   5.3699829456e+01   4.4824927997e+01    0.3362574    0.2636331 -10.35  0.001211516    1.593    0.372
       193 -11.1622     75.0509     75.5215   6.7642336771e+01   5.3103616038e+01    0.3101412    0.2606007  32.82 0.0007933207    1.189    0.159
       194 -12.5378     32.2461     74.1635   8.6434727710e+01   5.9536565947e+01    0.4232766    0.2824608  -6.89  0.002017595    1.822    0.451
       195 -10.0891    219.7892     72.6156   3.3283454507e+01   2.2185198841e+01    0.1559969    0.1222088  83.33 0.0005864425    1.593    0.372
       196 -13.3001     30.4584     65.1976   8.5297379668e+01   6.2008948189e+01     1.485774    0.3488436  35.66  0.004709621    3.863    0.741
       197 -10.8303    197.8209     66.6932   3.4630993617e+01   2.7395822507e+01    0.4137338     0.247428  20.22  0.001755774    2.869    0.651
       198 -10.1675    188.4315     65.7440   3.5710458122e+01   2.9546741783e+01    0.2764799    0.1132464 -37.38   0.00112801    2.169    0.539
       199  -9.5643    113.7427     63.0103   5.0275779002e+01   4.7528253217e+01    0.1844749    0.1324883 -39.39 0.0002372402    1.421    0.296
       200 -10.5279    208.1761     61.9593   3.2095695327e+01   2.5873664735e+01    0.2164727    0.1476508   3.93  0.001093546    2.043    0.510
       201 -10.2719     45.6707     60.6916   7.6177992758e+01   6.1347927970e+01    0.1518175    0.1071839 -23.32  0.000525734    1.661    0.398
       202 -10.4559      3.7517     59.2571   9.8796934794e+01   6.5331070184e+01    0.2586246    0.1700897 -14.92  0.001377117    1.658    0.397
       203 -11.8566     51.9331     56.2633   7.1576519268e+01   6.1489973574e+01    0.6545398    0.3145643  50.90  0.002408615    2.812    0.644
       204 -11.7224    177.7558     64.7579   3.7073702531e+01   3.2064739056e+01    0.2885081    0.2248038 -28.08 0.0005954591    1.258    0.205
       205 -10.1152    153.5714     57.3166   3.9088598575e+01   3.8859667963e+01    0.1888862    0.1419119 -19.93 0.0004674449    1.472    0.321
       206 -10.1932     94.0199     51.7905   5.2305885616e+01   5.4212080849e+01     0.258509    0.1690993  25.32  0.001073039    2.002    0.501
       207 -11.7186    100.5364     68.8387   5.6281439129e+01   4.9403592374e+01    0.4534612    0.2500772 -37.10  0.001822199    1.951    0.488
       208 -11.1983     45.6472     49.8028   7.2516737523e+01   6.3922232609e+01    0.2649124    0.2184651  47.78 0.0005392894    1.327    0.247
       209 -10.1440     30.5570     50.5134   8.1237437956e+01   6.5654252709e+01     0.274175    0.1353386  24.19  0.001184603    2.080    0.519
       210 -10.2551    175.0308     50.0000   3.3303271628e+01   3.4779501576e+01    0.2239817   0.07898934  63.29 0.0008024293    2.942    0.660
       211 -10.1663     18.1579     49.1918   8.8333810878e+01   6.7099102801e+01    0.1801842    0.1555164  64.73 0.0003646163    1.313    0.238
       212 -10.3442      1.8933     47.0635   9.8118673998e+01   6.8492511091e+01    0.2279912    0.1217358 -44.76  0.001125682    1.691    0.409
       213 -11.5699    195.7250     44.3313   2.9015342892e+01   3.0779586797e+01    0.3847919    0.2243533 -85.69  0.001248491    2.279    0.561
       214 -10.2481    122.4912     41.5473   4.0287276794e+01   4.9014137698e+01    0.1484446     0.142404  75.61 3.739624e-05    1.016    0.016
       215 -11.2342     34.6077     39.8880   7.5105325120e+01   6.7687765979e+01     0.535921    0.2484257  21.10  0.002167633    2.462    0.594
       216 -10.9125     59.6622     39.2556   6.0999932753e+01   6.3861790760e+01    0.3707225    0.2102788  27.48  0.001547731    2.084    0.520
       217 -11.3451     55.2112     37.3618   6.2366211420e+01   6.5058668065e+01    0.4494829    0.2960341  10.83  0.001175475    2.093    0.522
       218 -10.8407      9.8530     37.1278   9.0706935112e+01   7.0609878598e+01    0.2325448    0.1726769  -8.36 0.0007539193    1.392    0.281
       219  -9.9097    169.6669     36.3083   3.0006005267e+01   3.7848977709e+01    0.1491138   0.09724671 -62.88 0.0007041449    1.670    0.401
       220 -11.3968    220.3162    231.1134   6.3484114143e+01   1.5478480855e+00    0.2066073    0.1512495  11.09 0.0004117141    1.160    0.138
       221 -11.2922     31.8616     32.2095   7.3689547125e+01   6.9748903860e+01    0.4116692    0.2307255 -46.59  0.001954222    1.679    0.405
       222 -10.5707    106.7604     32.2615   4.0564262413e+01   5.4381529615e+01    0.3002496    0.1966565 -30.89 0.0008558322    1.605    0.377
       223 -10.0476     43.6549     33.7048   6.7016323718e+01   6.7755892908e+01    0.1461856    0.1054097  -8.81 0.0004131889    1.668    0.400
       224 -11.0727     77.8976     31.1783   4.9311959626e+01   6.1535897396e+01    0.2722748    0.2025024 -62.06  0.001057136    1.727    0.421
       225  -9.9513    232.1454     30.8577   2.2248061001e+01   2.4741347578e+01    0.1461063    0.1331393  -8.67 -0.0006383859    1.278    0.217
       226  -9.5365    169.5114     31.4533   2.8550663364e+01   3.8479515072e+01    0.1370669    0.1279159 -67.97 3.755309e-05    1.009    0.009
       227 -10.2011     38.9609     29.1728   6.7712670819e+01   6.9412693677e+01    0.2307565    0.1538459  -0.29 0.0009770428    1.941    0.485
       228 -10.0637    119.2040     25.6467   3.4893414159e+01   5.2075784872e+01    0.2385094    0.1780414  12.44 0.0006314862    1.695    0.410
       229 -11.0835     84.8278     24.1443   4.3452665471e+01   6.0998689600e+01    0.3318785    0.2455984  78.22  0.001604838    1.636    0.389
       230  -9.9480    250.0006     22.2483   1.9153261122e+01   2.2292203454e+01    0.1285628   0.09319236  85.21 0.0008802222    1.566    0.362
       231  -9.9988     54.8825     21.6195   5.4616523138e+01   6.8045181484e+01    0.1908441    0.1296203  54.14  0.000378187    1.631    0.387
       232  -9.9463     20.8239     23.1569   7.7533350488e+01   7.2994901795e+01    0.1959135    0.1421027 -24.34  0.001078695    1.355    0.262
       233 -10.4540    238.1218    248.6807   6.3080615851e+01  -1.9907243764e+00    0.1529416    0.1093168 -11.31 0.0007172483    1.349    0.259
       234 -10.7594    215.6851     15.6090   1.9767038008e+01   2.9633505655e+01     0.206038    0.1694877 -35.09 0.0004971365    1.143    0.125
       235 -10.0603     82.8681    245.6565   9.1611880538e+01   1.5460109658e+01    0.1890734    0.1112864  42.06  0.001215591    1.368    0.269
       236 -10.8246    213.5120     10.4887   1.8639880846e+01   3.0589733894e+01     0.235186    0.1156437  79.97  0.001201856    2.139    0.533
       237 -10.6181     83.1405    241.9531   9.1274865361e+01   1.6009987262e+01    0.2454712    0.1553098  51.89  0.001171447    1.563    0.360
       238 -11.4190    179.7174    244.6620   7.2297679757e+01   4.4907951266e+00     0.195479    0.1408873  21.13  0.000399379    1.155    0.134
