#   1 NUMBER                 Running object number                                     
#   2 MAG_AUTO               Kron-like elliptical aperture magnitude                    [mag]
#   3 X_IMAGE                Object position along x                                    [pixel]
#   4 Y_IMAGE                Object position along y                                    [pixel]
#   5 X_WORLD                Barycenter position along world x axis                     [deg]
#   6 Y_WORLD                Barycenter position along world y axis                     [deg]
#   7 A_WORLD                Profile RMS along major axis (world units)                 [deg]
#   8 B_WORLD                Profile RMS along minor axis (world units)                 [deg]
#   9 THETA_WORLD            Position angle (CCW/world-x)                               [deg]
#  10 FWHM_WORLD             FWHM assuming a gaussian core                              [deg]
#  11 ELONGATION             A_IMAGE/B_IMAGE                                           
#  12 ELLIPTICITY            1 - B_IMAGE/A_IMAGE                                       
         1  -9.1783     12.9017     29.9623   8.9708060661e+01   7.3309979158e+01    0.3552123     0.182298 -79.72  0.001262384    2.387    0.581
         2  -8.6549     55.7654      9.8883   5.0369396495e+01   7.0345668225e+01    0.2420589    0.1782309 -50.23 0.0005396418    1.535    0.349
         3  -7.7295     47.6103      9.7757   5.4228774066e+01   7.2119019219e+01    0.1867386    0.1216625 -43.05 0.0005597167    1.616    0.381
         4  -8.1188     28.4592      9.9610   6.6444179243e+01   7.5639053021e+01    0.1792866    0.1135126 -65.29 0.0008091283    2.555    0.609
         5  -8.7302     90.8833      8.6065   3.8093564319e+01   6.1817152391e+01     0.294228    0.1663398 -44.73 0.0007801905    1.865    0.464
         6  -7.9588    101.3036      7.6797   3.5366671050e+01   5.9109078463e+01    0.1539001    0.1030835 -60.88  0.000702843    1.631    0.387
         7  -8.4419     79.3472      3.9341   3.8354089988e+01   6.5319998418e+01    0.2993537    0.1454567 -35.81   0.00127134    2.072    0.517
         8  -8.4058     33.3013      4.5075   5.8726150743e+01   7.5702829652e+01     0.270156    0.1459489 -48.36  0.001251743    2.192    0.544
         9  -8.1695     62.4950      1.4485   4.1896819039e+01   6.9790164882e+01    0.2174439     0.132971  78.57 0.0006847688    1.954    0.488
        10  -9.0347    242.5329    247.0753   6.8968253092e+01  -2.8731676281e+00    0.1751547   0.09857409 -20.69 0.0009643557    1.711    0.415
        11  -8.5886    249.1039    249.1407   6.8315399475e+01  -3.6984918458e+00    0.2046195    0.1130532  -3.29  0.001595887    1.542    0.351
        12  -9.7827    248.6911    242.0411   6.7442257340e+01  -3.0795520408e+00    0.2566433    0.1505064 -30.20  0.001258776    2.028    0.507
        13  -9.1479    232.7602    247.3793   7.0411892011e+01  -1.8911524863e+00    0.2635984    0.1610006 -32.03  0.001679877    2.063    0.515
        14  -9.2943    175.4915    247.8593   7.9530003728e+01   4.5584027970e+00     0.250957    0.2097191 -40.19  0.002080023    1.738    0.425
        15  -7.7064    125.2955    250.3375   8.8761319715e+01   1.0461803204e+01    0.1032546   0.07219113   9.12 0.0005950917    1.651    0.394
        16  -8.3728     93.9273    249.3474   9.4631036980e+01   1.4456858564e+01    0.2270943    0.1077159  52.98   0.00130959    2.098    0.523
        17  -7.2420     86.3043    250.6347   9.6198916989e+01   1.5186639284e+01    0.1142018   0.06083829  53.36 0.0007036336    1.740    0.425
        18  -9.2810    224.5138    245.5102   7.1390045174e+01  -8.4859499273e-01    0.1954608    0.1447665  -4.45  0.001204911    1.263    0.208
        19  -9.5325    223.5123    242.0407   7.1091184244e+01  -4.2431387119e-01    0.1841918    0.1699165 -19.26  0.001444252    1.875    0.467
        20  -9.1523    147.0548    245.7937   8.4302306975e+01   8.3118741068e+00    0.2573724    0.1552513  55.77   0.00148433    2.442    0.590
        21  -9.0028    120.0448    244.9974   8.9246780583e+01   1.1827086324e+01    0.2516891    0.1750253  73.81  0.001633644    2.223    0.550
        22  -8.3849     67.4563    244.7330   9.9496948349e+01   1.8280828436e+01    0.1606116    0.1040685 -87.78 0.0007305793    1.942    0.485
        23  -8.8407      9.7029    243.8183   1.1084729435e+02   2.4422739119e+01    0.2508487   0.06740687  67.68  0.001205052    3.439    0.709
        24  -8.5343    201.9531    243.3458   7.4609364396e+01   1.8888314098e+00    0.1493361    0.1355569 -11.62 0.0006677552    1.587    0.370
        25 -10.0278    160.5876    240.9955   8.1332639531e+01   7.1858132866e+00    0.3822447    0.2603455 -69.79  0.002341066    3.275    0.695
        26  -8.7432    139.5007    244.0299   8.5499877845e+01   9.4875188534e+00    0.1283451    0.1117676 -51.14  0.001027325    1.608    0.378
        27  -8.6658    169.1498    243.1078   8.0068155910e+01   5.8655504746e+00    0.1869054    0.1228575  35.34 0.0006062348    1.283    0.220
        28  -8.7021     77.7860    242.7321   9.7311039007e+01   1.7376999201e+01    0.2097289    0.1084662  62.02  0.001009029    2.170    0.539
        29  -8.9879    194.1592    240.0382   7.5457021519e+01   3.1464319597e+00    0.2392167    0.1648968 -46.88  0.001472473    2.348    0.574
        30  -8.1428     88.0319    242.2316   9.5237610349e+01   1.6215604711e+01    0.1537511    0.1126882  43.25 0.0008752189    1.058    0.055
        31  -7.7139     49.6774    242.3592   1.0290774410e+02   2.0653759937e+01    0.1213675   0.05456522  53.45 0.0007043784    1.773    0.436
        32  -9.1984    182.9227    239.8691   7.7311380084e+01   4.5275290334e+00    0.2693007    0.1825678  50.30  0.001480619    2.157    0.536
        33  -8.6376    240.5282    240.0400   6.8327931970e+01  -2.0715214929e+00    0.1292511   0.07819467 -18.12 0.0005988313    1.549    0.354
        34  -7.7469    214.2996    240.6778   7.2321947890e+01   7.3211770060e-01   0.08578707    0.0716797  31.36  0.000215233    1.626    0.385
        35  -8.1888    146.2357    239.2139   8.3737198411e+01   9.2395230455e+00    0.1430343    0.1069325  43.78 0.0005255953    1.352    0.260
        36  -9.0043    136.0878    239.0149   8.5608653708e+01   1.0576242710e+01    0.2205671    0.1090715  48.55  0.001230499    2.161    0.537
        37  -7.8712     41.0000    238.9722   1.0448973911e+02   2.2139454037e+01    0.1425695    0.0594051 -79.12 0.0007567694    2.887    0.654
        38  -8.1130      1.6633    239.3156   1.1232226735e+02   2.5882363242e+01    0.1180373   0.04406007  51.30 0.0007047658    1.696    0.410
        39  -8.8714    230.8312    236.7450   6.9297318706e+01  -7.4234513511e-01    0.1871919    0.1708643 -53.65  0.001286217    2.532    0.605
        40  -7.9282    209.3427    238.1749   7.2771532923e+01   1.5449015059e+00    0.1177192   0.08868229 -30.42 0.0005437207    1.713    0.416
        41  -7.9099    128.9805    238.4695   8.6899839724e+01   1.1569884554e+01    0.1601023   0.06860466  47.83 0.0007382202    2.418    0.586
        42  -8.3326     25.9994    237.0165   1.0743882951e+02   2.4005275525e+01    0.2897777   0.07556465  53.56  0.001403105    2.697    0.629
        43  -9.1580    217.3355    235.6954   7.1196592071e+01   8.6642334854e-01    0.1743167    0.1341294  31.21 0.0006595587    1.505    0.336
        44  -9.3335    213.6900    231.6510   7.1220737147e+01   1.6872886016e+00    0.2251297    0.1867192  46.42  0.001439025    1.992    0.498
        45  -8.9973    203.2791    234.7539   7.3290687641e+01   2.6048422283e+00    0.1938454    0.1713523 -43.83  0.001039987    1.927    0.481
        46  -9.9840    175.7431    233.3640   7.7736494054e+01   6.1619301814e+00     0.364474    0.1968768 -49.35  0.002205968    2.843    0.648
        47  -7.5718     57.3456    236.6817   1.0104916907e+02   2.0720036020e+01     0.123266   0.05754298  52.28 0.0007048935    1.725    0.420
        48  -9.2002    247.9534    234.0445   6.6465537941e+01  -2.3299944225e+00    0.1959166    0.1174245 -14.83  0.001156792    1.462    0.316
        49  -9.6159    246.7550    229.0481   6.5941779136e+01  -1.7694574656e+00    0.3225129    0.1489732 -26.88  0.002015157    2.093    0.522
        50  -9.3855    109.3734    234.3940   9.0320806293e+01   1.4693493318e+01    0.4622834     0.160745  46.45  0.001857223    2.621    0.618
        51  -8.7905     78.4953    234.2989   9.6559197525e+01   1.8609695716e+01     0.236102    0.1496421  70.15  0.001114121    1.813    0.449
        52  -8.3400    123.1947    234.0834   8.7565692486e+01   1.2933529316e+01    0.2181539     0.110509  49.82 0.0008777506    2.040    0.510
        53  -8.2956     99.7305    234.1703   9.2230985354e+01   1.5969576957e+01    0.1769109    0.1170717  58.79  0.001154999    1.604    0.377
        54  -9.0601     68.7486    232.3115   9.8425300534e+01   2.0108457763e+01    0.4337343    0.1553215  57.15  0.001939046    3.232    0.691
        55  -8.7647    194.0350    232.7493   7.4540994636e+01   3.9379559905e+00    0.1682957    0.1294645   2.71 0.0006734281    1.175    0.149
        56  -8.7151    140.2819    230.0167   8.3822105561e+01   1.1232818203e+01    0.2274915    0.1205437  43.82 0.0008434213    1.685    0.406
        57  -8.5903    132.8364    232.6989   8.5549686729e+01   1.1855430676e+01    0.1904442    0.1337776  65.97  0.001120052    2.097    0.523
        58  -8.5012     92.5135    231.8677   9.3494554966e+01   1.7245509021e+01    0.2895668    0.1519028  69.06  0.001252226    2.971    0.663
        59  -9.2436    186.5394    230.4308   7.5498773925e+01   5.1290725599e+00    0.2454157    0.2033715 -77.54  0.001360677    2.690    0.628
        60  -8.9578    236.3090    229.4721   6.7498210253e+01  -6.7793844158e-01    0.3540276    0.1440653 -19.95  0.002055953    2.723    0.633
        61  -8.9911      1.6161    230.7337   1.1218754068e+02   2.7348042114e+01    0.1838226    0.1000536  66.45  0.001052545    1.482    0.325
        62  -9.9496    149.8309    226.1221   8.1549006577e+01   1.0475720306e+01    0.4758715    0.3218812 -89.82  0.002395598    4.094    0.756
        63  -8.1240    229.7926    228.5307   6.8328608255e+01   1.3639034264e-01    0.1444622    0.1027407 -17.86  0.000671581    1.415    0.293
        64  -8.7438    162.3928    227.7227   7.9413022226e+01   8.5845794094e+00    0.2598497    0.1606331  50.24   0.00158751    2.020    0.505
        65  -8.9392    127.7989    227.0289   8.5911701761e+01   1.3329737830e+01    0.2442252    0.1758551  58.14  0.001049206    1.651    0.394
        66  -9.5199      8.2450    227.2324   1.1077016687e+02   2.7375396896e+01    0.1735678     0.117112  84.77  0.001162718    1.521    0.342
        67  -7.9289    223.3848    227.1650   6.9105099888e+01   1.0008711437e+00    0.1202182   0.08772919 -28.05  0.000379055    1.648    0.393
        68  -8.0286    120.1413    227.2022   8.7451716170e+01   1.4335643621e+01    0.1565477    0.1130405  50.28 0.0005099315    1.358    0.264
        69  -8.1249     49.6213    226.8442   1.0209191488e+02   2.3249247938e+01    0.2316378   0.09275379  64.85   0.00112155    2.815    0.645
        70  -8.8729    206.0304    225.5974   7.1613012359e+01   3.2310941193e+00    0.1659918    0.1412899 -30.83 0.0008088787    1.647    0.393
        71  -8.0758    200.0985    225.8812   7.2619382094e+01   3.9335255830e+00    0.1601234    0.1201093 -31.35 0.0006854903    1.631    0.387
        72  -8.9712     94.1656    223.9252   9.2449667181e+01   1.8297447511e+01    0.3442906    0.1518261  55.83  0.001638158    2.697    0.629
        73  -8.7384    216.4872    223.2094   6.9616485287e+01   2.2111830834e+00    0.1816166    0.1621606 -41.65 0.0008693265    1.935    0.483
        74  -8.7749    180.6253    224.0808   7.5681381930e+01   6.6268520910e+00     0.223755    0.1281807  42.94  0.001025838    1.797    0.443
        75  -7.9882    113.9541    223.9789   8.8362425049e+01   1.5654762287e+01     0.181266    0.1145382  54.05 0.0006391911    1.649    0.394
        76  -8.8826    104.6599    223.1560   9.0189431113e+01   1.7032363462e+01    0.2915462    0.1844715  71.43  0.001541296    2.236    0.553
        77  -8.2057     60.0059    223.5116   9.9674374758e+01   2.2632623050e+01    0.2421135   0.08681951  60.25  0.001027419    3.404    0.706
        78  -8.5188    173.1806    222.9126   7.6843615179e+01   7.7518357734e+00    0.1837696    0.1563051  57.78 0.0008488748    1.741    0.426
        79  -9.2577    160.3482    221.1013   7.8948679516e+01   9.7140130526e+00    0.4556276    0.2343028  54.39  0.001794296    3.494    0.714
        80  -9.1163    239.1586    221.1348   6.5903513431e+01  -2.1984571122e-01    0.2544469     0.170442 -13.34  0.001434336    1.317    0.241
        81  -9.0875    225.4070    221.6857   6.8024078662e+01   1.3059019622e+00    0.1678991    0.1426182  21.98 0.0007438503    1.478    0.324
        82  -9.1932    192.3110    221.1698   7.3272505510e+01   5.4482076746e+00    0.2048543    0.1965186  65.38  0.001010965    1.755    0.430
        83  -7.8945    140.4958    222.5249   8.2905121717e+01   1.2242686617e+01    0.1175595   0.09050758  35.23 0.0008086814    1.087    0.080
        84  -8.5607     82.6541    220.2859   9.4566941189e+01   2.0393827243e+01    0.2497538    0.1513065  69.98  0.001111601    1.984    0.496
        85  -8.2498     73.2411    220.4793   9.6607649641e+01   2.1552204583e+01    0.2800566    0.1196641  61.84  0.001275251    3.003    0.667
        86  -7.8489     27.4589    221.4734   1.0655591495e+02   2.6568763277e+01    0.1140076   0.08357455  49.80 0.0003972835    1.033    0.032
        87  -8.2532    202.5308    219.9430   7.1394432644e+01   4.2801128655e+00    0.1382685    0.0968143 -23.39 0.0003669694    1.502    0.334
        88  -9.1583    120.5504    219.1751   8.6496724611e+01   1.5490943465e+01    0.3812032    0.1791095  52.90  0.001836978    2.589    0.614
        89  -8.5691    249.2416    218.2633   6.4051633260e+01  -1.0704241583e+00    0.1834407    0.1492532  48.56  0.001403149    2.462    0.594
        90  -8.3287    210.0496    219.0122   7.0040906272e+01   3.4386609537e+00     0.158068    0.1234063  11.27 0.0005362143    1.089    0.082
        91  -9.2887    132.9299    215.8470   8.3597995681e+01   1.4266964404e+01    0.3977225    0.2460918  67.57  0.002021632    2.952    0.661
        92  -8.7380     51.4014    217.0593   1.0112761667e+02   2.4780254001e+01     0.239899    0.1358554  65.02 0.0008644407    1.687    0.407
        93  -8.7056    142.7133    215.9135   8.1660194139e+01   1.2878004562e+01    0.2288091    0.1656722 -66.78  0.001187174    2.118    0.528
        94  -8.3327    111.8663    217.0186   8.8054150757e+01   1.7028872836e+01    0.1870791    0.1211243  66.17  0.000881133    2.049    0.512
        95  -8.5942     61.8801    216.8378   9.8809099449e+01   2.3585724803e+01    0.2245568    0.1138024  63.10  0.000893008    2.045    0.511
        96  -8.7698    232.3545    214.5055   6.5935104806e+01   1.2030236200e+00    0.1798772    0.1592432  -4.15 0.0009619116    1.509    0.337
        97  -8.2189    154.2141    214.7913   7.9283711595e+01   1.1416946147e+01    0.1784519    0.1402708 -71.05 0.0008165671    2.068    0.517
        98  -8.6593    169.5091    216.1955   7.6607984429e+01   9.0994553339e+00    0.2107431    0.1813952  83.13 0.0009798218    2.008    0.502
        99  -9.2362     92.9877    213.6791   9.1731687987e+01   2.0159230641e+01    0.3341628    0.1477052  53.11   0.00154663    2.367    0.577
       100  -9.3621     73.2958    211.8483   9.5897117278e+01   2.3065511438e+01    0.5712461    0.1870439  55.05  0.002172044    3.781    0.736
       101  -9.3098    214.0295    212.0089   6.8385637803e+01   3.6974948985e+00    0.2889855    0.1987355  46.23  0.001646242    2.014    0.503
       102  -7.8622    224.6427    212.2342   6.6762228374e+01   2.3573557225e+00    0.1343154   0.08235537 -14.74 0.0005929561    1.527    0.345
       103  -8.9990    204.2039    210.6349   6.9773824344e+01   5.1115999918e+00     0.216699    0.1617247 -33.42  0.000693508    1.617    0.381
       104  -9.3181    175.7319    209.9633   7.4605881768e+01   9.0455164826e+00    0.3370379    0.2302255  62.97  0.001643969    2.903    0.656
       105  -8.7113    161.5992    211.9786   7.7502854230e+01   1.0762888432e+01    0.1890969    0.1632299  48.16 0.0008683412    1.402    0.287
       106  -8.0875    106.7436    212.6089   8.8659268855e+01   1.8455486999e+01    0.1801052   0.08689115  42.28 0.0009406811    1.647    0.393
       107  -8.2238    192.2802    210.4015   7.1746697034e+01   6.7201900347e+00    0.1526565    0.1351184 -50.26   0.00067786    1.757    0.431
       108  -8.5438    147.9463    210.3896   7.9918091180e+01   1.2933233207e+01    0.1926679    0.1659121  82.39  0.000738786    1.705    0.414
       109  -9.1369    116.1458    209.9748   8.6364712770e+01   1.7565088031e+01     0.266125    0.1751512  63.95 0.0009236461    1.945    0.486
       110  -9.3479      6.7852    209.4581   1.1065355823e+02   3.0763507524e+01    0.3912285   0.07664274  61.66  0.001511876    4.053    0.753
       111  -9.0354     85.6304    209.3529   9.2929709718e+01   2.1900169232e+01    0.3244083    0.1610925  61.20  0.001570216    2.462    0.594
       112  -8.1701     32.4065    210.2151   1.0497294447e+02   2.8142569882e+01    0.1588169   0.08843666  72.63 0.0007198827    1.708    0.415
       113  -9.2074    236.5105    207.8368   6.4321154340e+01   1.3773123577e+00    0.2314277    0.1755311 -38.23  0.001235407    1.964    0.491
       114  -8.3271    185.8105    214.4656   7.3452337821e+01   7.0984220287e+00    0.1755928    0.1519831 -57.68  0.001102166    1.887    0.470
       115  -8.5308    139.3813    208.1917   8.1335142344e+01   1.4497117862e+01    0.2504461    0.1819001  74.58  0.001025334    2.249    0.555
       116  -8.2247     46.3809    209.2159   1.0176194240e+02   2.6804655707e+01    0.1615239   0.09398855  76.11 0.0008157846    1.777    0.437
       117  -9.3816    246.5359    207.1307   6.2771233383e+01   2.7586197652e-01    0.2043604    0.1492486 -13.94 0.0007078444    1.265    0.209
       118  -7.8762    126.3971    208.2115   8.4000694917e+01   1.6377426305e+01    0.1404573    0.1172242 -83.74 0.0004996615    1.623    0.384
       119  -7.8767    156.5079    207.5429   7.7864688950e+01   1.2108120005e+01    0.1195593   0.09615117  28.95 0.0001659957    1.045    0.043
       120  -9.2494     99.5499    205.8813   8.9492520967e+01   2.0603393603e+01     0.343169    0.1998524  64.25  0.001174894    2.191    0.544
       121  -9.0091    183.8623    203.8347   7.2248841399e+01   8.6970810176e+00    0.2440957    0.2058226  57.49   0.00105907    1.753    0.430
       122  -8.0951    109.1862    205.1499   8.7298734439e+01   1.9362723002e+01    0.1659948    0.1259847  57.23 0.0007962422    1.342    0.255
       123  -8.3005     56.4279    205.2648   9.9200295589e+01   2.6377869898e+01    0.2225312    0.1042046  49.74   0.00116806    1.709    0.415
       124  -9.3822    194.8949    203.3079   7.0240825804e+01   7.2268395602e+00    0.2799665    0.2059776 -17.49  0.001119825    1.361    0.265
       125  -9.1858    192.5618    197.2243   6.9706390954e+01   8.3122546050e+00    0.2849994    0.2341596 -55.56  0.001458231    1.929    0.482
       126  -9.5127    163.8585    202.8277   7.5787188590e+01   1.1706575214e+01    0.3837928    0.2199778  51.09  0.001157028    2.191    0.544
       127  -8.4433    131.2968    204.0763   8.2456600582e+01   1.6319190414e+01    0.2313685    0.1327733  54.10  0.001159595    2.059    0.514
       128  -9.7768     15.5599    202.8701   1.0848705097e+02   3.1236603251e+01    0.2221233    0.1844441  36.13 0.0005245258    1.288    0.223
       129  -9.3300    250.1599    202.1127   6.1491913599e+01   3.4345495908e-01    0.3560623    0.1357294 -32.85  0.001082238    2.584    0.613
       130  -9.5131    245.5903    193.0443   6.0698582512e+01   1.7831407612e+00    0.2761419    0.1965268 -45.14  0.001873608    2.392    0.582
       131  -9.1541    243.2347    200.7137   6.2249301484e+01   1.2915050848e+00    0.2310843    0.1509695 -31.33 0.0009533891    1.705    0.413
       132  -8.5172    210.8909    201.6239   6.7315421900e+01   5.2650356176e+00    0.1827258    0.1419908 -44.45 0.0006875471    1.908    0.476
       133  -8.9512    140.7229    201.1246   8.0117253142e+01   1.5384773613e+01    0.3236529    0.2112162  62.88   0.00144844    2.297    0.565
       134  -8.6285     80.1558    201.1418   9.3379254022e+01   2.4128460193e+01    0.3276004    0.1439589  59.41  0.001268802    2.839    0.648
       135  -8.2481     48.7523    202.1842   1.0076228528e+02   2.7878737872e+01    0.2195485   0.07848473  56.99 0.0009448705    2.731    0.634
       136  -8.0201    222.0042    201.2160   6.5489873968e+01   3.8622135950e+00    0.1361696    0.1117005 -32.92 0.0007714728    1.624    0.384
       137  -9.3659    149.4788    198.2340   7.7936703216e+01   1.4515544706e+01    0.3540851    0.2604572 -78.15  0.001341234    2.386    0.581
       138  -8.7081    124.1267    199.2288   8.3341113581e+01   1.8172503484e+01    0.2717336    0.1807851  66.69 0.0009840464    2.112    0.526
       139  -9.2834    112.9119    198.3123   8.5663767423e+01   1.9995811016e+01    0.4119652    0.2164805  58.33   0.00192151    2.509    0.601
       140  -9.4184    237.0872    197.4904   6.2630078520e+01   2.3643126545e+00    0.3718214     0.129777 -30.60   0.00195864    2.733    0.634
       141  -8.5303    177.2231    198.7883   7.2688143988e+01   1.0313003545e+01    0.1870482    0.1750703  60.29 0.0007395661    1.514    0.339
       142  -9.0906     88.7599    198.0533   9.1084048427e+01   2.3523639140e+01    0.3572543    0.2176128  74.51  0.001426495    2.165    0.538
       143  -8.5054    202.4595    197.7994   6.8106974835e+01   6.8565378275e+00    0.1850552    0.1575879 -49.88  0.001105314    1.818    0.450
       144  -9.2135     61.3354    196.7988   9.7392890561e+01   2.7410567996e+01    0.4175538    0.1758864  60.37  0.001558225    2.654    0.623
       145  -8.0038     29.3383    197.6739   1.0505922443e+02   3.0907261038e+01    0.1352533   0.06213019  54.76 0.0007051536    1.726    0.421
       146  -8.4045     12.6610    197.3122   1.0896577303e+02   3.2606828569e+01    0.2040087   0.08618624  55.03  0.001095073    1.770    0.435
       147  -8.6862    216.0263    195.4241   6.5514628075e+01   5.2949146427e+00    0.1922036    0.1678099 -48.31 0.0009401524    1.851    0.460
       148  -7.7644     36.3062    196.6172   1.0334718829e+02   3.0379997269e+01    0.1369027   0.06473999  57.59 0.0007022255    1.792    0.442
       149  -8.8288    224.4803    193.7126   6.3917002961e+01   4.3713696106e+00    0.2501275   0.09524482 -36.04  0.001294705    2.739    0.635
       150  -7.2595    209.3160    195.6313   6.6629544478e+01   6.1763557114e+00   0.09575171   0.09206318  77.67 0.0005463003    1.781    0.438
       151  -8.9601    185.2764    194.6172   7.0583403042e+01   9.6980712475e+00    0.1987498    0.1951587  65.12 0.0008031768    1.490    0.329
       152  -8.8005    160.9544    194.1066   7.5055294423e+01   1.3397072391e+01    0.2498825    0.1892537  63.72  0.001202274    1.939    0.484
       153  -8.2536    231.1285    194.1510   6.2978569615e+01   3.4649834671e+00    0.1348076    0.1160253 -10.12 0.0004954031    1.341    0.254
       154  -8.9167     77.1205    193.7682   9.3363644048e+01   2.5940685709e+01    0.2579083    0.1721947  56.17 0.0006999882    1.352    0.260
       155  -8.8846     43.7718    193.0710   1.0132924867e+02   3.0263961363e+01    0.3649668    0.1427362  56.38  0.001674781    2.325    0.570
       156  -7.7252    241.6432    192.2607   6.1133265874e+01   2.3463219199e+00   0.08762421   0.08131188  20.38 0.0006831743    1.622    0.383
       157  -8.5315    172.3261    191.7300   7.2508231575e+01   1.2017375984e+01    0.1948131    0.1834311  79.45  0.001034682    1.524    0.344
       158  -7.8252    205.1624    191.4157   6.6636489658e+01   7.2591806480e+00    0.1469434   0.09785382  41.79 0.0006666622    1.620    0.383
       159  -8.0057    199.0359    191.5359   6.7687374919e+01   8.1112059365e+00    0.1638687   0.09891763  35.75 0.0004375908    1.498    0.332
       160  -8.7665    179.3951    190.6293   7.1019038744e+01   1.1107430026e+01    0.2582002    0.1411351 -29.71  0.001209152    2.050    0.512
       161  -8.9468    139.4463    190.3611   7.8856852519e+01   1.7297935424e+01    0.3009955    0.2011946  63.76  0.001085195    2.157    0.536
       162 -10.4281     92.4656    188.6652   8.9168476196e+01   2.4766413121e+01    0.9503931    0.2177553  44.68  0.003176602    3.731    0.732
       163  -8.1236      6.6638    190.3290   1.1016180921e+02   3.4557258918e+01    0.1338828   0.05703355  54.25 0.0007051994    1.728    0.421
       164  -8.6232    148.3243    188.8414   7.6784764359e+01   1.6154868828e+01    0.2156342    0.1821144  70.56 0.0009355487    1.576    0.365
       165  -8.8771    129.2430    188.4192   8.0759395866e+01   1.9217948183e+01    0.2563071    0.2018694  74.44 0.0007843642    1.668    0.401
       166  -9.5448    120.7529    186.0732   8.2302110660e+01   2.0957481399e+01    0.4442216     0.268956 -76.54  0.002102663    2.788    0.641
       167  -8.3890    237.0531    188.0848   6.1115792907e+01   3.3635998770e+00    0.1638432    0.1275216  -4.87 0.0006181891    1.096    0.088
       168  -8.7078    216.5229    187.6583   6.4172596873e+01   6.1331085588e+00    0.1910927     0.177543 -11.90 0.0007921091    1.420    0.296
       169  -8.8459    191.5895    187.1810   6.8266992585e+01   9.7567242654e+00    0.2188654     0.199748 -75.23  0.000887942    1.773    0.436
       170  -9.2693    155.9771    187.1872   7.4976098073e+01   1.5213762284e+01    0.2592007    0.2043052 -58.46 0.0009091829    1.697    0.411
       171  -9.0447     54.7527    186.7088   9.8152588555e+01   3.0262501949e+01     0.412219    0.1735776  63.16  0.001574356    2.751    0.637
       172  -8.7903     34.3076    187.7981   1.0330867069e+02   3.2400673146e+01    0.2988048    0.1195621  63.18  0.001354872    2.454    0.592
       173  -8.9177     19.0171    187.1928   1.0705144464e+02   3.4083023043e+01    0.2015433     0.137705  60.75 0.0003630705    1.152    0.132
       174  -8.3874    230.4661    187.1763   6.1939801026e+01   4.3149944517e+00    0.1559514    0.1450357 -80.93 0.0008816979    2.103    0.524
       175  -8.7353    164.9775    186.6852   7.3117225885e+01   1.3881104918e+01     0.218831    0.2008777  87.27 0.0009047803    1.545    0.353
       176  -9.2314    109.7265    185.9612   8.4793774593e+01   2.2689492263e+01    0.3478326    0.2157605  64.70   0.00133697    2.089    0.521
       177  -8.9662    249.4487    185.3533   5.8906327699e+01   2.0999807784e+00    0.2110791    0.1593662 -25.73 0.0009717977    1.437    0.304
       178  -8.6604    183.1327    184.9911   6.9420505317e+01   1.1323931963e+01    0.2105086    0.1862115 -31.89 0.0008613134    1.340    0.254
       179  -8.7091    202.7144    184.4436   6.5896990174e+01   8.4799674342e+00    0.1929197     0.171966 -55.68 0.0009259668    1.734    0.423
       180  -9.2681     66.7457    184.3760   9.4957054205e+01   2.9208743936e+01    0.3848144    0.1937261  53.92  0.001285053    1.822    0.451
       181  -8.7799    210.1474    183.8263   6.4560471620e+01   7.4877037214e+00    0.2060005    0.1457846 -16.99 0.0006417148    1.327    0.247
       182  -8.9647    174.3095    183.3800   7.0791407576e+01   1.2912793867e+01    0.2313371    0.2034578 -57.96 0.0008249063    1.569    0.363
       183  -8.4168    223.9740    183.1864   6.2259664589e+01   5.6362074327e+00    0.1568366    0.1381003  -6.50 0.0006491916    1.277    0.217
       184  -8.1287    196.9818    183.2973   6.6681903445e+01   9.4697376785e+00    0.1644295    0.1325395  21.08 0.0003936008    1.086    0.079
       185  -8.9658     44.6540    182.2325   1.0033447359e+02   3.2411913231e+01    0.3715385    0.1568542  57.97   0.00111143    2.239    0.553
       186  -7.9053      1.8086    183.5423   1.1114892505e+02   3.6374129082e+01     0.174196   0.07478519  41.67 0.0009397942    1.699    0.411
       187  -9.2246    147.6830    180.5370   7.5624764814e+01   1.7601411826e+01    0.3035152    0.2453452  73.56  0.001156125    1.718    0.418
       188  -7.8057     83.3117    182.3084   9.0634899944e+01   2.7339879207e+01    0.1209375    0.1010669  -5.60 0.0003033211    1.622    0.384
       189  -8.2991    235.3416    180.8307   6.0154676681e+01   4.3784883227e+00    0.2031366    0.1190618 -17.93   0.00129331    1.551    0.355
       190  -9.3975     25.3632    178.4297   1.0502220019e+02   3.5324158689e+01    0.5818169    0.1855652  69.59  0.002151653    3.778    0.735
       191  -8.2097    240.4994    179.9355   5.9256935009e+01   3.8022012492e+00    0.1605315   0.09129623 -25.29    0.0007307    1.572    0.364
       192  -8.6487    137.7417    179.0542   7.7506669018e+01   1.9469737488e+01     0.290635    0.1993745  61.67   0.00110502    1.884    0.469
       193  -9.4510    191.5295    178.1735   6.6763449210e+01   1.0979468493e+01    0.2475007    0.2334968  68.03 0.0006452462    1.536    0.349
       194  -8.5001    250.5668    172.3428   5.6554988218e+01   3.3226821878e+00    0.1737635     0.127465 -15.84  0.001286174    1.155    0.134
       195  -9.1752    249.0266    177.1620   5.7591312897e+01   3.0069856394e+00    0.2160702    0.1915024 -21.85   0.00107843    1.500    0.333
       196  -8.7047    247.4607    173.5221   5.7182915857e+01   3.5955926246e+00    0.1944784   0.08856141 -24.45 0.0005211327    1.963    0.491
       197  -8.9328    205.1190    177.6345   6.4334333169e+01   8.9987618318e+00     0.185718    0.1505078 -28.36  0.000542193    1.333    0.250
       198  -8.0671    169.2245    178.2363   7.0906634219e+01   1.4480787097e+01    0.1586094    0.1452676  58.23 0.0006081357    1.379    0.275
       199  -8.5477    129.1054    176.8636   7.9068559756e+01   2.1268028675e+01    0.2568735    0.1875009 -77.96 0.0008549078    1.965    0.491
       200  -9.0804     35.7977    176.3277   1.0218751880e+02   3.4684113421e+01    0.4904843    0.1698069  68.16  0.001783945    3.763    0.734
       201  -8.5355    231.1629    176.7345   6.0070877997e+01   5.4006383657e+00    0.1874742    0.1304073 -29.98 0.0009239144    1.460    0.315
       202  -8.4955    217.6328    176.8065   6.2157872050e+01   7.2800821084e+00    0.1856801    0.1668219 -49.54  0.000859628    1.689    0.408
       203  -8.2211     97.7924    177.1707   8.6448569099e+01   2.6210894615e+01     0.176042    0.1501431  15.50 0.0006129122    1.343    0.255
       204  -9.0759     89.1785    176.6708   8.8502863292e+01   2.7618648133e+01    0.2831472    0.1761954  60.75 0.0008664252    1.702    0.412
       205  -9.9854     57.5926    173.2725   9.6215344362e+01   3.2752604265e+01    0.8222245    0.3235357  70.11  0.002662657    4.694    0.787
       206  -8.8751     13.0059    176.3171   1.0809919188e+02   3.6958749744e+01    0.2917342    0.1376611  63.49  0.001121263    1.771    0.435
       207  -8.1060    211.5305    176.0529   6.3004143929e+01   8.2556563175e+00    0.1669388    0.1047084 -29.15 0.0006385132    1.554    0.357
       208  -8.8209    183.0228    175.8951   6.7903308453e+01   1.2625095291e+01    0.1966315    0.1699333 -23.57 0.0006108659    1.229    0.186
       209  -9.1197    158.9303    174.8463   7.2372693942e+01   1.6685602318e+01    0.3255939    0.2310972  70.78  0.001073053    2.404    0.584
       210  -9.1862    104.3986    174.6438   8.4497817274e+01   2.5678788187e+01    0.5216155    0.2405843  57.74  0.001785843    3.069    0.674
       211 -10.7138     76.0074    170.4456   9.1084001219e+01   3.0851551106e+01     1.127734    0.4692912 -81.80  0.003832384    4.465    0.776
       212  -8.8611     79.2904    157.7841   8.8576837771e+01   3.3126159559e+01    0.3995946     0.215059  21.26  0.001657474    2.529    0.605
       213  -9.4819     81.7399    154.5509   8.7450232251e+01   3.3470011075e+01    0.4982817    0.2842839  68.64  0.001503687    2.257    0.557
       214  -8.4467    224.6288    174.1401   6.0605616995e+01   6.6086255230e+00    0.1621002    0.1313424 -31.95 0.0006359051    1.441    0.306
       215  -9.4569    175.7293    172.0162   6.8588079204e+01   1.4366239420e+01    0.2966488    0.2314351 -42.12  0.001063523    1.470    0.320
       216  -8.4117    143.0248    172.3577   7.5280543504e+01   1.9751125845e+01    0.2192647    0.1820688  82.58 0.0007083114    1.635    0.388
       217  -8.1309    134.8331    171.6688   7.6961903565e+01   2.1249031739e+01    0.2284487    0.1709343  84.69 0.0009784827    2.014    0.503
       218  -9.2000     45.0565    170.6287   9.9302362627e+01   3.4882562821e+01    0.4128897    0.1954716  78.35  0.001723308    2.494    0.599
       219  -9.5149    121.4479    170.2554   7.9785284383e+01   2.3751921547e+01    0.3309942    0.2413418  71.73 0.0009219281    1.775    0.437
       220  -8.6989    237.1262    169.1970   5.7881394534e+01   5.4490957259e+00    0.1891603    0.1441012 -22.83 0.0006019327    1.258    0.205
       221  -8.7655    230.4544    169.9831   5.8995496031e+01   6.2817775034e+00    0.2037187   0.09643658 -32.81 0.0007747484    1.993    0.498
       222  -8.2102    205.8873    170.1543   6.2889466430e+01   9.8565685209e+00    0.1637466    0.1579305 -12.83 0.0006171041    1.358    0.263
       223  -8.4166    198.6662    170.0701   6.4095247968e+01   1.0980901383e+01    0.1748379    0.1481364 -44.30  0.001153423    1.509    0.337
       224  -8.5940    149.9528    169.3952   7.3298784605e+01   1.9088479052e+01    0.2213284    0.1876518 -77.83  0.001009261    1.600    0.375
       225  -7.6351     68.3959    170.7088   9.3105959429e+01   3.1867955905e+01    0.1495341   0.08125494  56.84 0.0007002387    1.786    0.440
       226  -8.2601    244.4852    168.9911   5.6805141824e+01   4.4797178728e+00     0.158671   0.09149469 -25.79 0.0004332377    1.516    0.340
       227  -9.0811    167.0161    168.3290   6.9623110365e+01   1.6377337294e+01    0.2676397    0.2121907  62.40 0.0008451982    1.666    0.400
       228  -8.4832     88.6958    168.5508   8.7564239363e+01   2.9366630555e+01    0.2233909    0.1534047  75.92 0.0007906772    1.713    0.416
       229  -8.4820    218.8418    168.1059   6.0430685040e+01   8.1767862332e+00    0.1633034    0.1466145 -17.65 0.0005383524    1.283    0.221
       230  -7.9215    211.3624    168.1420   6.1628651043e+01   9.2876318770e+00    0.1601681    0.1013759 -40.29  0.000508839    1.788    0.441
       231  -8.7910    111.5333    167.1323   8.1655355782e+01   2.6004326657e+01    0.2981476    0.2081307  81.53 0.0008827769    1.993    0.498
       232  -8.9553    191.9973    166.5009   6.4613733162e+01   1.2532779868e+01    0.2433062    0.1880618 -41.53 0.0005793381    1.498    0.332
       233  -8.6822    185.0332    166.4347   6.5855165123e+01   1.3673291317e+01    0.2087702    0.1698375 -47.47  0.000457487    1.522    0.343
       234  -8.8312     20.7496    166.2483   1.0556600173e+02   3.8471347131e+01    0.3945712    0.1090703  50.40  0.001275562    2.764    0.638
       235  -9.7002    136.9260    164.2082   7.5238408101e+01   2.2239172648e+01    0.5943897    0.2749169  54.28  0.002025119    2.922    0.658
       236  -9.9950     95.0202    162.6730   8.5109700723e+01   2.9610433770e+01     0.813795     0.386318  65.84  0.002638793    4.340    0.770
       237  -8.5051    233.9624    164.7657   5.7547379462e+01   6.4011749237e+00    0.1872234    0.1273493 -35.19 0.0006362181    1.569    0.362
       238  -9.3213     33.7093    163.1208   1.0179653221e+02   3.7861528455e+01    0.5990364     0.167651  50.54  0.002255612    3.010    0.668
       239  -8.3068    240.1074    163.8806   5.6508751867e+01   5.6470129969e+00    0.1602586    0.1370351 -22.63  0.000529014    1.324    0.245
       240  -8.5800    213.0071    163.5008   6.0517722143e+01   9.6375169838e+00    0.2029127    0.1557636 -39.23 0.0005760558    1.516    0.340
       241  -8.4377    159.5157    164.0686   7.0367470734e+01   1.8344369447e+01    0.2330833    0.1747148  54.79 0.0009148194    1.528    0.346
       242  -8.3933     56.4788    163.8078   9.5559157639e+01   3.4990810890e+01     0.307909    0.1901013   7.84   0.00138624    2.630    0.620
       243  -8.8134    246.1263    162.7017   5.5461861540e+01   4.9587158577e+00    0.1811113    0.1258524 -27.41 0.0005236697    1.345    0.257
       244  -8.4508    204.9549    162.5378   6.1656808527e+01   1.1015575536e+01    0.2129818    0.1556635 -42.61 0.0006437521    1.617    0.382
       245  -9.5531      3.4208    161.9841   1.1009591161e+02   4.0945941794e+01    0.4673162    0.1695245  46.82  0.001854162    2.032    0.508
       246  -8.7680    151.8384    160.9605   7.1404166185e+01   2.0208251864e+01    0.2780458    0.2155912  78.85  0.001031214    1.923    0.480
       247  -9.1029    177.4684    160.4554   6.6159751671e+01   1.5837544591e+01    0.2375022    0.2203588  76.63 0.0008066123    1.434    0.303
       248  -8.8188     60.5699    159.8890   9.4000490931e+01   3.5336186848e+01    0.3825828    0.1845883  63.08    0.0012133    2.388    0.581
       249  -8.7659    227.5174    159.1589   5.7470786975e+01   8.0030221545e+00    0.2409544    0.1610963 -45.30  0.001131167    1.960    0.490
       250 -10.1236    240.7670    153.2623   5.4471695124e+01   6.7833725542e+00    0.6524104    0.4392648 -67.64   0.00279817    5.375    0.814
       251  -8.1946    242.2872    159.6910   5.5445976221e+01   5.8247859603e+00    0.1746342   0.09755214  25.22 0.0002708407    1.860    0.463
       252  -9.7762    250.1663    157.6270   5.4001429418e+01   4.9781067240e+00    0.2815951    0.1514649 -31.83 0.0007641637    1.678    0.404
       253  -8.2204    246.5742    155.4827   5.4090286461e+01   5.7103231251e+00    0.1546665   0.08869758 -18.51 7.244572e-05    1.542    0.352
       254  -8.2903    237.1190    158.6344   5.5977561543e+01   6.6738320809e+00    0.1914818     0.132117 -28.75  0.000700053    1.358    0.264
       255  -8.3260    128.2549    158.9225   7.6303707682e+01   2.4742857501e+01    0.2532806    0.1746246  60.39 0.0009361411    1.688    0.408
       256  -9.6317    106.0275    157.8373   8.1543675828e+01   2.8808164346e+01    0.4801079    0.2690998  62.60  0.001414021    2.408    0.585
       257  -8.5002    196.5774    157.8351   6.2197793934e+01   1.3017363580e+01    0.2173319    0.1425803 -44.62 0.0009358854    1.780    0.438
       258  -8.3113    188.1757    157.6579   6.3649673270e+01   1.4443527355e+01    0.2053543     0.165878 -40.58 0.0007499533    1.386    0.279
       259  -9.3302    167.7304    157.0386   6.7405863837e+01   1.8067877594e+01    0.3102363    0.2485721 -87.98  0.001116338    1.989    0.497
       260  -8.5874    218.0030    156.4677   5.8416564063e+01   9.7787078860e+00    0.2211085    0.1502718 -41.71 0.0008469425    1.698    0.411
       261  -8.7648    157.5859    155.7950   6.9234261644e+01   2.0077173123e+01    0.2415246    0.2213483 -83.22 0.0008944359    1.372    0.271
       262  -9.2852    119.5181    154.7621   7.7661825066e+01   2.7099690724e+01    0.3868391    0.2627314 -86.16  0.001379379    2.266    0.559
       263  -9.1170     49.6718    155.0647   9.6555385850e+01   3.7864320482e+01    0.4034555    0.1844097  60.00  0.001284814    2.298    0.565
       264  -8.1038    204.7010    155.1477   6.0305919427e+01   1.2063865727e+01    0.1806208    0.1399401 -39.44 0.0005839334    1.439    0.305
       265  -8.6751    144.7198    154.6163   7.1772138275e+01   2.2602647589e+01    0.2940014    0.2154596  64.83  0.001106121    1.736    0.424
       266  -8.2720    233.0069    153.9460   5.5694232205e+01   7.8285574468e+00    0.1655436    0.1377317 -50.71 0.0008348111    1.737    0.424
       267  -9.6245    132.8024    152.7838   7.4133265127e+01   2.5105495804e+01    0.4304354    0.3117839  73.71  0.001318478    1.917    0.478
       268  -9.3083    133.5808    148.2182   7.3090053633e+01   2.5840844871e+01    0.3725513    0.1838981 -43.54  0.001497676    2.225    0.550
       269  -9.2863     67.8207    153.3365   9.1164296911e+01   3.5825699668e+01     0.397045    0.2339562  70.94  0.001406939    1.962    0.490
       270  -8.2113    151.6498    152.2371   6.9810214097e+01   2.1770001703e+01    0.2296697    0.1702213 -52.15  0.001238542    1.545    0.353
       271 -10.2015    149.1824    144.7977   6.8881440869e+01   2.3565594726e+01    0.5829063    0.4072992 -89.35   0.00185343    2.643    0.622
       272  -8.6221      2.7748    149.7552   1.0984295269e+02   4.3811173428e+01    0.4194088    0.1269932  89.25  0.001653603    3.119    0.679
       273  -9.6815     29.6111    150.5327   1.0199762520e+02   4.1234789681e+01    0.5514517    0.1949891  58.04  0.002015053    2.818    0.645
       274  -8.9769     19.9370    152.1895   1.0496158553e+02   4.1795970749e+01    0.2147591    0.1371201  59.85 0.0007304769    1.310    0.237
       275  -9.6246    248.8999    149.1748   5.2611579731e+01   6.1038966096e+00    0.2752116    0.1365184 -26.70 0.0007707219    1.715    0.417
       276  -8.8201    189.3251    149.8399   6.1925416161e+01   1.5411770928e+01    0.2610081    0.1830831 -52.77 0.0008448886    1.870    0.465
       277  -8.0512    182.4109    151.1800   6.3450394922e+01   1.6414899211e+01    0.1736215    0.1193598 -47.44 0.0005510607    1.695    0.410
       278  -9.0088     98.2594    150.6079   8.2370839947e+01   3.1655988655e+01    0.2921874    0.2058194  68.70 0.0006351816    1.618    0.382
       279  -8.5050    243.1718    149.7585   5.3486138444e+01   6.8486582306e+00    0.2018559    0.1292354 -31.52 0.0009779978    1.443    0.307
       280  -8.3157    213.1154    149.6521   5.7876826245e+01   1.1447234770e+01    0.1958534    0.1520564 -34.48 0.0003475469    1.337    0.252
       281  -8.3096    162.6540    150.2485   6.7116371330e+01   2.0106658263e+01    0.1933284    0.1715536 -63.96 0.0007132353    1.384    0.277
       282  -8.4144    198.8877    148.8609   6.0060447823e+01   1.3913783984e+01     0.174612    0.1549055 -69.90 0.0005728849    1.615    0.381
       283 -10.1685     89.4591    146.2044   8.4030926533e+01   3.4101703906e+01    0.6779458    0.3702864  83.86  0.002392073    3.563    0.719
       284  -9.7451     39.8453    147.6566   9.8690903983e+01   4.0800479463e+01    0.5597124     0.220768  57.88  0.002136372    2.638    0.621
       285  -9.3943    233.7174    147.2781   5.4325880225e+01   8.5348180216e+00    0.2759127    0.1603526 -28.47 0.0009553949    1.519    0.342
       286  -9.5896     56.3176    135.0113   9.2125558275e+01   4.1798146061e+01    0.3813149    0.2425608  11.78  0.001708569    2.284    0.562
       287  -8.2346    223.0512    146.5053   5.5731068818e+01   1.0275420223e+01    0.1824406    0.1400324 -20.96 0.0006847251    1.158    0.136
       288 -10.1469    106.7576    144.4642   7.9052096949e+01   3.1504796838e+01    0.6762875    0.3727404  67.98  0.002347916    3.117    0.679
       289  -8.6666    105.8170    138.3786   7.8168138418e+01   3.2991658939e+01    0.3241576    0.1928721  24.67  0.001355192    2.193    0.544
       290  -9.0867     78.1079    146.7649   8.7312073743e+01   3.5798737217e+01    0.3181494    0.1914385  72.21  0.001127317    2.077    0.519
       291  -9.1687     13.4898    146.1295   1.0650839310e+02   4.3813123970e+01    0.3875524    0.1562383  52.16  0.001465207    2.057    0.514
       292  -8.3023    206.8543    146.1514   5.8194063136e+01   1.2954426931e+01    0.1746497    0.1616636 -25.97 0.0005116148    1.221    0.181
       293  -8.0794    175.5277    145.9353   6.3702855529e+01   1.8473739554e+01    0.1891609    0.1274556 -39.33 0.0005396292    1.530    0.346
       294  -9.6488    139.1324    144.6987   7.1115475849e+01   2.5478956854e+01    0.3869126    0.2442205 -65.66  0.001104446    2.272    0.560
       295  -9.2642    139.1184    137.9659   6.9750472713e+01   2.6772209190e+01    0.3375514    0.2188162  -9.91  0.001363786    2.787    0.641
       296  -9.8351    241.9007    142.9620   5.2364064326e+01   7.8351045539e+00    0.5156918    0.2522323  -6.02  0.002229991    3.386    0.705
       297  -9.1891    247.0253    143.5771   5.1800874032e+01   7.0147276679e+00    0.2187865    0.1407851 -24.27 0.0005385721    1.303    0.232
       298  -8.7271    165.7174    143.9082   6.5222094587e+01   2.0617493712e+01    0.2703522    0.2130909  69.09  0.001004063    1.680    0.405
       299  -9.7928    125.0648    142.4919   7.4020166932e+01   2.8560242763e+01    0.4686349    0.3202734 -87.45  0.001476518    2.340    0.573
       300  -9.2023      2.8965    141.9782   1.0950296614e+02   4.5643445197e+01    0.4884454    0.1471162  63.28  0.001903895    2.992    0.666
       301 -10.5882     69.2849    140.6130   8.8960400266e+01   3.8585275887e+01     0.606208    0.4000026  84.11  0.001965913    1.719    0.418
       302  -9.8602     69.8995    133.6928   8.7699979339e+01   4.0148145005e+01    0.2919242    0.2320599  26.50  0.001503105    1.397    0.284
       303 -10.4913     54.9436    144.1962   9.3759594916e+01   3.9756542974e+01    0.9019969    0.4028101  71.12  0.003079104    3.411    0.707
       304  -8.3631    250.4923    140.5090   5.0765438990e+01   6.8710236637e+00    0.1899629   0.08667381 -36.94 0.0007411998    2.065    0.516
       305  -8.1289    182.0761    141.3611   6.1531128124e+01   1.8009194171e+01    0.1813679    0.1613591  36.79 0.0004773666    1.144    0.126
       306  -7.9918    238.6770    140.3025   5.2284685551e+01   8.6368351024e+00    0.1065161   0.08823204 -50.02 0.0007029399    1.634    0.388
       307  -9.9125     23.4831    138.0152   1.0287529220e+02   4.4877438565e+01    0.5209584    0.1951339  59.26  0.002013369    2.649    0.622
       308  -8.5619    172.3329    138.1168   6.2705639973e+01   2.0347670730e+01    0.2411278    0.2006779 -75.03 0.0007479452    1.648    0.393
       309  -7.9248    218.6234    138.2371   5.4753010487e+01   1.2075165760e+01    0.1685078    0.1046548 -21.87 0.0004999302    1.522    0.343
       310  -8.4250    207.5628    137.7669   5.6382155945e+01   1.4007827424e+01    0.2234076    0.1764205 -54.66 0.0008167078    1.664    0.399
       311  -8.7035    197.5962    137.2294   5.7917170227e+01   1.5833900077e+01    0.2644196    0.1771317 -49.87 0.0008719827    1.827    0.453
       312  -8.7861    150.5628    136.3112   6.6824434172e+01   2.4856681748e+01    0.3305734    0.2069178  13.22  0.001340193    2.689    0.628
       313 -10.4780     83.3456    133.2189   8.3558214018e+01   3.8103568156e+01    0.5817112    0.4115811 -68.17   0.00167194    1.481    0.325
       314  -8.7613    246.9911    130.0121   4.9163847855e+01   8.6156327609e+00    0.2483639    0.1367046 -33.11 0.0006228133    1.575    0.365
       315  -9.0811    248.4826    134.7587   4.9909635312e+01   7.8320507759e+00    0.2597515    0.1493922 -31.14 0.0008893936    1.492    0.330
       316  -9.1698    250.7293    130.5263   4.8796811264e+01   7.9950548217e+00     0.423827   0.09200851 -28.20  0.001451146    4.534    0.779
       317  -8.2366    162.8148    136.1343   6.4189055789e+01   2.2506103323e+01    0.2052639    0.1873475 -85.03   0.00081601    1.332    0.249
       318  -9.5068     39.1765    135.8019   9.7667400606e+01   4.3766770551e+01    0.2921876    0.1933551  63.24 0.0007155737    1.393    0.282
       319  -8.1012    188.1183    135.1807   5.9135906374e+01   1.7865400866e+01    0.1760287    0.1523205 -51.10 0.0005637418    1.348    0.258
       320  -8.6456    179.4247    133.7794   6.0425686099e+01   1.9715723958e+01      0.23863    0.2121753 -80.49 0.0008164381    1.464    0.317
       321  -9.1677    112.8592    132.9921   7.5227239557e+01   3.2850490821e+01    0.3647406      0.25619  76.59  0.001112282    1.894    0.472
       322  -8.0577    237.4431    133.2092   5.1049158957e+01   9.6950013610e+00    0.1649557    0.0954638 -37.84 0.0007344801    1.672    0.402
       323  -8.0054    231.4983    133.5540   5.1933584872e+01   1.0590574149e+01    0.1210955    0.1004392  -8.35 4.152155e-05    1.029    0.028
       324 -10.0092    132.5516    131.1409   6.9856689062e+01   2.9402710153e+01     0.617232    0.4226689  86.33  0.001865457    2.429    0.588
       325 -10.2729     98.0810    130.0614   7.8685050064e+01   3.6253393047e+01    0.6178806     0.333155 -57.52  0.001612663    1.963    0.491
       326 -10.1640     12.8520    127.7053   1.0556387712e+02   4.8375040829e+01    0.7911994    0.3112003  88.37  0.002676017    2.477    0.596
       327  -8.0761    204.5399    130.0119   5.5244232298e+01   1.5645530925e+01    0.1890162    0.1164275 -34.53 0.0005428689    1.527    0.345
       328  -8.0986    192.7741    129.8478   5.7174142074e+01   1.7822108695e+01    0.1701658    0.1545745 -58.73 0.0004188506    1.330    0.248
       329  -9.1834    168.3916    129.3592   6.1588660629e+01   2.2588143417e+01    0.2681965     0.221474 -81.85  0.000539202    1.646    0.392
       330  -9.4179    153.0297    128.7972   6.4652407656e+01   2.5751743590e+01    0.4138424    0.2316609 -52.19  0.001205148    2.073    0.518
       331  -9.8925     73.2971    128.7790   8.5826170661e+01   4.0804011602e+01    0.4831175    0.3033804  89.33  0.001464786    1.972    0.493
       332  -7.6043    194.3068    143.6732   5.9809222093e+01   1.5461988925e+01    0.1197421    0.1034635 -71.63 0.0003744366    1.652    0.395
       333  -8.1882    211.7059    129.1111   5.3920617706e+01   1.4501369156e+01    0.1980193    0.1427251 -43.83  0.000650691    1.503    0.334
       334 -10.7249     44.9815    123.3020   9.4207295223e+01   4.6202232851e+01     1.235959    0.5142731  70.31  0.003883601    4.077    0.755
       335 -10.4166     60.0767    124.8646   8.9393541158e+01   4.3775541408e+01     0.766467    0.3945531  70.77  0.002718046    2.723    0.633
       336  -9.8631    118.0483    125.1094   7.2188017316e+01   3.3534192377e+01    0.5425874    0.3552637  75.95  0.001585509    2.321    0.569
       337  -7.4913    228.6722    125.3196   5.0636582256e+01   1.2108115703e+01    0.1172135   0.09176067 -55.13 0.0007047278    1.684    0.406
       338  -8.8900    179.1607    124.3934   5.8408004901e+01   2.1295547649e+01     0.240589    0.2118535 -55.57 0.0004246353    1.288    0.224
       339 -10.2220     28.4337    122.0009   9.9747394690e+01   4.8402146762e+01    0.8256943    0.3054749  64.94  0.002818539    3.506    0.715
       340  -9.0565     27.1866    113.5910   9.9256260989e+01   5.0683734545e+01    0.2496828    0.1792836  -2.02   0.00114345    1.907    0.476
       341  -7.9508    188.6021    123.8113   5.6572257098e+01   1.9546948716e+01    0.1843898    0.1193248 -44.45 0.0004010449    1.613    0.380
       342 -11.0050    131.6111    119.0969   6.7372704337e+01   3.2027490977e+01    0.8802392     0.514015 -70.81  0.002764911    3.076    0.675
       343 -10.3584    133.7509    109.0751   6.4410503074e+01   3.3603387248e+01    0.7080915     0.325723 -48.53  0.002486032    2.277    0.561
       344  -9.0532     85.8625    121.9759   8.0665735318e+01   4.0326549298e+01    0.4586355    0.2572204  21.83  0.001728794    2.718    0.632
       345  -7.8053    194.9839    121.9699   5.5063903472e+01   1.8606800779e+01    0.1647947    0.1381688 -25.57 0.0004768969    1.119    0.106
       346  -8.6332    171.9740    121.2231   5.9047577730e+01   2.3260282872e+01    0.2335169    0.1952364 -37.31 0.0004879093    1.190    0.160
       347  -9.5736    158.4824    121.2263   6.1765685899e+01   2.6021378823e+01    0.3514401    0.2557094 -74.10  0.001269218    2.009    0.502
       348  -9.7630     71.1595    119.0886   8.4749610392e+01   4.3511624658e+01    0.4927425    0.2962727 -74.49  0.001544039    1.830    0.454
       349 -10.1015    141.5749    117.8665   6.4703585975e+01   3.0184826645e+01    0.6069651    0.3145897 -52.79  0.001805252    2.211    0.548
       350  -9.2531    143.1378    131.5227   6.7454119927e+01   2.7221329068e+01    0.3024121    0.2416288 -67.42 0.0008770512    1.504    0.335
       351  -9.6644      3.1013    117.2016   1.0825650196e+02   5.1723361675e+01    0.5768643    0.1889438  60.75  0.002238455    2.890    0.654
       352  -7.8912    231.5271    117.4938   4.8600711721e+01   1.2641559880e+01    0.1229409    0.1046135 -23.30 0.0001508286    1.067    0.063
       353  -8.4759    173.0789    116.2670   5.7679422730e+01   2.3874442212e+01    0.2773716    0.1950257 -18.43  0.001365822    1.643    0.391
       354  -8.7150    174.8535    111.6441   5.6241840846e+01   2.4285106160e+01    0.2965382    0.1988807 -36.34  0.000587987    1.453    0.312
       355  -8.0351    185.9482    115.9463   5.5245983629e+01   2.1311290166e+01    0.2048893    0.1633284 -66.76  0.000539023    1.617    0.382
       356 -10.0896    109.3312    114.0704   7.2031272531e+01   3.7687876956e+01    0.5087734    0.3380507 -74.59  0.001291062    1.993    0.498
       357  -9.4705    109.7818    107.0945   7.0207724340e+01   3.9142353080e+01    0.5389317    0.2608152  31.06  0.001755982    3.043    0.671
       358  -9.0763     58.8567    115.2489   8.8174291945e+01   4.6363418599e+01    0.2739692    0.1747747 -40.36   0.00108281    2.026    0.506
       359  -8.3925    193.0235    114.8991   5.3787804549e+01   2.0069930192e+01     0.238286    0.1778882 -34.46 0.0005899179    1.267    0.211
       360  -7.8451    153.2896    115.6396   6.1548400978e+01   2.8130538813e+01    0.1471317    0.1146792 -77.60 0.0007026218    1.691    0.409
       361 -10.2170     92.7131    112.3137   7.6490969609e+01   4.1353869112e+01    0.5840135    0.3434365 -70.71  0.001527964    2.132    0.531
       362  -9.0438     94.8163    103.7803   7.3807974373e+01   4.2940375239e+01    0.5361369    0.2683032  27.44  0.001777427    3.231    0.691
       363  -9.9091     78.9231    112.2682   8.0841005763e+01   4.3879477490e+01    0.6016735    0.3647707 -86.16  0.001647871    2.310    0.567
       364  -8.7782     78.1880    104.4843   7.9355245770e+01   4.5907012031e+01    0.3570353    0.2550201  46.49  0.001313535    1.354    0.261
       365  -8.2392    167.4013    114.2250   5.8294997808e+01   2.5404997022e+01    0.1986181    0.1298952 -47.73 0.0007148603    1.606    0.377
       366 -10.0314    121.9982    112.1346   6.8137677637e+01   3.5488168400e+01    0.3633143    0.2800325 -74.63 0.0006625826    1.543    0.352
       367  -8.5718    159.1659    111.6307   5.9330762687e+01   2.7610855203e+01    0.2500017    0.1889928 -51.87 0.0006758988    1.408    0.290
       368 -10.1834     66.4727    110.3568   8.4620581497e+01   4.6430532830e+01    0.4488184    0.2920705  85.85  0.001387477    1.863    0.463
       369  -9.9479     14.2377    111.3692   1.0380927895e+02   5.2409537536e+01    0.4371496    0.1976101  49.26  0.001634343    2.028    0.507
       370 -10.8240    248.4794    107.5610   4.4393853223e+01   1.1074332071e+01    0.5149457    0.2577303 -26.12  0.002773621    1.692    0.409
       371  -7.9912    182.9847    109.2811   5.4193533272e+01   2.2983369258e+01    0.1975054    0.1418225 -54.80 0.0004439747    1.606    0.378
       372  -8.7302     43.0345    109.2207   9.2810311990e+01   5.0047956905e+01    0.3069216    0.1771194   8.94  0.001254259    2.683    0.627
       373  -7.7485    189.3661    107.7677   5.2728240439e+01   2.1912060680e+01    0.1833681    0.1241304 -25.70 0.0005498612    1.481    0.325
       374 -10.5448     45.5477    101.8972   9.0620986955e+01   5.1622862294e+01    0.9372496    0.4508791  69.23  0.003193645    3.108    0.678
       375  -9.0877     45.8545     92.3114   8.8653727559e+01   5.4064058788e+01    0.4435256     0.262363   4.49   0.00173359    2.926    0.658
       376 -10.6679     22.9932    102.4547   9.9521057170e+01   5.3974806302e+01    0.8744269    0.3636117  64.64  0.002910423    2.887    0.654
       377  -9.6158    150.6525    102.9292   5.8941484898e+01   3.1069521294e+01    0.4611729    0.2674451 -60.60  0.001250344    2.395    0.582
       378  -9.4956    140.0139    103.9278   6.1597593738e+01   3.3249324255e+01    0.5148287    0.2791456 -49.65  0.001738737    1.949    0.487
       379  -8.4641    166.7542    103.9070   5.5879643071e+01   2.7336069110e+01    0.2624335    0.1862234 -54.01 0.0006649558    1.553    0.356
       380  -9.9211    128.6835    101.9543   6.3827546601e+01   3.6163292994e+01    0.4002795    0.2929352 -76.39 0.0009963283    1.770    0.435
       381  -9.4777      6.7363    102.5652   1.0593999343e+02   5.5221138011e+01     0.316845    0.1547236  82.25 0.0008817575    1.913    0.477
       382  -7.8870    175.5834    101.8465   5.3694737365e+01   2.5767487646e+01    0.1996596    0.1255838 -47.38 0.0005783539    1.642    0.391
       383 -10.7088    109.2422     98.8285   6.8219736649e+01   4.1082889086e+01    0.9085751    0.4892074  68.32  0.002227477    3.297    0.697
       384  -9.0752    108.5381     92.1282   6.6577626549e+01   4.2706118109e+01    0.6994864    0.3288882  31.74  0.002163827    3.571    0.720
       385  -8.1922    159.7076    100.9127   5.6514876175e+01   2.9417907457e+01    0.2078958     0.180394 -45.04 0.0004850172    1.143    0.125
       386  -9.2767     82.1294     99.9185   7.6940075558e+01   4.6296684515e+01    0.3942103    0.2591666 -80.56 0.0009881093    1.928    0.481
       387 -10.3745     64.0570     96.0036   8.2386396866e+01   5.0423093021e+01    0.6579612    0.3731239 -85.25  0.001690016    2.536    0.606
       388  -9.2220     95.2104     97.0823   7.1963415819e+01   4.4414476023e+01    0.3516625    0.2616284 -79.09 0.0006643548    1.576    0.365
       389  -8.6448    150.9086     95.5967   5.6943532492e+01   3.2371784252e+01    0.3738118     0.209607 -18.04  0.001294048    3.185    0.686
       390  -8.4885      7.3284     97.3134   1.0527468066e+02   5.6540812161e+01    0.1350257   0.09011768 -47.70 0.0003907994    1.671    0.402
       391  -7.5065    200.2787    111.6727   5.1858030965e+01   1.9137436164e+01    0.1305101     0.100234 -58.52 0.0003147495    1.595    0.373
       392  -8.1411    164.7742     93.7992   5.3639540888e+01   2.9528168065e+01    0.2010114     0.164699 -61.34 0.0004374092    1.323    0.244
       393  -9.0214    120.4859     92.9951   6.3503279405e+01   3.9855171474e+01    0.3217085    0.2591926 -28.54  0.001553758    1.436    0.304
       394 -10.0475    124.4992     90.6127   6.1772999489e+01   3.9431935189e+01    0.5046564    0.3157852 -57.70  0.001074641    1.803    0.446
       395  -9.5759    247.7334     92.4487   4.1249249892e+01   1.3020637486e+01    0.3062608    0.1686607   6.78  0.001331289    3.365    0.703
       396  -8.3468    176.6381     93.1088   5.1267205495e+01   2.6978318122e+01    0.2322409     0.164575 -52.51 0.0007505116    1.500    0.333
       397  -9.2314    138.9894     92.1038   5.8642677668e+01   3.5781779812e+01    0.3621702    0.2672668 -74.03  0.000613173    1.709    0.415
       398  -9.5769      5.1512     91.9345   1.0571802100e+02   5.8072079459e+01    0.3857482    0.1900456  50.59  0.001194118    1.945    0.486
       399  -8.0474    158.0045     91.8958   5.4462549384e+01   3.1410251580e+01     0.232844    0.1760285 -71.47 0.0008963054    1.624    0.384
       400  -9.3616     34.8810     89.7136   9.2704362220e+01   5.6093830879e+01    0.4610001    0.2449297  76.46  0.001566324    2.418    0.586
       401  -7.7974    150.9787     88.9947   5.5111779126e+01   3.3564811492e+01    0.1814712    0.1709778 -47.76   0.00041521    1.047    0.045
       402 -10.2365     86.5853     85.6968   7.1622237674e+01   4.8808506906e+01    0.7325079    0.4410419 -62.22  0.001368283    1.823    0.452
       403  -9.2843     66.3089     87.1620   7.9354773689e+01   5.2254788972e+01    0.6759627    0.3058161  21.89  0.001901974    4.851    0.794
       404  -7.8336    164.2068     86.9468   5.1892277645e+01   3.0835645897e+01    0.1965522    0.1140296 -37.54 0.0004818973    1.665    0.399
       405  -7.8515    179.5614     85.7624   4.8826666669e+01   2.7509188704e+01    0.2089655    0.1226537 -45.83 0.0009353175    1.685    0.406
       406  -9.9134     48.6548     82.9487   8.5408378829e+01   5.6088026102e+01     0.809054    0.4857458 -72.50  0.002640095    1.706    0.414
       407  -8.3630    158.0584     83.7402   5.2185724979e+01   3.2830747641e+01    0.2573727    0.1887645 -49.39 0.0004582318    1.364    0.267
       408  -9.7232    104.6945     82.8792   6.4993263811e+01   4.5571801840e+01    0.4381357    0.3058572 -71.69  0.001002917    1.775    0.436
       409  -9.1250    140.9411     82.3679   5.5391641242e+01   3.7168503286e+01    0.3942916    0.2078549 -42.22  0.001117293    1.867    0.464
       410  -9.2426     22.9436     89.7730   9.7832860148e+01   5.7299453240e+01    0.3323747    0.2736822 -33.84  0.001211671    1.434    0.303
       411  -9.6513     24.6925     80.2861   9.5516542455e+01   5.9623194080e+01    0.4854388    0.2640348  75.32  0.001369787    2.174    0.540
       412  -9.3222      9.7687     80.6854   1.0251867445e+02   6.0714072107e+01     0.397509    0.1441553  54.26  0.001492887    3.056    0.673
       413  -8.5061    150.3205     80.6495   5.2859712826e+01   3.5223566151e+01    0.2702978    0.2212969 -66.82 0.0006506856    1.313    0.238
       414  -8.7778    119.5074     80.2218   5.9988357957e+01   4.2711918133e+01     0.358372    0.2337149 -65.90  0.001016769    1.939    0.484
       415  -8.9011     74.5733     79.7149   7.4143325712e+01   5.2574694189e+01    0.4844902     0.261553 -70.46  0.001720119    2.590    0.614
       416  -8.3217    166.8804     79.3122   4.9266835345e+01   3.1490602351e+01    0.2487494    0.1836677 -44.52 0.0004949816    1.304    0.233
       417  -7.8262    184.2142     77.9909   4.5984597192e+01   2.7665322327e+01    0.1928433    0.1091022 -33.50 0.0005148907    1.655    0.396
       418  -9.0386    105.5542     76.7953   6.2834186324e+01   4.6678610297e+01    0.3743892    0.2108278  31.95  0.001318847    2.558    0.609
       419  -7.9701    157.1678     76.1574   5.0170827892e+01   3.4349193729e+01    0.2101592    0.1693263 -65.63  0.000433699    1.328    0.247
       420  -8.6014    140.5360     75.2714   5.3340455752e+01   3.8574138132e+01    0.2734628    0.2031852 -56.95 0.0004697908    1.410    0.291
       421  -9.5563    127.9212     74.7099   5.6105979443e+01   4.1773403702e+01    0.4745137    0.2959357 -49.21  0.001740065    1.630    0.387
       422  -9.9651     63.1390     73.2895   7.6690048856e+01   5.6204017997e+01    0.5207328    0.2993473 -69.83  0.001372795    2.083    0.520
       423  -9.6589     82.4910     72.4274   6.8954449592e+01   5.2698451430e+01    0.4260907    0.2902021 -78.07 0.0009443125    1.964    0.491
       424  -8.1625    163.5128     73.1174   4.8094466313e+01   3.3316951697e+01    0.2262113    0.1401195 -38.03 0.0008494935    1.540    0.351
       425  -8.3837    151.3934     73.1978   5.0422709808e+01   3.6267914322e+01    0.2192575    0.1326588 -47.35 0.0004583593    1.651    0.394
       426  -8.4910    115.6398     72.7976   5.8665284459e+01   4.5126564747e+01    0.2711477    0.1901357 -52.16 0.0005751213    1.453    0.312
       427  -8.1732     42.7380     72.5963   8.5429892596e+01   5.9543837206e+01    0.2483957    0.1701754  86.52 0.0006900501    1.707    0.414
       428  -7.7352    175.4888     72.4480   4.5846281691e+01   3.0550152792e+01    0.1436287    0.1373235 -46.56 0.0008081453    1.024    0.024
       429  -9.1232    105.8684     71.5984   6.1039696908e+01   4.7691177155e+01    0.3043812    0.2201658 -56.28 0.0006864248    1.433    0.302
       430  -9.2613     95.1683     71.0066   6.4152983039e+01   5.0272668069e+01     0.413021    0.2514318 -61.20  0.001067415    1.931    0.482
       431  -9.7003     51.7023     69.5353   8.0477755378e+01   5.9010646287e+01    0.5206773    0.2931659 -81.85  0.001335173    2.659    0.624
       432  -8.9922     29.3941     69.9822   9.1186292185e+01   6.1827319845e+01    0.3414221    0.2061287 -22.67  0.001480219    2.434    0.589
       433  -9.0071     16.5338     69.6002   9.7589079831e+01   6.3119436983e+01    0.3184921    0.2019359  77.70  0.001092123    1.660    0.397
       434  -7.7344    157.2612     69.6629   4.8217241529e+01   3.5416967084e+01    0.1554479     0.109715 -62.28 0.0002636402    1.582    0.368
       435  -8.6749    147.0869     67.9641   4.9678122072e+01   3.8237288496e+01    0.3075922    0.2062521 -46.15  0.000748841    1.462    0.316
       436  -8.8930    121.8385     65.9175   5.4740234148e+01   4.4941744000e+01    0.3325798     0.233383 -65.01 0.0007199343    1.658    0.397
       437  -8.5271    138.7596     65.9654   5.0787627951e+01   4.0680094541e+01    0.2873602    0.1952908 -56.23 0.0007044788    1.572    0.364
       438  -8.5690     64.7100     63.1606   7.2725289530e+01   5.8321839430e+01    0.4990631    0.3109605 -11.89  0.001628816    4.013    0.751
       439  -8.7111     37.3275     63.8790   8.5666131910e+01   6.2453206311e+01    0.3439955    0.2150155  75.60  0.001191006    2.152    0.535
       440  -9.2009    110.2632     63.3884   5.6948205472e+01   4.8283273558e+01    0.3422216    0.2499666 -62.17 0.0005695019    1.506    0.336
       441  -8.5553     95.3868     64.3920   6.1784462869e+01   5.1619308587e+01    0.3437595    0.1791509  30.31  0.001077041    3.411    0.707
       442  -9.2959     97.6121     60.3679   5.9612607720e+01   5.1921619561e+01    0.3434276    0.2997523  73.50 0.0008899238    1.162    0.140
       443  -7.6748    158.2546     61.6552   4.5581187022e+01   3.6467061111e+01    0.1566983    0.1071332 -59.81 0.0003436832    1.586    0.370
       444  -9.6588     73.4242     59.3020   6.7766243245e+01   5.7495796302e+01    0.4496725    0.2825729 -63.26  0.001079638    1.857    0.461
       445  -8.2042     51.6655     61.6919   7.8021457127e+01   6.0926722631e+01    0.1478877    0.1137255 -21.52 0.0002580508    1.673    0.402
       446  -8.5097     89.0230     59.4826   6.2097499890e+01   5.4089876962e+01    0.2457657    0.2011372 -49.71 0.0006008252    1.217    0.179
       447  -8.4666    145.7383     58.6298   4.6950041441e+01   4.0142423431e+01    0.3112303    0.1347135  55.58 0.0007796385    2.261    0.558
       448  -8.6813    130.8478     57.3955   4.9657120712e+01   4.4188414420e+01    0.2698672    0.1994379 -49.65 0.0006220706    1.345    0.257
       449  -9.9056     23.4520     56.1765   9.0954790403e+01   6.5957089743e+01    0.5108415    0.2808568  74.47  0.002117069    2.588    0.614
       450  -9.3028      7.4513     56.9559   1.0030792576e+02   6.7006490579e+01      0.33167    0.1848571  69.14  0.001083226    2.010    0.502
       451  -9.1814    119.1259     55.4433   5.1740738958e+01   4.7541105662e+01    0.4350156    0.2211421 -49.53  0.001466726    2.102    0.524
       452  -8.2350    140.0257     56.0117   4.7218148701e+01   4.2046310375e+01    0.2496561    0.1731069 -65.63 0.0005058292    1.643    0.391
       453  -8.9795     44.2961     55.2189   7.9408018638e+01   6.3617474617e+01    0.3619902    0.2350769 -71.48  0.001201568    1.710    0.415
       454  -9.3174     62.8670     53.8465   7.0077224432e+01   6.0780501753e+01    0.5705932    0.2324026 -55.84  0.001719658    2.749    0.636
       455  -8.9331     54.1449     53.6211   7.3976645974e+01   6.2410162027e+01    0.3755975    0.2276877 -73.58  0.001141706    2.300    0.565
       456  -8.6393    105.8379     53.0674   5.4393855944e+01   5.1328957642e+01    0.2467569    0.2042176 -71.17 0.0006616989    1.292    0.226
       457  -9.4321     92.5540     50.4556   5.7398433923e+01   5.5062778753e+01    0.4588037    0.2629837 -56.42  0.001043695    2.063    0.515
       458  -8.5468     75.8362     50.8564   6.3506617062e+01   5.8788659499e+01    0.3862371    0.1911384  32.51  0.001321195    3.028    0.670
       459  -9.1021    113.0762     48.1373   5.0529604085e+01   5.0369271865e+01    0.5129124    0.2601117 -57.63  0.001794346    2.664    0.625
       460  -8.0906    129.8861     49.0553   4.6907475855e+01   4.5830529533e+01    0.2432837    0.1986712 -66.64 0.0006251038    1.258    0.205
       461  -7.9445    144.6088     48.5230   4.3771084505e+01   4.2035045989e+01     0.152848    0.1401267 -63.74 0.0001075302    1.038    0.037
       462  -8.4206    120.8820     47.1842   4.8243592712e+01   4.8500582219e+01    0.2366104    0.2038169 -69.91 0.0005269938    1.174    0.148
       463  -8.9207     82.3190     46.2944   5.9165381855e+01   5.8255774778e+01    0.3315085    0.2396024 -61.83 0.0007364458    1.569    0.363
       464  -8.7224     45.0242     44.5310   7.4955632052e+01   6.5988552462e+01    0.2657895    0.1936276 -70.36 0.0006807123    1.549    0.355
       465  -8.9544     16.8701     44.3690   9.1663299896e+01   6.9505370422e+01    0.2935483    0.1793427 -89.91  0.001178235    1.924    0.480
       466  -8.2267    132.9718     43.0377   4.4064883707e+01   4.5956547037e+01     0.187184      0.17202 -52.44 0.0004003214    1.071    0.067
       467  -8.6846     93.0396     42.4412   5.3895453824e+01   5.6418802298e+01    0.2919421    0.2154041  39.12    0.0012676    1.486    0.327
       468  -9.1913     69.6922     41.5516   6.1938642313e+01   6.1976990645e+01    0.4151862    0.2825983 -72.77  0.001193813    2.100    0.524
       469  -8.8857     58.3417     42.3425   6.7308614505e+01   6.4120647111e+01     0.372472    0.2364609 -69.29  0.001125062    2.229    0.551
       470  -9.5471      5.3964     42.1503   9.8707189671e+01   7.0862461285e+01    0.3243856    0.2065535  76.89  0.001250142    1.737    0.424
       471  -8.7489    105.8998     41.0781   4.9580807163e+01   5.3408291564e+01    0.3228203    0.1995017 -55.21 0.0007588734    1.817    0.450
       472  -7.3773    140.2826     41.2776   4.2025751089e+01   4.4264860975e+01     0.145986    0.1167672  31.39 0.0001821434    1.508    0.337
       473  -8.3780     36.9329     40.5452   7.7815532043e+01   6.8115256307e+01    0.2529561    0.1889088 -76.08 0.0006369579    1.553    0.356
       474  -8.7420     95.8175     38.0457   5.1129637345e+01   5.6482873555e+01    0.2411322     0.196365 -68.25 0.0008426351    1.335    0.251
       475  -8.4211     80.7483     36.3977   5.5287090940e+01   6.0445267402e+01     0.272969    0.1741418 -49.79 0.0006785252    1.656    0.396
       476  -8.4220    125.9797     35.4709   4.2607086659e+01   4.8953035648e+01     0.227902    0.2026661 -43.01 0.0003746203    1.130    0.115
       477  -9.2896     26.2100     35.2636   8.2297478093e+01   7.0728975417e+01    0.3044821    0.2212407 -84.25 0.0008106998    1.683    0.406
       478  -8.9134    111.2491     34.2798   4.5374063303e+01   5.3076612968e+01    0.3718509    0.2041283  60.58  0.001537001    1.749    0.428
       479  -7.9629     88.5051     34.4598   5.1760019386e+01   5.8902373117e+01    0.1492174    0.1444693  80.64 0.0001236059    1.005    0.005
       480  -8.9090     48.5541     32.9464   6.7726900855e+01   6.7867253699e+01    0.2723467    0.2432205 -55.87 0.0005712642    1.139    0.122
       481  -8.3693    119.2810     32.9961   4.3018405206e+01   5.1114935617e+01    0.2160656     0.189966 -50.98 0.0004314293    1.126    0.112
       482  -8.6718     60.8944     32.4477   6.1361374463e+01   6.5570963398e+01    0.2659476    0.1948526 -59.41   0.00066263    1.557    0.358
       483  -8.9029     72.1833     30.9493   5.5819316686e+01   6.3380088828e+01    0.2272507    0.1934105 -70.78 0.0007014379    1.320    0.242
       484  -8.0198    191.5225    249.5084   7.7052836362e+01   2.4826030321e+00      0.10265   0.07365064  21.70 6.100454e-05    1.070    0.066
       485  -7.8045     42.2790     29.6638   6.9533462321e+01   6.9625977994e+01    0.1354209    0.1097981 -86.36 0.0005096942    1.614    0.380
       486  -8.9377     81.6411     27.2371   5.0503993366e+01   6.1749436888e+01    0.3340131    0.2231602 -59.44 0.0009579525    1.806    0.446
       487  -9.0864      3.8210     27.6876   9.6133729450e+01   7.4478028637e+01    0.2359721    0.1473512  71.46 0.0008693825    1.984    0.496
       488  -7.6829    110.0000     26.9981   4.2532969965e+01   5.4453826493e+01    0.2373946   0.08633272 -28.79 0.0005438973    2.841    0.648
       489  -8.7853     91.8702     26.2338   4.6824612638e+01   5.9334886697e+01    0.3234188    0.1879146 -47.44 0.0006413676    1.832    0.454
       490  -8.4656    104.5115     22.9329   4.1972850130e+01   5.6472133811e+01    0.2208554    0.1475521 -30.48 0.0005441843    1.540    0.351
       491  -8.8845     63.6396     20.7876   5.3773623633e+01   6.6986947583e+01    0.3171815    0.2108895 -54.19  0.000822091    1.768    0.435
       492  -8.7595     48.4947     21.6293   6.1506932232e+01   7.0024538490e+01    0.2562988    0.2180612 -60.07 0.0006512489    1.321    0.243
       493  -7.9192     34.4485     22.5310   7.0442224798e+01   7.2332086463e+01    0.1317773    0.1267316 -40.98 0.0008066422    1.069    0.065
       494  -8.1428    120.6570     20.8319   3.7685343577e+01   5.2347371625e+01    0.2216538    0.1227665 -39.71 0.0006084509    1.763    0.433
       495  -8.9053     74.1853     19.3228   4.8863155740e+01   6.4745446219e+01    0.3246169    0.2075908 -46.44 0.0007441659    1.671    0.401
       496  -8.0580     38.8590     18.1113   6.4910529006e+01   7.2435751704e+01    0.1990677    0.1805965 -64.04 0.0005109159    1.255    0.203
       497  -8.2560     88.0368     17.3014   4.3417947721e+01   6.1546701440e+01    0.2013123     0.186867  78.17 0.0004553073    1.056    0.053
       498  -7.5113    112.7366     16.6578   3.7363595289e+01   5.5015193922e+01    0.1490697    0.1107745  30.03 0.0002897505    1.597    0.374
       499  -8.1979     30.0381     15.9581   6.9437528598e+01   7.4293039334e+01    0.1976908    0.1637528  89.12 0.0006938874    1.687    0.407
       500  -7.8794     97.3587     15.1795   3.9946595276e+01   5.9355078574e+01    0.2074492    0.1271296 -38.97 0.0003706405    1.645    0.392
       501  -8.3769    101.6601     29.2054   4.5543924279e+01   5.6359591297e+01    0.2377751    0.1787716 -52.32 0.0006580739    1.378    0.274
       502  -7.4525    119.7035     11.3115   3.3767602111e+01   5.3679225491e+01    0.1560426     0.102378 -60.65 0.0007009346    1.597    0.374
       503  -8.2956    113.4072    248.6851   9.0844890369e+01   1.2158217766e+01    0.1554932     0.109758 -72.83  0.001108699    2.108    0.526
       504  -9.2762    103.9656    246.7216   9.2482039839e+01   1.3600433459e+01    0.3476017     0.199723 -89.79  0.001962715    3.323    0.699
       505  -8.4305    218.6340    247.2873   7.2504017523e+01  -3.6980811795e-01    0.2151153    0.1088689 -34.78  0.001497854    2.411    0.585
       506  -9.1358    210.9925    246.5314   7.3583688266e+01   5.4723622161e-01    0.1697947    0.1671256  60.84 0.0009252472    2.085    0.520
       507  -8.5795    156.3234    247.8253   8.2858313546e+01   6.9102201871e+00    0.1756322    0.1368656  46.88 0.0006522469    1.521    0.342
       508  -8.1727     17.4006     14.1865   7.8352479601e+01   7.6364591055e+01    0.1740134    0.1188846 -64.50 0.0006445782    1.632    0.387
       509  -8.7827    132.2533    247.6205   8.7207079078e+01   9.9433022274e+00    0.2410723    0.1374071  49.70  0.001059412    1.862    0.463
       510  -8.3376     64.2131    248.3866   1.0035613834e+02   1.8090228598e+01    0.1670509   0.06551776  40.45 0.0009474407    1.684    0.406
