#   1 NUMBER                 Running object number                                     
#   2 MAG_AUTO               Kron-like elliptical aperture magnitude                    [mag]
#   3 X_IMAGE                Object position along x                                    [pixel]
#   4 Y_IMAGE                Object position along y                                    [pixel]
#   5 X_WORLD                Barycenter position along world x axis                     [deg]
#   6 Y_WORLD                Barycenter position along world y axis                     [deg]
#   7 A_WORLD                Profile RMS along major axis (world units)                 [deg]
#   8 B_WORLD                Profile RMS along minor axis (world units)                 [deg]
#   9 THETA_WORLD            Position angle (CCW/world-x)                               [deg]
#  10 FWHM_WORLD             FWHM assuming a gaussian core                              [deg]
#  11 ELONGATION             A_IMAGE/B_IMAGE                                           
#  12 ELLIPTICITY            1 - B_IMAGE/A_IMAGE                                       
         1 -13.4218     51.8347    107.8815   5.3983360617e+01   4.9347231234e+01     2.990294     0.606149 -65.82  0.006304394    7.155    0.860
         2 -13.8907    231.4846     56.9540   4.2340558866e-01   2.1773037914e+01    0.9800833     0.824415 -73.23  0.004570986    1.211    0.174
         3 -13.9993    239.0989     51.7204   3.5868342785e+02   2.1067046669e+01     1.155373    0.9461573  26.70  0.001596902    1.866    0.464
         4 -12.3192      2.7539     10.5170   4.9482350204e+01   7.7993057761e+01    0.4166703    0.3205042 -36.64  0.001977222    1.188    0.158
         5 -12.6215      4.8362      6.8514   4.4979683193e+01   7.8446519608e+01    0.6004124    0.4106627 -68.37  0.003341544    2.238    0.553
         6  -8.9738    158.2925      8.6946   3.5456915386e+02   4.3451551635e+01    0.1401933   0.08098843 -60.95 0.0002604352    1.577    0.366
         7 -10.8694     62.0432    225.4373   6.6452049160e+01   1.9326228783e+01    0.3072512    0.2123753 -82.31  0.001826985    1.674    0.403
         8 -10.1393     33.7288    249.1253   7.4350228519e+01   1.7903937108e+01     0.183678    0.1553079 -59.16  0.001334526    1.563    0.360
         9 -12.3664     41.5744    160.5912   6.5765394461e+01   3.6696676004e+01    0.6928426     0.472049  -6.53  0.002290549    2.118    0.528
        10 -12.2198     48.7589    156.3091   6.3030568145e+01   3.6927760666e+01    0.5659496    0.3912612  67.30 0.0008210327    1.473    0.321
        11 -14.6010      7.4563    244.9159   7.9780168843e+01   2.1209414201e+01     1.495447     1.381261 -73.46    0.0117747    1.443    0.307
        12 -16.0493     10.7164    206.6044   7.7671936829e+01   2.8764397937e+01     6.225751     4.500047 -89.57    0.0308278    1.370    0.270
        13 -13.4739      6.2038    180.4940   7.7665086711e+01   3.5203618724e+01    0.5972928     0.492858 -43.31 0.0009291368    1.538    0.350
        14 -16.2176     18.6285    173.3534   7.3756319667e+01   3.5866283436e+01      6.37259     2.210069  87.92   0.02266075    3.408    0.707
        15 -10.9038     88.1782    225.1701   6.0334627098e+01   1.6140058997e+01    0.1833563    0.1322637  52.42  0.001086553    1.354    0.261
        16 -10.5122     83.0882    223.5863   6.1353619601e+01   1.7095038899e+01    0.2395365     0.158873 -40.31  0.001326814    1.928    0.481
        17  -9.8441     90.2564    237.8365   6.1123831784e+01   1.3542486042e+01     0.236498    0.1027923 -59.29  0.001164693    2.731    0.634
        18 -11.5904     71.6797    218.3892   6.3542439315e+01   1.9567800662e+01    0.3779658    0.1827633  48.97  0.001806912    1.922    0.480
        19 -12.0764     57.1664    232.6499   6.8146567205e+01   1.8478259362e+01    0.5932273      0.21846 -60.00  0.002732142    3.076    0.675
        20 -11.2242     50.6113    218.2163   6.8601722463e+01   2.2137390191e+01    0.2447685    0.2273685 -44.78  0.001648962    1.351    0.260
        21 -11.8212     45.5976    217.7875   6.9781590911e+01   2.2796815535e+01    0.4231128     0.165703  37.71  0.001839708    1.944    0.486
        22 -10.3298    140.4090    207.4488   4.6323779041e+01   1.2293290987e+01    0.3980798    0.2074198 -59.67  0.001089627    2.708    0.631
        23  -9.7181    171.1369    198.7621   3.8634411532e+01   9.4254406611e+00    0.1835651    0.1627838 -37.23  0.000518328    1.287    0.223
        24 -11.5760     82.2044    195.4317   5.8455016742e+01   2.3026483685e+01    0.5354498    0.3390579  63.53  0.002617903    1.839    0.456
        25 -11.0444     75.9719    182.6562   5.8494493630e+01   2.6778032549e+01    0.5065929    0.3805014  60.91  0.002700876    1.342    0.255
        26  -9.4341     64.2968    183.5598   6.1784450901e+01   2.8163471947e+01    0.2302204    0.1613878  88.93  0.000501794    1.577    0.366
        27 -11.4818     99.0703    181.0323   5.2148113450e+01   2.3738735460e+01     0.324524    0.2960646 -14.05 0.0006981424    1.222    0.181
        28 -10.7418    148.3494    230.3683   4.7864589207e+01   7.3979257700e+00    0.2998521    0.1065765 -46.45  0.001361362    3.114    0.679
        29 -10.5077    157.5528    173.8411   3.7103173997e+01   1.5832629509e+01    0.4258761    0.1612503 -52.96  0.001539553    3.428    0.708
        30 -12.1584    230.4457    167.7480   2.3027502567e+01   6.0617207941e+00    0.4962789    0.2235685 -33.24  0.002630225    1.874    0.467
        31 -12.2681     75.4627    131.7277   5.0511371261e+01   3.9435530256e+01    0.5424169    0.3041546 -56.18 0.0004807618    1.768    0.434
        32 -10.9141    136.2911    247.9908   5.2476479591e+01   6.1930212072e+00    0.1951376    0.1270144  26.50 0.0003237654    1.224    0.183
        33 -10.6405     99.1102    169.4249   5.0320523489e+01   2.6347504981e+01    0.2354254    0.1975929  77.06 0.0007568783    1.327    0.247
        34 -12.0586     61.4447    149.1713   5.8050637202e+01   3.7077841191e+01    0.4473213    0.2904452  38.13 0.0003381369    1.458    0.314
        35  -9.7201    194.9666    159.0507   2.7078798989e+01   1.2470846293e+01    0.1901203    0.1522154 -62.54 0.0009641792    1.695    0.410
        36 -10.8704    242.7164    150.2475   1.8128831368e+01   6.9085759560e+00    0.1896196    0.1511317 -38.79 0.0005283051    1.258    0.205
        37 -13.5077     46.3985    144.1841   6.2190896678e+01   4.0394146786e+01    0.5976375    0.4219983  -6.25  0.001628265    1.981    0.495
        38 -10.6367    239.6358    139.9200   1.6599827375e+01   8.7805569395e+00    0.1713946    0.1222902 -32.89 0.0006312584    1.119    0.107
        39  -9.1462     38.0147    136.2297   6.3945631288e+01   4.3525068940e+01    0.1867178    0.1196865  27.64 0.0005025537    1.600    0.375
        40  -8.9002    206.5852    135.5200   2.0449317153e+01   1.4467002542e+01    0.1286151     0.109057 -30.18 0.0001030638    1.015    0.014
        41  -9.9767     88.6793    134.7918   4.6973053519e+01   3.6412422044e+01    0.2913147    0.2800764 -38.60 0.0008498108    1.119    0.107
        42  -9.6276     92.9897    131.9698   4.5079415906e+01   3.6342093433e+01    0.3594573    0.2657225  -3.98  0.001564711    1.996    0.499
        43  -8.7495    143.7483    132.6690   3.1793796581e+01   2.6447264237e+01    0.1441178    0.1130617 -14.82 0.0004817817    1.554    0.357
        44 -10.0054    105.3148    129.6896   4.0970111363e+01   3.4603666502e+01    0.3417384    0.2687194 -76.64  0.001315722    1.446    0.308
        45 -10.1323    103.2775    126.5813   4.0854304885e+01   3.5730770269e+01    0.3715562    0.3075793  -0.34  0.001394494    1.541    0.351
        46 -13.5840     77.1875    157.1877   5.4496749089e+01   3.2721864289e+01     2.118391     0.900327  60.68  0.005876938    4.826    0.793
        47  -9.4488    196.5440    164.6165   2.7867394105e+01   1.1315626683e+01    0.2347615    0.1085666 -49.27  0.001029345    2.578    0.612
        48 -11.2427     89.4629    121.0744   4.3760003783e+01   3.9672749256e+01     0.361578    0.2768809  24.54 0.0006506774    1.488    0.328
        49 -11.7751    126.0676    228.8224   5.2306151724e+01   1.0536850207e+01    0.3262721    0.2600528 -11.22  0.002104267    1.368    0.269
        50  -9.5423    102.1309    115.9854   3.8685885869e+01   3.8471899354e+01    0.2199537    0.2158588  89.04  0.000349168    1.026    0.025
        51 -11.0411     16.2224    114.8366   6.9262464438e+01   5.1498178844e+01    0.2513894    0.2160766  85.12 0.0008299639    1.072    0.067
        52 -10.1188    204.9953    110.6240   1.5383061312e+01   1.8774712655e+01    0.2625595    0.2265551  29.65 0.0009527095    1.365    0.267
        53  -8.8663    187.5383    110.4709   1.8055612320e+01   2.2061454887e+01    0.1371176    0.1219954 -43.83 0.0001968925    1.021    0.020
        54 -10.5036     23.8682    105.1768   6.4806984723e+01   5.3439676712e+01    0.2469977    0.2282034  88.75 0.0006660923    1.020    0.020
        55 -11.6248     75.6474     88.3699   3.9964315247e+01   5.0282562046e+01    0.4246856    0.3124715  89.34  0.000621006    1.777    0.437
        56 -10.8567     76.8952    229.7557   6.3377359552e+01   1.6684501626e+01    0.2545473      0.20393  83.50 0.0006234947    1.444    0.307
        57 -14.1596     68.1407    144.4865   5.5183367072e+01   3.7307692607e+01     1.939006     1.253157  70.19  0.002922578    1.865    0.464
        58  -9.0725    179.6050    164.8038   3.0985210027e+01   1.3918408185e+01    0.1844938    0.1179727 -49.41 0.0009500445    1.706    0.414
        59  -8.6340    115.2723     80.6180   2.5128119560e+01   4.3468429998e+01    0.1614607    0.1167862 -74.49  0.000699654    1.702    0.413
        60  -9.5366     29.8666     79.1145   5.6948365334e+01   5.9730346022e+01    0.2131389    0.1858393  70.56 0.0003507917    1.226    0.185
        61  -9.4084     70.4803     78.5020   3.8886492655e+01   5.3592369094e+01    0.1496434    0.1485123 -68.83 -2.080065e-05    1.031    0.030
        62 -12.3694    212.6635     65.9442   4.2425435382e+00   2.4126549266e+01     1.388802    0.8094983  48.91  0.007315171    2.200    0.545
        63 -10.8342    211.5004    244.8572   3.8300141411e+01  -1.8855724979e+00    0.3474575   0.09063362 -38.93  0.001617367    3.828    0.739
        64 -10.5872     72.3823    245.8551   6.5755056413e+01   1.4259906734e+01    0.2541363    0.1243568  42.84  0.001255573    1.632    0.387
        65  -9.8481     21.1314     70.9045   5.9376132572e+01   6.2748420354e+01    0.2160113    0.1800757  68.51 0.0006434885    1.328    0.247
        66 -10.0911    154.7548    163.5367   3.5771211741e+01   1.8245218569e+01    0.2662404    0.1937003 -41.95  0.001418758    1.364    0.267
        67 -11.2905     13.4196     60.4552   6.1059562769e+01   6.6060765186e+01    0.2823313    0.2372648 -59.97  0.000476365    1.106    0.096
        68 -12.3617    108.3165    228.9527   5.6190188619e+01   1.2834652865e+01    0.5964018    0.1540961  36.10  0.002290467    2.943    0.660
        69 -10.7854      1.7516     36.5264   6.2012541055e+01   7.2607116937e+01    0.2401608    0.1646362 -61.18 0.0008715713    1.349    0.259
        70  -8.3860     84.6910     26.3566   1.3304373255e+01   6.0151536028e+01    0.1479683    0.1049388 -69.05 0.0007042504    1.729    0.422
        71 -12.1711      3.2638     23.0846   5.5679923933e+01   7.5449806536e+01    0.4952104    0.2479494 -56.87  0.002512142    1.847    0.459
        72 -10.7458     21.1025     24.2099   4.2040234509e+01   7.3293992070e+01    0.2336632    0.1726477  48.41  0.000903955    1.622    0.384
        73  -9.4102     60.2218     21.1804   1.8906957173e+01   6.6579199359e+01     0.200745    0.1724229  30.52 0.0005533853    1.157    0.136
        74  -9.6012     82.9748     16.9469   9.3900364284e+00   6.1732211613e+01     0.228619    0.1583739 -70.41  0.001128709    1.757    0.431
        75  -9.0091    189.3873     15.1724   3.5390183021e+02   3.5476994112e+01    0.1822037   0.09174454 -43.53 0.0005755849    1.632    0.387
        76 -10.6686     71.1505    241.4524   6.5675899635e+01   1.5195898925e+01    0.2130326    0.1896671  65.15 0.0004850399    1.214    0.177
        77 -10.7987     50.9099    241.3545   7.0161806843e+01   1.7523020680e+01    0.3864041    0.1692254 -75.97  0.001261345    2.759    0.638
