#   1 NUMBER                 Running object number                                     
#   2 MAG_AUTO               Kron-like elliptical aperture magnitude                    [mag]
#   3 X_IMAGE                Object position along x                                    [pixel]
#   4 Y_IMAGE                Object position along y                                    [pixel]
#   5 X_WORLD                Barycenter position along world x axis                     [deg]
#   6 Y_WORLD                Barycenter position along world y axis                     [deg]
#   7 A_WORLD                Profile RMS along major axis (world units)                 [deg]
#   8 B_WORLD                Profile RMS along minor axis (world units)                 [deg]
#   9 THETA_WORLD            Position angle (CCW/world-x)                               [deg]
#  10 FWHM_WORLD             FWHM assuming a gaussian core                              [deg]
#  11 ELONGATION             A_IMAGE/B_IMAGE                                           
#  12 ELLIPTICITY            1 - B_IMAGE/A_IMAGE                                       
         1 -14.4817    150.3900     59.0334   2.9040155442e+02   6.2401674434e+00   0.06341561   0.04993458 -25.12  0.001096239    1.397    0.284
         2 -14.8268    161.8231     43.8424   2.9017608632e+02   6.3510922314e+00   0.06009015   0.04671644 -49.00  0.003502073    1.345    0.257
         3 -13.0561    189.7311     13.7376   2.8966358870e+02   6.5404118498e+00   0.04791445    0.0244585 -85.81  0.003717636    3.134    0.681
         4 -13.4061    173.3333     16.2175   2.8988181396e+02   6.6057614665e+00   0.04174196   0.01554275  33.16  0.002743874    2.331    0.571
         5 -14.6437    175.1049     10.4426   2.8982819749e+02   6.6626054249e+00   0.06156344   0.04572504  38.96  0.004840983    1.285    0.222
         6 -13.5353    204.6390    176.3939   2.9036304948e+02   4.5654960992e+00   0.05814848   0.03202239 -85.80   0.00489769    2.637    0.621
         7 -20.1422     76.9850    175.7645   2.9195132393e+02   5.3021382083e+00     0.868201    0.3744366 -67.76   0.07062438    2.594    0.614
         8 -11.3810    202.3224    170.3120   2.9035887842e+02   4.6494636014e+00   0.01273062  0.009438897 -47.75 0.0006410252    1.412    0.292
         9 -11.6712    205.3976    168.8172   2.9031245303e+02   4.6492233812e+00   0.02332597   0.01425059 -81.33  0.002095601    2.066    0.516
        10 -12.4806     30.6078    182.4698   2.9256634785e+02   5.4879420033e+00   0.01341405   0.01129281  15.97 0.0002621689    1.145    0.127
        11 -11.7222     27.8190    179.7974   2.9258673600e+02   5.5348832733e+00    0.0192868   0.01341428 -11.13  0.001930785    1.714    0.417
        12 -12.3591    159.8654    179.6242   2.9093847955e+02   4.7841794274e+00    0.0199288   0.01055867  10.24  0.001639736    2.248    0.555
        13 -12.2263    199.0479    178.5544   2.9044442270e+02   4.5724015515e+00   0.03242132   0.01654505  71.15  0.002300584    3.748    0.733
        14 -13.2653    195.3848    168.8269   2.9043724112e+02   4.7064622801e+00   0.02220784   0.02053006  34.90 0.0007183483    1.044    0.042
        15 -12.3520    193.1722    164.1665   2.9043950157e+02   4.7733097865e+00   0.02218886   0.01515776  17.66  0.002013219    1.441    0.306
        16 -11.0928    160.3494    247.5527   2.9130036779e+02   3.9914246423e+00   0.01713401   0.01124298  -5.03  0.001084145    1.865    0.464
        17 -11.0720     18.0285    173.5490   2.9267523793e+02   5.6631915632e+00   0.01216253  0.009497768 -10.16 0.0008474597    1.412    0.292
        18 -11.2991     26.0462    172.2285   2.9256802045e+02   5.6330323890e+00   0.01524695   0.01107072  34.24   0.00079153    1.286    0.222
        19 -10.8020    165.5102    172.0480   2.9082702443e+02   4.8399981507e+00   0.01011273    0.0068591 -65.88  0.001029403    1.581    0.367
        20 -12.4841    177.0152    170.1758   2.9067346567e+02   4.7959427845e+00   0.01593347   0.01016873 -63.38  0.001593984    1.656    0.396
        21 -11.7450    230.3104    166.8548   2.8999155254e+02   4.5292509039e+00   0.01508039  0.009057559 -84.47  0.001367488    2.204    0.546
        22 -10.0657     20.4883    166.4972   2.9260647749e+02   5.7312889041e+00  0.006825488  0.006410724   8.70 0.0008102065    1.042    0.041
        23 -11.0190    139.8020    250.1605   2.9157038115e+02   4.0784083993e+00   0.01575125    0.0101031 -86.68  0.001497194    2.010    0.502
        24 -11.3232    136.0614    243.2474   2.9157960614e+02   4.1801642666e+00   0.03491806   0.02361359 -24.95  0.003425235    1.764    0.433
        25 -10.7106    191.5915    157.8577   2.9042493444e+02   4.8557022556e+00   0.01678305  0.009733734 -11.58   0.00140937    2.491    0.599
        26 -14.0806    135.7819    127.7329   2.9095732315e+02   5.5253080064e+00   0.09522924   0.02137748 -69.32  0.004611323    7.405    0.865
        27 -10.1940     17.4218    223.3471   2.9295119005e+02   5.0870827291e+00  0.006883754  0.005945302  -9.39 0.0007774595    1.211    0.174
        28 -12.7321    163.0142    155.0054   2.9076566552e+02   5.0524489271e+00   0.01631474   0.01559889 -79.38 0.0009911121    1.125    0.111
        29 -12.4719    160.3224    152.3218   2.9078466428e+02   5.0990528626e+00    0.0161307   0.01206185 -45.99  0.001120082    1.405    0.288
        30 -10.3786     22.9613    156.0842   2.9251938420e+02   5.8384151527e+00   0.01013502  0.009417792  16.59 0.0004270391    1.027    0.026
        31 -11.2684     17.5820    153.7400   2.9257390524e+02   5.8962360732e+00   0.01329145   0.01125152 -76.08 0.0007067403    1.295    0.228
        32 -14.6143    134.3059    146.4243   2.9107716401e+02   5.3163905102e+00    0.0738395    0.0283417 -76.60  0.004787209    4.322    0.769
        33 -10.6322    130.6724    213.2629   2.9148458653e+02   4.5597081085e+00   0.01556432  0.009880337  79.88  0.001430496    2.184    0.542
        34 -14.2534    143.6670    143.4457   2.9094422068e+02   5.2975192562e+00   0.04906275    0.0252379 -84.79  0.003883567    2.987    0.665
        35 -10.0300      7.0048    150.0390   2.9268602828e+02   5.9993255426e+00   0.01120811  0.007628002 -22.19 0.0008847558    1.762    0.432
        36 -11.6100    174.3210    148.6900   2.9059040787e+02   5.0611700721e+00   0.01620286   0.01176468  65.27  0.001189182    1.624    0.384
        37 -11.3949     27.5647    145.6623   2.9240560040e+02   5.9335325607e+00   0.01587064   0.01356924 -38.10  0.001463448    1.230    0.187
        38 -11.5191    126.9914    250.4547   2.9173155092e+02   4.1480803581e+00  0.009101148  0.007523751  22.30  0.001023372    1.140    0.123
        39 -12.9028     11.8773    206.2214   2.9292812865e+02   5.3178636098e+00   0.03403214   0.01685101  25.69  0.003024213    1.871    0.466
        40 -11.0699     28.6439    239.4092   2.9289772698e+02   4.8364394054e+00   0.00966051  0.008407163  78.18 0.0005722987    1.278    0.218
        41 -12.0196     21.6913    237.7863   2.9297567445e+02   4.8948028222e+00   0.01085377  0.009170877 -40.82 0.0009060492    1.244    0.196
        42 -11.4952    139.9894    200.2669   2.9129810316e+02   4.6576808597e+00   0.01920465   0.01206385  17.35 0.0008343795    1.592    0.372
        43 -12.4491    160.6652    127.9919   2.9064828015e+02   5.3799646873e+00   0.01838224   0.01571894  69.07  0.002045863    1.292    0.226
        44 -14.0691    180.3803    193.4335   2.9075771309e+02   4.5062600327e+00    0.0394887    0.0315181   0.69  0.004384686    1.320    0.243
        45 -11.9591    140.6613    120.6669   2.9085807090e+02   5.5795648847e+00   0.02056111  0.008775063  44.60  0.001344323    2.458    0.593
        46 -10.8434    167.6318    112.6593   2.9047806285e+02   5.5183105480e+00   0.01449364  0.008540141  56.22  0.001141581    2.043    0.510
        47 -14.4548    164.9262    188.9778   2.9092611934e+02   4.6464653175e+00   0.04795818   0.03088264  47.51  0.004785009    1.607    0.378
        48 -12.5072    170.1958    183.5376   2.9083094685e+02   4.6795910756e+00   0.02100102   0.01278714  29.87    0.0013873    1.506    0.336
        49 -13.8659    172.9879    189.2995   2.9082740022e+02   4.5966187157e+00   0.03396363   0.01964757 -72.15  0.002810187    1.987    0.497
        50 -10.7345    205.2088    110.1933   2.8999609359e+02   5.3316058027e+00   0.01391126   0.00922984   9.30  0.001048002    1.623    0.384
        51 -13.5382    175.2057    185.5038   2.9077917913e+02   4.6280692837e+00   0.03451557   0.01784104 -88.87  0.002642027    3.231    0.691
        52 -10.0498     17.6381    199.7607   2.9282144439e+02   5.3603622554e+00  0.006913993  0.005022342 -13.04 0.0006920805    1.595    0.373
        53 -10.9892    146.1676    188.9485   2.9115977644e+02   4.7540336561e+00   0.01330253  0.008418877 -14.17 0.0008303827    2.056    0.514
        54 -12.2531    131.0669    234.9442   2.9159694186e+02   4.3052493540e+00   0.01294546  0.009711708 -68.53 0.0007390375    1.444    0.307
        55 -10.5530    143.7055     80.9350   2.9060416705e+02   6.0239758160e+00  0.009207248  0.009045047 -84.47 0.0004731228    1.090    0.082
        56 -10.5477     15.5771    246.8479   2.9310065075e+02   4.8240450738e+00   0.01105821  0.006829857 -81.72  0.001029767    2.029    0.507
        57 -13.3826    125.1780    241.0481   2.9170331347e+02   4.2678465229e+00    0.0331951  0.009788435 -62.86  0.002324979    3.385    0.705
        58 -13.0899    165.4908     35.5319   2.9008501764e+02   6.4265597202e+00   0.02015311   0.01881968  -4.06 0.0008566779    1.081    0.075
        59 -10.9814     13.4061     59.8728   2.9211843034e+02   7.0116392947e+00   0.01153551  0.008627068  36.41 0.0004201566    1.262    0.208
        60 -10.2831    144.9883     34.0202   2.9033282704e+02   6.5615929442e+00   0.01083456  0.007426808  52.17 0.0003480313    1.572    0.364
        61 -11.8643     12.7924    242.2741   2.9311076679e+02   4.8930758154e+00   0.01160911  0.009464816 -28.47  0.001031173    1.322    0.244
        62 -11.1912    200.0938    162.0216   2.9034161350e+02   4.7585988391e+00   0.02470556   0.01453404  34.18   0.00239593    1.562    0.360
