#   1 NUMBER                 Running object number                                     
#   2 MAG_AUTO               Kron-like elliptical aperture magnitude                    [mag]
#   3 X_IMAGE                Object position along x                                    [pixel]
#   4 Y_IMAGE                Object position along y                                    [pixel]
#   5 X_WORLD                Barycenter position along world x axis                     [deg]
#   6 Y_WORLD                Barycenter position along world y axis                     [deg]
#   7 A_WORLD                Profile RMS along major axis (world units)                 [deg]
#   8 B_WORLD                Profile RMS along minor axis (world units)                 [deg]
#   9 THETA_WORLD            Position angle (CCW/world-x)                               [deg]
#  10 FWHM_WORLD             FWHM assuming a gaussian core                              [deg]
#  11 ELONGATION             A_IMAGE/B_IMAGE                                           
#  12 ELLIPTICITY            1 - B_IMAGE/A_IMAGE                                       
         1 -13.5677    204.2643     42.3932   3.8698965178e+01   2.9571269988e+01     1.447054     1.221223  11.91   0.00541317    1.741    0.425
         2 -13.4732    216.2030     31.3717   3.4922524514e+01   2.8374243717e+01    0.9439977    0.8155865  36.88  0.003437502    1.621    0.383
         3 -12.7707    242.3460      6.1974   2.7743934757e+01   2.5917962297e+01    0.7624633    0.5580587 -79.73  0.005125736    1.110    0.099
         4 -10.0093      1.8893      3.7752   8.3882850350e+01   7.4396252186e+01    0.3170968    0.1052594 -45.39  0.001532968    3.094    0.677
         5  -8.6879     56.5095      1.4855   5.5080978677e+01   6.7115124402e+01    0.1211376   0.09566507  27.41 -6.011874e-07    1.014    0.014
         6 -10.3475    120.1216    213.8506   9.5135207890e+01   1.2617322529e+01    0.4656024    0.2368649 -65.35  0.001917987    2.570    0.611
         7  -9.7436    102.1761    249.8158   1.0384500080e+02   8.0818415962e+00    0.2587344    0.1936271 -81.26  0.001028213    1.607    0.378
         8 -10.6644    101.3315    244.1681   1.0338803428e+02   9.2811455005e+00    0.4073255    0.1674317 -64.01  0.001758678    2.978    0.664
         9 -12.2886     67.1115    170.0148   1.0196965095e+02   3.1108662617e+01     1.254656    0.5919139 -31.45  0.003715404    4.889    0.795
        10 -15.1014     68.9792    150.2700   9.8194143505e+01   3.5929184697e+01     12.86192     4.262599  46.27  0.008570253    3.682    0.728
        11 -10.5449    239.2478    178.6324   6.3405303105e+01  -6.2556587736e-02    0.2304664    0.1644683  18.83  0.001324267    1.525    0.344
        12  -9.9623    186.7095    174.9182   7.2707333023e+01   9.2704953450e+00    0.3503533    0.3255208 -63.13  0.001527581    1.292    0.226
        13  -9.8655     86.5381    176.4990   9.7709072663e+01   2.6657737161e+01    0.2110953    0.1752521 -26.12 0.0005410196    1.432    0.302
        14 -14.2748     39.0244    197.2225   1.1254835510e+02   2.7807231430e+01     2.275545     1.154294  67.64  0.004731979    2.228    0.551
        15 -15.0677      9.4291    207.5516   1.2008041076e+02   2.8358200363e+01     2.546738     1.183278 -70.13  0.006251585    1.912    0.477
        16 -14.2411     48.8888    187.1017   1.0905221376e+02   2.9132979408e+01      4.35491     1.397137  52.91   0.01387559    4.172    0.760
        17 -13.3647     15.6873    215.8894   1.1928871213e+02   2.5906817154e+01    0.8617455    0.4611712  26.53  0.004702369    2.146    0.534
        18 -10.0657    240.4715    169.4802   6.1391717731e+01   1.3090808547e+00    0.1336117    0.1092682 -23.66 -4.393953e-05    1.014    0.014
        19  -9.6575    110.9861    203.3807   9.5723882404e+01   1.6383703052e+01      0.22246    0.1953693  85.10 0.0004987483    1.241    0.194
        20  -9.8987    122.4569    199.0670   9.2235399199e+01   1.5470123209e+01    0.3281449    0.2451165 -87.14  0.001583011    1.780    0.438
        21 -10.7573     34.3445    160.6877   1.0975679702e+02   3.7380124476e+01    0.3415237    0.2839096  60.56  0.000618735    1.221    0.181
        22 -10.6902     32.4882    155.8807   1.0967701667e+02   3.8793938047e+01    0.5503173    0.3425897  16.64  0.002752947    1.993    0.498
        23 -11.7437     86.1374    152.4157   9.3554827134e+01   3.2816785965e+01    0.6744803    0.4887811 -23.74  0.003069381    1.762    0.433
        24 -10.4546    133.7494    144.5467   7.8581019286e+01   2.6150776171e+01     1.075955    0.2735181 -53.52  0.002534194    5.250    0.810
        25  -8.2689    112.4613    150.4620   8.5659134116e+01   2.8797295604e+01    0.1543653    0.1517721 -71.56 7.004965e-05    1.026    0.025
        26  -9.1549    174.7552    148.9347   6.9676231098e+01   1.6915461750e+01    0.2880912    0.2098196 -58.56 0.0007901546    1.569    0.363
        27 -10.0327    190.9090    191.4105   7.5131667900e+01   5.3135725019e+00    0.4701663    0.2695758 -61.82  0.001812525    3.186    0.686
        28 -16.8051     14.5282    242.7732   1.2110469274e+02   2.0318803035e+01     6.519037     4.477581  29.01   0.04320562    1.692    0.409
        29  -9.1680     82.5073    194.8715   1.0153566405e+02   2.2765726681e+01     0.279136     0.196242   9.26  0.001053543    1.943    0.485
        30 -10.6036    100.7346    138.5488   8.6397990282e+01   3.3872846241e+01    0.6005597    0.3762706 -19.19  0.002226857    2.589    0.614
        31 -11.5865     87.7993    137.9798   9.0127767049e+01   3.6228217706e+01    0.3141687    0.2721297 -45.78 0.0004309381    1.120    0.107
        32 -10.0206    105.8865    130.9878   8.3143294945e+01   3.4805958861e+01     0.384556     0.359068 -43.07  0.001273139    1.041    0.039
        33  -9.6935    110.2106    129.5916   8.1547546891e+01   3.4333133492e+01    0.3254075    0.2649186  -9.04 0.0008140926    1.465    0.317
        34  -8.1529    196.2635    190.2858   7.3802210862e+01   4.6335070063e+00    0.1380268    0.0999001  -8.72 0.0001667312    1.490    0.329
        35  -9.5372    133.4647    128.4875   7.4816932998e+01   2.9958257800e+01    0.3036991    0.2040233  12.90  0.001099741    2.221    0.550
        36  -9.1360    160.8424    127.8115   6.7843350647e+01   2.4324011877e+01    0.2218859    0.1901621 -75.96  0.001084841    1.362    0.266
        37 -10.1516     97.4636    125.2016   8.4276874663e+01   3.7761377892e+01    0.3390682    0.2751272 -14.37 0.0009513778    1.434    0.302
        38  -9.4550    116.8208    123.9620   7.8259771774e+01   3.4395688853e+01    0.2685106    0.1794662 -22.29  0.001072554    2.008    0.502
        39  -9.8806    147.1594    187.1622   8.4128982933e+01   1.3830460704e+01    0.4330476    0.2260225 -61.29  0.001633511    2.628    0.620
        40 -10.6615     44.7090    123.5011   1.0091321979e+02   4.5876534214e+01    0.2883181    0.2426372 -58.74  0.001214044    1.058    0.054
        41  -9.0548    134.8282    120.5465   7.2450796506e+01   3.1484094970e+01    0.3138616    0.1147449 -43.26 0.0009921282    2.720    0.632
        42  -9.1973    106.9771    118.4623   7.9732002633e+01   3.7620766296e+01    0.2215313    0.2041641 -40.54 0.0002766339    1.054    0.051
        43 -10.0551    231.3447    113.8466   5.1234235948e+01   1.2622798190e+01    0.2905104    0.2196998 -46.16 0.0007836527    1.148    0.129
        44  -9.6378     22.1121    114.1328   1.0687832391e+02   5.0358813443e+01    0.2084286    0.1548063 -44.58  0.000280794    1.245    0.197
        45  -9.0593     39.1785    113.1615   1.0080776946e+02   4.9077348805e+01    0.1829283      0.15943  73.99 0.0004495803    1.318    0.241
        46  -9.4420    205.2320    110.3611   5.4639848098e+01   1.8388912480e+01    0.3144526    0.2155048  39.73  0.001208942    1.707    0.414
        47  -9.9580     33.3806    109.6151   1.0214826787e+02   5.0528135014e+01    0.3636245     0.199164 -67.98  0.001372651    1.737    0.424
        48  -9.8850     28.1628    107.6496   1.0362348600e+02   5.1482288043e+01    0.3109153    0.1833827 -24.94 0.0009819862    2.013    0.503
        49 -10.7709    194.0380    197.0508   7.5569618730e+01   3.7343255488e+00    0.4604359    0.2626199 -60.36  0.001828761    3.115    0.679
        50 -11.8525    243.5168    101.9292   4.6983295157e+01   1.2406086398e+01    0.4515505    0.3611132  14.45  0.002624627    1.807    0.447
        51  -9.9327     80.9199    182.2901   1.0011232092e+02   2.6063708641e+01    0.3717101    0.3167067 -72.74  0.001200933    1.150    0.130
        52  -9.4144     38.9989    102.0037   9.8558812365e+01   5.1856916346e+01    0.2898869    0.1633516  50.25  0.001224305    2.400    0.583
        53  -9.1315     33.0127     96.9790   9.9684195478e+01   5.3659292405e+01     0.207894     0.162299  72.36 0.0009765167    1.674    0.403
        54 -10.1620     12.0179     93.1375   1.0685158135e+02   5.6199920778e+01    0.2249004    0.1658552 -62.70 0.0006191676    1.160    0.138
        55  -9.5100     52.9878     90.8094   9.0631300296e+01   5.2923364111e+01    0.2224108    0.1351652 -36.50 0.0006146898    1.603    0.376
        56  -9.5156     72.1308     83.1732   8.1350543579e+01   5.1872150114e+01    0.4196927    0.2489324  58.36  0.001645028    2.850    0.649
        57  -9.4076     99.4305    180.8883   9.5015584975e+01   2.3540134208e+01    0.2674612    0.2159275  23.83 0.0006433902    1.332    0.249
        58  -9.0206    159.9777     83.4905   5.6444043094e+01   3.3419506706e+01    0.2238437    0.1459765  53.92 0.0005109667    1.536    0.349
        59  -8.8388     92.1083     66.7965   6.9169167890e+01   5.1548638784e+01    0.2092192     0.196829  69.96 0.0006027149    1.274    0.215
        60 -10.1064     13.5071     59.9588   9.8765441282e+01   6.3597210693e+01    0.2496506    0.1846106 -47.76 0.0004323028    1.154    0.134
        61 -12.7513    194.4484     49.1713   4.1551838434e+01   3.0860206754e+01    0.9560038    0.6473806  56.09  0.001099093    1.535    0.348
        62 -10.1563    119.8437    245.0625   9.9500696406e+01   6.4085994510e+00    0.2738418    0.1622764 -47.45  0.001011393    1.956    0.489
        63  -9.2047    163.5001    211.4777   8.4785883763e+01   6.0020960408e+00    0.1407361    0.1259796   9.50 0.0008102426    1.012    0.012
        64  -9.0596     48.3006     42.5633   7.6816565192e+01   6.3267200585e+01    0.3208883    0.1421345  45.77  0.001315402    3.143    0.682
        65  -9.1838    198.0318     23.5453   3.4990447266e+01   3.3303327885e+01    0.2087458    0.1784708  -6.48  0.000680998    1.634    0.388
        66  -8.8534    189.4745     14.9582   3.3851727067e+01   3.6183773804e+01    0.1713275    0.1174418 -37.58 0.0006891578    1.540    0.351
        67  -9.3411     32.9744    210.4188   1.1513097351e+02   2.5379848130e+01    0.2066335     0.154419 -66.20 8.402968e-05    1.368    0.269
        68  -9.4723    154.6554    225.6674   8.9106500368e+01   4.7135173728e+00    0.1428359   0.09992778  -3.48 0.0007050231    1.760    0.432
