#   1 NUMBER                 Running object number                                     
#   2 MAG_AUTO               Kron-like elliptical aperture magnitude                    [mag]
#   3 X_IMAGE                Object position along x                                    [pixel]
#   4 Y_IMAGE                Object position along y                                    [pixel]
#   5 X_WORLD                Barycenter position along world x axis                     [deg]
#   6 Y_WORLD                Barycenter position along world y axis                     [deg]
#   7 A_WORLD                Profile RMS along major axis (world units)                 [deg]
#   8 B_WORLD                Profile RMS along minor axis (world units)                 [deg]
#   9 THETA_WORLD            Position angle (CCW/world-x)                               [deg]
#  10 FWHM_WORLD             FWHM assuming a gaussian core                              [deg]
#  11 ELONGATION             A_IMAGE/B_IMAGE                                           
#  12 ELLIPTICITY            1 - B_IMAGE/A_IMAGE                                       
         1 -13.5784     97.5664     46.3691   9.6215038402e+01   5.4343353416e+01    0.6479909      0.57749  34.66  0.003711377    1.125    0.111
         2 -11.3299     74.4289     17.2296   9.1873575879e+01   6.3054931333e+01    0.3470547    0.1882324  43.68 0.0008376351    1.760    0.432
         3 -15.4539    139.3551    177.6648   1.1903373314e+02   1.8887827856e+01     1.777119     1.494247   0.83  0.009706425    1.521    0.343
         4 -13.4876    172.5156    147.8191   1.0558143287e+02   1.7944415561e+01    0.7195342    0.5387322 -17.49  0.003416044    1.616    0.381
         5 -10.2161    128.3175    136.3345   1.1354574583e+02   2.9719058361e+01    0.1523073    0.1215261  -4.03 0.0007048244    1.695    0.410
         6 -10.3400    122.0000    142.9678   1.1656979493e+02   2.9516812782e+01    0.2454684   0.08474558 -51.02 0.0008099597    2.995    0.666
         7 -11.0758     85.9009    133.3555   1.2416573643e+02   3.8083811370e+01    0.3785457    0.2329215  -1.51   0.00128895    4.336    0.769
         8 -10.7234    126.6159    127.7682   1.1204375053e+02   3.1940689269e+01    0.2166977    0.1445708 -59.18 0.0009534171    1.656    0.396
         9 -10.3779     57.4952    125.9942   1.3073625456e+02   4.3781300275e+01    0.1916704    0.1068275  88.58 0.0008102767    2.519    0.603
        10 -10.1263    152.3214    120.3247   1.0375074098e+02   2.7953663566e+01     0.160935      0.12461   7.17  0.000549969    1.681    0.405
        11 -11.3957     87.2137    118.9034   1.2086935728e+02   4.1221397147e+01    0.3791606    0.2389932  -1.53   0.00139887    3.473    0.712
        12 -11.4642     72.6168    109.7609   1.2320566929e+02   4.5566406481e+01    0.3394137    0.1469101 -45.59  0.001350506    2.368    0.578
        13 -12.3718     91.9538    105.3043   1.1634196810e+02   4.3547442875e+01    0.3943558    0.2733977  38.55  0.001930389    1.501    0.334
        14 -13.3200    110.7440    108.5082   1.1166940060e+02   3.9379328428e+01     0.743456    0.4238117 -47.89  0.003171143    1.737    0.424
        15 -13.1700    114.9849     98.0806   1.0769789384e+02   4.0806671563e+01    0.6509902    0.4620229 -65.31  0.002932204    1.731    0.422
        16 -12.0095     52.7639     93.6037   1.2594887974e+02   5.1858358581e+01    0.3583412    0.2361728  87.63  0.001744299    2.141    0.533
        17 -11.6355     75.1307     95.3496   1.1908338408e+02   4.8499564805e+01      0.35014    0.2058349  63.67  0.001417512    2.794    0.642
        18 -11.4452     79.4981     91.5448   1.1671126133e+02   4.8683918235e+01    0.3119002    0.1321233 -52.09  0.001225574    2.216    0.549
        19 -11.2916     76.1348     87.5836   1.1675468339e+02   5.0081739763e+01    0.2793432     0.174225 -23.05  0.001215127    2.246    0.555
        20 -12.8515     98.4717     96.0100   1.1198249144e+02   4.4464523443e+01    0.5080261    0.3724461 -71.26  0.002402129    1.699    0.411
        21 -12.6166    101.6406     82.1498   1.0705999360e+02   4.6830541831e+01     0.558963    0.2866451 -55.08  0.002168528    2.331    0.571
        22 -10.6645     72.6006     79.2143   1.1562998682e+02   5.2439850062e+01    0.2120665     0.117023 -41.56 0.0009607036    1.731    0.422
        23 -10.1232     78.3211     78.6469   1.1352968867e+02   5.1679876482e+01    0.1407572    0.1122333  88.09 0.0007047244    1.752    0.429
        24 -11.2562     59.6485     77.8200   1.1973466966e+02   5.4542978741e+01    0.1883031    0.1681329 -20.02  0.001113096    1.132    0.117
        25 -10.0974     93.6480     80.6817   1.0911754279e+02   4.8636551727e+01    0.1523612    0.1128883  -6.15 0.0007047294    1.742    0.426
        26 -10.0915     82.3173     75.6636   1.1130147665e+02   5.1659353314e+01    0.1397872    0.1139618  89.55 0.0007048485    1.699    0.412
        27 -12.5085    102.3548     69.1576   1.0275037354e+02   4.9295897925e+01     0.491408    0.3513814 -75.13   0.00213664    2.292    0.564
        28 -12.2009    105.3966     65.8353   1.0070807544e+02   4.9311901361e+01    0.4059096    0.2854694 -31.51  0.001955773    1.436    0.303
        29 -10.0119     59.6510     68.6867   1.1715062698e+02   5.6495145335e+01    0.1409635   0.09525748 -20.80 0.0007046486    1.721    0.419
        30 -13.0016     95.1948     52.7209   9.9334051247e+01   5.3743645553e+01    0.5267949    0.4337186 -41.16  0.001651646    1.272    0.214
        31 -10.3628    123.9878    206.0011   1.2678724392e+02   1.6248963595e+01    0.1926715    0.1617694  54.07  0.001193345    1.014    0.013
        32 -12.0222     85.7769     21.9470   9.0096854610e+01   6.0284485566e+01    0.3994695    0.2588436  23.91  0.001211907    1.566    0.362
