#   1 NUMBER                 Running object number                                     
#   2 MAG_AUTO               Kron-like elliptical aperture magnitude                    [mag]
#   3 X_IMAGE                Object position along x                                    [pixel]
#   4 Y_IMAGE                Object position along y                                    [pixel]
#   5 X_WORLD                Barycenter position along world x axis                     [deg]
#   6 Y_WORLD                Barycenter position along world y axis                     [deg]
#   7 A_WORLD                Profile RMS along major axis (world units)                 [deg]
#   8 B_WORLD                Profile RMS along minor axis (world units)                 [deg]
#   9 THETA_WORLD            Position angle (CCW/world-x)                               [deg]
#  10 FWHM_WORLD             FWHM assuming a gaussian core                              [deg]
#  11 ELONGATION             A_IMAGE/B_IMAGE                                           
#  12 ELLIPTICITY            1 - B_IMAGE/A_IMAGE                                       
         1 -14.8729     68.4557    144.2871   1.1133983690e+02   3.7375195962e+01     5.362658     2.406377  65.82  0.003631852    3.646    0.726
         2 -14.4609    197.8097     34.1197   5.1458884824e+01   3.1296213387e+01     2.239007     1.479774  26.98  0.007955864    2.000    0.500
         3 -14.3209    209.2275     20.9578   4.6212290594e+01   2.9943299667e+01     1.343073    0.9747701  11.65  0.006679872    1.798    0.444
         4  -9.6816    155.3734     10.9311   4.9725507889e+01   4.5179195189e+01    0.2356983     0.193896 -88.62 0.0005019584    1.268    0.212
         5 -10.9535     41.1477      2.9009   7.7658277341e+01   7.1359149685e+01    0.1822526    0.1563765 -24.12 0.0007051112    1.271    0.213
         6 -10.9339     29.1520      2.6976   8.3795590574e+01   7.3018897925e+01    0.1679179    0.1557584  18.02  0.001213374    1.445    0.308
         7 -10.1476     61.2496      1.5543   6.8092828526e+01   6.8187176843e+01    0.1805623    0.1052086  34.99 0.0009479103    1.651    0.394
         8 -10.7526    207.2210    180.3487   8.7138139791e+01   5.9519168934e+00    0.4188896     0.300858  19.60  0.002382614    1.349    0.259
         9 -15.0081     19.5162    192.4906   1.2683828393e+02   3.2502767335e+01      1.65117     1.093493 -68.30   0.00329014    1.624    0.384
        10 -16.4191     77.9087    245.7694   1.1979755581e+02   1.6224640407e+01     8.399364     2.283892  36.78   0.03657794    3.559    0.719
        11  -9.9743    150.4342    182.2245   9.8571702253e+01   1.5928575921e+01    0.1701952    0.1294182 -66.10 0.0005552978    1.609    0.378
        12 -12.1647     70.4669    179.6832   1.1535121085e+02   2.9273898554e+01    0.3949388    0.2729543 -41.24  0.002207384    2.147    0.534
        13 -11.9974     74.6911    174.3634   1.1381924469e+02   2.9819250411e+01    0.2716677    0.2426742 -45.33  0.001770252    1.471    0.320
        14 -10.1549     99.3929    180.6355   1.0918838191e+02   2.4875625669e+01    0.2252044     0.204174  61.63 0.0006229562    1.098    0.089
        15 -10.8194    143.7159    178.5870   9.9363479943e+01   1.7795783398e+01    0.2214542    0.1686571 -85.00  0.001185547    1.723    0.420
        16  -9.3452    211.1812    202.4159   9.0391288476e+01   2.2239621787e+00    0.1580258    0.1050509  44.54 0.0002578326    1.510    0.338
        17 -15.3566     55.7108    197.3740   1.2011016058e+02   2.7573474921e+01     3.338749     1.733222  76.69   0.01820342    1.984    0.496
        18 -12.6904     89.6984    157.3647   1.0807872686e+02   3.1319258464e+01     1.579085     0.793197 -74.08  0.002049841    2.403    0.584
        19 -12.4747     83.2539    164.2095   1.1058064986e+02   3.0785298481e+01    0.6363009    0.3923538  72.40 0.0007317974    1.819    0.450
        20 -13.7318     71.4849    160.1588   1.1278884241e+02   3.3352783309e+01    0.6298794    0.5390751 -39.67  0.003891235    1.544    0.352
        21 -15.0386     46.4727    207.5581   1.2267511522e+02   2.6708074732e+01     1.880675     1.485953  -9.78  0.009796065    2.589    0.614
        22 -10.7416    132.7337    172.4078   1.0067822706e+02   2.0936515772e+01    0.2723089    0.1185401  45.55  0.001096915    2.114    0.527
        23 -10.5199    137.2909    170.9604   9.9442557120e+01   2.0399330389e+01     0.188775    0.1818434  84.02  0.001164685    1.080    0.074
        24  -8.8259    152.2942    194.3207   1.0014336937e+02   1.3495299778e+01    0.1248709   0.09780791   7.68 0.0002183369    1.612    0.380
        25 -11.0610    194.9610    168.3072   8.7098536103e+01   1.0039830198e+01    0.3097465    0.2958129  40.17  0.001422731    1.187    0.158
        26 -10.2686    145.9584    168.6804   9.7168069035e+01   1.9248615665e+01     0.197414    0.1708221  47.42 0.0006030284    1.071    0.066
        27 -11.2311     33.1692    165.8653   1.2217891718e+02   3.6682184878e+01    0.2828327    0.1500507  83.54  0.001303949    1.747    0.428
        28  -9.8934    161.0272    165.5231   9.3375306425e+01   1.6997728432e+01    0.2046812    0.1848052 -43.91 0.0003891478    1.192    0.161
        29  -9.3872     95.9907    201.0200   1.1240116891e+02   2.1415345336e+01    0.1912085    0.1218377  66.36 0.0004187441    1.556    0.357
        30 -11.9721    193.3885    193.5883   9.2091197467e+01   6.4439237803e+00    0.7446314    0.4423076 -54.50  0.003653003    2.595    0.615
        31 -10.3087    189.9587    155.1033   8.5366062900e+01   1.3190041336e+01    0.3519962    0.1986406  54.45  0.001542857    2.071    0.517
        32 -11.0765    133.8241    144.0983   9.5175731153e+01   2.6497295360e+01     1.052118    0.2508985 -53.79  0.002629003    5.806    0.828
        33 -12.3946     54.0979    147.5669   1.1537527153e+02   3.8456423941e+01    0.5406362    0.4117589  59.26   0.00331072    1.247    0.198
        34 -10.9608     41.5149    147.5180   1.1846398024e+02   3.9908208531e+01    0.2681378    0.1838125  72.73 0.0008693302    1.331    0.248
        35 -11.1283     45.0766    144.8306   1.1728046992e+02   4.0136101276e+01    0.4486635    0.1956273  54.79  0.001823801    2.402    0.584
        36 -10.3728     86.9728    145.9456   1.0694307574e+02   3.4307734221e+01    0.2615184    0.1781442  61.40 0.0005316247    1.503    0.335
        37 -12.3713     90.7891    141.9502   1.0530930737e+02   3.4624220933e+01    0.2688778    0.2443394 -61.36 0.0004339581    1.157    0.136
        38 -10.9182    103.2671    141.8364   1.0215000305e+02   3.2590174194e+01    0.5331591    0.3280969 -33.22  0.002291023    2.429    0.588
        39 -10.2469    174.9919    149.0483   8.7101411279e+01   1.7266260996e+01    0.2224001    0.2116475  30.56 0.0005856551    1.037    0.035
        40 -10.1416    112.1115    131.4360   9.7860077298e+01   3.3372305875e+01    0.2941068    0.2405099   1.61 0.0007424222    1.689    0.408
        41 -10.2307    106.0568    130.7169   9.9265154959e+01   3.4628885633e+01    0.3149178    0.2794489  80.78  0.001180821    1.118    0.106
        42 -10.9766     47.2375    172.3176   1.1965982033e+02   3.3746061755e+01    0.3075843    0.2193835 -78.25  0.001034071    1.268    0.212
        43 -11.0098    136.0000    128.5379   9.1275443538e+01   2.9375729716e+01    0.4514223    0.1365145 -50.16  0.001363012    3.516    0.716
        44 -10.9713    117.6876    127.0366   9.5489339569e+01   3.3320231369e+01    0.5674722    0.2920735 -57.98  0.002286413    2.078    0.519
        45 -10.8751    120.6591    122.0045   9.3588417442e+01   3.3872983975e+01    0.3723771    0.1972973 -30.80  0.001296522    3.064    0.674
        46 -12.1214     45.5198    129.5027   1.1522300033e+02   4.3684331748e+01    0.4171047    0.2293826  41.35  0.002172313    1.893    0.472
        47 -11.1197     99.3159    127.9341   1.0045546338e+02   3.6447862414e+01       0.2999    0.2413056 -29.05 0.0004885301    1.561    0.359
        48 -10.2513    160.6035    127.7704   8.5369400156e+01   2.4357627326e+01    0.2189955    0.1408745 -51.92  0.000955885    1.686    0.407
        49 -10.0040    125.8246    127.3231   9.3499572231e+01   3.1679872159e+01    0.2875434    0.1979327 -75.23 0.0009486763    1.898    0.473
        50 -12.8627     27.3267    120.4309   1.1901511621e+02   4.7657951864e+01    0.7322109    0.2848788  23.88   0.00325454    3.345    0.701
        51  -9.7820    108.1802    120.0037   9.6392850438e+01   3.6697351625e+01    0.2098466    0.1977557 -78.89  0.000433824    1.008    0.008
        52 -12.6467     44.4492    115.1537   1.1341846747e+02   4.7240716614e+01    0.4640651    0.3534497  88.61  0.002431099    1.225    0.183
        53 -11.0934     45.6581    109.3064   1.1210881518e+02   4.8522240406e+01    0.2783398    0.2136591  77.21  0.001081147    1.328    0.247
        54 -11.5336     42.1543    108.8311   1.1308027420e+02   4.9012080560e+01     0.336539     0.244775 -63.06  0.001422374    1.189    0.159
        55  -9.9713    167.7539    112.5381   7.9976258433e+01   2.5775742084e+01    0.3694147    0.2607474 -80.03  0.001509289    2.260    0.558
        56 -11.5242    118.7911    110.1300   9.1201137568e+01   3.6899189063e+01     0.619006    0.4635942  68.13  0.002920099    1.585    0.369
        57 -11.4629     33.6038    109.1948   1.1569379366e+02   4.9774481206e+01    0.3176429    0.1899819  81.53  0.001634308    1.823    0.451
        58  -8.9978     95.1731    105.3518   9.6550517690e+01   4.2432933290e+01    0.1925617    0.1332455  53.84 0.0001196384    1.583    0.368
        59  -9.7303    134.5292    102.9147   8.5216095416e+01   3.5190296843e+01    0.2417489     0.149862 -43.99 0.0008734705    1.573    0.364
        60 -10.5370    242.5138    101.5254   6.3630862755e+01   1.1009310040e+01    0.1417149    0.1240149 -20.12 0.0002458438    1.006    0.006
        61  -9.1596     86.8805     99.7963   9.7620545540e+01   4.5149959329e+01    0.1907723    0.1610802  78.30 0.0003372023    1.310    0.236
        62 -10.7349     33.4740    100.0744   1.1430301480e+02   5.1985581173e+01    0.2339189    0.1639928  58.09  0.001037599    1.578    0.366
        63 -10.1298    205.4879    110.1578   7.1834599700e+01   1.7633453946e+01    0.3127323     0.211112  39.48 0.0009074414    1.557    0.358
        64 -11.2432     55.0705     94.9110   1.0641879148e+02   5.0914795588e+01    0.4104105     0.248327  51.39  0.002025279    1.931    0.482
        65  -9.1312    115.3507     94.3178   8.7910126182e+01   4.1111687682e+01    0.1568936    0.1224882  -4.19 0.0007047607    1.737    0.424
        66  -9.5920     61.9202     71.3628   9.8136018842e+01   5.5564995461e+01    0.1840614    0.1723817 -23.96  0.000532431    1.136    0.120
        67  -9.3801     58.4498     67.2362   9.8171745961e+01   5.6970066600e+01    0.2794128   0.08585283  45.01 0.0008907235    4.525    0.779
        68 -11.2023     13.4766     59.8536   1.1384141962e+02   6.3051104562e+01    0.2563329    0.1834306 -70.59    0.0004145    1.188    0.158
        69 -11.0595    152.0478     55.3046   6.6186793298e+01   4.0181268575e+01    0.4746068    0.3059484 -73.49 0.0009725022    2.423    0.587
        70 -15.4071      9.3607    206.5899   1.2940468316e+02   3.0745507694e+01     1.225634    0.7157751  41.73  0.008719138    1.636    0.389
        71 -12.6652    188.6072     40.7428   5.4787213615e+01   3.2823035323e+01    0.6974678     0.560523  35.61  0.001009407    1.384    0.278
        72 -16.5711      7.4263    246.5010   1.3119385438e+02   2.3998927683e+01     10.22246     1.343592 -80.82    0.0113948    7.452    0.866
        73  -9.8495     96.9245    192.5543   1.1122532208e+02   2.2890184591e+01    0.2854995    0.2197315   7.16  0.001608375    2.136    0.532
        74 -11.7080     21.4467     33.8750   1.0291864279e+02   6.8180522992e+01     0.349427     0.160261  32.99  0.001777533    2.641    0.621
        75  -9.5619    163.9467    204.9841   9.9505714369e+01   9.7741787150e+00    0.1874355    0.1614157  35.43 0.0003997806    1.021    0.020
        76  -9.8326    189.7052     15.0136   4.6588953290e+01   3.5644166601e+01    0.2009875    0.1816982 -33.47 0.0006084192    1.120    0.107
        77 -10.9760    154.1846     49.1740   6.3626920733e+01   4.0611856854e+01    0.3722968    0.2765194 -75.87 0.0004438073    1.716    0.417
        78 -16.1830      2.6202    222.2086   1.3115429370e+02   2.8527774973e+01     10.73794          nan -75.36   0.02854205    9.473    0.894
        79 -10.0675    108.0679    203.4184   1.1026044585e+02   1.9153697617e+01    0.1804396    0.1650876 -67.36  0.000515665    1.284    0.221
        80  -9.7970     61.9367      8.0000   7.1521461767e+01   6.7295916710e+01    0.1981943   0.07109881  48.57 0.0007988159    2.917    0.657
        81 -10.6288    183.6250    234.0704   1.0008814058e+02   2.5433610500e+00    0.3325961    0.1264588  50.92  0.001390205    3.438    0.709
        82 -10.7507     71.4293    230.3040   1.1977785744e+02   1.9569053427e+01    0.3022814    0.1540987  44.76 0.0007516036    1.556    0.357
