#   1 NUMBER                 Running object number                                     
#   2 MAG_AUTO               Kron-like elliptical aperture magnitude                    [mag]
#   3 X_IMAGE                Object position along x                                    [pixel]
#   4 Y_IMAGE                Object position along y                                    [pixel]
#   5 X_WORLD                Barycenter position along world x axis                     [deg]
#   6 Y_WORLD                Barycenter position along world y axis                     [deg]
#   7 A_WORLD                Profile RMS along major axis (world units)                 [deg]
#   8 B_WORLD                Profile RMS along minor axis (world units)                 [deg]
#   9 THETA_WORLD            Position angle (CCW/world-x)                               [deg]
#  10 FWHM_WORLD             FWHM assuming a gaussian core                              [deg]
#  11 ELONGATION             A_IMAGE/B_IMAGE                                           
#  12 ELLIPTICITY            1 - B_IMAGE/A_IMAGE                                       
         1 -13.2610      3.1986     16.0862   1.3797384348e+02   7.5129617486e+01     2.907753     0.391117 -65.64  0.009905217    4.173    0.760
         2 -13.3020    190.6920     27.0976   7.3246374260e+01   3.3375918466e+01     1.362761     1.322867 -64.04  0.007191123    1.045    0.043
         3 -13.5060    205.2110      8.7368   6.6322853792e+01   3.1503626323e+01     1.533938     1.101093  42.87  0.008061701    1.627    0.385
         4 -13.9237     46.9670    227.3931   1.4609472550e+02   2.4685696324e+01     1.743497     1.099128  30.66  0.009431928    1.567    0.362
         5 -11.0705    140.4464    250.0907   1.3006078761e+02   9.4505312458e+00    0.3930791     0.126469  39.45  0.002005813    2.124    0.529
         6 -10.8016    126.8405    249.5472   1.3247790226e+02   1.1355999315e+01    0.2374347    0.1430048  38.57  0.001637399    1.150    0.130
         7 -10.4304     98.9891    249.4887   1.3759002896e+02   1.5028060031e+01    0.2535102    0.1360312  43.20  0.001137776    1.280    0.219
         8 -10.3556    102.5146    248.0771   1.3683005687e+02   1.4768133078e+01    0.2073386     0.140161  53.58 0.0006767896    1.288    0.223
         9 -10.0414     81.3427    248.8512   1.4080318111e+02   1.7331478933e+01    0.2578802    0.1323307  56.50   0.00166965    1.703    0.413
        10  -9.4202     73.5216    250.4714   1.4234157872e+02   1.8043903415e+01    0.1829622   0.08454095  28.44  0.001033201    2.222    0.550
        11  -9.1618     67.0745    250.5076   1.4352192521e+02   1.8798902619e+01      0.16238   0.07229057  39.08 0.0009191554    1.537    0.349
        12 -12.0783     21.8272    201.0505   1.5000691312e+02   3.1919319767e+01    0.6969843    0.0827013  42.41  0.002988871    3.214    0.689
        13 -13.7074      7.8163    207.5710   1.5309202290e+02   3.2003031104e+01     6.882742    0.2793662  34.77  0.006389162    3.951    0.747
        14 -14.7800     12.1134    157.1662   1.5040317353e+02   4.1573767149e+01      8.72657     2.865112  63.36   0.03917509    2.744    0.636
        15 -11.3255     12.7746    241.5787   1.5298520409e+02   2.5851242487e+01    0.2760639    0.1506862 -88.89  0.001883014    1.908    0.476
        16  -9.8309    249.2260    247.8008   1.1170772431e+02  -4.4697612994e+00    0.1714969   0.07954647  13.50   0.00106691    2.090    0.522
        17  -9.1436    186.3411    240.6685   1.2087967116e+02   4.2210490105e+00    0.1030779   0.07343925  49.45 0.0007051403    1.748    0.428
        18  -8.5139     57.2889    240.3428   1.4478437831e+02   2.1453418649e+01   0.08792275   0.07894005  11.69 0.0003620266    1.649    0.394
        19  -9.4211    125.3284    238.3249   1.3170433586e+02   1.3041577821e+01    0.1081581    0.0762756  16.03 0.0007049928    1.698    0.411
        20  -8.6336     19.8605    229.8171   1.5138264042e+02   2.7075663038e+01    0.1531469   0.07828435  54.14 0.0006669823    1.335    0.251
        21  -9.9088     32.7955    228.3922   1.4888218226e+02   2.6030646695e+01    0.1858126    0.1083166  56.60 0.0006250094    1.239    0.193
        22 -11.4118      2.1053    248.7540   1.5497645592e+02   2.5700027967e+01     0.447076    0.2802259  50.51  0.002780913    1.055    0.052
        23  -9.4879    154.6534    228.7016   1.2513463682e+02   1.0134961404e+01    0.1161277   0.07501201  17.61 0.0005475375    1.679    0.404
        24  -8.7779    177.4375    227.2015   1.2075067041e+02   6.9956962238e+00    0.1200184    0.1133751 -58.22 0.0005855641    1.631    0.387
        25  -9.6457    109.5649    226.2669   1.3359701280e+02   1.6964701611e+01    0.2028556    0.1265515  23.29  0.001209057    1.799    0.444
        26 -10.7432    173.0641    222.3000   1.2090906936e+02   8.2308809182e+00    0.3021908    0.2257376  35.67  0.002003571    1.127    0.113
        27 -10.8657      2.0079    240.4902   1.5486043202e+02   2.6981493800e+01    0.3414355    0.1586238 -87.72  0.002410189    2.203    0.546
        28  -8.6301    152.5220    212.9923   1.2359457193e+02   1.2566916203e+01    0.1359847    0.1222056 -39.60 0.0001604388    1.447    0.309
        29  -9.2413     32.8338    207.3389   1.4797285980e+02   2.9675227111e+01    0.2299245    0.1106716  60.66 0.0006927257    1.672    0.402
        30 -11.2771     65.7964    199.7296   1.4042596205e+02   2.7306449705e+01    0.2802955    0.2230031 -44.73  0.001350675    1.810    0.448
        31  -9.6429    192.0375    193.1874   1.1313657629e+02   8.9816400192e+00    0.3924161    0.2570731 -71.65  0.001391894    6.917    0.855
        32  -8.8867     51.3936    197.2144   1.4341816413e+02   2.9516955814e+01    0.1577063    0.1149096  63.45  0.001068479    1.134    0.118
        33 -11.5390     71.4168    191.6936   1.3849405911e+02   2.8088615685e+01    0.2353475    0.2277385  45.86  0.000505122    1.310    0.237
        34 -12.5473     40.7285    234.6356   1.4763133833e+02   2.4182427903e+01    0.4447263    0.2868195 -50.03 0.0007700935    2.581    0.613
        35  -8.6457    104.1566    180.2143   1.2968169097e+02   2.5563145432e+01    0.1683236    0.1263355  59.24  0.000264457    1.260    0.207
        36 -13.0128     68.0209    176.7256   1.3789488699e+02   3.1468274562e+01    0.4508061    0.2872657 -42.65  0.001758073    2.326    0.570
        37 -10.5922     80.7621    178.7661   1.3503916791e+02   2.9324157207e+01    0.2172546    0.1879091  50.12 0.0003838316    1.097    0.088
        38 -11.3986     87.7882    169.4306   1.3224625477e+02   3.0175144748e+01     0.553129    0.4827404  37.10  0.003509136    1.186    0.157
        39 -10.1999    191.9747    155.4907   1.0641856314e+02   1.4225866872e+01    0.5030218     0.356234 -82.65  0.002117642    3.651    0.726
        40 -12.4261      2.6235    181.8151   1.5351100184e+02   3.7268822603e+01     1.496205    0.4204056 -84.16  0.005839845    3.277    0.695
        41 -11.7294     88.5340    152.3854   1.2976920091e+02   3.3618356520e+01    0.2624754    0.2484137  10.27  0.000550247    1.285    0.222
        42  -9.6218     99.8722    152.9026   1.2688186064e+02   3.1687853317e+01    0.2344423    0.2061879  49.76 0.0006446287    1.035    0.034
        43 -11.4963      2.3450    152.5881   1.5269444946e+02   4.3293179971e+01    0.3957255     0.217188  85.06  0.002396848    1.538    0.350
        44 -12.2274     67.2526    144.0109   1.3440789521e+02   3.8585145441e+01    0.7396154    0.4535906  62.55  0.003240489    1.640    0.390
        45  -8.2380    192.4163    144.4288   1.0409554169e+02   1.5795666610e+01    0.1339334    0.1208953  20.85 0.0001056276    1.054    0.051
        46  -8.7732    181.1149    144.0614   1.0624054034e+02   1.8059204639e+01    0.2062931     0.172063  84.47 0.0009629413    1.756    0.430
        47  -9.3812    110.6061    137.6920   1.2146212556e+02   3.3038323862e+01    0.3269626    0.2381664 -16.61  0.001196147    2.136    0.532
        48 -11.3277     24.8302    137.7843   1.4584133814e+02   4.4801428076e+01    0.2749241      0.16948  45.35  0.001026047    1.444    0.308
        49  -8.6395     87.1250    137.0330   1.2778484140e+02   3.7208278954e+01    0.2209031    0.1466464  64.44 0.0004722713    1.618    0.382
        50 -10.2997     98.1717    135.0765   1.2435954851e+02   3.5806702488e+01    0.2448126    0.2232932 -26.03 0.0004502371    1.333    0.250
        51  -8.6929    102.4782    148.8887   1.2556490517e+02   3.2094957338e+01    0.1880223    0.1379825 -59.32 0.0003938766    1.497    0.332
        52  -9.1571    165.0084    129.0879   1.0638424401e+02   2.3859376437e+01    0.3581805    0.2445317  83.07  0.001328345    2.801    0.643
        53 -11.7325     33.6598    131.9699   1.4277574405e+02   4.5323101285e+01    0.5157608    0.2442881  76.91  0.002341436    2.310    0.567
        54  -9.1823    107.7071    124.2034   1.1960111101e+02   3.6484137658e+01    0.1982081    0.1818789  68.54  0.000373349    1.058    0.055
        55 -13.2257     55.9933    214.4233   1.4355200024e+02   2.5860743121e+01     2.643649    0.5744182  42.37    0.0117128    2.739    0.635
        56 -10.0199     82.4110    243.6450   1.4025887576e+02   1.7954896565e+01    0.2813208    0.1448136  61.78  0.001741136    1.976    0.494
        57 -10.1924    168.1272    113.2043   1.0197019434e+02   2.5986299615e+01    0.3252158    0.2761094  89.41 0.0007521641    1.500    0.333
        58  -9.0549    203.4977    111.5026   9.4668352984e+01   1.8522293842e+01    0.1422567    0.1276374   9.19 -0.0001624578    1.052    0.049
        59  -9.6636     34.9552     93.3047   1.3769004458e+02   5.4539495621e+01    0.3128748    0.1725939  39.81  0.001032714    1.812    0.448
        60  -9.2020    156.4800     75.9406   9.4336235100e+01   3.5341500948e+01    0.2332208    0.1534472 -36.23 0.0005384733    1.549    0.354
        61 -11.2036     14.4167     65.7080   1.4198611839e+02   6.2935746736e+01    0.3705243    0.2392373  37.49  0.001049565    1.683    0.406
        62 -11.6256      6.3157     62.8356   1.4533655944e+02   6.4052456363e+01    0.4720254    0.2724697  23.40    0.0011686    1.961    0.490
        63  -9.8624     31.7877     61.8893   1.3313072427e+02   6.2557998522e+01    0.2835491    0.1781638  35.59 0.0007537598    1.707    0.414
        64 -10.2552     12.9936     55.0047   1.4092053452e+02   6.5615944103e+01    0.1970421    0.1345997  61.91 0.0006457986    1.631    0.387
        65  -9.7378     46.6469    249.0931   1.4716170352e+02   2.1304335214e+01    0.2539726    0.0796713  51.91  0.001423694    2.193    0.544
        66  -9.6416    173.5153    248.5226   1.2403277035e+02   5.1283889559e+00    0.1105342   0.07669883  32.03 4.111778e-05    1.042    0.040
