#   1 NUMBER                 Running object number                                     
#   2 MAG_AUTO               Kron-like elliptical aperture magnitude                    [mag]
#   3 X_IMAGE                Object position along x                                    [pixel]
#   4 Y_IMAGE                Object position along y                                    [pixel]
#   5 X_WORLD                Barycenter position along world x axis                     [deg]
#   6 Y_WORLD                Barycenter position along world y axis                     [deg]
#   7 A_WORLD                Profile RMS along major axis (world units)                 [deg]
#   8 B_WORLD                Profile RMS along minor axis (world units)                 [deg]
#   9 THETA_WORLD            Position angle (CCW/world-x)                               [deg]
#  10 FWHM_WORLD             FWHM assuming a gaussian core                              [deg]
#  11 ELONGATION             A_IMAGE/B_IMAGE                                           
#  12 ELLIPTICITY            1 - B_IMAGE/A_IMAGE                                       
         1 -15.0449     57.7966     72.9940   1.0193024388e+02   5.4271144908e+01     1.849414    0.9816546 -41.90  0.005592516    1.657    0.397
         2 -15.6293      6.7803     68.3107   1.1765483207e+02   5.9614525668e+01     1.825292    0.7351553 -60.65  0.009676602    2.143    0.533
         3 -13.6135     29.3012     32.5956   9.9822542009e+01   6.4042838162e+01    0.7097915    0.4827087 -19.26  0.004492241    1.198    0.166
         4 -15.1221     42.0804      6.9654   8.5714441431e+01   6.5947635888e+01     1.612568     1.086093  -1.65   0.01160691    1.244    0.196
         5 -13.2146      7.6275      2.7097   9.7954497905e+01   6.9868614733e+01     0.609874    0.3467824  21.66  0.002675864    1.740    0.425
         6 -15.0670      8.6627     29.3267   1.0680259458e+02   6.6167894191e+01    0.9053287    0.5763435  23.81  0.006593357    1.819    0.450
         7 -15.2626     13.7012     19.8104   1.0165078035e+02   6.7188864482e+01    0.9674477    0.7073101   3.97  0.006316235    1.268    0.212
         8 -14.7210     22.6522     13.7810   9.5853295088e+01   6.7232961259e+01    0.7812707    0.3919244  32.27  0.002813035    2.195    0.544
         9 -14.9980    119.4489     54.8312   7.8311459416e+01   4.7279498806e+01     1.161369    0.7134238  37.64  0.001930895    1.599    0.375
        10 -13.5990    131.6009     32.5341   6.8744637612e+01   4.7781469921e+01    0.7639779     0.510493 -40.63  0.004208535    1.695    0.410
        11 -14.9403    120.8933     37.1827   7.2610720580e+01   4.9449033227e+01     1.633759    0.5383584  50.10  0.006181432    2.664    0.625
        12 -14.8756    166.6543     30.2008   6.1277821895e+01   4.0219513013e+01     1.088669    0.7652236  61.07  0.003522913    1.247    0.198
        13 -13.1600    120.6883     26.2761   6.9312508490e+01   5.0802639116e+01     1.035258     0.543626  37.19  0.005107716    1.902    0.474
        14 -12.8956    231.3853      2.6103   4.6818813757e+01   2.8670632706e+01     1.027577    0.2299155  65.86  0.004051398    3.436    0.709
        15 -15.0657    190.7995     24.6780   5.6163819791e+01   3.5284267851e+01      1.80912     1.070774 -65.77  0.009076762    1.997    0.499
        16 -13.4075    187.5315     13.5140   5.3982767415e+01   3.7300808370e+01    0.5736428    0.4683897  47.55  0.002116981    1.355    0.262
        17 -15.0260    216.4518     13.9205   5.0583903424e+01   3.0685951606e+01     1.882523    0.7803193 -37.71  0.005743161    2.516    0.602
        18 -13.1167    223.5135     21.3580   5.1355260904e+01   2.8227073189e+01    0.4046486    0.3640605  52.26  0.001390903    1.420    0.296
        19 -14.4860    217.8065     41.8262   5.6411292463e+01   2.6831992485e+01     1.047661    0.6266598  58.26   0.00409415    1.623    0.384
        20 -14.8476    147.4809     30.3457   6.4820386624e+01   4.4565216401e+01     1.338578    0.6534466  58.55  0.004477396    1.824    0.452
        21 -15.6621     98.6423     12.8486   7.0344627265e+01   5.6537671226e+01      1.53743     0.625282  47.68  0.004024072    2.042    0.510
        22 -11.5317    202.3341     11.1545   5.1594895546e+01   3.4177291306e+01    0.2240353      0.14734  63.30  0.001197241    1.350    0.259
        23 -11.0805     60.9282     16.5997   8.2739406543e+01   6.2397412442e+01    0.3090094    0.1472566 -26.43  0.001113702    2.086    0.521
        24 -11.6568    152.8356      8.2499   5.7787453549e+01   4.5710902632e+01     0.242697     0.192236 -89.99 0.0007689015    1.350    0.259
        25 -11.7746    144.9839      8.3697   5.9148861968e+01   4.7437625584e+01    0.1863385    0.1809806  -2.58 0.0002805716    1.211    0.174
        26 -12.8787    120.4660      3.7616   6.2436720843e+01   5.3066444840e+01    0.4317902    0.2541279  74.01  0.001025496    2.112    0.527
        27 -11.2617     67.9608      3.8363   7.5750516750e+01   6.2650575633e+01    0.2299734    0.1777871   1.58  0.001678268    1.167    0.143
        28 -10.5246    192.6417      2.8139   5.0887694119e+01   3.7237196842e+01     0.157524    0.1028534 -49.52 0.0002984409    1.635    0.388
        29 -12.0308     80.8165      1.7678   7.1237786818e+01   6.0732816847e+01    0.4998544    0.1042544  46.90  0.001990024    3.515    0.716
        30 -12.1169     61.3860      1.8517   7.7068122314e+01   6.3834262823e+01    0.3744521    0.1373432  44.11  0.001699232    2.422    0.587
        31 -11.6855      2.7015    249.8498   1.3891359372e+02   2.1933906003e+01    0.2604073    0.1707677  59.04  0.001593056    1.330    0.248
        32 -14.7393     94.7122    235.7498   1.2185089681e+02   1.2893840732e+01     2.038216     1.052514  71.93  0.009062627    2.559    0.609
        33 -12.5783     58.0124    246.2270   1.2967254738e+02   1.6139138609e+01    0.6211124    0.4583263  31.03  0.003952306    1.926    0.481
        34 -10.9519     41.3032    250.1102   1.3283387809e+02   1.7541336735e+01    0.1661325    0.1378575  88.40    0.0012415    1.262    0.208
        35 -11.9324     40.4831    243.5148   1.3246237543e+02   1.8926816957e+01    0.4105682    0.2165528 -84.62  0.002417734    1.697    0.411
        36 -13.4996     27.6242    244.6381   1.3468464825e+02   2.0237795873e+01    0.8529954    0.3729821 -84.62  0.004676261    2.096    0.523
        37 -14.0790     23.8949    224.2111   1.3380573703e+02   2.4748511227e+01     1.072949    0.5867877 -81.47  0.006406824    1.497    0.332
        38 -13.4562      8.9024    210.8561   1.3541445738e+02   2.9052442751e+01    0.6862033    0.5832981  48.72  0.005324936    1.493    0.330
        39 -12.8139     16.7105    195.8757   1.3278780261e+02   3.1488662413e+01     0.665336    0.2455374 -60.94  0.003052599    2.359    0.576
        40 -13.6176     29.8099    169.5408   1.2746737298e+02   3.6070420899e+01    0.7061438     0.425124 -45.15  0.001351255    1.990    0.497
        41 -14.1049     18.1116    161.4630   1.2910836608e+02   3.8988243987e+01      1.14875    0.7613047  65.14  0.007159653    1.589    0.371
        42 -15.6066      8.6762    179.0669   1.3285258455e+02   3.5886064355e+01     2.027765     1.151842 -71.89   0.01255651    1.365    0.267
        43 -13.8376      9.0494    245.7508   1.3771105075e+02   2.2057658701e+01    0.7208412    0.3875879  65.49  0.003123605    1.466    0.318
        44 -10.3630    120.3133    179.6329   1.0821100944e+02   2.0849473819e+01    0.1570151    0.1099355  81.29 0.0007037881    1.769    0.435
        45 -12.8910    123.9848    166.6714   1.0494517279e+02   2.3188889784e+01    0.6939994    0.4245893 -70.09  0.002938026    1.956    0.489
        46 -12.1564     77.4122    156.9585   1.1453301766e+02   3.3261108829e+01    0.4310353    0.3250936  31.47  0.001644949    1.546    0.353
        47 -13.0376     74.0701    153.3031   1.1473658939e+02   3.4603484972e+01    0.6899771    0.4824184  32.10  0.002992043    1.656    0.396
        48 -10.9510    177.3920    167.7518   9.2858374698e+01   1.2240757299e+01    0.2161631    0.1423742 -37.42 0.0009220616    1.634    0.388
        49 -11.1895    109.5881    153.8128   1.0594922900e+02   2.8838750729e+01    0.3574115    0.2072988 -75.40  0.001390747    2.421    0.587
        50 -12.7882    210.0074    155.0241   8.3312345377e+01   8.1228564483e+00    0.8168035     0.314562  43.03  0.002889814    2.752    0.637
        51 -11.5591     56.1191    155.3668   1.1949277644e+02   3.6462814888e+01    0.3883262    0.2267504 -40.17  0.001876232    2.117    0.528
        52 -11.7211     85.5931    153.2537   1.1184695540e+02   3.2928598920e+01     0.452079    0.2507405 -44.36  0.002004065    1.948    0.487
        53 -13.2763     22.3378    181.2636   1.3031141130e+02   3.4159623649e+01    0.4747297    0.3979564 -88.52  0.002023962    1.110    0.099
        54 -11.7176    103.3746    150.1444   1.0678141914e+02   3.0788026710e+01    0.4192129    0.3015597 -30.97  0.001984955    1.763    0.433
        55 -12.5245      6.1859    147.8090   1.3023767524e+02   4.2983967397e+01    0.4742255    0.2950731 -86.66   0.00295266    1.435    0.303
        56 -12.5048    245.1420    148.3810   7.5401294573e+01   2.4456644791e+00    0.4597668    0.3341915 -64.02  0.002347935    1.632    0.387
        57 -11.7679     62.9998    147.0605   1.1645204578e+02   3.7560470111e+01    0.2180815     0.186224 -69.25 0.0007214405    1.020    0.019
        58 -11.2853     38.1748    146.0402   1.2247638010e+02   4.0630288186e+01    0.1966229    0.1473137 -52.83   0.00060101    1.265    0.210
        59 -11.1591    149.3188    141.3352   9.3527624815e+01   2.4003984272e+01    0.3948877    0.2448497  66.82  0.001539247    2.235    0.553
        60 -10.9963     88.4719    140.6918   1.0873090302e+02   3.5459299047e+01    0.2412831    0.1860145   2.06  0.001203954    1.821    0.451
        61 -12.6902     40.9903    136.5248   1.2032450937e+02   4.2534550298e+01    0.2688021    0.2255968  25.00  0.001667151    1.460    0.315
        62 -12.8542     44.0212    133.7522   1.1909310742e+02   4.2858085244e+01    0.6324365    0.3080146 -67.23  0.003018595    1.864    0.463
        63 -13.1534    230.1484    135.5446   7.5287369164e+01   7.8397764198e+00    0.5163366    0.2711011 -35.62  0.002165222    1.974    0.493
        64 -13.4175    245.8884    135.0680   7.2483398453e+01   4.7907958666e+00    0.5691366    0.4020481 -72.32  0.002789983    1.843    0.457
        65 -11.0582     63.2223    134.2024   1.1412757908e+02   4.0540653379e+01    0.2767787    0.2513955 -72.92  0.001720368    1.058    0.055
        66 -10.9047     11.0431    134.1005   1.2746020212e+02   4.5668979009e+01    0.1786382    0.1406923 -71.44 0.0005104457    1.026    0.026
        67 -10.9473    138.2475    132.6017   9.4215796795e+01   2.8277081867e+01    0.2147106    0.1475302  33.25 0.0007320165    1.640    0.390
        68 -11.9964    132.5960    130.5529   9.5146536872e+01   2.9889121158e+01    0.5566742    0.2765843 -50.16  0.002171398    1.983    0.496
        69 -12.5466    222.6708    127.7027   7.4908361833e+01   1.0922622041e+01    0.3554704    0.2881844 -74.24  0.001837309    1.369    0.269
        70 -13.0038    137.6151     95.7452   8.5225021314e+01   3.6293700185e+01     0.479659    0.4222612 -51.44   0.00121619    1.155    0.134
        71 -12.9034    134.6180    103.1395   8.7905952761e+01   3.5427818168e+01     1.101227    0.3983126  50.08  0.003335684    3.003    0.667
        72 -12.9827    120.9386    102.4204   9.1254833491e+01   3.8347080109e+01    0.7503837    0.4002145  38.32  0.002741964    1.983    0.496
        73 -14.2140    105.8889    122.2552   1.0014899793e+02   3.6834432645e+01     1.668549     1.209753  37.01  0.008297853    1.466    0.318
        74 -14.7597    107.1155    105.8417   9.5853116291e+01   4.0227228311e+01     1.558135     1.275899 -14.28   0.00707281    1.407    0.289
        75 -13.1639     85.5157    115.3605   1.0414368235e+02   4.1745164734e+01     1.007489    0.6095473  17.63  0.004044794    2.370    0.578
        76 -13.5297     90.8812    109.0230   1.0115413149e+02   4.2304261168e+01     1.379111    0.6907529  28.82  0.005683007    2.469    0.595
        77 -12.3499      4.4439    119.8605   1.2721717779e+02   4.9223277806e+01    0.4811544    0.2280944  20.40  0.002708729    2.751    0.637
        78 -12.8786     62.1729    102.9165   1.0801803838e+02   4.7702077474e+01     1.334361    0.4515577 -56.25  0.005095262    2.783    0.641
        79 -13.7787     48.2876     96.0072   1.1061132015e+02   5.0761205838e+01     0.991746    0.8154969  86.70   0.00611835    1.596    0.373
        80 -14.2430     29.8540    119.2917   1.2044354579e+02   4.7474322683e+01      2.25661    0.4335516 -52.06  0.008079538    3.568    0.720
        81 -13.9673      2.3307     97.1072   1.2441241729e+02   5.4155698440e+01     1.154333    0.3468536 -68.44  0.004406455    3.030    0.670
        82 -15.4795     25.9416     94.4542   1.1703081606e+02   5.3142963550e+01     1.880793     1.184643  -0.23   0.01108046    2.047    0.512
        83 -11.2956      7.3002    127.9587   1.2758019779e+02   4.7279642445e+01    0.2440657    0.1637075 -10.42  0.001534718    2.137    0.532
        84 -10.6425     81.2285    135.9587   1.0969463542e+02   3.7667744373e+01    0.1922129    0.1618304 -55.74            0    1.088    0.081
        85 -11.9622     59.4028    125.6174   1.1354108858e+02   4.2991631444e+01     0.295407    0.2244851 -24.45 0.0001654123    1.576    0.366
        86 -14.8721     17.7315    110.9665   1.2236896586e+02   5.0256857915e+01     1.066744     0.920429   1.93  0.004671212    1.433    0.302
        87 -11.8095     37.4035    119.6020   1.1844432746e+02   4.6721443185e+01    0.2898208    0.2392742 -45.31  0.001190713    1.151    0.132
        88 -11.3659    184.6802    124.3021   8.1565069981e+01   1.9967723332e+01     0.274434    0.1942085  54.39 0.0006784843    1.446    0.308
        89 -12.2904    180.7552    121.2820   8.1683527392e+01   2.1479747963e+01    0.4774695    0.3221577  62.03  0.001734722    1.641    0.391
        90 -14.0585    248.7092    106.2561   6.5958477069e+01   9.5299510905e+00     1.377782    0.2889694 -41.36  0.004032731    4.284    0.767
        91 -12.0574    121.1165    112.0256   9.3641937878e+01   3.6272732941e+01     0.377448    0.3003168  70.15  0.001408833    1.509    0.337
        92 -11.9957     44.8035    110.3572   1.1465081855e+02   4.8040742964e+01    0.5284209    0.3875589 -46.23  0.003200934    1.191    0.161
        93 -11.7262    176.3138    110.8252   8.0111259259e+01   2.4638966932e+01     0.367418    0.3525844  46.76  0.001985798    1.089    0.081
        94 -11.5125    222.8108    109.6164   7.0848183852e+01   1.4374777621e+01    0.2039164    0.1371448  67.94  0.000933362    1.683    0.406
        95 -10.3315    154.0073    105.5578   8.3806131244e+01   3.0748106810e+01    0.2312432    0.1484682  49.12 0.0004416899    1.555    0.357
        96 -11.4762    161.6224     97.4619   7.9992799316e+01   3.0659255488e+01    0.3641637    0.3111051  49.15  0.001870348    1.164    0.141
        97 -11.9846    127.9944     95.8112   8.7680304253e+01   3.8285575127e+01    0.5060061    0.2762729  64.27  0.001814529    3.029    0.670
        98 -11.9181     94.7722     93.9848   9.6272737512e+01   4.4845193652e+01    0.3921445    0.2115973 -32.14  0.001659538    2.183    0.542
        99 -11.3989    144.6790     92.4811   8.2634453167e+01   3.5411686297e+01    0.2549483    0.1866542 -17.50  0.001168166    1.767    0.434
       100 -14.2863    214.6493     77.7568   6.4965461366e+01   2.1970043783e+01     1.130775    0.7850131  73.95  0.005685213    1.497    0.332
       101 -13.7830    188.1152     84.5965   7.1242643672e+01   2.6936929679e+01     1.302336    0.5235978  47.73  0.004017342    2.567    0.610
       102 -14.5078    197.6602     70.7991   6.6145854879e+01   2.7084274999e+01      1.72348    0.8724895  38.04  0.006445878    3.025    0.669
       103 -15.1415    165.9951     78.7423   7.4188724989e+01   3.3144991027e+01     2.349736    0.8583739  43.29  0.007773996    3.148    0.682
       104 -13.3934    164.4055     71.6360   7.2655029397e+01   3.4740232978e+01     0.870604    0.4189488  43.96  0.003484647    2.188    0.543
       105 -11.6657     89.3805     87.1276   9.6018998132e+01   4.7104672084e+01    0.3892665     0.281478  50.22  0.001869614    1.617    0.381
       106 -12.5187    132.0195     85.9801   8.4009239209e+01   3.9368108300e+01    0.5533825    0.3816313  64.41  0.002202895    1.776    0.437
       107 -11.3417    125.9590     86.6019   8.5729507530e+01   4.0501980274e+01    0.3524508    0.2649215  66.17  0.001729492    1.622    0.384
       108 -13.0810    241.8108     84.0022   6.2253760109e+01   1.4879950931e+01    0.4611655    0.2275208  60.69  0.002070397    2.127    0.530
       109 -13.6484    237.2407     80.2652   6.2104995096e+01   1.6498789778e+01    0.5801514    0.3868183  80.42  0.002233644    1.662    0.398
       110 -10.5405    109.0424     85.5124   8.9964206573e+01   4.4007923881e+01    0.2151623    0.1377561  41.35  0.001029366    1.580    0.367
       111 -10.6592     98.3316     84.0254   9.2573766586e+01   4.6215006832e+01     0.193426    0.1736256 -36.56 0.0005353045    1.089    0.081
       112 -12.9083     38.9599     67.7631   1.0673792770e+02   5.7282368352e+01    0.8389565    0.3512907  24.21  0.004114851    2.714    0.632
       113 -12.5686     51.6140    248.1537   1.3094210736e+02   1.6608709181e+01    0.4472885    0.3876665  45.09  0.003261971    1.528    0.345
       114 -13.8062     66.1401     49.4572   9.2248225809e+01   5.7247501630e+01    0.6575516    0.4953061 -34.95  0.001651796    1.291    0.225
       115 -13.7318     91.3328     57.9566   8.7031422685e+01   5.2028233959e+01     1.155105    0.8438737  81.47  0.005507619    2.812    0.644
       116 -13.6398     78.5051     72.1889   9.5152032396e+01   5.1626686063e+01     1.004197    0.6023991   4.27  0.004474957    2.611    0.617
       117 -13.5680     87.4022     65.6494   9.0529246933e+01   5.1398911206e+01    0.5073287    0.4285585 -20.09  0.001282641    1.108    0.097
       118 -11.7682    235.6956    248.5723   9.6287942327e+01  -1.2869731553e+01    0.2402724    0.1025903  33.70  0.001148777    2.155    0.536
       119 -13.5250    171.0698    242.7498   1.0774009794e+02  -1.3790323386e+00    0.9448808    0.5318555  37.61  0.004768491    1.606    0.377
       120 -12.3056    147.4656    239.1506   1.1189334460e+02   3.3928259656e+00    0.2886615    0.2345981 -79.89 0.0009546917    1.408    0.290
       121 -12.0665     85.3960    180.4695   1.1643258378e+02   2.6513708537e+01    0.3858283    0.2448712  73.22  0.001827728    1.866    0.464
       122  -9.9419     46.6382    232.6745   1.3049434802e+02   2.0335652534e+01    0.1061566   0.08990121 -47.12 0.0007041427    1.788    0.441
       123 -12.3885    237.8888    230.6143   9.2785278198e+01  -1.0577135030e+01    0.2485229    0.1551886  48.01  0.001332623    1.900    0.474
       124 -12.8076     57.2506    202.1057   1.2541502668e+02   2.5523286492e+01     1.182655    0.3460301 -63.15  0.004697879    2.938    0.660
       125 -12.1448    113.9644     80.3950   8.7193183544e+01   4.4044799282e+01    0.4048625    0.3501524 -31.33  0.001251682    1.146    0.127
       126 -11.5384     90.9557     80.4735   9.3735139502e+01   4.8136553579e+01     0.407364    0.2843676 -15.64  0.002064431    1.712    0.416
       127 -13.0683    134.8950     79.5354   8.1522283493e+01   3.9953960020e+01    0.8428761    0.4142411  52.09  0.002726585    2.085    0.520
       128 -11.8663     42.0861     77.2331   1.0812955625e+02   5.5185653900e+01     0.328088    0.2179818 -48.53  0.001213062    1.297    0.229
       129 -13.5928      8.5931     42.8766   1.1079732419e+02   6.4022486572e+01    0.7784604    0.6337432  35.86  0.006030913    1.768    0.435
       130 -13.6498    133.8026     66.8913   7.8246590801e+01   4.2381184268e+01      1.16533      0.75789  42.03  0.005713312    1.497    0.332
       131 -12.4582    136.3132     49.9165   7.2779605234e+01   4.4466674550e+01    0.3914616    0.2636556  38.43  0.001066802    1.473    0.321
       132 -13.4042     65.9779    223.6470   1.2604415745e+02   1.9657376463e+01    0.8176305    0.5842824  42.24  0.004988074    1.510    0.338
       133 -14.3498    101.4445     49.7492   8.1575466019e+01   5.1510971848e+01    0.8057902    0.6451474  56.13  0.003002155    1.456    0.313
       134 -14.0475     62.7680    214.8009   1.2572096142e+02   2.1993963688e+01      1.09485    0.5442725  47.43  0.005630582    1.879    0.468
       135 -12.7995    109.7165     42.1674   7.6963906565e+01   5.1024029699e+01    0.5124613    0.2284141  51.90  0.001581197    2.251    0.556
       136 -13.4048     95.8248    219.1732   1.1960481543e+02   1.6162540060e+01    0.6126288    0.3396286  45.34  0.002999633    1.677    0.404
       137 -12.7012    240.8721     71.4853   5.9733621143e+01   1.7173532005e+01    0.4940238    0.2918769 -85.22  0.002247677    2.216    0.549
       138 -11.8012    158.4250     63.8995   7.1841292304e+01   3.7392645176e+01    0.3261552    0.2528088 -59.40  0.001242095    1.442    0.307
       139 -13.7333     79.5150     60.0708   9.1265956152e+01   5.3588170289e+01    0.7844804    0.4866758 -25.13  0.004134685    1.684    0.406
       140 -12.9040     70.4844     75.8729   9.8682435247e+01   5.2094165367e+01    0.3404581    0.2985742 -27.36 0.0006609308    1.032    0.031
       141 -14.0082    177.9628     57.7022   6.6382524549e+01   3.3811970548e+01    0.7979142    0.6267036 -64.18  0.002287452    1.361    0.265
       142 -12.5473     39.0844     60.5687   1.0475041517e+02   5.8572199495e+01    0.3006087    0.2346843  47.86  0.001959065    1.841    0.457
       143 -12.5785     24.4828     59.9218   1.0963116134e+02   5.9971267642e+01    0.3088627     0.180745 -42.63  0.001063869    1.350    0.259
       144 -12.8272    248.1937     51.8298   5.4774542205e+01   1.8673736265e+01    0.5974234    0.3973721 -41.39  0.003375599    1.537    0.349
       145 -11.7891    231.0086     55.8337   5.7717743496e+01   2.1808610340e+01    0.3479166    0.1828782  65.44  0.001667621    1.846    0.458
       146 -10.6879     36.6067     54.2358   1.0382065918e+02   5.9912730722e+01    0.1671388   0.08766386 -38.28 0.0009440231    1.592    0.372
       147 -10.4454     40.2941     51.3436   1.0167372896e+02   6.0036642244e+01    0.1236623    0.0739278 -21.01 0.0007030412    1.662    0.398
       148 -10.7866     23.3347     50.0601   1.0736922575e+02   6.1781368440e+01    0.1587263    0.1152011 -35.75 0.0004930453    1.099    0.090
       149 -13.7908    157.3844     44.2419   6.6722107516e+01   4.0548570627e+01     1.009262    0.5834052  33.93  0.004542654    2.212    0.548
       150 -12.9094    139.5063     21.9761   6.4010656217e+01   4.7277487783e+01     0.656412    0.2896609  61.78  0.001824571    2.141    0.533
       151 -11.4479    249.0092    225.1722   8.9772937972e+01  -1.1451485442e+01    0.2065497    0.1683434  18.13  0.001333175    1.129    0.114
       152 -12.4666    201.4165     46.1149   5.9671153222e+01   3.0010202779e+01    0.3766322    0.2400888 -76.67  0.001832805    1.852    0.460
       153 -11.2991     85.2368    216.0406   1.2136660490e+02   1.8485877231e+01    0.2941866    0.1704801  49.66    0.0015233    1.592    0.372
       154 -10.9983    200.7569    215.4167   9.7228066623e+01  -1.8164106285e+00    0.1976835    0.1223669  30.73  0.000952472    1.646    0.392
       155 -11.4906    185.6980    213.7408   9.9987593009e+01   1.2422331869e+00    0.2694757    0.1737935 -70.50  0.001177497    2.493    0.599
       156 -11.1164    157.4917    213.5157   1.0583678386e+02   6.5408044943e+00    0.1411433    0.1293652  55.88 0.0001021906    1.021    0.020
       157 -11.0483    136.7719    211.4507   1.0990324837e+02   1.0788064965e+01    0.2516413    0.1953505 -60.85  0.001004606    1.352    0.260
       158 -12.7848     44.5041    208.0880   1.2859088471e+02   2.5802157417e+01    0.4950454    0.2495983  70.03  0.002454823    2.158    0.537
       159 -11.0915     80.5459    208.2271   1.2135450620e+02   2.0904381040e+01    0.2682576    0.1773352  69.88 0.0009420763    1.497    0.332
       160 -13.5698    205.4562     40.3144   5.7745084089e+01   2.9880480457e+01      0.80475    0.4138784  83.55  0.003398307    2.501    0.600
       161 -10.9041     25.3482     43.5064   1.0473280691e+02   6.2703094312e+01    0.1908938   0.08640155 -45.88 0.0008313363    1.871    0.466
       162 -11.3455    169.6126     42.9677   6.4091783672e+01   3.7895652859e+01    0.2503373    0.1681355  51.81  0.001002826    1.386    0.278
       163 -11.1846    150.3332    206.8466   1.0623617148e+02   9.2449080050e+00    0.3778266    0.1977446  35.68  0.001597031    2.018    0.504
       164 -11.7884     35.9948     35.5356   9.8280130797e+01   6.2960374313e+01    0.4625298    0.1816839 -30.67  0.002244218    2.577    0.612
       165 -13.0947     75.9242     37.4356   8.5168267424e+01   5.7576888950e+01    0.3549438    0.2748203  40.38 0.0008473042    1.393    0.282
       166 -12.4410     70.5194     36.5135   8.6582483886e+01   5.8521125390e+01    0.3037255    0.2347646  17.83  0.000920962    1.158    0.137
       167 -13.2322    242.6423     35.2425   5.2083768860e+01   2.2230833487e+01    0.6669302    0.4365008  61.12  0.002908997    1.573    0.364
       168 -11.3079     65.0326     24.7797   8.4323355326e+01   6.0846931017e+01    0.3175363    0.1856119  16.28  0.001801564    1.820    0.451
       169 -12.6707     46.0442     33.9925   9.4094913666e+01   6.2098627143e+01    0.5079636    0.2818893 -21.49  0.002936893    1.782    0.439
       170 -13.1918     55.7868     27.4528   8.8391889368e+01   6.1786955625e+01    0.5028636    0.2799877  35.59  0.001686982    1.772    0.436
       171 -11.1040     91.2450     33.7016   7.9311997889e+01   5.5542188747e+01    0.2254608    0.1708847 -21.76  0.001401541    1.331    0.248
       172 -10.7414     89.1583     30.1447   7.8729023292e+01   5.6349900753e+01    0.1839628    0.1420133  14.77 0.0002646651    1.196    0.164
       173 -11.5376     97.6495     26.8670   7.5265785587e+01   5.5226897421e+01    0.2716721    0.2111232  52.88  0.001268455    1.386    0.279
       174 -11.2942     38.6963     25.3871   9.3817705760e+01   6.4112370153e+01     0.211838    0.1516213  -8.26 0.0007094179    1.147    0.128
       175 -11.0280     75.6492     23.0539   8.0329319417e+01   5.9440536851e+01    0.2694803    0.1368561  34.84  0.001260281    1.792    0.442
       176 -12.2972     41.5118    201.0043   1.2846026907e+02   2.7714528706e+01    0.2370391    0.1596095  79.43    0.0013982    1.324    0.245
       177 -11.6988     70.7962     16.6693   7.9572456643e+01   6.0921407505e+01      0.20981    0.1730368   8.02 0.0005195967    1.059    0.055
       178 -12.8305     40.5981    195.4171   1.2806206781e+02   2.9061794805e+01    0.5480484    0.3520598  71.07  0.003218449    1.480    0.324
       179 -12.5656    164.1487    195.0211   1.0114468406e+02   9.0804137733e+00    0.6355761    0.3615627 -67.80  0.002484265    2.629    0.620
       180 -10.8855    140.0430     10.5348   6.0639981192e+01   4.8316281483e+01    0.1957246    0.1056693  60.31 0.0005115909    1.574    0.365
       181 -12.5273    201.2387    191.7047   9.2664959535e+01   2.5409388461e+00     0.418767    0.3543292   1.44  0.001715096    1.307    0.235
       182 -10.0949    107.5112    192.9863   1.1337063193e+02   2.0032515914e+01    0.1940324     0.114216 -37.93 0.0008095454    2.461    0.594
       183 -10.8548     80.0271    193.1022   1.1947070312e+02   2.4392753442e+01    0.3748479    0.1343051  48.66  0.001445898    2.829    0.647
       184 -11.7558     98.8028    187.1933   1.1441947900e+02   2.2820131747e+01    0.4108355    0.2957092 -16.38  0.001859132    2.544    0.607
       185 -12.7990    197.7335    180.7989   9.1214131422e+01   5.3838197823e+00    0.6098378    0.3948668 -74.77  0.002416203    2.733    0.634
       186 -12.0457     48.8740    181.2551   1.2471524067e+02   3.1301167291e+01    0.4950911    0.2653475 -57.64  0.002564362    1.731    0.422
