#   1 NUMBER                 Running object number                                     
#   2 MAG_AUTO               Kron-like elliptical aperture magnitude                    [mag]
#   3 X_IMAGE                Object position along x                                    [pixel]
#   4 Y_IMAGE                Object position along y                                    [pixel]
#   5 X_WORLD                Barycenter position along world x axis                     [deg]
#   6 Y_WORLD                Barycenter position along world y axis                     [deg]
#   7 A_WORLD                Profile RMS along major axis (world units)                 [deg]
#   8 B_WORLD                Profile RMS along minor axis (world units)                 [deg]
#   9 THETA_WORLD            Position angle (CCW/world-x)                               [deg]
#  10 FWHM_WORLD             FWHM assuming a gaussian core                              [deg]
#  11 ELONGATION             A_IMAGE/B_IMAGE                                           
#  12 ELLIPTICITY            1 - B_IMAGE/A_IMAGE                                       
         1 -13.0820    244.7980    157.9149   9.1835400519e+01   1.7972400658e+00     2.749987    0.5835647 -42.02   0.00765241    5.620    0.822
         2 -13.7352    248.2739    125.0333   8.4093040604e+01   6.2446761760e+00     3.370804    0.4192381 -38.10  0.008357208    6.082    0.836
         3 -15.5668    243.0160     57.5099   6.8986754888e+01   1.7616616473e+01     8.669155     3.666683 -16.95   0.02446931    5.904    0.831
         4 -15.9686    245.7417     83.5529   7.4840568156e+01   1.3211483918e+01      8.17274     3.857769 -51.17   0.03156923    2.328    0.570
         5 -13.3853    248.5701     65.7754   7.0297840167e+01   1.5239241588e+01     2.231672    0.4414768 -30.84  0.005959503    5.505    0.818
         6 -14.1950    244.5138     99.3040   7.8722488684e+01   1.1035494105e+01     8.405433     2.644824 -52.11   0.01452241   13.939    0.928
         7 -11.7914    236.7177    230.0656   1.0683241146e+02  -6.7421506249e+00     0.428924      0.36877  67.52  0.002089958    2.129    0.530
         8 -10.2761    224.7322    250.0048   1.1200056809e+02  -7.3094246031e+00    0.1647919    0.1530728 -14.54 0.0009325335    1.471    0.320
         9 -10.6647    209.2191    249.5554   1.1458424270e+02  -5.0040380557e+00    0.2244143    0.2070397  -9.61  0.001735498    1.350    0.259
        10 -11.1335    191.7076    249.0460   1.1756897011e+02  -2.3080146375e+00    0.3796881    0.2409951  52.93  0.002240026    1.867    0.464
        11 -10.1881    243.5918    236.7866   1.0677957934e+02  -8.4978526899e+00    0.1805938    0.1669958  69.91 0.0009078404    2.010    0.502
        12 -10.3800    250.4794    246.0258   1.0712454852e+02  -1.0434279252e+01    0.1907102    0.1515856 -15.42 0.0008711535    1.374    0.272
        13 -10.9756    246.8748    241.4296   1.0698430611e+02  -9.4614384847e+00    0.2644727     0.239007 -35.17  0.001234225    1.747    0.428
        14 -11.0454    225.3890    243.3464   1.1087837061e+02  -6.6474186409e+00    0.2946651    0.2170416  39.20  0.001273912    1.399    0.285
        15 -10.5224    202.0059    242.7115   1.1483927005e+02  -3.0812990105e+00    0.2101125    0.1724049 -58.27  0.001278759    1.888    0.470
        16 -10.5348    240.2246    240.8416   1.0798886764e+02  -8.4780398088e+00    0.2021574    0.1751779 -46.53  0.001076014    1.908    0.476
        17 -10.2397    219.9137    240.4418   1.1136849699e+02  -5.5031761470e+00     0.180584    0.1623027 -39.24 0.0009542077    1.582    0.368
        18 -11.4166    216.3787    234.0631   1.1098527265e+02  -4.1913700173e+00    0.3553343    0.3146449  48.41  0.001758254    1.499    0.333
        19 -10.1330    214.0822    241.0887   1.1247844557e+02  -4.7111348939e+00    0.1595253    0.1397115  57.93 0.0008783972    1.664    0.399
        20 -10.5264    183.5752    240.1922   1.1776888298e+02   1.1982340269e-01    0.2424818    0.1998153  75.71  0.001511213    1.805    0.446
        21 -10.4816    159.0849    238.9538   1.2208494644e+02   4.2038308098e+00     0.230863    0.1765807 -87.56  0.001415864    1.956    0.489
        22 -11.3941    205.3601    235.7585   1.1319537541e+02  -2.7108155147e+00    0.3731936    0.2886765  64.45  0.002210873    2.042    0.510
        23 -11.3844    191.1649    235.7871   1.1574914314e+02  -4.8355453651e-01    0.3972764    0.3187609 -81.47  0.002443523    2.183    0.542
        24 -10.7126    176.7678    236.0320   1.1841514147e+02   1.7861583559e+00    0.3074721    0.1662041 -43.17  0.001689038    2.231    0.552
        25 -11.4637    248.4053    233.5416   1.0545467982e+02  -8.8066138558e+00    0.4312205    0.3110005  55.09  0.002634999    2.450    0.592
        26 -10.8847    230.2099    180.4343   9.8952460140e+01   9.5831652404e-01    0.4039938    0.2018859 -34.83  0.001255886    1.959    0.489
        27 -11.0222    233.0518    173.3999   9.7041448733e+01   1.5211796080e+00    0.5565554    0.2101241 -30.23  0.002181176    2.817    0.645
        28 -12.1927    225.6463    195.0486   1.0258652063e+02  -4.1105739430e-01     1.069306    0.6336509 -60.82  0.004035493    4.733    0.789
        29 -11.0072    230.9280    193.7111   1.0139894540e+02  -1.1008804201e+00    0.3684982    0.2116584 -27.45  0.001117407    1.736    0.424
        30 -10.9827    229.9219    187.0831   1.0030709442e+02   2.4159975624e-02    0.3511308    0.2308044 -38.73  0.001051354    1.626    0.385
        31 -11.7922    240.5941    208.8006   1.0250794853e+02  -4.6900793843e+00     0.544283    0.3154599 -46.85  0.002144392    2.551    0.608
        32 -11.9578    238.4526    220.2067   1.0487684350e+02  -5.8057164943e+00    0.4302327    0.3624778 -40.79  0.001659232    1.658    0.397
        33 -11.5629    232.9602    213.0397   1.0457288010e+02  -4.0602703581e+00    0.3774259    0.2795955 -24.67  0.001409698    1.366    0.268
        34 -12.0349    247.6997    226.6312   1.0441931505e+02  -7.9216232461e+00     0.403107    0.3394197  47.73  0.001769967    1.756    0.430
        35 -10.9457    235.1291    203.3883   1.0246560647e+02  -3.1228279282e+00    0.3312197    0.2212207 -34.28  0.001076697    1.583    0.368
        36 -12.4637    247.9064    216.8748   1.0270822622e+02  -6.7952980057e+00    0.5623897    0.3522088 -34.22  0.002186779    1.741    0.426
        37 -11.3004    247.1019    207.1348   1.0110906607e+02  -5.4673835843e+00    0.4122772    0.2441936 -43.95  0.001528497    2.270    0.559
        38 -11.6545    242.7544    200.8782   1.0069703545e+02  -3.9888885119e+00    0.4279221     0.290887 -21.85  0.001497989    1.387    0.279
        39 -11.4397    237.0122    197.8654   1.0111984636e+02  -2.6738737596e+00    0.4361443    0.2498957 -31.59  0.002126391    1.722    0.419
        40 -11.6316    236.9481    187.4027   9.9141677418e+01  -1.2019463888e+00    0.5457197    0.2570935 -37.41  0.002610813    2.138    0.532
        41 -11.0962    234.9776    181.2179   9.8272850047e+01   2.3288804896e-02    0.4303983    0.2218736 -28.12  0.001411117    1.930    0.482
        42 -11.2323    250.1271    200.3428   9.9360621669e+01  -5.0557411111e+00     0.388577    0.1676335 -36.45  0.001894659    2.351    0.575
        43 -12.4465    245.5422    191.7119   9.8504420027e+01  -3.1979628119e+00    0.6810189    0.4754944 -45.52  0.003695273    1.878    0.468
        44 -12.2474    241.3506    179.8087   9.6898154999e+01  -8.4785891875e-01    0.7672221    0.2864893 -38.09  0.002971536    2.640    0.621
        45  -9.7643    170.3877    235.1839   1.1947261315e+02   2.9384769880e+00    0.1492289    0.1179419 -62.12 0.0009488142    1.716    0.417
        46 -11.5866    230.8905    236.7861   1.0891279491e+02  -6.6841931879e+00    0.3471782    0.2825479  54.29  0.001635469    1.864    0.464
        47 -10.8438    229.2429    228.3298   1.0782237877e+02  -5.4269720951e+00    0.2533122    0.2029104 -40.44  0.001094142    1.679    0.405
        48 -11.0978    222.5882    200.9823   1.0423469661e+02  -7.5075055428e-01    0.3505318    0.2546431  59.31  0.001926403    2.057    0.514
        49 -11.8023    227.5674    220.7658   1.0684626285e+02  -4.2234320116e+00    0.4013607    0.3748758 -24.72  0.001871274    1.421    0.297
        50 -10.0400    225.8552    213.1313   1.0582991017e+02  -2.9570856609e+00    0.2148059    0.1690607 -43.03 0.0008977499    1.650    0.394
        51 -11.2323    225.3425    207.4558   1.0491620777e+02  -2.1068779464e+00    0.3381206    0.3122798 -38.09  0.001461713    1.436    0.304
        52  -9.6549    173.6320    228.8539   1.1795251731e+02   3.3436155862e+00    0.1522678    0.1187588 -58.91 0.0009418813    1.703    0.413
        53 -10.6130    211.6533    227.6259   1.1079124030e+02  -2.6345053535e+00    0.2137018    0.1929922  11.09 0.0009017221    1.185    0.156
        54 -10.5655    198.9870    227.0853   1.1298830597e+02  -5.4442537346e-01    0.2438034    0.1821945 -45.52  0.001002664    1.700    0.412
        55  -9.9415    184.5086    228.0236   1.1579804034e+02   1.6781399080e+00    0.1662302    0.1228974 -38.85  0.001030167    1.585    0.369
        56 -10.5103    223.2788    226.7715   1.0859980563e+02  -4.3287825366e+00    0.2145466    0.1861997  14.31 0.0009255334    1.153    0.133
        57 -10.7084    205.9473    225.4270   1.1145989214e+02  -1.4360232097e+00    0.2893713    0.1805479 -42.03  0.001142458    1.932    0.482
        58 -10.3485    190.3943    226.0835   1.1440792169e+02   9.9272676700e-01    0.2524527    0.1859316 -44.77   0.00105508    1.664    0.399
        59  -9.7271    162.7901    227.5716   1.1981212100e+02   5.3302396446e+00    0.1802242     0.100998  48.47 0.0009421817    1.648    0.393
        60 -11.1384    216.9601    223.5322   1.0917673475e+02  -2.9306012314e+00    0.3093015    0.2523085 -58.51  0.001456233    1.963    0.491
        61 -10.6293    180.4193    223.2477   1.1582823238e+02   3.0567755395e+00    0.2580309    0.1239235 -45.94  0.001260817    2.496    0.599
        62 -10.1865    147.6204    223.2195   1.2210717286e+02   8.5496157955e+00    0.1590868    0.1193444 -37.48 0.0009519922    1.636    0.389
        63 -10.1697    185.5555    221.5008   1.1458877336e+02   2.4601912026e+00    0.2326534     0.124209 -42.08  0.001202758    2.167    0.539
        64 -11.0806    193.3407    218.8388   1.1270428391e+02   1.5532216502e+00    0.3283558     0.277234 -57.98  0.001780268    1.618    0.382
        65 -10.8358    210.7605    218.5233   1.0945136194e+02  -1.2676922630e+00    0.2914901     0.210606 -37.34  0.001174479    1.588    0.370
        66  -9.6171    158.4900    219.5016   1.1945913810e+02   7.3365363060e+00    0.1282929    0.1096499  39.95 -7.876481e-05    1.006    0.006
        67 -11.8845    217.5783    213.1038   1.0729681865e+02  -1.6262119279e+00    0.6206776    0.3815546 -52.10   0.00319193    2.565    0.610
        68 -10.5983    217.3392    204.5908   1.0583566190e+02  -3.9250555379e-01    0.2647057    0.1999103 -28.55  0.001030033    1.374    0.272
        69  -9.7503    174.5825    222.8031   1.1686377680e+02   4.1001109485e+00     0.156726    0.1227406 -60.01 0.0009483704    1.694    0.410
        70 -10.2903    170.5072    216.5609   1.1667969228e+02   5.7658966507e+00    0.2382118    0.1284356 -44.64  0.001204519    2.142    0.533
        71 -11.0722    202.1818    218.8549   1.1107047763e+02   8.6217271314e-02    0.3631837    0.2363022 -43.69  0.002082579    1.856    0.461
        72 -10.3442    209.8509    212.3224   1.0856065110e+02  -2.5168700396e-01    0.2276282    0.1773334 -15.42    0.0008653    1.309    0.236
        73 -10.3853    176.8903    210.7923   1.1451940310e+02   5.5892940298e+00    0.2613175    0.1898127 -49.49  0.001329648    1.643    0.391
        74 -10.0743    200.2486    210.7566   1.1006392353e+02   1.5822714411e+00    0.2073449    0.1539807 -37.54 0.0008578235    1.509    0.337
        75 -10.3838    192.9695    209.9762   1.1129891472e+02   2.9397929603e+00    0.2688367    0.1900638 -47.88  0.001040699    1.731    0.422
        76  -9.8489    186.1801    210.8118   1.1273212770e+02   3.9787031442e+00    0.1795149    0.1400055  13.19 0.0006055245    1.318    0.241
        77 -10.0842    160.5889    210.7505   1.1771158385e+02   8.4305177605e+00    0.2255125     0.126924 -42.73  0.001132367    2.044    0.511
        78 -10.6204    205.8604    207.7711   1.0850326427e+02   1.0734097356e+00    0.2593035    0.2051158 -23.23  0.001018898    1.316    0.240
        79  -9.6167    182.9740    207.0251   1.1271249911e+02   5.1323045860e+00     0.156379    0.1431756  15.68 0.0009988303    1.071    0.066
        80 -10.6764    197.6924    203.8613   1.0934565253e+02   3.0614959081e+00     0.320849    0.2172911 -28.16  0.001470897    1.603    0.376
        81  -9.6409    139.3354    205.3199   1.2115955270e+02   1.3075747708e+01    0.1293421    0.1022287   6.15 0.0006673738    1.703    0.413
        82 -10.1256    186.9454    203.3971   1.1132180405e+02   5.0152420451e+00    0.2318612    0.1890702 -62.13  0.001353385    1.648    0.393
        83 -10.9977    210.4164    201.0807   1.0646771565e+02   1.2880633046e+00    0.3288999    0.2461254 -57.97  0.001413238    2.004    0.501
        84 -10.4230    215.3165    197.6731   1.0494276820e+02   9.5584201112e-01    0.2599584    0.1675231 -38.37  0.001157967    1.674    0.403
        85 -10.4541    202.0747    197.2042   1.0732081359e+02   3.3259862226e+00    0.2661375    0.1903507 -40.93  0.001249256    1.554    0.357
        86  -9.5418    191.0000    197.9695   1.0957880156e+02   5.1684578992e+00    0.2015062   0.07541985 -41.25 0.0007967947    2.903    0.656
        87 -10.2647    184.2099    196.4652   1.1063421440e+02   6.6337009343e+00    0.2399459    0.1900325 -35.43   0.00139041    1.365    0.268
        88 -10.2070    219.4148    194.4630   1.0359776346e+02   7.3016813157e-01    0.2315097    0.1511032 -36.16  0.001034826    1.604    0.377
        89 -10.2172    209.1379    194.3349   1.0546453206e+02   2.5289787403e+00    0.2381071    0.1878604 -36.07 0.0007949415    1.375    0.273
        90  -9.9319    194.2705    194.4168   1.0830193055e+02   5.1567248914e+00    0.2068151    0.1687462 -65.58  0.001150043    1.723    0.420
        91 -10.9661    215.1526    190.1595   1.0356292476e+02   2.1142666492e+00    0.4137581    0.1815444 -34.67  0.001825351    2.361    0.576
        92  -9.7401    205.2002    190.9561   1.0556998353e+02   3.7510747002e+00    0.1727501    0.1027683 -37.18 0.0008084977    1.760    0.432
        93  -9.9987    198.7167    190.7692   1.0676943015e+02   4.9451642630e+00    0.2274711    0.1594618 -32.15  0.001234519    1.492    0.330
        94  -9.6882    172.3589    191.1468   1.1204899277e+02   9.7079201128e+00    0.1857972    0.1284566 -55.76 0.0009466326    1.765    0.433
        95  -9.5235    185.4515    190.4832   1.0930278994e+02   7.4105746262e+00    0.1358192    0.1219715  21.60 0.0001836792    1.015    0.015
        96  -9.9344    178.6855    189.5465   1.1048035802e+02   8.8187759831e+00    0.2338924    0.1257729 -43.09  0.001080596    2.013    0.503
        97 -10.1530    210.1539    188.7802   1.0422664384e+02   3.2096959365e+00    0.2166115    0.1763954 -40.32  0.000684257    1.383    0.277
        98  -9.7355    193.2638    187.9727   1.0729874294e+02   6.3964938291e+00    0.1884136    0.1719063 -10.60 0.0007282801    1.106    0.096
        99 -12.4289    238.7771    160.7134   9.3431780724e+01   2.4411952278e+00      1.20198    0.6065146 -55.37  0.004153091    4.482    0.777
       100 -12.8309    235.0545    146.6195   9.1032760245e+01   5.3367124172e+00     1.659492     0.645275 -43.57  0.006365264    2.737    0.635
       101 -12.1399    248.7637    181.1074   9.5909836200e+01  -2.2536827797e+00     1.094199    0.2713795 -41.52  0.003497143    4.985    0.799
       102 -10.6717    242.5191    247.9972   1.0873114651e+02  -9.5695026596e+00    0.2140458    0.1698086  12.04 0.0008560319    1.120    0.107
       103 -13.8711    243.8595    138.6292   8.7820015181e+01   4.9463028392e+00     3.642788     1.179248 -47.04   0.01100378    4.683    0.786
       104 -10.9782    233.3996    247.1840   1.1011696362e+02  -8.2220867926e+00    0.2897242    0.2161881  36.25  0.001300286    1.378    0.274
       105 -10.5770    176.1802    247.2006   1.2007781500e+02   3.2986862633e-01    0.2498948    0.2134264 -85.72  0.001727254    1.733    0.423
       106  -9.8158    215.5261    173.0275   1.0011639015e+02   4.7383935980e+00    0.2013578    0.1287584 -35.34  0.001018748    1.557    0.358
       107  -9.5815    192.6043    173.1782   1.0454185033e+02   9.0441735172e+00    0.1990376    0.1291254 -26.70 0.0009514286    1.708    0.415
       108 -10.7671    237.2642    169.2365   9.5462098329e+01   1.4114978338e+00     0.354547    0.1820571 -36.42   0.00123062    1.870    0.465
       109 -10.6134    233.9328    163.9384   9.4938072304e+01   2.8137896397e+00    0.3254474    0.1926835 -43.91  0.001129528    1.854    0.461
       110 -10.0467    231.1517    159.3337   9.4450360232e+01   4.0414576345e+00    0.2759061    0.1819503 -24.75 0.0008311025    1.466    0.318
       111 -10.2034    205.1610    168.9213   1.0122449302e+02   7.3658791727e+00    0.2869363    0.1888243 -48.37  0.001407155    1.755    0.430
       112 -10.9380    218.6856    167.7688   9.8452812892e+01   5.0024056247e+00    0.3788583    0.2444499 -29.51  0.001495378    1.524    0.344
       113  -9.8239    212.1235    169.1554   9.9954952301e+01   6.0049433861e+00    0.1816607    0.1607402 -47.87 0.0009174553    1.325    0.245
       114  -9.8149    163.5086    247.5096   1.2240056699e+02   2.2670772083e+00    0.1740377    0.1156298 -64.34  0.001026979    2.285    0.562
       115 -10.5438    229.0979    165.7171   9.6154242155e+01   3.4119671771e+00    0.2988808    0.2217578 -11.98 0.0008828419    1.344    0.256
       116 -10.2179    191.5475    165.2494   1.0312587898e+02   1.0652855472e+01    0.3386276    0.1382437 -38.34  0.001290079    2.536    0.606
       117 -10.8622    212.9113    162.8590   9.8490900876e+01   6.9016829982e+00    0.4281447    0.1972883 -38.47  0.001617861    2.144    0.533
       118  -9.8211    199.4832    164.5049   1.0140188072e+02   9.2239959702e+00    0.2832033     0.136575 -38.73  0.001179879    2.093    0.522
       119  -9.5970    184.5901    165.2438   1.0453077042e+02   1.2031809423e+01     0.199677    0.1347067 -28.86 0.0009511687    1.617    0.381
       120 -10.2612    221.2456    161.5591   9.6683126871e+01   5.5314262626e+00    0.2584828    0.1804451 -33.12 0.0009738828    1.383    0.277
       121 -10.3090    205.1057    161.4126   9.9660347288e+01   8.6598360812e+00    0.2782341    0.2034431 -41.49  0.001378376    1.415    0.293
       122 -10.4363    226.3844    157.2053   9.4833644730e+01   5.2698590177e+00    0.3850464    0.2140295 -34.87  0.001183653    1.714    0.417
       123 -10.2376    228.2644    151.9815   9.3373644189e+01   5.7600841902e+00    0.2794974    0.1909087 -28.65 0.0007761178    1.382    0.277
       124  -9.5089    176.5031    159.4926   1.0499920354e+02   1.4729642424e+01    0.1442791    0.1386161  21.78 0.0008106091    1.013    0.013
       125  -9.9833    196.8732    157.2728   1.0037300861e+02   1.1020246392e+01    0.2515317    0.1920822 -45.40  0.001297999    1.390    0.281
       126 -10.8019    221.3997    153.9460   9.5020330138e+01   6.7526737179e+00    0.5748874    0.1644537 -40.01  0.001916959    3.384    0.704
       127 -10.2004    216.2128    156.4281   9.6503161338e+01   7.3422723359e+00    0.2665889    0.1856148 -34.91  0.001261531    1.395    0.283
       128 -10.7480    210.9601    182.1528   1.0279228468e+02   4.1104973912e+00    0.3177783    0.1943731 -31.17  0.001260328    1.668    0.400
       129 -10.2378    183.5445    182.7536   1.0823220807e+02   9.0953249734e+00    0.2511871    0.1345104 -37.41  0.001133819    2.009    0.502
       130  -9.6444    205.5510    154.0341   9.7982680088e+01   9.8531755655e+00    0.2159218    0.1358473 -36.51  0.001003503    1.564    0.361
       131 -10.7643    215.1979    148.8789   9.5036375505e+01   8.8189467802e+00     0.301369    0.1845978 -46.26  0.001399828    1.766    0.434
       132  -9.5651    176.6024    181.1980   1.0934286904e+02   1.0684794910e+01    0.1931774     0.130336 -29.62 0.0008128622    1.679    0.404
       133 -10.7247    223.5500    146.4526   9.2988874083e+01   7.5786629647e+00    0.3183446    0.2476557 -22.77  0.001274696    1.224    0.183
       134 -10.0956    207.9691    144.8092   9.5471941597e+01   1.0982138690e+01    0.2662483    0.2004068 -34.63 0.0009642107    1.287    0.223
       135 -10.1086    190.8523    179.2886   1.0610354812e+02   8.3173145467e+00    0.2385945    0.1879572 -48.07  0.001305373    1.436    0.304
       136  -9.5038    218.4987    144.4773   9.3452381034e+01   8.9101456306e+00    0.1418573    0.1309523 -10.39 0.0003672674    1.014    0.013
       137  -9.8527    138.6828    144.3352   1.1019194247e+02   2.5525664609e+01    0.1542089    0.1181729  86.26 0.0007048216    1.696    0.410
       138 -10.9483    219.0896    177.5843   1.0038166049e+02   3.3624475039e+00    0.3639645    0.1879646 -35.56  0.001308587    1.928    0.481
       139  -9.5918    155.3445    143.6600   1.0616951872e+02   2.2248867070e+01    0.1566707    0.1203108  88.22 0.0007048013    1.780    0.438
       140  -9.8610    181.8179    142.0218   1.0002579565e+02   1.6971192969e+01    0.2457089    0.1734528 -67.51  0.001075516    2.004    0.501
       141 -10.2426    224.2521    140.0799   9.1437127279e+01   8.5037718849e+00     0.324391    0.1796862 -32.64 0.0009254716    1.720    0.419
       142  -9.7218    166.3404    140.6622   1.0302831919e+02   2.0539934020e+01    0.1555801    0.1213725 -88.00 0.0007050505    1.763    0.433
       143 -10.8867    218.5436    138.2223   9.2027663092e+01   9.9668119773e+00    0.3355274    0.2062304 -44.12  0.001388836    1.657    0.397
       144 -10.0072    205.0434    176.6893   1.0282714432e+02   6.0871571803e+00    0.2324866    0.1841451 -42.56  0.000955774    1.384    0.278
       145 -10.3429    198.5837    137.2154   9.5529625811e+01   1.4301057051e+01    0.2834058    0.1369525 -41.94  0.001127191    2.042    0.510
       146 -10.0530    172.5218    138.0399   1.0107391084e+02   1.9739120372e+01    0.2156693    0.1300564 -63.76  0.000809757    2.539    0.606
       147  -9.6573    192.6200    137.1966   9.6701956525e+01   1.5576434782e+01    0.2112594    0.1380196 -28.44  0.000945531    1.625    0.385
       148 -10.4591    225.6488    133.3022   8.9649725035e+01   9.3590579884e+00     0.314445    0.1969613 -30.75  0.001083011    1.515    0.340
       149 -10.2106    179.6727    132.9740   9.8355757425e+01   1.9181495384e+01    0.2217349    0.1961388 -40.04  0.000994122    1.125    0.111
       150 -10.3961    205.9738    131.0185   9.2659558349e+01   1.3847627585e+01    0.2308854     0.181024 -67.88 0.0009621884    1.665    0.399
       151 -11.4270    220.8640    128.7786   8.9432685061e+01   1.1103690075e+01    0.3650672    0.2775244 -61.27  0.001433892    1.658    0.397
       152 -10.2818    192.5441    129.3070   9.4845781577e+01   1.7064297036e+01    0.2910291    0.1399721 -43.07  0.001130618    2.062    0.515
       153  -9.9938    197.5098    176.5385   1.0425089521e+02   7.5287557690e+00     0.263368    0.1343556 -40.08 0.0008744755    2.028    0.507
       154  -9.4420    186.3952    129.1961   9.6056999450e+01   1.8434014251e+01     0.218698     0.137304 -49.34  0.000943592    1.702    0.412
       155 -10.0761    171.9897    129.2422   9.9095155098e+01   2.1600233265e+01    0.2259183    0.1713419 -65.05  0.001040402    1.612    0.380
       156 -10.6591    179.9057    124.4413   9.6235996553e+01   2.0785226903e+01    0.3637306    0.2149112 -43.98  0.001546151    1.685    0.407
       157 -10.1117    188.1483    123.4587   9.4301811508e+01   1.9133508607e+01    0.3122705    0.1908823 -53.60   0.00113614    1.910    0.476
       158 -10.9144    212.5085    122.5725   8.9443432843e+01   1.3942637235e+01     0.301958    0.1378794 -36.71 0.0009716245    2.072    0.517
       159 -10.8850    203.1221    121.6615   9.0947376959e+01   1.6146664668e+01    0.2665987    0.1976257 -46.08 0.0008698519    1.362    0.266
       160 -10.3616    174.4552    119.9938   9.6278659072e+01   2.2875854716e+01    0.2397112    0.1486642 -40.69 0.0008259524    1.587    0.370
       161 -10.1117    210.4915    175.4742   1.0155117499e+02   5.2731133758e+00    0.2652501    0.1303963 -37.80 0.0008403626    2.055    0.513
       162 -10.7067    140.3996    119.1896   1.0387915272e+02   3.0591934774e+01    0.2282693    0.1430955 -55.41 0.0009548252    1.737    0.424
       163  -9.7253    147.3506    117.6775   1.0181633392e+02   2.9405184277e+01    0.1607161    0.1237296 -87.99 0.0007048417    1.749    0.428
       164 -10.2118    194.4676    121.4664   9.2556892590e+01   1.8097679657e+01    0.2749701    0.1319184 -47.79  0.001027834    2.263    0.558
       165 -11.0258    194.9905    113.7619   9.0533998710e+01   1.9400550148e+01    0.3733318    0.1856561 -51.24  0.001355095    2.403    0.584
       166 -10.7942    185.8766    115.1046   9.2670279376e+01   2.1223604069e+01    0.2393654    0.2067946 -62.84 0.0007625872    1.276    0.216
       167 -10.0825    181.2960    115.6674   9.3747374758e+01   2.2161169972e+01    0.1551805    0.1209762 -72.98 0.0006035881    1.642    0.391
       168 -10.3345    157.3758    120.1953   1.0011015054e+02   2.6668107307e+01    0.2273688    0.1414745 -52.24 0.0009481065    1.725    0.420
       169  -9.4938    156.4089    248.2207   1.2377440350e+02   3.2759852981e+00    0.1382342    0.1137493 -74.43 0.0008452463    1.642    0.391
       170 -10.3368    176.8185    110.9447   9.3462869449e+01   2.4094540014e+01    0.2591731     0.172503 -61.77  0.001078534    1.934    0.483
       171 -10.9362    183.0081    109.2039   9.1734960417e+01   2.2995630865e+01    0.2899124    0.1905127 -50.99  0.001266642    1.627    0.385
       172 -10.2836    123.3372    110.6751   1.0602321706e+02   3.6018151712e+01    0.1575761    0.1215078  89.79 0.0006511782    1.720    0.419
       173 -10.3266    201.1871    109.1774   8.8205564511e+01   1.8825007883e+01    0.2114567    0.1732994 -58.04 0.0006714292    1.329    0.247
       174 -10.6106    189.8926    109.1249   9.0342555187e+01   2.1420336859e+01    0.2377015    0.2084641 -64.48  0.000689499    1.247    0.198
       175 -10.6035    160.5898    108.7669   9.6418599770e+01   2.8260515654e+01    0.2277242    0.1432907 -50.54 0.0009529945    1.676    0.403
       176  -9.8498    133.6531    109.3109   1.0300884274e+02   3.4149990535e+01    0.1585926    0.1231187 -89.63 0.0007045552    1.710    0.415
       177 -10.4358    196.0414    107.5030   8.8741986642e+01   2.0302315827e+01    0.2479025    0.1963475 -37.49 0.0006428717    1.215    0.177
       178 -11.9278    205.6542    105.4505   8.6448639698e+01   1.8471301221e+01    0.2933891    0.2518641 -66.72  0.001139918    1.303    0.232
       179 -10.5157    189.6471    104.2077   8.9115399052e+01   2.2382522364e+01    0.2187855    0.1414478 -28.05 0.0008478047    1.645    0.392
       180 -10.7913    200.5544    103.0175   8.6750693492e+01   2.0068295529e+01    0.2355757    0.1422154 -36.96  0.001023366    1.582    0.368
       181 -10.4206    195.1354    103.1470   8.7789660152e+01   2.1298743065e+01    0.2163942    0.1750495 -58.15 0.0008601053    1.338    0.253
       182 -10.8390    150.3922    103.1845   9.7266442944e+01   3.1716232655e+01    0.2348959    0.1416107 -51.31 0.0009565354    1.774    0.436
       183 -10.9415    141.4793    103.0190   9.9364467425e+01   3.3759798044e+01    0.2474308     0.150725 -42.91  0.001039625    1.614    0.380
       184 -10.9115    176.3700    102.1900   9.1245740308e+01   2.5868946678e+01    0.2292164    0.1376032 -47.40 0.0009478842    1.709    0.415
       185 -10.6951    130.3900    102.2287   1.0193452236e+02   3.6353038943e+01    0.2259117     0.142132 -53.00  0.000954318    1.676    0.403
       186 -11.8692    209.1018     99.7534   8.4394615425e+01   1.8677334830e+01    0.3937352    0.2050969 -46.53  0.001449039    1.954    0.488
       187 -10.9242    167.2316    100.6167   9.2756941412e+01   2.8318366374e+01    0.3017566    0.1801782 -47.96  0.001056009    1.730    0.422
       188 -11.2373    160.4985    100.5137   9.4211998683e+01   2.9915364729e+01    0.3290919    0.1515244 -39.71  0.001203327    2.138    0.532
       189 -12.0064    203.0398     97.8148   8.4960238529e+01   2.0408707478e+01    0.4893728    0.2129761 -45.17  0.001802346    2.327    0.570
       190 -10.9357    188.9650     98.7406   8.7808128159e+01   2.3538864609e+01    0.2917334    0.1852154 -48.62 0.0008976925    1.628    0.386
       191 -11.5237    195.4541     97.6043   8.6282298352e+01   2.2216084033e+01    0.3084708    0.2447233 -52.05  0.001008864    1.293    0.227
       192 -11.1612    183.4958     95.9894   8.8137201773e+01   2.5334182459e+01    0.3538345    0.1354624 -42.53  0.001120539    2.549    0.608
       193 -10.5038    110.6734     97.3351   1.0587182755e+02   4.1467925229e+01     0.153955    0.1199603 -87.33 0.0007051607    1.719    0.418
       194 -10.9220    188.7608     92.8921   8.6283895238e+01   2.4638513968e+01     0.355707     0.191571 -42.98  0.001155199    1.812    0.448
       195 -11.5108    177.2529     93.1223   8.8603266676e+01   2.7348693692e+01    0.3070933    0.2074973 -53.73  0.001219653    1.624    0.384
       196 -11.1868    164.7020     93.9901   9.1477228595e+01   3.0183118827e+01    0.2292111    0.1998379 -39.54 0.0008435283    1.129    0.114
       197 -10.1535    149.6571     93.3052   9.4682482629e+01   3.3853946992e+01    0.1591477    0.1238589 -81.84 0.0007041485    1.686    0.407
       198 -11.7430    203.2788     90.5120   8.3015542262e+01   2.1613009545e+01    0.3756535    0.1842972 -44.37 0.0007993371    2.002    0.500
       199 -12.4453    200.8697     77.7460   8.0034576552e+01   2.4324859612e+01    0.5460533      0.24436 -42.95  0.001596017    2.153    0.535
       200 -11.7452    200.3174     83.0470   8.1549865416e+01   2.3578568117e+01    0.3305156    0.2346457 -55.40  0.001455014    1.507    0.337
       201 -11.1862    196.6634     91.5161   8.4451903038e+01   2.3001591509e+01    0.2807541     0.183435 -34.07 0.0008766049    1.492    0.330
       202 -11.7050    197.5880     86.7802   8.3023995561e+01   2.3598644455e+01     0.363626    0.2000861 -37.31  0.001129691    1.731    0.422
       203 -11.0755    141.4751     91.9906   9.6265396553e+01   3.5996183260e+01    0.2460512    0.1503787 -41.06  0.001037581    1.609    0.378
       204 -10.6382    121.0000     91.9901   1.0152334615e+02   4.0495193859e+01    0.2566344    0.0847447 -43.43 0.0008024761    2.943    0.660
       205 -11.3449    158.0020     90.4652   9.1958533125e+01   3.2443299029e+01    0.2586192    0.2056083 -39.11  0.001021826    1.241    0.194
       206 -11.1584    183.2432     89.7565   8.6490832373e+01   2.6519959781e+01    0.2821219    0.1860575 -39.45 0.0008469143    1.470    0.320
       207 -11.4605    151.1228     88.1298   9.2851503863e+01   3.4513825412e+01     0.242828    0.2176994   3.28 0.0008546366    1.227    0.185
       208 -10.4630    130.4991     88.5052   9.8003229524e+01   3.9156727821e+01    0.1520428    0.1487256 -29.39 0.0008106754    1.002    0.002
       209 -11.8856    206.1091     84.9640   8.1077114693e+01   2.1882208897e+01    0.4215285    0.2053908 -40.05  0.001699765    1.920    0.479
       210 -11.0500    188.2559     87.0382   8.4791505028e+01   2.5793167364e+01    0.2233448    0.1971204 -41.16 0.0008648785    1.099    0.090
       211 -11.4541    163.8805     86.6562   8.9578397537e+01   3.1752622401e+01    0.2790723    0.2144068 -26.80  0.001316177    1.372    0.271
       212 -11.8106    179.0171     84.8261   8.5949098680e+01   2.8418865350e+01    0.2869888    0.2198906 -37.95 0.0008383327    1.276    0.217
       213 -11.8286    193.2567     82.8857   8.2744046145e+01   2.5302769868e+01    0.3691886    0.1972875 -37.91   0.00101803    1.786    0.440
       214 -11.2108    185.3544     82.8265   8.4176085796e+01   2.7228306293e+01    0.3487568    0.1859736 -32.09  0.001290842    1.912    0.477
       215 -11.5114    170.9790     83.7216   8.7248188463e+01   3.0569570441e+01    0.2161167    0.2084675  72.08 0.0006847414    1.056    0.053
       216 -11.7920    159.0165     81.7332   8.9205092713e+01   3.3828020521e+01    0.3671744    0.2283382 -37.51  0.001394136    1.589    0.371
       217 -11.4016    142.5783     81.6714   9.2956678171e+01   3.7743710740e+01    0.2999033    0.1504584 -33.64  0.001014424    2.103    0.525
       218 -11.6193    179.7838     79.5104   8.4304348826e+01   2.9161091840e+01    0.3632984    0.1832408 -31.88   0.00140578    2.047    0.512
       219 -12.0198    166.8765     77.8315   8.6390893541e+01   3.2616589362e+01    0.4817986    0.2740316 -22.98  0.001871586    2.194    0.544
       220 -11.6577    150.9597     79.2005   9.0252060260e+01   3.6225305601e+01    0.2864533    0.2244563 -38.32  0.001385051    1.264    0.209
       221 -11.8226    188.9580     77.7636   8.2108549143e+01   2.7213131667e+01    0.3802582    0.2008554 -34.05  0.001037981    1.864    0.463
       222 -10.9013    119.5009     78.9964   9.8036626390e+01   4.3437099122e+01    0.2397207    0.1454246 -40.79  0.001038704    1.607    0.378
       223 -11.9660    174.3219     77.6372   8.4832345350e+01   3.0824600024e+01    0.3367922    0.2749974 -53.51  0.001394224    1.263    0.208
       224 -11.3567    183.2716     76.7555   8.2867402850e+01   2.8776225466e+01    0.2819711    0.1848367 -38.85  0.001023621    1.482    0.325
       225 -11.4466    157.1410     75.7796   8.7847866154e+01   3.5353344346e+01    0.3433555    0.2238961 -30.41  0.001179651    1.598    0.374
       226 -11.7585    139.9836     73.8151   9.1175856523e+01   3.9807344954e+01    0.2852437    0.2236298 -36.12  0.001248654    1.267    0.211
       227 -11.5756    195.4753     72.5341   7.9525605501e+01   2.6482453140e+01    0.3092386    0.1431345 -33.96 0.0009296002    2.102    0.524
       228 -11.9934    163.3937     71.5518   8.5253428811e+01   3.4560799307e+01    0.4268092    0.2554866 -32.74  0.001647635    1.697    0.411
       229 -11.2790    150.3440     72.4221   8.8333734019e+01   3.7592197450e+01    0.3088842    0.1893251 -39.15  0.001105633    1.615    0.381
       230 -11.4431    175.9934     71.7461   8.2806398033e+01   3.1414100965e+01    0.2784543    0.2005862 -17.05  0.001158132    1.635    0.389
       231 -11.4917    170.2651     70.4604   8.3541695573e+01   3.3048299138e+01    0.2935254    0.2094022 -34.36 0.0009741578    1.399    0.285
       232 -11.2777    157.1325     69.3228   8.5895559967e+01   3.6479612829e+01    0.2704642    0.2151609 -20.01  0.001128616    1.367    0.269
       233 -10.8396    187.4803     68.9432   7.9901981489e+01   2.9028531469e+01    0.2344857    0.1452344 -34.02  0.000914674    1.592    0.372
       234 -12.0594    194.0104     67.5169   7.8386277238e+01   2.7644371925e+01    0.3469638    0.2546169  -8.98 0.0008479512    1.724    0.420
       235 -11.4770    197.4660     64.0073   7.6850937438e+01   2.7342225634e+01    0.2772813    0.1781348 -39.45  0.001150782    1.490    0.329
       236 -11.0498    182.0251     68.2902   8.0687655878e+01   3.0486505731e+01    0.2106913    0.2024285  77.90 0.0006103913    1.042    0.040
       237 -10.8037    152.5292     66.0328   8.5874044217e+01   3.8163856278e+01    0.2357586    0.1491264 -33.89  0.001031429    1.591    0.372
       238 -11.1269    163.8567     64.6625   8.3082494510e+01   3.5598788291e+01    0.2685925    0.2113024 -19.94 0.0009018593    1.389    0.280
       239 -12.0602    146.0460     66.3609   8.7419167882e+01   3.9681175101e+01    0.4082208    0.2288125 -31.67  0.001598418    1.847    0.459
       240 -11.4972    171.0364     63.5263   8.1335280907e+01   3.3993800632e+01    0.3150464    0.2331428 -35.21  0.001054696    1.348    0.258
       241 -11.8318    157.9323     61.6422   8.3362868371e+01   3.7559644976e+01    0.4131849    0.2266704 -29.73  0.001694387    1.919    0.479
       242 -11.0433    187.4576     62.0197   7.7943117327e+01   3.0128082529e+01    0.2329352    0.1437621 -33.34  0.001034861    1.607    0.378
       243  -9.9358    182.3000     61.6750   7.8732670758e+01   3.1469060034e+01    0.1556429    0.1116326 -66.00 0.0003386127    1.633    0.388
       244 -11.5982    164.8479     58.9879   8.1157279403e+01   3.6260927155e+01    0.3445236    0.2596785 -18.50  0.001167972    1.486    0.327
       245 -11.7684    152.9843     59.2390   8.3644972041e+01   3.9169106208e+01    0.3147106    0.1907249 -32.65  0.001210089    1.673    0.402
       246 -12.2544    192.2724     54.9047   7.5140247895e+01   3.0001308312e+01    0.3532977    0.1932747 -35.34  0.001167422    1.771    0.435
       247 -10.8783    157.5426     55.0062   8.1368632508e+01   3.8703977172e+01    0.2266007     0.147244 -31.20 0.0006234316    1.573    0.364
       248  -9.3380    166.3102    186.3109   1.1241474696e+02   1.1698912298e+01    0.1382242    0.1059636   5.96 0.0004672423    1.625    0.384
       249 -11.8104    185.3952     52.7331   7.5624194595e+01   3.2041660975e+01    0.2601771    0.1947085 -19.37  0.001120348    1.499    0.333
       250 -11.5697    163.0937     52.5538   7.9512927773e+01   3.7687112518e+01    0.2983117     0.198142 -47.76    0.0010528    1.585    0.369
       251 -12.3933    174.7009     56.2786   7.8495967591e+01   3.4205482207e+01    0.5552948    0.2884513 -12.62  0.001879281    3.353    0.702
       252 -11.4670    169.3027     55.2596   7.9174456709e+01   3.5718404029e+01     0.324549    0.2142415 -25.15  0.001066985    1.638    0.390
       253 -11.0850    181.5855     47.1841   7.4629859577e+01   3.3797165023e+01    0.1994374    0.1432476 -14.55 0.0007481298    1.655    0.396
       254 -11.3965    173.0643     49.3668   7.6713946905e+01   3.5641044427e+01    0.3420389    0.2215471  -9.90  0.001478937    2.066    0.516
       255 -11.4813    138.8970     66.8631   8.9242828977e+01   4.1300341463e+01    0.2395094    0.2090515  11.72    0.0010571    1.248    0.198
       256 -11.1961    168.9980     44.2252   7.5859884011e+01   3.7397466727e+01     0.259362    0.1958828  -6.64  0.001213456    1.606    0.378
       257 -10.7961    162.7112     45.0239   7.7234283410e+01   3.8875895955e+01    0.2078575    0.1939283 -31.23 0.0008782572    1.105    0.095
       258 -11.0077    225.2428    173.0861   9.8358706063e+01   2.9573674531e+00    0.4086853    0.2826101 -28.87  0.001451908    1.394    0.283
       259 -10.6090    223.8484    183.6383   1.0071835902e+02   1.5835452789e+00    0.3486131    0.2164524 -34.84  0.001096868    1.614    0.380
       260  -9.9311    183.3090     43.3584   7.3236500415e+01   3.3891092135e+01    0.1502248    0.1097765  26.26 0.0007041819    1.734    0.423
       261  -9.7785    178.3601     43.2982   7.4005678455e+01   3.5151969159e+01    0.1526129    0.1071914  33.02  0.000703459    1.711    0.416
       262 -10.2207    225.5104    179.0759   9.9517805331e+01   1.9854881364e+00    0.2260336     0.190347 -22.65 0.0007380769    1.162    0.139
       263 -10.6059    203.3218    183.3499   1.0447038465e+02   5.3110145524e+00    0.3384333    0.2082208 -43.20  0.001290051    1.774    0.436
       264 -10.1478    217.8652    183.5643   1.0179048494e+02   2.6492877105e+00    0.2290549    0.1671898 -20.86  0.000839102    1.362    0.266
