#   1 NUMBER                 Running object number                                     
#   2 MAG_AUTO               Kron-like elliptical aperture magnitude                    [mag]
#   3 X_IMAGE                Object position along x                                    [pixel]
#   4 Y_IMAGE                Object position along y                                    [pixel]
#   5 X_WORLD                Barycenter position along world x axis                     [deg]
#   6 Y_WORLD                Barycenter position along world y axis                     [deg]
#   7 A_WORLD                Profile RMS along major axis (world units)                 [deg]
#   8 B_WORLD                Profile RMS along minor axis (world units)                 [deg]
#   9 THETA_WORLD            Position angle (CCW/world-x)                               [deg]
#  10 FWHM_WORLD             FWHM assuming a gaussian core                              [deg]
#  11 ELONGATION             A_IMAGE/B_IMAGE                                           
#  12 ELLIPTICITY            1 - B_IMAGE/A_IMAGE                                       
         1 -12.4995    201.2419     39.2082   4.3590278780e+01   3.0023963599e+01     1.100357    0.9898595  43.68  0.004331648    1.309    0.236
         2 -12.3779    212.4939     27.9983   3.9499981254e+01   2.8784231812e+01    0.8501065     0.729157  31.87  0.003326106    1.545    0.353
         3  -9.7942     32.9046     13.2724   7.7309048481e+01   6.9715598357e+01    0.5712368   0.05879342 -36.89  0.001396154    9.396    0.894
         4 -10.5524    240.2965      4.0573   3.1788725070e+01   2.5318657240e+01    0.4706513    0.3537024  37.79  0.002941748    2.057    0.514
         5 -10.7152    235.2825      3.3118   3.1973154491e+01   2.6464882577e+01     0.465675    0.3337421  76.34  0.002805303    1.351    0.260
         6  -8.3067     48.9241    225.2243   1.1761596049e+02   2.1253921598e+01    0.1610588    0.1274806  64.79  0.001083806    1.039    0.038
         7 -13.6606    111.3082    230.7325   1.0539404816e+02   1.1373237091e+01     6.578676     1.944155  36.48   0.02443313    3.094    0.677
         8 -13.6326      8.6823    207.3108   1.2430496588e+02   2.9350884192e+01     2.530023      1.36343 -56.65   0.01247663    2.217    0.549
         9 -14.7227      3.4427    184.5507   1.2396585121e+02   3.4772132511e+01     13.72689          nan -73.96   0.03233418    9.553    0.895
        10  -9.5854     48.1875    217.3582   1.1711186392e+02   2.2974598710e+01    0.3766613    0.3134607  13.29   0.00228856    1.756    0.431
        11 -12.4143     24.4403    226.6871   1.2245951428e+02   2.3764998397e+01     1.188815    0.5572307  68.97  0.004175346    1.948    0.487
        12  -8.3523     91.9277    215.8969   1.0770813544e+02   1.7294416680e+01    0.1987759    0.1641784  68.74 0.0005394191    1.111    0.100
        13 -12.0837     52.5859    190.2759   1.1356400549e+02   2.8405252618e+01     1.105415    0.7621849 -73.63  0.005463419    1.342    0.255
        14 -10.7598     85.6721    221.9760   1.0975020140e+02   1.6973847815e+01    0.4152225    0.2909676  87.86 0.0006034917    1.526    0.344
        15  -8.4901     30.7300    202.2356   1.1948661665e+02   2.8242007602e+01    0.3564684    0.1212697  48.14   0.00121992    2.541    0.606
        16  -9.2499    109.9119    201.2992   1.0175176249e+02   1.7536068321e+01    0.2302349    0.1830689 -83.35 0.0006669098    1.377    0.274
        17  -9.1497     61.9627    200.1530   1.1250672777e+02   2.4960215358e+01    0.2232914    0.1649626 -83.87  0.000541757    1.267    0.211
        18 -11.3927     11.3142    188.7344   1.2257888165e+02   3.3159442188e+01    0.2913717    0.2491796  69.85 0.0006852769    1.176    0.150
        19  -8.2069     66.4994    194.5083   1.1084241344e+02   2.5624916133e+01    0.1830752    0.1293723  25.84 7.753004e-05    1.717    0.418
        20  -7.5781     72.4368    188.4271   1.0871302055e+02   2.6197114283e+01    0.1372126    0.1165048  74.06 0.0001111987    1.057    0.054
        21  -8.1203     99.5011    180.9028   1.0109696314e+02   2.3803746749e+01    0.2228569    0.1801948  44.16 0.0006054878    1.200    0.167
        22 -10.4867     67.3217    175.3072   1.0822258829e+02   2.9999939913e+01    0.5449719    0.2626343 -48.38  0.002320306    2.383    0.580
        23 -10.2898     71.9669    170.2745   1.0634621927e+02   3.0562518446e+01    0.3668459    0.2714166 -38.15 0.0007885834    1.686    0.407
        24  -8.7447     41.6700    179.1044   1.1491347745e+02   3.2308252591e+01    0.1850642     0.180729  50.98 0.0004157553    1.282    0.220
        25  -8.5580     44.6765    176.6720   1.1393193577e+02   3.2539350897e+01    0.2027588      0.17375 -70.99 0.0008496312    1.176    0.150
        26  -7.7561    144.3363    178.6849   8.9901707724e+01   1.6299789533e+01    0.1511104    0.1158742  74.32 -8.394958e-05    1.694    0.410
        27  -9.0534    101.4990    171.4647   9.9037786973e+01   2.5678592989e+01    0.2664618    0.1412489 -71.06  0.001037726    2.395    0.583
        28  -8.0687     34.2215    171.4526   1.1588659416e+02   3.4936898948e+01    0.1797666    0.1028899  49.35 0.0009410592    1.713    0.416
        29 -11.0151     80.8701    161.1263   1.0261437552e+02   3.1482784436e+01    0.6221235    0.3916026  60.17 0.0004289868    1.788    0.441
        30 -11.9636     69.0772    156.3953   1.0498169726e+02   3.4367567971e+01    0.6693775    0.5353181 -11.99  0.001962085    1.730    0.422
        31 -12.6846     68.5959    144.5058   1.0312681461e+02   3.7392915405e+01     2.157345     1.117978  80.18   0.00680686    4.270    0.766
        32  -7.7752    156.3515    158.6541   8.2988173877e+01   1.8268528101e+01    0.1591338    0.1231578  84.33 0.0007039686    1.818    0.450
        33 -10.0954     86.5456    155.7034   1.0017039622e+02   3.1932869519e+01    0.4562664    0.3657606   3.27 0.0008711269    1.671    0.401
        34  -9.8015     88.6807    152.3296   9.8981013181e+01   3.2421049296e+01    0.3525374    0.2746547  54.93  0.001247948    1.319    0.242
        35  -9.3862    134.4612    146.4554   8.5638184131e+01   2.5436921521e+01     0.675715    0.1558655 -50.30  0.001717258    4.559    0.781
        36 -12.1714     57.5233    240.3504   1.1715253435e+02   1.7182013009e+01    0.6552883     0.326004  52.65 0.0007960457    1.647    0.393
        37 -13.5741     34.6664    249.4249   1.2198366234e+02   1.8234973437e+01     2.846966    0.8306547  28.39  0.008782485    7.940    0.874
        38  -9.4017     82.5578    142.3408   9.8787317071e+01   3.5865515695e+01    0.3177159    0.2558771  76.40  0.001378535    1.363    0.266
        39  -9.2432    101.9939    139.8006   9.2815511540e+01   3.3234138740e+01    0.5086854    0.3416863 -20.27  0.002075813    2.294    0.564
        40 -10.4850     89.2432    139.6137   9.6354533755e+01   3.5468540290e+01    0.3006142    0.2700274 -37.29 0.0006253615    1.186    0.157
        41  -9.2414     53.7595    149.0176   1.0799291155e+02   3.8209448868e+01    0.2561363    0.1657184  52.29  0.001290012    1.633    0.388
        42  -8.8974     34.3046    139.2537   1.1198396066e+02   4.2789250110e+01    0.1993284    0.1668493  28.49 0.0005918112    1.414    0.293
        43  -8.4587     86.8353    249.2768   1.1230294867e+02   1.1575701673e+01    0.1934195    0.1420896  84.75 0.0007701212    1.427    0.299
        44 -10.5098     70.2004    134.0097   1.0073750577e+02   3.9791098134e+01    0.6336978    0.2054137  42.91  0.002147182    3.293    0.696
        45  -9.0697    111.5158    130.1078   8.7981720044e+01   3.3814984834e+01    0.3363019    0.2339216  35.18  0.001515979    1.519    0.342
        46  -8.6987    105.7839    130.8696   8.9765946679e+01   3.4712122382e+01    0.3348313     0.248499 -64.93  0.001424995    1.426    0.299
        47  -8.7046     77.4143    226.0238   1.1190652306e+02   1.7336848884e+01    0.2541061    0.1678539  89.76  0.001380112    1.611    0.379
        48  -9.0680     98.4905    126.2657   9.0784521690e+01   3.7154843438e+01    0.2952299    0.2433309 -10.46  0.001093722    1.489    0.329
        49  -7.4380     90.5411    123.5267   9.2483404333e+01   3.9208834872e+01    0.1515875     0.142114 -76.05 0.0002400998    1.072    0.068
        50  -7.9702    134.6710    119.3277   7.9032073349e+01   3.1596066133e+01    0.1631979    0.1276118 -89.58 0.0007050959    1.707    0.414
        51  -7.9965    107.6614    119.1048   8.6399706304e+01   3.7171246455e+01    0.2147353    0.1832287 -44.17 0.0001970656    1.140    0.123
        52  -9.9951     53.6170    116.7171   1.0239861296e+02   4.6287332167e+01    0.4747657    0.1153574 -59.69   0.00148482    3.463    0.711
        53  -8.2533    205.9650    110.2898   6.0992523424e+01   1.7410237466e+01    0.2011437    0.1960787 -53.73 0.0006101952    1.055    0.053
        54 -10.1502     33.1481    112.0195   1.0806487407e+02   4.9635211331e+01    0.9075632   0.09523431 -65.54  0.001795034    9.644    0.896
        55  -8.4411    135.0000    106.9413   7.5637438378e+01   3.4262281196e+01    0.2680749   0.08924323 -43.73 0.0008044621    2.956    0.662
        56  -8.5969    120.4702    104.5144   7.8892717747e+01   3.7940203538e+01    0.1563054    0.1515836 -25.28 0.0008097006    1.017    0.017
        57  -8.7624     40.9837    104.0162   1.0395096330e+02   5.0817430795e+01    0.1692789    0.1418512 -57.30 0.0005504398    1.027    0.026
        58  -9.7840    247.0096    101.8806   5.2549409274e+01   1.0346176962e+01    0.3167991    0.1455512 -54.99  0.001231191    2.812    0.644
        59  -9.2774     33.0102    100.3967   1.0592799026e+02   5.2469901263e+01    0.2582797    0.1709786 -78.52 0.0009661816    1.606    0.378
        60  -8.5317    127.5145     94.5244   7.4106904917e+01   3.8572435307e+01    0.1548515    0.1526748 -29.85 1.008849e-05    1.015    0.015
        61  -8.1590     59.7526    220.8107   1.1504382760e+02   2.0795074926e+01    0.2178192    0.1543259  16.23    0.0012166    2.133    0.531
        62  -8.1146    234.6610     85.6769   5.0544302108e+01   1.5478376502e+01    0.1348511     0.108081   9.05 0.0005293504    1.720    0.419
        63  -7.8752    115.2844     84.6496   7.4549472280e+01   4.3282031478e+01    0.1539018    0.1229883 -77.22 0.0005635233    1.656    0.396
        64  -7.8695     70.2093     81.6330   8.8088132883e+01   5.2296224186e+01    0.1856615    0.1344351  19.12 0.0004106548    1.541    0.351
        65  -8.4429     33.0000     69.9091   9.8779958254e+01   5.9489501676e+01    0.2169896   0.06449681 -56.79 0.0005863546    2.905    0.656
        66  -8.2432     54.1852     65.2439   8.8939034544e+01   5.8062441498e+01     0.167744    0.1610639  69.06 0.0003849552    1.346    0.257
        67 -11.7436    191.3262     46.4136   4.6816983602e+01   3.1449894455e+01    0.6177998    0.5325263  80.93   0.00193463    1.106    0.096
        68 -15.0270      7.3809    242.9007   1.2637528226e+02   2.2359685876e+01     14.12485     1.459601 -78.27    0.0391904    9.782    0.898
        69  -9.3002     95.8783    242.3741   1.0985169870e+02   1.1531906188e+01    0.2905192    0.1651101 -59.05  0.001134895    2.020    0.505
        70  -9.5276    140.9167     46.5164   5.5721743687e+01   4.3960542022e+01    0.3213248    0.2434208 -80.78  0.000957867    1.664    0.399
        71  -8.3019    144.2025     41.1688   5.3301452509e+01   4.3894145115e+01    0.2074693    0.1868476  39.79 0.0004005695    1.111    0.100
        72  -9.4501     78.1701    220.8175   1.1120716098e+02   1.8290274108e+01    0.3703642    0.1710478  43.32  0.001796234    1.857    0.461
        73  -9.4939     59.3138    230.2858   1.1597445558e+02   1.8921990425e+01    0.2679975    0.1916334 -75.32 0.0004452656    1.419    0.295
        74 -12.3577     42.4824    200.9440   1.1687176170e+02   2.7208433220e+01     1.515196    0.7262153  58.01   0.00379188    2.005    0.501
