#   1 NUMBER                 Running object number                                     
#   2 MAG_AUTO               Kron-like elliptical aperture magnitude                    [mag]
#   3 X_IMAGE                Object position along x                                    [pixel]
#   4 Y_IMAGE                Object position along y                                    [pixel]
#   5 X_WORLD                Barycenter position along world x axis                     [deg]
#   6 Y_WORLD                Barycenter position along world y axis                     [deg]
#   7 A_WORLD                Profile RMS along major axis (world units)                 [deg]
#   8 B_WORLD                Profile RMS along minor axis (world units)                 [deg]
#   9 THETA_WORLD            Position angle (CCW/world-x)                               [deg]
#  10 FWHM_WORLD             FWHM assuming a gaussian core                              [deg]
#  11 ELONGATION             A_IMAGE/B_IMAGE                                           
#  12 ELLIPTICITY            1 - B_IMAGE/A_IMAGE                                       
         1 -14.4534    152.1040     60.0243   8.3320833672e+01   3.9405922344e+01     1.341326     1.102006  38.53  0.000891562    1.253    0.202
         2 -14.8785    163.4823     45.5418   7.6831262100e+01   3.8779308579e+01      1.21814     1.085208 -15.89  0.003864702    1.286    0.223
         3 -15.1553    177.8921     14.2358   6.5892213340e+01   3.9022949159e+01     2.693881     1.257229  60.65  0.008570883    1.817    0.450
         4 -11.9253    135.6781    241.1269   1.2688245537e+02   5.5809197014e+00    0.5311065    0.2796134  47.78  0.001172327    1.611    0.379
         5 -20.3099     72.8207    178.4754   1.3150476377e+02   2.9154163644e+01     17.32646     6.690329 -64.68   0.06975392    2.444    0.591
         6 -11.0032      1.3409    197.1045   1.4832575444e+02   3.3189239910e+01    0.1596656   0.07909299 -75.06 0.0007473085    1.577    0.366
         7 -13.2055    164.5631    187.3273   1.1212881671e+02   1.0629615440e+01    0.7806252    0.3366373  51.74  0.002388754    2.551    0.608
         8 -11.6831    164.6592    183.3206   1.1132912144e+02   1.1439809440e+01    0.2376524    0.1873039 -66.06 0.0006476577    1.441    0.306
         9 -12.5617    189.6593    177.7859   1.0485982980e+02   7.4668137645e+00    0.8390638    0.4629209 -66.12  0.002826321    3.652    0.726
        10 -12.2975     13.0717    239.2971   1.4899367587e+02   2.3499343706e+01    0.3318296    0.1688933 -79.91   0.00213153    1.632    0.387
        11 -12.7836    204.3641    175.2002   1.0131223905e+02   4.9928405046e+00    0.4937276     0.473704 -82.05  0.001446865    1.182    0.154
        12 -12.2432    196.6993    175.9369   1.0302007765e+02   6.3974923775e+00    0.5791286    0.4252293 -68.79  0.002301741    1.859    0.462
        13 -12.6034    189.7531    155.6402   1.0007380481e+02   1.1918365790e+01    0.5412761    0.4857999  27.84  0.001626536    1.161    0.139
        14 -12.7387    192.9724    165.3695   1.0154215038e+02   9.2574767999e+00    0.4668693     0.331369 -42.84 0.0009982963    1.409    0.290
        15 -12.3461    189.9529    160.9993   1.0121941293e+02   1.0779872060e+01    0.3669896    0.3489692 -89.68 0.0009377767    1.131    0.116
        16 -10.7118    151.0268    239.1374   1.2360631792e+02   3.2657673763e+00    0.2136004    0.1916008  21.30  0.001000156    1.254    0.203
        17 -12.3402    230.4976    167.7542   9.4715309382e+01   1.2460817167e+00     0.480721    0.2115489 -49.66   0.00181728    2.721    0.632
        18 -12.6364    177.3403    170.2176   1.0589547223e+02   1.1550150885e+01    0.6416982    0.2780402 -59.24   0.00189105    4.128    0.758
        19 -11.6465    161.2385    236.8820   1.2126903786e+02   1.8586967079e+00    0.4354031    0.2772472 -43.68  0.001729158    1.851    0.460
        20 -12.2300     21.7526    234.2830   1.4725063676e+02   2.3527121736e+01     0.227951    0.1345988 -84.82   0.00120746    1.382    0.277
        21 -10.9983     22.9553    156.0512   1.4013977633e+02   4.0356070881e+01    0.2290722    0.1684258  42.82 0.0003887793    1.557    0.358
        22 -10.8693     17.7013    158.7015   1.4164221747e+02   4.0223865013e+01    0.3291837    0.1976589  16.09  0.001843545    2.556    0.609
        23 -11.3648     18.1716    155.3499   1.4116579991e+02   4.0949546805e+01    0.3039356     0.189151 -67.18  0.001200124    1.299    0.230
        24 -11.6865    167.2850    155.8128   1.0499329826e+02   1.6752962988e+01    0.3083795    0.2089664  69.42  0.001283484    1.953    0.488
        25  -9.9702    131.0000    232.8278   1.2668247206e+02   7.9074542103e+00    0.1825434   0.07549436 -55.25 0.0006558635    2.740    0.635
        26  -9.5468      5.3593    232.8829   1.4986967914e+02   2.5536668563e+01     0.212022     0.128808  40.23  0.001460762    1.878    0.467
        27 -11.4872    140.0557    227.9307   1.2417301429e+02   7.2321949718e+00     0.425278    0.3267763  54.83  0.001784348    1.162    0.140
        28 -11.1408    174.2293    148.5485   1.0180853845e+02   1.6798142435e+01    0.4273514    0.2901056 -64.71  0.001488362    1.824    0.452
        29 -11.2583     27.2938    145.7018   1.3782429893e+02   4.2350201700e+01    0.2557231    0.2228564  48.54 0.0009598198    1.345    0.256
        30 -11.3579    218.2422    220.6655   1.0745611427e+02  -5.4893930934e+00    0.3856251    0.1578541 -47.95  0.001550466    3.232    0.691
        31  -9.9751      9.4424    137.4667   1.4117650684e+02   4.5742691413e+01    0.1647123    0.1144631  -8.48  0.001004331    2.210    0.548
        32  -9.9798    168.6947    135.3204   9.9939330024e+01   2.0878256210e+01    0.1607421    0.1247111 -84.50 0.0004324255    1.635    0.388
        33 -12.6079    160.2620    127.8774   1.0005127871e+02   2.4400574607e+01    0.5176436     0.367797 -56.77  0.001759075    1.487    0.328
        34 -10.3171    119.3153    212.5650   1.2620972537e+02   1.3954779698e+01    0.1872015    0.1638242 -28.89 0.0004109859    1.530    0.347
        35 -11.3438    135.3029    236.6562   1.2635304584e+02   6.4525407068e+00    0.2835899    0.2002955  76.02  0.001013095    1.669    0.401
        36 -10.9154    167.4409    112.5721   9.4548869779e+01   2.5986872447e+01    0.3535706    0.2498803 -87.16  0.001446582    2.044    0.511
        37 -12.6022    125.2903    238.0850   1.2850977739e+02   7.9116679924e+00    0.3518665    0.2011149 -60.64  0.001366728    1.997    0.499
        38 -10.9638    205.1277    110.4828   8.6335938968e+01   1.7520361900e+01     0.335357    0.2553212  33.54 0.0009536842    1.568    0.362
        39 -13.7775     11.7489    206.0289   1.4705132937e+02   3.0334770571e+01    0.5072659    0.3355527  35.46  0.002556825    1.884    0.469
        40  -8.4771     17.6521    199.7183   1.4547294300e+02   3.1087868288e+01    0.1680288   0.09157962 -68.88 0.0009940395    1.592    0.372
        41 -11.9166     33.2431     99.6107   1.2859354833e+02   5.2371860296e+01    0.4943239    0.2198987  48.64   0.00213133    3.379    0.704
        42 -11.6565     13.2598    100.6898   1.3487169235e+02   5.3725179754e+01    0.3261135    0.2017746  26.55  0.002002599    2.001    0.500
        43 -10.7168    140.1906    200.8595   1.1989107768e+02   1.2578379134e+01    0.3086531    0.2778829 -40.08  0.001759976    1.273    0.214
        44 -10.6573    135.1576    198.4015   1.2057333777e+02   1.4044083078e+01    0.2400775    0.1990595 -59.47 0.0004297458    1.268    0.211
        45 -10.7128    144.9492     81.6579   9.1275796270e+01   3.7390425950e+01    0.2158381    0.1932808  56.77 0.0004591517    1.108    0.097
        46 -11.2819    163.5935    248.0687   1.2244583997e+02  -4.0967281786e-01    0.2687033     0.155624 -51.88 0.0009459291    2.103    0.525
        47 -10.1230    127.1185    249.1545   1.2955482671e+02   5.6125198644e+00    0.1548933    0.1374244  58.12 0.0003135399    1.106    0.096
        48 -13.3281    167.9769     37.1490   7.3647583538e+01   3.8796172667e+01    0.4995498    0.4035023  65.83 0.0008382436    1.125    0.111
        49 -11.6366     13.5205     59.9688   1.2618146231e+02   6.2121418285e+01    0.2062494    0.1748348 -49.14 0.0005411456    1.180    0.153
        50 -10.8271    121.7427    198.1285   1.2347345005e+02   1.6583528878e+01    0.2640601    0.2229734 -50.61 0.0009476601    1.319    0.242
