#   1 NUMBER                 Running object number                                     
#   2 MAG_AUTO               Kron-like elliptical aperture magnitude                    [mag]
#   3 X_IMAGE                Object position along x                                    [pixel]
#   4 Y_IMAGE                Object position along y                                    [pixel]
#   5 X_WORLD                Barycenter position along world x axis                     [deg]
#   6 Y_WORLD                Barycenter position along world y axis                     [deg]
#   7 A_WORLD                Profile RMS along major axis (world units)                 [deg]
#   8 B_WORLD                Profile RMS along minor axis (world units)                 [deg]
#   9 THETA_WORLD            Position angle (CCW/world-x)                               [deg]
#  10 FWHM_WORLD             FWHM assuming a gaussian core                              [deg]
#  11 ELONGATION             A_IMAGE/B_IMAGE                                           
#  12 ELLIPTICITY            1 - B_IMAGE/A_IMAGE                                       
         1  -9.1471    115.0522     69.2361   7.9397251788e+01   4.6289472976e+01    0.2565913     0.209967 -44.01 0.0002491411    1.209    0.173
         2  -8.8001    248.5630    237.9494   8.9066154256e+01  -1.0107005811e+01    0.2587629     0.125395  24.83  0.001439182    1.877    0.467
         3 -10.1005    243.0635    236.8484   8.9800516213e+01  -9.2048483216e+00    0.6305543    0.3003634  14.11  0.002947279    2.975    0.664
         4 -10.4378    203.1668    249.5954   9.8539172026e+01  -4.6910290794e+00    0.8731463    0.1955539  38.52  0.003283878    3.669    0.727
         5  -9.4552    233.4967    250.5367   9.3523605834e+01  -9.2941213677e+00    0.4298235   0.08434728  39.12  0.001621019    4.029    0.752
         6  -8.9756    237.0752    247.5173   9.2471588981e+01  -9.4875266073e+00    0.1899854    0.1538753  43.46 0.0006834104    1.597    0.374
         7 -10.7139    226.1302    240.3570   9.3215217996e+01  -7.1048133448e+00    0.4181434    0.1820854  35.91  0.002227462    1.857    0.462
         8  -9.6018    226.7256    250.5712   9.4660899630e+01  -8.3229615236e+00    0.5815771    0.1301739  41.10  0.002300862    3.641    0.725
         9 -10.5516    245.5545    244.5748   9.0614217687e+01  -1.0377693965e+01    0.6967729    0.2694999  32.34  0.003631595    2.157    0.536
        10  -9.3033    238.4430    243.8349   9.1676530713e+01  -9.2932935711e+00    0.2972498    0.1490938  37.30  0.001272882    1.647    0.393
        11 -11.3857    219.2818    244.5528   9.5027135962e+01  -6.5546798464e+00    0.7412209    0.4233885 -12.69  0.004216913    2.291    0.563
        12  -9.2138    242.9718    250.4775   9.1949274737e+01  -1.0621062403e+01     0.285608    0.1352551  40.79  0.001661373    1.898    0.473
        13  -9.2259    185.5775    250.2498   1.0169391147e+02  -2.0429458121e+00    0.3740738    0.1340481  42.18  0.001790351    2.184    0.542
        14  -9.9108    167.6870    249.9505   1.0480692665e+02   8.1677860798e-01    0.4158992    0.1568363  37.02  0.001959106    2.277    0.561
        15  -8.9284    143.9513    249.6627   1.0898171313e+02   4.6105085417e+00     0.282019    0.1672947  32.17  0.001499868    1.693    0.409
        16  -8.6082    138.5420    250.4898   1.1003371779e+02   5.3377619946e+00    0.2799681   0.08864348  43.80  0.001010467    2.407    0.585
        17  -9.9352    120.2710    239.9300   1.1214643443e+02   9.8149512207e+00    0.4654202    0.2830108  15.39  0.001967326    4.316    0.768
        18  -9.8494    133.0788    245.9819   1.1050286638e+02   6.8646464144e+00    0.4026971    0.2398902 -40.39  0.002325883    2.486    0.598
        19  -8.8910    128.2752    248.8489   1.1167166332e+02   7.1778262965e+00    0.2289291    0.1342804  31.94 0.0009094487    1.856    0.461
        20  -8.6007    124.4654    249.0327   1.1236518027e+02   7.7370929123e+00    0.1902068    0.1538773  67.49 0.0007883388    1.196    0.164
        21 -10.3831    103.6177    247.8909   1.1591874418e+02   1.1056774963e+01    0.3516532     0.272613 -41.27  0.002403863    2.007    0.502
        22  -9.0993    119.2606    248.9542   1.1327566721e+02   8.5450851897e+00    0.3939454    0.2772354  -6.50  0.002014802    3.643    0.726
        23 -10.2932    116.9383    246.3027   1.1341566869e+02   9.3123625615e+00    0.6725914     0.368481  22.62  0.002884898    4.052    0.753
        24  -9.4718    109.1788    243.8275   1.1454564503e+02   1.0883083765e+01    0.1873099    0.1747282  -3.05 0.0009179394    1.608    0.378
        25 -10.2769    113.8769    243.0898   1.1363241724e+02   1.0290466721e+01     0.331828    0.1751079  39.43  0.001606982    1.678    0.404
        26  -8.8784    125.1747    245.3869   1.1185196011e+02   8.1890145996e+00     0.239034    0.1481781  52.74 0.0009226481    1.310    0.237
        27  -9.9843    124.4034    241.2605   1.1154227767e+02   8.9572921935e+00     0.300311    0.2554432  18.84  0.001606532    1.552    0.356
        28  -9.2361    108.5431    249.3647   1.1519730230e+02   1.0093677167e+01    0.2612416    0.1814949  26.26   0.00162606    1.959    0.490
        29  -9.1790     98.9726    247.5187   1.1669534430e+02   1.1796905969e+01    0.1712778    0.1638087 -11.65 0.0008922682    1.624    0.384
        30  -9.3439     89.1309    249.7890   1.1859471150e+02   1.2838966566e+01    0.2751799    0.1681563  40.44   0.00153643    1.535    0.349
        31  -9.5169     73.6037    250.1049   1.2125142704e+02   1.4921227519e+01    0.3684693    0.1321321  46.05  0.001963701    2.072    0.517
        32 -10.3242     64.2853    248.7185   1.2270650094e+02   1.6378484485e+01    0.4960042    0.1887313  38.99  0.002606957    2.459    0.593
        33 -10.0591     50.3512    249.7962   1.2506262924e+02   1.7951297449e+01    0.4061199    0.1461639  43.76  0.002271893    2.161    0.537
        34 -10.6779      6.6952    248.8551   1.3179609891e+02   2.2945797215e+01    0.4626417     0.263075  47.98  0.003555427    1.518    0.341
        35 -10.5238      3.3939    242.3947   1.3204374399e+02   2.4364728271e+01    0.4045242     0.172866  70.65  0.002668819    1.747    0.428
        36  -9.1198    151.5923    249.0893   1.0755703282e+02   3.4867973870e+00     0.228504    0.1406945  38.28 0.0008017645    1.336    0.251
        37  -9.9941     33.2859    247.9557   1.2768405718e+02   2.0271846454e+01     0.322484    0.1516874  54.91  0.002134327    1.532    0.347
        38  -8.9615     26.2280    248.9116   1.2883549639e+02   2.0896458499e+01    0.2363001   0.08484747  53.46  0.001160842    1.949    0.487
        39  -8.0245    205.9845    240.4341   9.6719459048e+01  -4.0222577111e+00    0.1839776   0.09384471  38.72 0.0007354595    1.574    0.365
        40  -9.7614    202.1971    238.8086   9.7145611732e+01  -3.2230052756e+00    0.2741542    0.1830966 -22.31  0.001710323    1.786    0.440
        41  -9.1673    192.2529    248.2668   1.0025403197e+02  -2.8397165402e+00    0.2861187    0.1397774  35.50  0.001366971    1.654    0.395
        42  -9.4116    198.6175    244.8308   9.8654696521e+01  -3.4101122234e+00    0.3644262    0.2327944  11.93  0.002015616    1.868    0.465
        43 -11.6834     15.5990    240.4404   1.3009131791e+02   2.3480008105e+01    0.6267004    0.2531838  42.02  0.003924744    2.134    0.531
        44  -9.3403    157.7444    245.2819   1.0599250406e+02   3.0471989381e+00    0.2937406    0.1537177  32.54  0.001493053    1.870    0.465
        45  -8.8070    139.2180    245.7473   1.0937601340e+02   5.9332264983e+00    0.2844843    0.1304206  37.83  0.001465027    1.909    0.476
        46 -10.5104     94.9932    244.0267   1.1707427807e+02   1.2946237629e+01    0.2800288    0.2336866 -15.02  0.001867522    2.236    0.553
        47  -9.6930     81.1356    244.6887   1.1954534339e+02   1.4798281738e+01    0.3087581    0.2182957  33.83   0.00206035    1.723    0.420
        48  -9.0519    188.3342    245.0967   1.0050510327e+02  -1.8227458763e+00    0.2083523    0.1315682  32.43   0.00073686    1.304    0.233
        49 -10.4839    178.2892    243.5442   1.0207982025e+02  -1.5590001506e-02    0.4946937    0.2276594  32.15  0.002458831    2.110    0.526
        50  -8.6719    163.9000    244.1800   1.0474623484e+02   2.2133328252e+00    0.1968431    0.1691502  13.30  0.001393345    1.321    0.243
        51  -8.3892    147.6860    245.1426   1.0778363885e+02   4.6772525161e+00    0.2252102    0.1373925  23.52  0.001215852    2.188    0.543
        52  -9.3884     44.0710    244.3166   1.2574923615e+02   1.9640461501e+01    0.3474042     0.126044  45.23  0.001963455    2.098    0.523
        53 -10.1435    226.6541    246.9013   9.4125132857e+01  -7.9140661506e+00    0.5832552    0.1533391  38.92  0.002485283    3.035    0.671
        54  -7.8004    152.7118    243.9600   1.0673435406e+02   4.0450785329e+00    0.1193689     0.109057 -50.85 0.0005970045    1.390    0.280
        55  -9.6608     22.2243    244.3032   1.2923661807e+02   2.2114999111e+01    0.3470343   0.07285982  43.19  0.001722253    3.108    0.678
        56 -10.3958     29.1803    242.8461   1.2806714458e+02   2.1607437068e+01    0.3018825     0.214594  16.97  0.001944461    3.039    0.671
        57 -10.3167      4.6381    234.9651   1.3156186278e+02   2.5534943890e+01    0.4696595    0.1039476  53.77  0.002406866    2.894    0.654
        58  -9.1551    193.7238    241.8144   9.9086565243e+01  -2.2585376642e+00    0.2962146    0.1546681  33.71  0.001641923    1.606    0.377
        59  -8.8087    143.8385    241.8596   1.0808469828e+02   5.7811849686e+00    0.1818303    0.1432126  32.00 0.0009245221    1.280    0.218
        60 -10.1849    103.6168    242.0527   1.1536231505e+02   1.2005863857e+01     0.225341     0.141167  30.36  0.001306249    1.995    0.499
        61  -9.0823    170.9497    239.9262   1.0291171851e+02   1.6675310971e+00    0.3668115    0.2037957  25.55  0.001612603    2.125    0.529
        62  -8.5634    175.8747    237.3898   1.0166924936e+02   1.2177118155e+00    0.2016395    0.1450493  23.11  0.001002628    1.406    0.289
        63  -8.3482    138.5123    240.0005   1.0883227589e+02   6.9192594396e+00    0.1505553    0.1200388 -60.36 0.0007301165    1.547    0.354
        64  -9.0377    130.5109    240.3622   1.1033282368e+02   8.1380363026e+00    0.2101571   0.09249326  42.38  0.001063922    1.822    0.451
        65  -8.3060    134.3894    237.7852   1.0932500357e+02   7.9261150433e+00    0.1747895      0.13913 -10.45  0.001087838    1.995    0.499
        66  -9.1428     53.0662    239.1560   1.2392707261e+02   1.9442790461e+01      0.30001    0.1301291  50.47  0.001763323    1.745    0.427
        67  -9.3316     37.4506    240.2204   1.2658863427e+02   2.1128141713e+01    0.1963363    0.1148187  51.41  0.001371419    1.361    0.265
        68 -10.6856    212.7379    245.0583   9.6228487177e+01  -5.6212383132e+00     0.450644    0.2055705  25.27  0.002128872    2.466    0.595
        69 -10.4339    232.8664    243.2184   9.2515228759e+01  -8.4203407737e+00    0.5235783    0.3253715   1.91  0.003259837    1.738    0.425
        70  -9.0893    112.5254    238.4188   1.1339210848e+02   1.1258769539e+01    0.1885851    0.1586403  15.51  0.001029606    1.719    0.418
        71  -9.9490     68.9012    240.3661   1.2131233720e+02   1.7195457332e+01    0.4018811      0.28706  14.27  0.002312648    3.036    0.671
        72  -9.4902    248.1042    250.4904   9.1113114225e+01  -1.1328313413e+01     0.353772    0.1394511  38.08  0.001934404    2.081    0.519
        73  -9.9127    184.4614    236.3265   9.9959746948e+01  -4.0522309269e-02    0.4437347    0.2117082  30.23  0.002164347    2.153    0.535
        74  -9.3348    191.0853    233.9085   9.8407223158e+01  -7.9550428284e-01    0.3548119    0.2037856   8.89  0.001619577    3.090    0.676
        75  -9.0333    195.8690    229.8678   9.6931383921e+01  -1.0347450247e+00    0.2959861    0.1696041  32.18  0.001523286    1.515    0.340
        76  -9.4796    162.0446    235.1665   1.0389819019e+02   3.8136883016e+00    0.3485506    0.2318006  19.76  0.001736519    1.883    0.469
        77  -9.1414    129.6157    235.6103   1.0994891519e+02   9.0377818370e+00     0.252318    0.1427052 -37.84  0.001293718    2.875    0.652
        78  -9.2463     91.3407    236.4703   1.1702942095e+02   1.4752264119e+01    0.2077501    0.2009254  38.12  0.001256825    1.473    0.321
        79  -8.8966     44.8953    236.6673   1.2513946738e+02   2.0879225844e+01    0.2830094   0.09140806  58.59   0.00136652    2.719    0.632
        80  -9.1280    196.8307    235.9242   9.7672135098e+01  -1.9953688292e+00    0.3087249    0.1474795  36.88  0.001596804    1.715    0.417
        81  -9.5068    210.9453    241.0550   9.5943931498e+01  -4.8708229849e+00    0.1856962    0.1169171  17.33 0.0008157706    1.612    0.380
        82 -10.0609    208.1474    235.0433   9.5523802965e+01  -3.6932284391e+00    0.2709293    0.1434792  42.31  0.001473554    1.628    0.386
        83  -9.0191    139.7519    234.9263   1.0799134717e+02   7.5115498513e+00    0.2767671    0.1486093  36.04  0.001473912    1.737    0.424
        84 -11.3902     12.4226    232.5552   1.3023399078e+02   2.5194030408e+01    0.4044977    0.1994268  79.72  0.002705703    1.599    0.375
        85  -8.6997    171.2867    232.7233   1.0185672957e+02   2.6394425038e+00    0.2426341    0.1617344  12.52  0.001323926    2.070    0.517
        86  -8.4006    153.8119    232.9199   1.0512361398e+02   5.5142746380e+00    0.1917762    0.1491342  27.25  0.001223941    1.330    0.248
        87  -8.4977    108.9608    233.4926   1.1352558273e+02   1.2632031752e+01    0.1870307   0.09850143  42.97  0.001029255    1.586    0.370
        88  -8.6979    237.4622    233.9395   9.0271536027e+01  -8.0648913626e+00     0.280498    0.1400362  36.01  0.001256969    1.661    0.398
        89  -9.2720    149.4268    238.1803   1.0661199119e+02   5.4333930206e+00    0.3594973    0.1846102  28.65  0.001724407    2.443    0.591
        90  -9.6257    124.9196    230.5791   1.1023304441e+02   1.0616988641e+01    0.3495437    0.2270767   1.17  0.001336629    5.307    0.812
        91  -9.0485     62.9631    230.7791   1.2160752451e+02   1.9676625163e+01    0.3252208    0.1064316  59.15  0.001388198    3.230    0.690
        92 -10.5509     17.1414    248.5628   1.3021438539e+02   2.1928950956e+01    0.6568635   0.09785552  48.28  0.003153418    3.314    0.698
        93  -8.3111    202.8858    230.4221   9.5749350080e+01  -2.2553733421e+00     0.232405     0.139527   8.67  0.001184308    2.322    0.569
        94  -7.9234    177.6758    231.6688   1.0052825383e+02   1.7282793773e+00    0.1239138   0.08669008  14.66 -0.0002325867    1.703    0.413
        95  -7.9938     85.4879    231.4769   1.1762487199e+02   1.6468910920e+01    0.1165854   0.09342664  61.90 3.591077e-05    1.074    0.068
        96  -9.9030    217.1493    229.4400   9.3054815700e+01  -4.4181891905e+00    0.3402258    0.1755591  24.51  0.001745507    2.011    0.503
        97  -9.0917    208.3742    229.8352   9.4674477745e+01  -3.0667863791e+00     0.212941      0.14274  41.63  0.001300561    1.347    0.258
        98  -8.6441    188.2496    229.9016   9.8325702750e+01   2.1945892562e-01    0.2527063    0.1389905  22.40  0.001234752    2.254    0.556
        99  -7.9978    158.4278    229.7670   1.0383795990e+02   5.2292098313e+00    0.1519133    0.1181767 -28.27 0.0009466017    1.669    0.401
       100  -8.8872    146.4846    230.4830   1.0617352295e+02   7.1089995100e+00    0.2253949    0.1027141  34.12  0.001032646    2.273    0.560
       101  -8.9394    134.4629    230.2112   1.0839736025e+02   9.1324424816e+00    0.2256046    0.1322423  26.30  0.001125796    2.297    0.565
       102  -9.6057    245.3410    228.2630   8.8011394019e+01  -8.5843958571e+00    0.2607317    0.2464247   8.60  0.001974445    1.498    0.333
       103  -8.4284    226.0328    229.5299   9.1515034248e+01  -5.8201895301e+00    0.1843657   0.09751573  37.06  0.001027782    1.580    0.367
       104  -8.3938    102.8618    229.1598   1.1419862313e+02   1.4313499257e+01    0.1907965    0.1356787  61.69 0.0008115205    1.184    0.155
       105  -8.3939     48.0187    229.0035   1.2409753561e+02   2.1884804756e+01    0.2141993   0.06928628  56.10  0.001014998    2.633    0.620
       106  -8.1125    181.4898    228.4705   9.9355880640e+01   1.5489440200e+00    0.1253643    0.1019587  33.76 0.0007575486    1.012    0.012
       107  -8.7223    185.3396    226.2842   9.8315195603e+01   1.2154076100e+00    0.2863795     0.147167  27.70   0.00137168    2.155    0.536
       108  -8.6950     92.2925    227.9670   1.1604070651e+02   1.6107620027e+01    0.1960657    0.1639009  27.92  0.001114392    1.603    0.376
       109  -8.2139     79.4875    228.4949   1.1844576582e+02   1.7853573495e+01    0.1173414   0.09257989  64.47  0.000334365    1.046    0.044
       110  -8.1787     39.2363    228.6198   1.2558664988e+02   2.3000055265e+01    0.1387875   0.09397773  39.36 0.0009536988    1.664    0.399
       111  -8.1360     30.9646    229.0000   1.2701313459e+02   2.3871810872e+01    0.1636437    0.0512393  38.22 0.0008050242    2.960    0.662
       112  -9.1540    235.2965    226.3945   8.9401182495e+01  -6.8677006270e+00    0.2839028    0.1550255  14.03  0.001478119    2.142    0.533
       113  -7.8702    153.4821    227.4711   1.0445505508e+02   6.4168684286e+00    0.1258107    0.1035469  42.19 8.214398e-05    1.032    0.031
       114  -9.2892      5.3054    229.7596   1.3124145203e+02   2.6396196019e+01    0.2418078   0.07525961  50.88   0.00139496    2.244    0.554
       115  -8.5414    175.5286    226.9573   1.0023948923e+02   2.7722009231e+00    0.2498061    0.1497813  30.19 0.0009969987    1.610    0.379
       116  -9.6394      5.2485    225.5860   1.3107123742e+02   2.7156339522e+01    0.1828031    0.1026297  60.04 0.0008988053    1.312    0.238
       117  -9.8871      3.2130    222.3885   1.3126081183e+02   2.7934356247e+01    0.2844735   0.09448277  67.34  0.001503186    2.561    0.609
       118  -8.1465    212.5073    225.4882   9.3242472371e+01  -3.1718558363e+00    0.1246652   0.09847096  21.89  0.000226176    1.042    0.040
       119  -9.5163    200.5114    224.5388   9.5255755696e+01  -1.0781598731e+00    0.2335956    0.1790296  32.48  0.001351132    1.077    0.072
       120  -9.0450    191.7067    225.0344   9.6947331219e+01   3.2284963108e-01    0.1750486    0.1478324  22.73 0.0008515066    1.073    0.068
       121  -8.5385    163.2483    224.7041   1.0222094394e+02   5.1970838952e+00    0.2573726    0.1363341  25.99   0.00116791    2.498    0.600
       122  -8.3106    120.4037    224.8003   1.1040264716e+02   1.2327570041e+01    0.1529671    0.1158717 -47.47 0.0009482439    1.690    0.408
       123  -8.9508     67.8785    224.3928   1.2020544774e+02   2.0198460711e+01    0.2118506    0.1367793 -56.23  0.001316237    1.987    0.497
       124  -9.2148    231.7865    233.9972   9.1245538650e+01  -7.2250936995e+00     0.270184    0.1703007  39.57  0.001687695    1.462    0.316
       125  -8.3248    224.9539    224.4667   9.0872395891e+01  -5.0312560316e+00    0.1870622    0.1001372  37.32 0.0007595655    1.583    0.368
       126  -8.3415    248.9917    222.9966   8.6510332519e+01  -8.5218506275e+00     0.196841    0.1151717  11.88 0.0009424185    1.734    0.423
       127  -7.7111    155.4955    223.4650   1.0351907398e+02   6.7125741255e+00    0.1271746    0.1057083  38.14 0.0008084494    1.077    0.072
       128  -8.2496     82.3374    223.3108   1.1743988072e+02   1.8398598052e+01    0.1020798   0.09530688   1.38 0.0002282474    1.686    0.407
       129  -9.6221    101.2390    233.9941   1.1499499083e+02   1.3718733096e+01    0.2059337    0.1345324  35.72  0.001070373    1.625    0.384
       130  -8.3122    207.5243    222.0883   9.3586927989e+01  -1.9076210181e+00    0.2127959    0.1461785  22.53  0.001040739    1.338    0.253
       131  -8.4325    115.7603    232.5669   1.1216813792e+02   1.1734697929e+01    0.2351711    0.1022787  38.25  0.001130709    2.136    0.532
       132  -8.7292    181.2269    220.9036   9.8258557180e+01   2.6994935224e+00    0.2535865    0.1491228  21.21  0.001243483    2.148    0.535
       133  -8.1292    115.4368    220.8124   1.1088025886e+02   1.3827573687e+01     0.151225    0.1173162 -49.09 0.0008207223    1.631    0.387
       134  -8.6537    217.8592    219.8398   9.1356040518e+01  -3.3044351550e+00    0.1960337    0.1464391  16.96  0.001237549    1.185    0.156
       135  -8.6261    227.5656    219.0096   8.9497406986e+01  -4.7600476270e+00    0.2025898    0.1391742  32.31  0.001026996    1.238    0.192
       136  -7.7115    140.3308    219.3254   1.0586754764e+02   9.9744894497e+00    0.1223059   0.09666242  12.13 0.0007050721    1.705    0.414
       137  -8.7902    186.9438    219.4810   9.6962617645e+01   1.9294965499e+00    0.1972428    0.1069317  39.85 0.0008664362    1.554    0.356
       138  -8.2908    202.7665    218.5611   9.3877526045e+01  -6.3070634301e-01    0.2435866    0.1035848  37.59  0.001124517    2.031    0.508
       139  -8.1588    148.4064    220.7910   1.0450583826e+02   8.3556432999e+00    0.1595489    0.1203141 -34.54 0.0009467957    1.713    0.416
       140  -8.2637    121.0075    216.5135   1.0927057781e+02   1.3695138061e+01    0.1719954    0.1070982  22.05  0.000810034    2.561    0.610
       141  -9.9673     13.0223    216.0566   1.2933463492e+02   2.8170682961e+01    0.2514724    0.1102861  48.23  0.001565841    1.846    0.458
       142  -9.0750      6.6246    216.2124   1.3042007306e+02   2.8760898212e+01    0.1356387   0.07658122 -78.17 0.0005430689    1.568    0.362
       143  -8.4126    248.1810    214.9982   8.5256966313e+01  -7.4660784834e+00    0.2441094    0.1056301  34.54  0.001225214    2.050    0.512
       144  -8.4153    211.9989    216.0091   9.1766562570e+01  -1.8270346006e+00    0.2011897    0.1634439  19.55  0.001302073    1.042    0.040
       145  -8.9987    194.7634    215.5388   9.4863895408e+01   1.1630855443e+00    0.2508029    0.1067689  38.03  0.001097751    2.047    0.511
       146  -8.4862    171.8364    213.2883   9.8863958478e+01   5.5071695687e+00    0.2353049    0.1658925  -6.42  0.001236965    2.070    0.517
       147  -8.1044    144.7749    213.7716   1.0422606270e+02   1.0165609840e+01    0.2015481    0.1378644   4.59  0.000947003    2.715    0.632
       148  -8.0203    223.1873    212.6433   8.9175366719e+01  -3.2266856952e+00    0.1878239   0.09650254  31.35 0.0009353364    1.775    0.437
       149  -9.0946      2.4247    212.0074   1.3092776040e+02   2.9947604213e+01    0.2085676   0.09978825  57.67  0.001370743    1.604    0.376
       150  -8.1652    161.7672    208.7943   1.0012807006e+02   8.0281674119e+00      0.21405    0.1398387   5.15 0.0009553867    2.778    0.640
       151  -8.2108    178.7522    208.3823   9.6737270297e+01   5.0639330010e+00    0.1921989    0.1082667  33.94  0.000944907    1.666    0.400
       152  -9.2103    218.3171    206.6807   8.9002350068e+01  -1.6038571722e+00    0.3341195    0.1693803  24.82  0.001534894    2.257    0.557
       153  -8.9425    193.8897    207.1863   9.3630414197e+01   2.5592420436e+00    0.1988852    0.1687046  46.03  0.001234863    1.219    0.180
       154  -8.1119    148.4717    206.5035   1.0242316000e+02   1.0787579765e+01     0.131999    0.1153238  40.70 3.882888e-05    1.073    0.068
       155  -8.3841    207.5061    205.5284   9.0783527407e+01   4.1646026971e-01    0.1307661    0.1097802  21.30 0.0001983489    1.016    0.016
       156  -8.7763      6.1700    204.7740   1.2993554428e+02   3.0996006465e+01    0.2019147   0.06423863  64.84 0.0009618128    2.896    0.655
       157  -9.2390     12.6474    203.6709   1.2873414554e+02   3.0601316005e+01    0.2417689   0.09988392  66.10  0.001339741    2.074    0.518
       158  -8.2525    187.3941    201.7778   9.3946843389e+01   4.5641135943e+00    0.1767202    0.1234964 -25.46 0.0009524821    1.670    0.401
       159  -7.9798    179.3921    202.2971   9.5596659865e+01   5.9318807510e+00    0.1396237   0.09637514  15.04 0.0007009284    1.792    0.442
       160  -8.1596    199.3286    200.3324   9.1399966833e+01   2.6390488193e+00    0.1376778   0.09479265  10.27 0.0007051764    1.717    0.418
       161  -9.3300      3.1299    195.8878   1.3001503552e+02   3.3024558175e+01    0.1805701    0.1057985  70.25  0.001000579    1.296    0.228
       162  -8.0001    176.5191    195.5144   9.4996591224e+01   7.5911618063e+00    0.1363756    0.1202188  30.90 0.0008099934    1.032    0.031
       163  -8.1331    199.5350    189.4917   8.9376416941e+01   4.3068072137e+00    0.1354055    0.1205676  22.75 0.0003273467    1.017    0.017
       164  -7.8266    192.4680    195.5368   9.1858254468e+01   4.6387948243e+00    0.1359204    0.1170767  22.70 0.0003134544    1.054    0.051
       165  -7.9377    157.3205    186.3630   9.7321364252e+01   1.2833109478e+01    0.1409286    0.1083729   2.68 0.0004007711    1.777    0.437
       166  -8.8406    222.5006    182.5233   8.3707189787e+01   1.1815229474e+00    0.1341357    0.1177144  10.93 -2.546522e-05    1.021    0.020
       167  -8.5083    211.2579    179.9973   8.5300379040e+01   3.6435760699e+00    0.1771024    0.1149412 -34.31 0.0008985382    1.588    0.370
       168  -9.4735    190.3008    179.2435   8.9229068264e+01   7.7671642142e+00    0.2895064    0.2524871   9.02 0.0007930729    1.147    0.128
       169  -9.2621      2.4923    177.5210   1.2910874153e+02   3.6835362781e+01    0.2054106   0.07840108  87.56 0.0009543227    2.321    0.569
       170  -7.7119    170.6481    176.6757   9.2752010508e+01   1.2069458292e+01    0.1473045    0.1094823   8.50 0.0007047899    1.757    0.431
       171  -9.2822    211.4979    163.0046   8.1764507107e+01   6.3888958836e+00    0.3241097    0.1631401  29.18  0.001273666    2.501    0.600
       172  -9.4649      4.6604    136.8660   1.2570344082e+02   4.5540652004e+01    0.2677282    0.1055288  79.93  0.001168319    2.972    0.664
       173  -8.4070    209.5272    135.4953   7.5977620643e+01   1.1593112166e+01    0.1485566    0.1389482  -5.54 -1.07846e-05    1.018    0.017
       174  -8.3766    199.1603    133.8551   7.7602168857e+01   1.4147070786e+01    0.2177994    0.1787951  -1.36  0.001084019    1.360    0.265
       175  -8.3615    194.3174    112.3263   7.3227185756e+01   1.9281579576e+01    0.1594441    0.1216452   9.01            0    1.675    0.403
       176  -7.4372    155.6363    112.7215   8.1706576813e+01   2.8247176038e+01    0.1609994    0.1250595  12.86 0.0005802816    1.674    0.403
       177  -9.1227    211.8131    109.0106   6.9067548233e+01   1.5830823452e+01    0.2476825    0.2185202  49.52 0.0004074849    1.189    0.159
