#   1 NUMBER                 Running object number                                     
#   2 MAG_AUTO               Kron-like elliptical aperture magnitude                    [mag]
#   3 X_IMAGE                Object position along x                                    [pixel]
#   4 Y_IMAGE                Object position along y                                    [pixel]
#   5 X_WORLD                Barycenter position along world x axis                     [deg]
#   6 Y_WORLD                Barycenter position along world y axis                     [deg]
#   7 A_WORLD                Profile RMS along major axis (world units)                 [deg]
#   8 B_WORLD                Profile RMS along minor axis (world units)                 [deg]
#   9 THETA_WORLD            Position angle (CCW/world-x)                               [deg]
#  10 FWHM_WORLD             FWHM assuming a gaussian core                              [deg]
#  11 ELONGATION             A_IMAGE/B_IMAGE                                           
#  12 ELLIPTICITY            1 - B_IMAGE/A_IMAGE                                       
         1 -14.0830    170.0839     48.2629   6.9605784710e+01   3.6545541355e+01     1.559633     1.058018  30.41  0.004405522    2.003    0.501
         2 -14.4573    183.9723     33.9869   6.3510654892e+01   3.4938363059e+01     1.030962    0.9403041  39.91  0.004367524    1.303    0.232
         3 -13.6309    188.1886     27.7272   6.1295203971e+01   3.4652169641e+01     0.655358    0.5337988 -75.19  0.001191319    1.130    0.115
         4 -13.1374    189.9397     15.2560   5.7849684799e+01   3.5628689298e+01    0.5946443    0.2869606 -62.65  0.002428888    2.328    0.570
         5 -14.1618    207.6876      2.9970   5.3194645665e+01   3.2622108389e+01     1.235419    0.9254016  29.06  0.003691689    2.036    0.509
         6 -12.3219    203.2098      2.3981   5.3423118612e+01   3.3735715061e+01    0.4426948    0.2224011  74.38  0.001519603    1.719    0.418
         7 -12.3314     52.1898      5.2183   8.3785036906e+01   6.8439000092e+01    0.3207004    0.1921233  48.00 0.0009105821    1.683    0.406
         8 -11.4450    136.1056    209.8620   1.1579235854e+02   1.1686929267e+01    0.2169428    0.1800829  59.61 0.0006623053    1.229    0.187
         9 -19.6480     38.5481    158.2798   1.3265885640e+02   3.8423809133e+01      20.2777     6.475031 -74.92   0.07140832    3.308    0.698
        10 -12.1431     99.3789    187.1272   1.2092976417e+02   2.2920441747e+01    0.3757301    0.2564631 -62.46  0.001877546    1.524    0.344
        11 -10.6732     90.1583    183.6752   1.2269877819e+02   2.5230305094e+01    0.2896531    0.1949987  74.21 0.0008995994    1.704    0.413
        12 -12.2132     99.4422    180.5295   1.1988633684e+02   2.4433838031e+01    0.3836887    0.2978223 -48.63  0.001316349    1.424    0.298
        13 -10.7143    208.7870    178.2148   9.4396082802e+01   4.3645509946e+00    0.3722199    0.2435618  -2.41  0.001711372    2.048    0.512
        14 -11.9410     96.1560    201.9679   1.2383493989e+02   2.0119895289e+01    0.4155353    0.2579428 -87.24  0.001936762    2.060    0.514
        15 -12.1545     72.7070    175.0098   1.2587168271e+02   2.9968630566e+01    0.5596362    0.2106971  48.41  0.002088777    2.691    0.628
        16 -10.1334    163.2057    204.0668   1.0882337913e+02   7.9675146338e+00    0.2064393    0.1800054   7.83 0.0004076687    1.178    0.151
        17 -10.6118    193.1588    164.1201   9.4605989841e+01   9.9110539221e+00    0.3420893    0.2906085 -22.40    0.0011733    1.170    0.145
        18 -11.6832    195.8888    169.6814   9.5218465373e+01   8.3265349513e+00    0.4519072    0.3751259 -43.95  0.001442625    1.266    0.210
        19 -10.4338      5.8483    161.3972   1.4137700558e+02   4.0678359226e+01    0.2057092    0.1419594  21.10   0.00079883    1.840    0.457
        20 -11.0979    141.4667    158.1793   1.0508899329e+02   2.1703872561e+01     0.274033    0.2489928  55.16 0.0003907192    1.091    0.083
        21 -10.5437    119.7207    155.8129   1.1015483147e+02   2.6582978177e+01    0.3143029    0.1925336  62.66  0.001246301    2.107    0.525
        22 -11.2557    165.7259    153.8678   9.8350953501e+01   1.7595627449e+01    0.4609687    0.2939822  75.23  0.001661474    2.958    0.662
        23 -12.6021    133.7157    144.5873   1.0408639080e+02   2.6394429681e+01     1.247933    0.3547171 -54.67  0.003139766    4.831    0.793
        24 -10.5885    129.5116    140.4490   1.0424589210e+02   2.8224111659e+01    0.2884192    0.2320705  42.07 0.0005767808    1.229    0.187
        25 -11.7219    108.8819    150.1009   1.1189097610e+02   3.0007395520e+01    0.4289838    0.2262412 -38.24  0.001595896    2.447    0.591
        26 -12.1419    140.3512    200.2931   1.1328996192e+02   1.2848658330e+01    0.3150791    0.2614651  19.13  0.001460607    1.295    0.228
        27 -12.3889    193.3936    192.5283   1.0030035330e+02   4.6175377657e+00    0.8115069    0.4596902 -49.93  0.003259167    2.117    0.528
        28 -10.8410     93.7050    205.8242   1.2491665647e+02   1.9669427766e+01    0.2893075    0.2577917 -30.56  0.001148102    1.459    0.314
        29 -10.4543    174.8755    149.1198   9.5221556148e+01   1.6648474278e+01    0.2358996    0.2140265  87.81 0.0006890513    1.276    0.217
        30 -12.4072    145.0561    146.4477   1.0162917848e+02   2.3590677069e+01     0.566107     0.375172 -88.62  0.002077297    2.743    0.635
        31 -12.8356    109.3095    140.3522   1.0971366095e+02   3.2278872276e+01    0.7502369    0.5097584 -16.49  0.002967355    2.428    0.588
        32 -12.5862     98.7251    139.8655   1.1259980052e+02   3.4361277963e+01    0.4074775    0.3155912  18.88 0.0005274712    1.564    0.361
        33 -11.8434    106.1061    130.8969   1.0850155084e+02   3.5171203788e+01    0.4752018    0.3755503 -83.78  0.001603318    1.490    0.329
        34 -11.3741    104.6802    126.5578   1.0790284292e+02   3.6487344843e+01    0.3388559    0.2683219 -39.81 0.0008847741    1.324    0.245
        35 -12.4332    117.5129    129.7699   1.0500584477e+02   3.3191216812e+01    0.5464924    0.4054395  33.28  0.001756742    1.429    0.300
        36 -12.4424    135.5065    124.5453   9.8850913770e+01   3.0594263301e+01     1.024055    0.2293817 -49.00  0.002476244    4.885    0.795
        37 -11.1261    160.9361    128.0169   9.3407855357e+01   2.4146526683e+01    0.4476216    0.3076531 -75.05   0.00159515    2.174    0.540
        38 -11.3953    125.4676    127.4388   1.0225130351e+02   3.2090889608e+01    0.3648058    0.2456733  82.42  0.001379402    2.433    0.589
        39 -10.7919    111.5021    119.1515   1.0411344796e+02   3.6905533410e+01    0.2856442    0.2524943  46.85 0.0003430373    1.136    0.120
        40 -10.9719    209.1143    198.5262   9.8296499493e+01   8.4711252745e-01      0.23211    0.1909431 -52.59 0.0009577293    1.573    0.364
        41 -10.7456    167.9220    112.6958   8.7929215991e+01   2.5728522671e+01    0.4100443    0.2982775 -89.43  0.001547513    1.945    0.486
        42 -11.7017     88.7384    203.8350   1.2581284872e+02   2.0882460852e+01    0.4704576    0.2611006  49.80  0.001696477    1.633    0.388
        43 -11.1644    154.4372    195.8170   1.0931911249e+02   1.1165139487e+01    0.3589658    0.2464528  73.59  0.001582923    2.301    0.565
        44 -10.0875    138.5642    124.5217   9.8048360408e+01   2.9927064988e+01    0.2925548    0.1971756  53.73 6.260064e-05    1.549    0.355
        45 -10.5512    158.1968    203.9571   1.0990279648e+02   8.8926285538e+00    0.3855529     0.238584  72.68  0.001445598    3.464    0.711
        46 -10.4740    205.4509    110.1790   7.9807159707e+01   1.7562523975e+01    0.3187779    0.2125671  43.68 0.0009937809    1.633    0.388
        47  -9.6962    127.2939     94.6579   9.2981704926e+01   3.8964904730e+01    0.1598454    0.1252898 -82.35 0.0004006806    1.658    0.397
        48  -9.7637    151.5955     79.7765   8.2520946651e+01   3.6089820253e+01    0.2098898    0.1441377 -49.45 0.0003656831    1.524    0.344
        49 -12.3756    173.4610     72.2542   7.5814034846e+01   3.1958780263e+01    0.6233267    0.3744921 -81.21  0.001075462    2.741    0.635
        50 -10.5733    166.9860    187.7715   1.0503183037e+02   1.0400938114e+01    0.2988851    0.2188358 -58.57  0.001019982    1.651    0.394
        51 -10.2537    198.6892    222.8830   1.0469714620e+02  -1.3303487362e+00    0.1722535    0.1524829   4.05 0.0004711333    1.101    0.092
        52 -11.1719    183.1400    221.8345   1.0763555247e+02   1.3809307010e+00     0.188753    0.1431226  11.63 0.0005825955    1.319    0.242
        53 -11.3065     97.2262    213.3878   1.2507966520e+02   1.7497012130e+01    0.3473903    0.2204133  34.49  0.001784613    1.540    0.351
        54 -10.6057    189.3262    212.3313   1.0475610366e+02   1.9132556152e+00    0.1403067   0.09686645   3.72  0.000705105    1.709    0.415
        55 -10.4540    163.0060    210.2894   1.0992984109e+02   6.8480524169e+00     0.229598     0.185343 -66.35  0.001266556    1.601    0.375
