#   1 NUMBER                 Running object number                                     
#   2 MAG_AUTO               Kron-like elliptical aperture magnitude                    [mag]
#   3 X_IMAGE                Object position along x                                    [pixel]
#   4 Y_IMAGE                Object position along y                                    [pixel]
#   5 X_WORLD                Barycenter position along world x axis                     [deg]
#   6 Y_WORLD                Barycenter position along world y axis                     [deg]
#   7 A_WORLD                Profile RMS along major axis (world units)                 [deg]
#   8 B_WORLD                Profile RMS along minor axis (world units)                 [deg]
#   9 THETA_WORLD            Position angle (CCW/world-x)                               [deg]
#  10 FWHM_WORLD             FWHM assuming a gaussian core                              [deg]
#  11 ELONGATION             A_IMAGE/B_IMAGE                                           
#  12 ELLIPTICITY            1 - B_IMAGE/A_IMAGE                                       
         1 -15.0690     40.1901    158.3702   1.1799683110e+02   3.7257782389e+01     1.697033    0.8321002  74.34  0.007558326    2.536    0.606
         2  -8.9902    242.5447     33.5556   4.2751215673e+01   2.0610730779e+01      0.13137    0.1144081 -63.74 0.0001169184    1.021    0.021
         3 -17.8569     38.2837    236.1507   1.2489131315e+02   2.1108131054e+01     4.939709      2.92787  38.92    0.0169022    1.703    0.413
         4  -9.8345      6.7745    220.2961   1.2946483804e+02   2.7381439002e+01    0.1167704   0.09843094  77.99 0.0001843073    1.296    0.228
         5  -9.7036      8.5862    214.3077   1.2885874628e+02   2.8365502912e+01     0.291939   0.08343395 -87.18  0.001261507    3.557    0.719
         6 -10.7571    206.7659    211.6945   8.9055546866e+01  -7.3697083772e-01     0.244164    0.1812896  12.92  0.001284253    1.275    0.216
         7  -9.9312     10.3867    185.8553   1.2691024890e+02   3.4000319699e+01    0.1869727    0.1565072 -64.69  0.001158645    1.457    0.314
         8 -12.1467    154.0262    206.9845   9.8870225102e+01   9.2811297346e+00    0.3945607    0.2564663 -47.77  0.002074447    1.757    0.431
         9  -9.7538      6.3649    206.5986   1.2886151062e+02   3.0089749497e+01    0.1145015    0.0881927  62.48 0.0008689595    1.206    0.171
        10 -10.9144     29.0908    181.4438   1.2274582733e+02   3.3178821801e+01    0.2603266    0.2136256  15.04  0.001218196    1.784    0.440
        11  -9.9659     31.2038    176.5071   1.2186926680e+02   3.4054956913e+01    0.2766583    0.1482181 -61.26  0.001103182    1.814    0.449
        12 -10.9536     63.9760    182.6006   1.1522768482e+02   2.8849358090e+01    0.2942159    0.1614578 -69.69  0.001452132    1.720    0.419
        13 -10.8284     21.4167    177.9160   1.2408732672e+02   3.4707888947e+01    0.4127362     0.153828 -70.24  0.002026337    2.217    0.549
        14 -11.9960     83.5813    177.5694   1.1009939759e+02   2.7220393577e+01    0.3343628    0.2958995 -30.54  0.001833594    1.489    0.328
        15 -12.2299     78.7561    173.7721   1.1070993579e+02   2.8793222924e+01    0.3902514    0.2334153  59.89  0.001355216    1.726    0.421
        16 -11.2289     70.8590    177.1385   1.1300025054e+02   2.9147774875e+01    0.2355509    0.1908813 -66.02  0.001414987    1.249    0.200
        17 -11.5845     61.3554    171.1151   1.1446491055e+02   3.1793812641e+01    0.2575652    0.1765681  50.49  0.001450789    1.399    0.285
        18  -9.7624      4.0149    171.1070   1.2725371113e+02   3.7709730405e+01    0.3536692   0.09594204 -67.52  0.001597479    2.830    0.647
        19  -9.2292    249.5240    167.9996   7.2720248082e+01  -1.4588799295e+00    0.1935664    0.1167481 -29.20 0.0004781949    1.501    0.334
        20  -9.3265      6.7799    202.0167   1.2854486844e+02   3.0971538480e+01    0.2734217    0.1163845  71.13  0.001500148    2.069    0.517
        21 -10.7778     10.1267    166.9808   1.2566979293e+02   3.8124423187e+01    0.3003003    0.1298766  89.60  0.001509174    2.097    0.523
        22 -11.1322    125.6468    165.4232   9.8081902360e+01   2.2866566343e+01    0.2810294    0.2723522  -2.04  0.001604522    1.150    0.131
        23 -14.1308     70.4719    219.8568   1.1770329392e+02   2.0171242721e+01     1.500572    0.6466866  57.96  0.007211631    2.256    0.557
        24 -11.9675    151.6761    217.6613   1.0099847326e+02   7.8128416011e+00    0.4028152     0.235336  29.82  0.002003147    1.762    0.432
        25 -11.7854     18.4270    162.9387   1.2351936569e+02   3.8323437923e+01    0.4040396    0.1731182 -75.90  0.002051712    1.911    0.477
        26 -12.2063    146.5134    224.0009   1.0295881712e+02   7.6076742098e+00    0.4344542    0.3092868  59.84  0.002485662    1.511    0.338
        27 -11.8200     64.9807    161.6976   1.1237416633e+02   3.3509330604e+01    0.2963337    0.1849935  59.03  0.001517024    1.635    0.388
        28 -12.4397    140.9865    217.7837   1.0320066573e+02   9.6211983722e+00    0.6418329    0.2958421 -64.30  0.002579218    3.571    0.720
        29 -13.7912     22.3280    133.6449   1.1965851810e+02   4.4790182095e+01    0.8602998    0.3457397 -69.14  0.004075776    1.965    0.491
        30 -13.6549     56.8909    128.0567   1.0937730342e+02   4.2628349751e+01    0.7505793    0.5026581 -37.19  0.003826135    1.788    0.441
        31 -12.6476     27.8949    155.4813   1.2063322230e+02   3.9169423184e+01    0.4728422    0.2504158  42.13  0.002590146    1.927    0.481
        32 -14.3290     36.3487    147.0830   1.1763358341e+02   4.0314848608e+01    0.9775651     0.479517  57.39  0.004666358    2.268    0.559
        33 -10.9736    116.8266    122.6168   9.1273323117e+01   3.4377297704e+01    0.3821669    0.2814772  26.40  0.001759526    1.576    0.365
        34 -10.3689     48.0538    122.4508   1.1096360182e+02   4.5015267859e+01    0.1799661    0.1339575  31.53 0.0005674982    1.552    0.356
        35  -9.4530      5.6181    155.7888   1.2582318781e+02   4.0980810573e+01    0.1682104    0.1470533  -6.22 0.0007592438    1.693    0.409
        36 -12.0435     57.9263    150.7663   1.1262500303e+02   3.7008203650e+01    0.3220856    0.1949806  48.57  0.001656978    1.681    0.405
        37 -11.0521    147.6751    220.3141   1.0220006152e+02   8.0408739515e+00    0.2750957    0.1985864  64.36  0.001112233    1.613    0.380
        38 -12.3313     81.0418    143.7237   1.0545298464e+02   3.5530677616e+01    0.4848687    0.3896599  57.73  0.002146503    1.263    0.208
        39 -10.0247    102.2881    157.3591   1.0236522133e+02   2.8877592182e+01    0.1437595    0.1128392 -26.53 0.0005134172    1.684    0.406
