#   1 NUMBER                 Running object number                                     
#   2 MAG_AUTO               Kron-like elliptical aperture magnitude                    [mag]
#   3 X_IMAGE                Object position along x                                    [pixel]
#   4 Y_IMAGE                Object position along y                                    [pixel]
#   5 X_WORLD                Barycenter position along world x axis                     [deg]
#   6 Y_WORLD                Barycenter position along world y axis                     [deg]
#   7 A_WORLD                Profile RMS along major axis (world units)                 [deg]
#   8 B_WORLD                Profile RMS along minor axis (world units)                 [deg]
#   9 THETA_WORLD            Position angle (CCW/world-x)                               [deg]
#  10 FWHM_WORLD             FWHM assuming a gaussian core                              [deg]
#  11 ELONGATION             A_IMAGE/B_IMAGE                                           
#  12 ELLIPTICITY            1 - B_IMAGE/A_IMAGE                                       
         1 -13.0857    194.6067     31.3370   6.6854493585e+01   3.2965151168e+01     1.000225     0.829538  46.75  0.005913761    1.383    0.277
         2 -13.9586    207.8660     14.9421   6.1378511155e+01   3.1738260831e+01     1.371767    0.9876484  38.83  0.007803782    1.905    0.475
         3 -12.8832      2.7401      5.2484   1.1110673719e+02   7.1857131588e+01    0.9786137    0.5122479 -27.11  0.006737964    1.480    0.325
         4 -11.6000      2.3640     14.1680   1.1499150697e+02   7.0669218583e+01    0.3098861    0.1420673 -46.77  0.001894087    2.064    0.516
         5 -11.7498    199.9638    246.3105   1.1374336290e+02  -6.4647075581e+00    0.5029884    0.2189582  42.63   0.00236181    2.048    0.512
         6  -9.8983    205.0368    250.5159   1.1345359796e+02  -7.8961601635e+00    0.1896592    0.1044879  36.73 0.0003851039    1.543    0.352
         7 -10.4704    184.5431    250.2717   1.1730856663e+02  -4.5138176585e+00    0.2774357    0.1516295  33.23  0.001431908    1.648    0.393
         8 -10.8663    169.8656    248.3498   1.1985402513e+02  -1.7413072210e+00    0.3492258    0.2448008   2.94 0.0009250775    2.083    0.520
         9 -11.4897    149.8230    247.9366   1.2370027627e+02   1.7511460931e+00    0.4634247    0.3228109 -63.95  0.002658617    1.793    0.442
        10 -12.5417    134.1369    248.8687   1.2687995542e+02   4.2572815158e+00     1.180662    0.4342423  41.62  0.005056485    2.295    0.564
        11 -11.6747    121.5298    243.4614   1.2864984193e+02   7.3515350472e+00    0.8937314     0.393137 -62.92  0.004001941    2.812    0.644
        12 -11.9525    126.1956    240.6909   1.2737564667e+02   7.0767591540e+00    0.5513399    0.4629333 -76.33  0.002709812    1.310    0.236
        13 -11.1261     98.7871    247.3460   1.3349717960e+02   1.0330105126e+01    0.5030224    0.3060888  68.47  0.002682424    1.665    0.400
        14 -10.2538    102.9587    247.4910   1.3272006384e+02   9.6417439242e+00    0.2863853    0.2153683  89.93 0.0007440982    1.364    0.267
        15 -11.5918    135.5180    241.1443   1.2558733644e+02   5.4001473100e+00    0.4143761    0.3287044  10.04  0.001126616    1.770    0.435
        16 -11.0105    115.1208    250.3573   1.3072788028e+02   7.1523639826e+00    0.5170236    0.3034109  40.13  0.001347981    1.553    0.356
        17 -11.7002    109.6653    247.3368   1.3142000360e+02   8.5919602037e+00    0.5282716    0.4596028 -79.72  0.002732554    1.259    0.205
        18 -12.2311    135.3327    236.3373   1.2496514337e+02   6.3140461834e+00    0.5909488    0.4624297 -37.17  0.002404121    1.646    0.392
        19 -11.4537    133.9996    232.6856   1.2472373447e+02   7.2303201230e+00     0.570155    0.2760758 -40.44  0.002413158    3.008    0.668
        20 -11.1875     88.0155    248.3515   1.3563040501e+02   1.1810128052e+01    0.4734735    0.3175133  54.81  0.001532201    1.215    0.177
        21 -10.8578     81.6701    246.7334   1.3664906883e+02   1.3074230097e+01    0.4240796    0.2609596 -89.11  0.002429008    1.711    0.416
        22 -10.6964     83.9798    242.0197   1.3573837846e+02   1.3636687347e+01    0.2816061    0.2405834   6.31  0.001752824    1.959    0.490
        23  -8.8005     74.8026    250.5678   1.3827777509e+02   1.3355602628e+01    0.2264981    0.1057736  39.01  0.001146391    2.118    0.528
        24  -9.0716     69.3857    250.4762   1.3924796923e+02   1.4150389214e+01    0.2277716   0.07540865  50.62   0.00101877    2.469    0.595
        25 -14.5741      3.9266    180.3871   1.4572225721e+02   3.6575575596e+01     7.862704     1.191144 -76.83   0.01971816    8.365    0.880
        26 -12.8554     11.0988    206.0842   1.4630857989e+02   3.0333123050e+01     1.305227    0.7174037  13.14  0.006215777    4.392    0.772
        27 -13.8744      5.6009    245.5562   1.4972246889e+02   2.2930772907e+01     1.166884    0.6175761  82.07  0.007763058    1.455    0.313
        28 -12.8402     14.2091    238.9163   1.4794844151e+02   2.3301336149e+01    0.5667407    0.3869705  77.71 0.0007978073    1.044    0.042
        29 -13.2827     37.2327    228.4142   1.4320286947e+02   2.2777875598e+01     1.039433    0.3997901  48.09  0.001694777    2.201    0.546
        30 -14.5738     44.1342    218.8004   1.4109299022e+02   2.3936178099e+01     1.510055     1.439152 -50.83   0.01088146    1.560    0.359
        31 -10.3443     84.4061    229.6247   1.3432269061e+02   1.6045435481e+01    0.2668272     0.237251  -5.08  0.000867335    1.800    0.445
        32 -11.2850     98.5323    231.6417   1.3174815992e+02   1.3417784585e+01    0.4587051    0.3076983 -74.33 0.0007449784    1.567    0.362
        33 -10.9359     79.5879    226.3850   1.3491742051e+02   1.7443773853e+01    0.4562621    0.2968803 -72.47  0.001286943    1.519    0.341
        34 -10.2313     77.3264    220.9117   1.3475829732e+02   1.8929804672e+01     0.251992    0.1964369  78.24  0.000480665    1.103    0.094
        35 -11.0305    249.4671    241.4213   1.0382445597e+02  -1.3368272256e+01    0.2723951    0.1413461 -43.29  0.001440947    2.424    0.587
        36 -10.6825    112.8962    230.0911   1.2866069623e+02   1.1361415683e+01    0.3449305     0.304096  43.14  0.001658399    1.218    0.179
        37 -10.7620    164.8466    242.1803   1.1992153379e+02   1.3464812083e-01    0.2355409    0.1806252  49.41 0.0007602539    1.197    0.165
        38 -10.9770    244.8452    240.4496   1.0447389651e+02  -1.2582327169e+01    0.1964606    0.1307272 -21.96  0.001126704    1.452    0.311
        39 -11.0601    173.0803    239.3428   1.1786297384e+02  -8.2088684226e-01    0.4836007    0.2096525 -51.91  0.002097497    2.913    0.657
        40 -10.7016    116.4099    238.8059   1.2907254804e+02   9.0800592222e+00    0.3781974    0.2557931 -37.39  0.001995367    2.212    0.548
        41  -9.1482     61.1155    238.8740   1.3971154493e+02   1.7563184971e+01    0.1895033     0.130121  67.54 0.0008792437    1.180    0.153
        42 -10.3938    165.6074    235.2366   1.1871366069e+02   1.1865410658e+00    0.2369396    0.1308728 -52.63  0.001150624    2.162    0.538
        43 -11.1419    127.1520    233.9020   1.2627976440e+02   8.1886185687e+00    0.3313201    0.2725073  47.41  0.001289521    1.099    0.090
        44 -11.5581    122.5172    233.0447   1.2710109399e+02   9.1495390328e+00    0.4091125    0.3914306  26.11  0.002663031    1.278    0.217
        45  -9.5267     71.7696    236.1380   1.3745840845e+02   1.6606292835e+01    0.2040313    0.1374556  72.12   0.00122317    1.302    0.232
        46 -10.4296     63.0650    233.0795   1.3881025393e+02   1.8458979978e+01    0.1899126    0.1537592  74.58 0.0002866765    1.058    0.055
        47  -9.2587     78.1284    233.1682   1.3593592431e+02   1.6272036611e+01    0.1737236    0.1595969 -77.31 0.0007336997    1.330    0.248
        48 -10.8447    156.7760    231.5553   1.1992670854e+02   3.4063121648e+00    0.2319066    0.2177684  35.10 0.0002904203    1.094    0.086
        49 -11.8511    105.7662    228.8640   1.2994995600e+02   1.2795892667e+01    0.7195922    0.3685503  53.24  0.003456218    1.786    0.440
        50 -10.9983    142.0736    229.8420   1.2266672441e+02   6.3434334992e+00    0.3659715    0.2376379 -35.36  0.001832026    2.096    0.523
        51  -9.1617     57.3631    230.8797   1.3968031143e+02   1.9690237362e+01    0.1875991    0.1227854  84.91 0.0009653762    1.361    0.265
        52  -8.9529    180.3393    229.0400   1.1476595651e+02  -3.5725956645e-01    0.2307243    0.1370417  67.29 0.0009126177    3.280    0.695
        53  -9.5505    197.4678    226.6259   1.1095446219e+02  -2.9669790517e+00    0.2690646    0.2122556  81.98  0.001446368    2.035    0.509
        54  -9.4850    166.4755    226.9634   1.1722880850e+02   2.4914075625e+00    0.1763466    0.1199721 -80.91 0.0008091947    2.474    0.596
        55  -9.9132    132.0352    224.7055   1.2398222150e+02   9.1141928761e+00    0.2565513    0.2018743 -61.28  0.001467702    1.398    0.285
        56  -9.6252    129.5070    220.9168   1.2395342005e+02   1.0314604642e+01    0.2431268    0.1902447 -82.11  0.001353039    1.423    0.297
        57 -10.2341     92.4774    225.9513   1.3228256392e+02   1.5542166197e+01    0.2818507     0.161296  52.75 0.0008067293    1.540    0.351
        58 -10.1050    117.2298    224.4249   1.2701383271e+02   1.1757153939e+01    0.2401846    0.2098045  77.97 0.0003139992    1.091    0.084
        59 -10.3735    160.4421    223.6979   1.1793803950e+02   4.1810979989e+00    0.2865742    0.2046353  25.45 0.0006870597    1.545    0.353
        60 -10.8125    138.2272    214.4278   1.2111578453e+02   1.0046687967e+01    0.5001629    0.3886855  39.28  0.001323848    1.238    0.192
        61 -10.1769    145.2821    221.6877   1.2076634093e+02   7.3233837789e+00    0.2440374    0.1937285  78.23 0.0004497884    1.442    0.307
        62  -9.6887    110.6969    221.1048   1.2791778613e+02   1.3549932758e+01    0.3602612    0.1170418 -56.61  0.001351569    3.244    0.692
        63 -11.2871     72.8699    209.9678   1.3441100240e+02   2.1950040542e+01    0.4706483    0.3161662  23.34  0.001755591    2.231    0.552
        64 -10.7778     70.3959    218.2309   1.3585901848e+02   2.0518566555e+01    0.5118556    0.2790647 -71.65  0.002204166    1.779    0.438
        65  -9.7771     68.0099    214.6982   1.3595345265e+02   2.1621517737e+01    0.2102993     0.160759  67.92 0.0005619794    1.114    0.102
        66 -10.7683    245.9027    220.0143   1.0064654006e+02  -9.8949669706e+00    0.3454971    0.1432963 -27.05  0.001461771    2.846    0.649
        67  -9.7243    104.8687    218.7047   1.2881188800e+02   1.5030318752e+01    0.1977732    0.1754153 -69.50 0.0002512425    1.230    0.187
        68 -10.2038     99.8282    217.3191   1.2968380338e+02   1.6157803862e+01    0.2618625    0.1988109 -48.31 0.0008310028    1.612    0.380
        69 -10.9790    141.9208    221.6762   1.2146703022e+02   7.9352511768e+00    0.2858713    0.2678944  26.32 0.0003222313    1.182    0.154
        70  -8.8129    119.2250    217.0359   1.2555414278e+02   1.2919968079e+01    0.1695168    0.1118593 -59.43 0.0003875553    1.621    0.383
        71 -11.4633     90.8468    239.8162   1.3419195428e+02   1.3014401298e+01    0.9036968    0.4166772 -88.15  0.002355453    4.287    0.767
        72  -9.8162     88.1661    212.7199   1.3153929293e+02   1.9022091799e+01    0.2511521    0.1724495 -79.06 0.0008262431    1.449    0.310
        73 -11.0652     99.3594    223.5319   1.3058235477e+02   1.4935357841e+01    0.4033055    0.2805151  61.96  0.000930078    1.304    0.233
        74  -9.4625    101.6611    211.6785   1.2853709311e+02   1.7057750971e+01    0.3126408     0.133985  57.39  0.001189161    2.769    0.639
        75 -10.6885    107.2444    209.4067   1.2701848790e+02   1.6605362922e+01    0.4091707    0.2932671 -30.85  0.001281647    2.177    0.541
        76 -11.0203    112.5622    208.3466   1.2571264777e+02   1.5917130462e+01    0.2757667    0.2466956  49.43  0.000347336    1.145    0.127
        77  -9.1166    134.5580    208.2156   1.2091256834e+02   1.1995112430e+01    0.1873961    0.1334502 -41.09 0.0004872766    1.672    0.402
        78 -10.7792     92.2762    204.6708   1.2959890518e+02   2.0130678460e+01     0.648479    0.3139318  54.74  0.002348094    2.085    0.520
        79 -10.9279     93.5557    201.2877   1.2885004537e+02   2.0676551424e+01    0.6799015    0.3736661  88.01  0.001705069    2.729    0.634
        80 -11.8116     97.8184    239.7048   1.3283057384e+02   1.1941245294e+01    0.5390384    0.3716508  52.70  0.002200296    1.219    0.180
        81 -11.2265    246.8101    206.2481   9.7910097571e+01  -7.9740917787e+00    0.4871489    0.2851939  14.96  0.002376303    2.152    0.535
        82  -9.2526     32.8612    206.8978   1.4221299995e+02   2.7848846522e+01    0.1689173    0.1354091 -74.96 0.0003761135    1.266    0.210
        83  -9.5047    125.8535    205.4023   1.2236030616e+02   1.4182111072e+01    0.2367469    0.1894734 -78.94 0.0007074914    1.330    0.248
        84  -8.9695    148.8555    204.7537   1.1723046849e+02   1.0033519510e+01    0.2422126    0.1634384  -1.39 0.0009641541    2.928    0.658
        85 -10.0997    102.8720    202.8883   1.2702907101e+02   1.8772663298e+01    0.4041386    0.2365338  54.94  0.001622815    1.654    0.395
        86  -9.1180     75.4727    203.2646   1.3304621199e+02   2.3052225200e+01    0.2932729    0.2083416 -12.14  0.001318195    3.195    0.687
        87  -9.3942    166.8878    203.0802   1.1305152828e+02   6.9199042178e+00    0.2062429    0.1819533  66.06            0    1.207    0.172
        88  -9.0574    133.0057    202.6889   1.2034836648e+02   1.3445225065e+01    0.1998314    0.1768644  56.92 0.0004260388    1.036    0.035
        89  -9.0805     84.0100    202.0660   1.3104592141e+02   2.2022206743e+01    0.2110321    0.1392605  74.03  0.001076203    1.574    0.365
        90  -9.2622     64.2263    202.0415   1.3529943958e+02   2.4947025676e+01      0.18189    0.1683008  88.92 0.0005663111    1.220    0.180
        91 -10.7360     32.6860    201.7741   1.4178405895e+02   2.8991285565e+01    0.2086845    0.1687647  85.03 0.0003016502    1.069    0.065
        92  -9.0653    196.5490    200.5117   1.0638593461e+02   1.7445528860e+00    0.1393604    0.1301544  17.16  0.000125183    1.008    0.008
        93  -8.5521    182.7572    200.3412   1.0919326538e+02   4.3990461499e+00    0.1340849    0.1122185 -85.79 0.0002415183    1.560    0.359
        94  -9.5688    120.0435    199.6360   1.2272358483e+02   1.6481994746e+01    0.2331687    0.1605162  60.51  0.000542951    1.461    0.316
        95  -9.7025    115.0853    200.1231   1.2390555557e+02   1.7263520265e+01    0.2059877    0.1867058  73.07 0.0002947398    1.017    0.016
        96  -8.4304    127.6840    199.7338   1.2103780260e+02   1.5065078817e+01    0.1335046     0.114498   5.25 0.0002700834    1.550    0.355
        97  -9.9105     86.0926    196.9252   1.2989016548e+02   2.2856472232e+01    0.4239947    0.1781577 -64.07  0.001749451    2.373    0.579
        98 -10.6015     57.3054    195.4956   1.3601345800e+02   2.7370339391e+01    0.6404274    0.2700355 -67.54  0.002895328    2.157    0.536
        99  -9.8541     53.0142    198.0006   1.3721486412e+02   2.7366118109e+01     0.309403    0.1689964  55.94  0.001600368    1.749    0.428
       100  -9.4462    134.0152    197.9689   1.1933176322e+02   1.4266741771e+01     0.172429     0.161498  78.08 0.0003968171    1.043    0.041
       101  -9.9308     98.7213    196.7757   1.2705070535e+02   2.0837567007e+01    0.5299934    0.2344571  52.56  0.001302284    2.333    0.571
       102  -9.8136    102.7761    195.9438   1.2601509027e+02   2.0340170106e+01     0.213681    0.1923361  81.59 0.0005431095    1.030    0.029
       103 -10.7048    104.5041    237.8254   1.3130384008e+02   1.1231887624e+01    0.3291357    0.1641258  38.92  0.001217099    1.927    0.481
       104  -9.9610    113.1647    193.7322   1.2331966599e+02   1.9026522735e+01    0.4877678     0.236113 -62.44  0.001324524    2.237    0.553
       105 -10.6347     38.2213    193.8023   1.3987969212e+02   3.0133539230e+01    0.5031052    0.2169248 -63.89  0.002461608    2.033    0.508
       106  -9.7675     40.7167    188.1779   1.3875977013e+02   3.1119225387e+01    0.2657564    0.1528718 -79.69  0.001058902    1.530    0.346
       107 -11.1876    249.4831    194.0532   9.5081507630e+01  -6.4904913500e+00    0.3216954    0.2667322  10.35  0.001998565    1.150    0.131
       108  -9.0336     31.8701    195.2864   1.4134072090e+02   3.0522952339e+01    0.3158706   0.08347283  47.34  0.001260795    3.436    0.709
       109  -9.1257    160.0089    194.2571   1.1291686337e+02   1.0038446282e+01    0.2010465     0.180137  45.07   0.00026971    1.055    0.052
       110  -8.6589    133.4926    194.4783   1.1884850056e+02   1.5121355760e+01    0.1445712    0.1361254  59.77  3.70836e-05    1.046    0.044
       111  -9.8725    120.0279    193.0007   1.2164116819e+02   1.7952084925e+01    0.3546989    0.2924493 -53.80  0.001740886    1.290    0.225
       112  -8.8128    118.0024    189.9861   1.2159798105e+02   1.8997868806e+01    0.1849709    0.1720557 -26.82            0    1.317    0.240
       113 -14.3984     31.9800    245.6837   1.4540801028e+02   1.9970229422e+01     2.002519     1.099152  40.65   0.01237603    1.884    0.469
       114  -9.3696     72.5462    193.0560   1.3237624308e+02   2.5800205220e+01    0.1908021    0.1627262  64.09 0.0003237436    1.122    0.109
       115  -9.4852     25.6156    192.3402   1.4234355403e+02   3.1858693294e+01    0.2433055    0.1490145  70.98  0.000769952    1.493    0.330
       116  -9.9042    191.5061    191.4621   1.0566134507e+02   4.4058465000e+00    0.2469609    0.2338593  23.85 0.0006278441    1.013    0.013
       117  -8.9878    172.7406    192.6707   1.0985542620e+02   7.8530174691e+00    0.1419959    0.1135884  -6.31 0.0001820551    1.564    0.360
       118 -11.4485     63.3336    194.8832   1.3463474693e+02   2.6692099564e+01    0.3306138    0.2590518 -54.11  0.001355533    1.470    0.320
       119  -9.5469     20.2464    191.6357   1.4337130070e+02   3.2569182220e+01    0.2392152    0.1381855  71.97  0.001379436    1.601    0.375
       120 -10.0471     32.4625    189.8530   1.4068701428e+02   3.1678563932e+01    0.3255712     0.235884  50.98  0.002067466    1.401    0.286
       121  -9.0895    135.2489    190.0700   1.1767559887e+02   1.5751580531e+01    0.1961363    0.1815203 -88.89 0.0002968862    1.075    0.070
       122  -9.1500     15.4690    189.9582   1.4418904370e+02   3.3412627731e+01    0.1736457   0.09326895 -75.34 0.0006815568    1.493    0.330
       123 -10.9033    249.8671    187.6295   9.3746915591e+01  -5.5186775857e+00    0.3874308      0.21566 -27.95  0.001901427    1.773    0.436
       124  -9.9164     76.9787    188.7053   1.3079319967e+02   2.6148003710e+01     0.225431    0.2017864 -81.73 0.0002669184    1.113    0.101
       125 -11.7083     68.9002    187.4108   1.3244515963e+02   2.7632336066e+01    0.2986849    0.2535449 -51.34 0.0005958043    1.392    0.282
       126  -9.1459    111.4181    187.6718   1.2272579078e+02   2.0710875140e+01    0.2531231    0.1384154 -63.12 0.0009273748    1.922    0.480
       127 -10.9429     84.9189    234.1711   1.3472415490e+02   1.5045833545e+01    0.3005593    0.1960553  88.35  0.001132791    1.578    0.366
       128 -10.0623    140.0299    183.0731   1.1530144672e+02   1.6368883543e+01     0.220899    0.2071756  73.34 0.0003497726    1.026    0.025
       129  -9.1915     37.4929    184.2770   1.3903331416e+02   3.2385196995e+01    0.2065387    0.1064101  36.89  0.001065833    2.113    0.527
       130  -9.4301     30.5613    183.7608   1.4047324076e+02   3.3269278044e+01    0.2021461    0.1496079 -76.49 0.0007067822    1.145    0.127
       131  -9.6921     24.3620    184.2368   1.4183762630e+02   3.3810551889e+01     0.194383    0.1563231  54.61 0.0005173286    1.322    0.244
       132 -10.7494    236.4682    146.0084   8.7403712923e+01   4.1435380257e+00    0.3508187    0.2150052  51.09 0.0009564924    1.816    0.449
       133 -12.3935    248.1108    172.1084   9.0915553207e+01  -2.6351986712e+00    0.7739156     0.470329 -33.50  0.003936762    1.509    0.337
       134 -13.8042    244.7539    158.0584   8.8565751473e+01   4.0434592551e-01     2.869216    0.8772093 -46.87  0.009329883    3.657    0.727
       135 -12.9675    248.4578    114.3664   7.8554772432e+01   7.4753600698e+00     1.365549    0.9104937 -20.88  0.006553659    1.939    0.484
       136 -10.9544    249.5979    150.9314   8.6248478739e+01   7.7368203303e-01     0.486462    0.2990162 -40.60  0.002441572    1.456    0.313
       137 -11.4916    248.1865    142.6895   8.4725397983e+01   2.4937973952e+00    0.6786702    0.4320853 -31.05  0.002300634    1.527    0.345
       138 -12.5363    248.5828    133.5208   8.2691465633e+01   4.0507465534e+00     1.174474    0.6768092 -35.81  0.005596568    1.604    0.376
       139  -8.6490     65.6583    182.2451   1.3248865949e+02   2.9296663376e+01    0.1372742   0.08989391  67.92 0.0002042215    1.565    0.361
       140 -12.7758    248.2316    101.4089   7.5761368814e+01   9.7840578035e+00    0.8970371    0.5481815 -42.81  0.004482281    1.446    0.309
       141  -9.5110    115.3604    177.2512   1.1999831264e+02   2.2398450868e+01    0.3762291    0.2062821 -60.83  0.001594294    1.890    0.471
       142  -8.9228     47.7966    179.6972   1.3622665079e+02   3.2230900990e+01    0.1690645    0.1052325  48.40 0.0005457844    1.614    0.381
       143  -9.0042     19.7608    179.4039   1.4234532201e+02   3.5362897302e+01    0.1281067    0.1201552  26.92   0.00025467    1.487    0.328
       144  -9.5094     12.1895    178.6916   1.4387551219e+02   3.6231965222e+01    0.2321387    0.1590352 -57.38  0.001484913    1.548    0.354
       145 -10.4498     11.7409    173.8152   1.4352563185e+02   3.7369686762e+01    0.3679464    0.1316838 -56.85  0.001467083    2.605    0.616
       146  -9.1710     92.7113    178.0961   1.2553677370e+02   2.6156068810e+01    0.1909436     0.167282 -74.48 0.0001720085    1.088    0.081
       147  -8.8361     34.8428    177.1145   1.3882686127e+02   3.4332391996e+01    0.1648595    0.1245921 -63.52 0.0004089774    1.292    0.226
       148  -8.9139    182.4753    176.5354   1.0454250296e+02   9.1660697117e+00    0.1469322    0.1436698  58.85 0.0002409436    1.054    0.051
       149 -11.4361     78.2482    175.2009   1.2852493652e+02   2.9130905314e+01     0.296474    0.2792923  62.09  0.001387576    1.171    0.146
       150 -11.1799     65.2969    173.8880   1.3140904841e+02   3.1320764372e+01    0.4771557     0.390624 -62.37  0.002578779    1.212    0.175
       151  -9.6104     68.7611    166.9698   1.2954951129e+02   3.2487712163e+01    0.2096366     0.162442  89.47 0.0005303245    1.234    0.190
       152 -11.3271     12.4651    161.4686   1.4216280416e+02   4.0113455264e+01    0.2577065    0.1667777  71.42  0.001385739    1.517    0.341
       153 -10.3824     18.9687    172.5091   1.4183894059e+02   3.7007428242e+01    0.4104214    0.2173118  69.63  0.002160331    2.001    0.500
       154 -11.3210     14.5581    166.5242   1.4220834644e+02   3.8776837201e+01    0.4458416    0.3412396 -16.88  0.002832568    2.072    0.517
       155  -9.6064    107.6672    172.9192   1.2106422087e+02   2.4807274024e+01    0.2060306    0.1755379 -78.44 0.0005265265    1.137    0.121
       156  -9.3443     95.3576    172.6069   1.2398830145e+02   2.7015735135e+01    0.2126179    0.1542132  76.49 0.0005765735    1.516    0.340
       157  -9.0200     91.1304    172.7827   1.2504135117e+02   2.7675275789e+01    0.2406732    0.1641148 -43.00 0.0005502034    1.726    0.421
       158 -12.0749     86.3898    166.8802   1.2520671054e+02   2.9853301489e+01    0.6619053    0.5088419  46.53  0.003536026    1.331    0.249
       159  -8.4235     56.2048    172.2754   1.3333129586e+02   3.2920815672e+01    0.1200417   0.08971308 -54.02 0.0006621067    1.405    0.288
       160  -8.8367     52.6843    170.9698   1.3398395001e+02   3.3678704551e+01    0.1797561    0.1419334 -76.70 0.0003216837    1.088    0.081
       161 -10.1782     28.7069    171.4175   1.3956489644e+02   3.6302261978e+01    0.3726364    0.2689965 -69.21  0.001297737    1.205    0.170
       162 -11.1012     44.9194    167.0233   1.3529431251e+02   3.5554868386e+01    0.5706242    0.3826512 -63.09  0.001952624    1.329    0.248
       163  -9.2272    126.4818    167.5034   1.1549408938e+02   2.2560990989e+01     0.269187    0.1975026  78.57 0.0008596329    1.661    0.398
       164  -8.6562     58.5177    167.4880   1.3211077338e+02   3.3759106227e+01    0.1367791    0.1158257 -86.17 0.0008102325    1.019    0.019
       165  -8.8068     53.8085    164.9308   1.3288314366e+02   3.4973740354e+01    0.1805246   0.09090272 -65.19 0.0004588756    1.730    0.422
       166  -9.5748     33.0331    164.8562   1.3781558059e+02   3.7382813661e+01    0.2171272    0.1494539 -74.49 0.0003843836    1.197    0.165
       167 -11.8070     24.2991    162.3468   1.3955172536e+02   3.8843765722e+01    0.2682158    0.2171459 -55.93 0.0007774335    1.332    0.249
       168  -8.6075     37.2655    162.6891   1.3655047275e+02   3.7441139739e+01    0.1290157   0.08502759  79.38 0.0003390587    1.539    0.350
       169 -10.6708     89.5190    159.2868   1.2309485997e+02   3.1174848109e+01    0.4769633    0.2501512 -70.88  0.001070186    2.224    0.550
       170  -9.2022     78.9989    158.7100   1.2565622045e+02   3.2974202311e+01    0.1905677    0.1759371  88.31  0.001110521    1.053    0.050
       171  -9.8698     83.1371    155.8666   1.2410209946e+02   3.3022247348e+01    0.3811418    0.1938166  22.81  0.001396145    3.298    0.697
       172  -9.0066     73.5111    159.5246   1.2718014080e+02   3.3596239118e+01    0.1415466    0.1250705 -82.40 4.867126e-05    1.006    0.006
       173  -8.6697     52.4595    158.4585   1.3227993736e+02   3.6688986567e+01    0.1344402    0.1147421 -76.42 0.0002695655    1.032    0.031
       174 -11.1996     31.8325    156.0098   1.3700197134e+02   3.9584168725e+01    0.4064253    0.2323305 -50.92  0.001579216    1.772    0.436
       175  -8.5924    112.4321    157.5725   1.1698161370e+02   2.7576185655e+01    0.1498976    0.1403792 -88.71 9.313084e-05    1.008    0.008
       176  -9.0425     47.6889    157.7159   1.3335296486e+02   3.7442080950e+01    0.1262135   0.09477728 -42.02 0.0001621919    1.572    0.364
       177  -9.6229     72.6786    156.1883   1.2683022252e+02   3.4523371852e+01    0.2703868    0.2068284  21.00  0.001272475    1.692    0.409
       178 -13.0221      5.5851    143.7154   1.4187677127e+02   4.4709704235e+01    0.6660637    0.5987572  72.33   0.00497868    1.255    0.203
       179 -12.3294     11.2708    151.1680   1.4134374723e+02   4.2572133758e+01    0.5459656    0.3309121  79.84  0.001346559    1.660    0.397
       180  -9.0878    228.3816    155.3139   9.0857642184e+01   4.0109010920e+00    0.1964543    0.1268562 -47.28 0.0004837046    1.535    0.348
       181 -10.9248     98.5436    150.9775   1.1920830879e+02   3.1656440840e+01    0.3863337    0.3281185 -52.29  0.001640183    1.172    0.147
       182  -9.4786    101.8652    146.2795   1.1739280856e+02   3.2200830609e+01    0.3190567    0.1868392 -39.00  0.001321412    2.032    0.508
       183 -10.0043    113.8868    150.6294   1.1519327813e+02   2.8954840990e+01    0.3167151    0.2554762 -60.88 0.0007001325    1.207    0.171
       184  -9.4550     86.6697    150.3694   1.2217490365e+02   3.3790269602e+01    0.2607311    0.1650125 -69.52 0.0006280168    1.624    0.384
       185 -10.7905     55.5667    149.0857   1.3004961124e+02   3.8552672112e+01    0.6222612    0.3341828  59.56  0.002777814    2.348    0.574
       186 -10.4282     23.5471    149.5035   1.3819561547e+02   4.1906701651e+01    0.2174622    0.1666392 -61.27 0.0007573768    1.201    0.167
       187 -12.4896     68.2428    144.6383   1.2596635126e+02   3.7946483477e+01    0.7018313    0.5144404 -88.25  0.003056418    1.473    0.321
       188 -10.6395    133.4178    142.0968   1.0837913879e+02   2.7079784728e+01     0.751254    0.2643648 -52.19  0.002364725    2.971    0.663
       189 -11.3488     73.7583    139.1546   1.2346413655e+02   3.8480798402e+01    0.4758346    0.3533551  33.45  0.002028725    1.517    0.341
       190  -9.8526     39.5645    146.8788   1.3382766350e+02   4.0939174209e+01      0.25578    0.1468425  52.43  0.001006681    1.955    0.489
       191 -11.3063     33.7188    140.7001   1.3443017423e+02   4.3005758059e+01    0.3832275    0.2285266  34.32  0.002096917    1.935    0.483
       192 -10.7326      9.1635    136.8194   1.4019841258e+02   4.6022451926e+01    0.1947951    0.1780469 -27.24   0.00043228    1.401    0.286
       193 -11.5214     17.9942    139.2231   1.3827000406e+02   4.4780601017e+01    0.3727767     0.244592  53.14 0.0009504272    1.719    0.418
       194 -10.3259     12.7013    137.3243   1.3936900654e+02   4.5640872546e+01    0.2341601    0.1235439 -67.72 0.0007776475    1.466    0.318
       195 -10.4295     56.2194    138.9726   1.2817976756e+02   4.0899419255e+01    0.2198035    0.2166057  24.53 0.0003630276    1.204    0.169
       196 -11.1783     60.8947    137.0271   1.2656444968e+02   4.0769361325e+01    0.3141694    0.2562471 -80.70  0.001798506    1.186    0.157
       197  -9.2066     25.5089    139.5237   1.3638854183e+02   4.4060758645e+01    0.1271668    0.1027176 -73.09 0.0002112763    1.001    0.001
       198 -10.0791    110.1811    136.3147   1.1305074395e+02   3.3050245072e+01    0.3295793    0.2598979  -4.98  0.001034792    1.771    0.435
       199 -12.1653     23.1032    154.2458   1.3888510911e+02   4.0841342480e+01    0.5369813    0.3969678  80.13   0.00338488    1.286    0.223
       200  -9.4723     80.8688    132.7995   1.2024129718e+02   3.8935257677e+01    0.2027668    0.1843831 -44.48 0.0003170679    1.127    0.113
       201 -11.1745     44.9506    131.2187   1.2990721852e+02   4.4071212768e+01    0.3980608    0.3021108 -77.72  0.002062505    1.243    0.195
       202 -10.3277     32.9937    131.7119   1.3325817926e+02   4.5191273170e+01    0.1988807    0.1475661 -66.27 0.0003216885    1.111    0.100
       203 -11.7272     31.1513    126.4625   1.3292604535e+02   4.6592805754e+01     0.336878    0.2920694  53.00  0.001909132    1.328    0.247
       204 -12.5855     62.1614    245.6245   1.4012080045e+02   1.6092931277e+01     1.487336     0.622715  33.38  0.006656397    3.191    0.687
       205 -11.3245     66.8809    128.2981   1.2322861180e+02   4.2052439698e+01    0.3952548    0.2629929 -59.92  0.002015637    1.350    0.259
       206  -9.7028    116.0902    129.0197   1.0979592994e+02   3.3621509692e+01    0.3259566    0.2133581   9.94  0.001209993    2.814    0.645
       207  -9.0168    106.3430    129.6718   1.1256185770e+02   3.5331695579e+01    0.1582727    0.1180151  82.79 -2.003813e-05    1.744    0.427
       208 -11.0172     24.4361    127.4327   1.3492133517e+02   4.6970135338e+01    0.2853505    0.1770218 -28.73  0.001113498    2.151    0.535
       209 -11.6095      9.4948    127.0040   1.3886823968e+02   4.8237543344e+01      0.24282     0.182176  84.15  0.001592507    1.344    0.256
       210 -10.5192    209.8720    125.8239   8.7612968400e+01   1.3540039444e+01    0.3103237    0.2630306 -38.78 0.0005045956    1.146    0.127
       211 -11.5779     20.7525    120.9633   1.3494339769e+02   4.8767284801e+01    0.4219451    0.1325912 -56.79  0.001833582    2.333    0.571
       212 -12.0371     31.4769    119.6768   1.3170369111e+02   4.8135785905e+01    0.4444555    0.3121845  62.35  0.002560783    1.738    0.425
       213 -10.0253     54.8160    120.7925   1.2517631968e+02   4.5383995826e+01    0.2575612    0.1933451   5.50  0.001064064    1.749    0.428
       214 -12.2582     63.1794    221.2630   1.3762140059e+02   2.0896442584e+01    0.9806478     0.405671 -73.72  0.003492096    2.499    0.600
       215 -12.7668     12.2006    213.0204   1.4660321308e+02   2.8757862056e+01    0.9611957    0.4814651  45.95  0.005064038    1.884    0.469
       216  -9.9434    231.9791    116.3384   8.1558957938e+01   1.0524596503e+01    0.1965777     0.188895 -68.17 0.0006033487    1.065    0.061
       217 -12.0141     15.3023    114.4183   1.3545899584e+02   5.0674411361e+01     0.294047    0.2478507 -56.71 0.0005722931    1.102    0.093
       218 -11.0211    168.0692    113.2206   9.3027911663e+01   2.5720769788e+01    0.3754164     0.309957 -86.73  0.001007638    1.396    0.284
       219  -9.1826    203.7914    111.0427   8.5218681616e+01   1.7783918263e+01    0.2481945    0.1828818  -7.08  0.001084883    2.016    0.504
       220  -9.8919     58.5811    110.3838   1.2187391671e+02   4.7325819596e+01    0.2574398   0.09973703  45.84 0.0009591806    3.343    0.701
       221 -10.0293     31.7090    110.4746   1.2998992189e+02   5.0221335781e+01     0.212953    0.1212533  31.90 0.0007800442    2.051    0.512
       222  -9.3071    126.1693    180.7404   1.1808159326e+02   1.9573601079e+01    0.3812199    0.1826466 -69.46  0.001061365    3.405    0.706
       223 -10.9456     17.5198     99.1842   1.3221290220e+02   5.3905980708e+01    0.2125391    0.1915638  88.50  0.001508397    1.270    0.213
       224  -9.4099     42.8091     92.1763   1.2267431929e+02   5.3197391103e+01    0.1762327    0.1291215 -34.10  0.000302209    1.299    0.230
       225 -10.5807    250.0107     86.5255   7.2287193249e+01   1.1940131647e+01    0.2265546    0.1627668 -46.41 0.0006595324    1.228    0.185
       226  -9.6850     77.9468     85.0479   1.0942098656e+02   5.0103273567e+01    0.2009291    0.1832578 -29.13            0    1.011    0.011
       227  -9.3132     63.9736     76.4702   1.1149589299e+02   5.3884767726e+01    0.1909181    0.1592213 -34.66 0.0001088478    1.071    0.066
       228  -8.3118     45.6868     74.7203   1.1724936785e+02   5.6513498620e+01    0.1286508   0.08565148 -23.20   0.00021484    1.568    0.362
       229 -10.7357    142.9124    248.8744   1.2517488772e+02   2.7694534125e+00    0.2997971    0.1828326  53.57 0.0009243353    1.516    0.340
       230 -10.6610    193.9101    245.1606   1.1471726537e+02  -5.2942240618e+00    0.2213583    0.1975618  26.94 0.0003469471    1.079    0.074
       231  -9.6937    222.5076    244.5243   1.0921899916e+02  -9.7983796605e+00    0.1242378    0.1016513  15.73 0.0008101256    1.010    0.010
       232 -10.4591    189.9240     15.6817   6.3591694165e+01   3.5917281214e+01    0.1891038     0.148075  81.40 0.0006219374    1.089    0.081
