#   1 NUMBER                 Running object number                                     
#   2 MAG_AUTO               Kron-like elliptical aperture magnitude                    [mag]
#   3 X_IMAGE                Object position along x                                    [pixel]
#   4 Y_IMAGE                Object position along y                                    [pixel]
#   5 X_WORLD                Barycenter position along world x axis                     [deg]
#   6 Y_WORLD                Barycenter position along world y axis                     [deg]
#   7 A_WORLD                Profile RMS along major axis (world units)                 [deg]
#   8 B_WORLD                Profile RMS along minor axis (world units)                 [deg]
#   9 THETA_WORLD            Position angle (CCW/world-x)                               [deg]
#  10 FWHM_WORLD             FWHM assuming a gaussian core                              [deg]
#  11 ELONGATION             A_IMAGE/B_IMAGE                                           
#  12 ELLIPTICITY            1 - B_IMAGE/A_IMAGE                                       
         1 -12.3535    194.6918     38.8201   4.8841499524e+01   3.1612775945e+01      1.07597     1.009517 -53.98  0.003744666    1.076    0.071
         2 -12.4768    203.4646     29.4621   4.5151996592e+01   3.0626559704e+01    0.8579862    0.7303411  -9.26  0.001352695    1.432    0.302
         3 -11.0483    229.8204      3.9991   3.6266099283e+01   2.7226916086e+01     0.572318    0.4380218  54.61   0.00306843    1.536    0.349
         4 -10.7341    223.7476      3.5048   3.6624381779e+01   2.8676956190e+01    0.4356129    0.3470536 -61.51  0.002220182    1.102    0.093
         5  -9.7234     63.3626      2.7201   6.4279886591e+01   6.6301390688e+01     0.216735    0.1518513  55.79  0.001281817    1.725    0.420
         6  -9.3070     58.3980      2.7752   6.6113719389e+01   6.7169138089e+01    0.1762114    0.1021845  -8.62 0.0005673717    1.731    0.422
         7  -8.2722     56.0831    223.8796   1.1957354783e+02   2.1316700189e+01     0.171825    0.1168237  68.00  0.001110314    1.206    0.170
         8  -9.2104    139.7517    249.8856   1.0639060481e+02   4.5519062111e+00     0.203207    0.1593366  78.58  0.001339215    1.575    0.365
         9 -10.1931    126.6043    250.2966   1.0887529961e+02   6.5153398438e+00    0.5423799    0.1939799  42.70  0.002542199    2.181    0.541
        10 -14.1841     70.9964    149.2136   1.0756662718e+02   3.5829467007e+01     11.57868     5.404706  77.44   0.01352012    8.635    0.884
        11 -17.7089     11.9520    171.7460   1.2434161447e+02   3.7132095557e+01     17.91616     3.942629 -78.04   0.06348051    4.167    0.760
        12 -10.5354     73.5900    174.5408   1.1065745384e+02   2.9485640569e+01    0.4231975    0.2915651 -37.85  0.002161825    2.036    0.509
        13 -10.4012     77.6672    169.8676   1.0904053671e+02   2.9977766658e+01    0.3394645    0.2680733 -45.39  0.001137014    1.499    0.333
        14  -8.3580    141.6170    174.1401   9.4636827242e+01   1.8073925581e+01    0.2461574    0.1707631  37.39 0.0009115266    1.416    0.294
        15  -9.5595    168.9663    218.9733   9.6502454271e+01   4.6917470798e+00      0.26792    0.1877292 -79.51  0.001322738    2.587    0.613
        16  -9.7262    104.1053    171.7812   1.0300023625e+02   2.5370682105e+01    0.3492421    0.2798426  69.17  0.001897521    1.248    0.199
        17  -9.6495     52.9205    172.6036   1.1524318675e+02   3.2667271299e+01    0.2499035    0.2006595  71.12 0.0005439478    1.116    0.104
        18  -9.2855     92.9895    217.8562   1.1174991020e+02   1.7385153580e+01    0.2306517     0.167901 -82.63 0.0006543924    1.431    0.301
        19  -7.8245    159.4692    162.9462   8.8369300936e+01   1.6905200048e+01    0.2031676    0.1324096 -72.11 0.0008080591    2.438    0.590
        20 -10.4807     92.0646    153.8597   1.0291609732e+02   3.1526082193e+01    0.6419994    0.4207266 -32.83  0.002555864    2.160    0.537
        21  -9.0203     56.8479    217.6203   1.1890328616e+02   2.2454115055e+01    0.2520504    0.2199662  76.75  0.001085402    1.181    0.153
        22  -9.4205    133.5023    143.7491   9.0389230321e+01   2.6316009355e+01    0.7488706    0.1825785 -52.55  0.001889945    4.887    0.795
        23  -8.9122     86.2146    145.2295   1.0288487904e+02   3.4524634130e+01    0.2635639    0.2042904  73.36 0.0005583868    1.383    0.277
        24  -9.6591    104.5926    139.4875   9.6892523642e+01   3.2813632963e+01    0.4871824    0.3129873 -23.22  0.001926784    2.617    0.618
        25 -10.4727     92.5127    139.3432   1.0008676911e+02   3.4925029077e+01    0.2721982    0.2454128 -45.90 0.0003198459    1.171    0.146
        26  -8.9987    105.9786    130.8737   9.4669396552e+01   3.4609036179e+01     0.359284    0.2938597 -77.57  0.001656814    1.310    0.237
        27  -9.4144    113.2664    129.8105   9.2466686529e+01   3.3502165940e+01    0.3405593    0.2684865   4.34 0.0009905775    1.722    0.419
        28 -10.3660     42.1777    208.9678   1.2104591005e+02   2.6003365809e+01    0.3829893    0.2492575  62.71  0.001572486    1.273    0.214
        29  -9.4755    100.3577    126.3028   9.5187299040e+01   3.6707747221e+01    0.4046581    0.2744649 -30.30  0.001788486    1.883    0.469
        30 -10.5325     34.5020    208.5559   1.2250648826e+02   2.6964689830e+01    0.3382558    0.1630912  49.27  0.001920482    1.762    0.432
        31  -8.5380    109.0655    119.0468   9.1068182695e+01   3.6823534628e+01    0.2233714    0.2147401 -45.97 0.0003275326    1.042    0.041
        32  -9.9352    119.7824    110.5944   8.5970098994e+01   3.6657838435e+01    0.3414008    0.2883684  84.59  0.001612402    1.402    0.287
        33 -10.3745    115.7488    109.8720   8.6889268708e+01   3.7638046167e+01    0.6152678    0.2211327 -47.17  0.002025147    2.679    0.627
        34  -8.5644    205.6514    110.2424   6.6255236256e+01   1.7306021596e+01    0.2540461    0.1833782  28.03 0.0006452246    1.669    0.401
        35  -9.0274    134.6638    104.0856   8.0244640219e+01   3.4931581759e+01    0.4844345     0.144998 -42.58  0.001408019    3.304    0.697
        36  -8.4819     73.8828    188.6033   1.1238569979e+02   2.6276880669e+01    0.2326031    0.1690316 -88.36 0.0004804932    1.311    0.237
        37 -13.4207     49.2530    201.2416   1.1897523540e+02   2.6772577057e+01     5.438012     1.040675  51.90   0.01597066    6.088    0.836
        38  -8.5458    184.7414     76.9891   6.1251028167e+01   2.8253706677e+01    0.2004151     0.129979 -35.54 0.0004527171    1.512    0.339
        39 -12.1162    183.7106     48.1427   5.3143556776e+01   3.3097758739e+01    0.9569811    0.7209032  26.71  0.001630366    1.672    0.402
        40 -10.0524    134.8883    246.3438   1.0687894190e+02   5.8592825358e+00    0.2316718    0.1870898 -53.16  0.001577314    1.533    0.348
        41  -8.7699    154.3197     49.1489   5.8772904168e+01   4.0420981683e+01    0.2724055    0.2105929  75.38 0.0005185932    1.401    0.286
        42  -9.4916    193.5802    195.6769   8.7595870390e+01   4.2340081999e+00    0.6769828     0.341691 -61.23  0.002018524    6.149    0.837
        43  -8.6106    208.1589    196.1292   8.4838526665e+01   1.5761004061e+00    0.3335449   0.09228478 -41.90  0.001136588    3.901    0.744
        44  -9.1365    151.8544     55.0248   6.1176197159e+01   4.0139596438e+01    0.3076536      0.24214 -79.90 0.0004671322    1.550    0.355
        45 -10.7429    125.6980    244.4616   1.0838713984e+02   7.5900098061e+00    0.3202942    0.1963298  33.65  0.001849003    1.568    0.362
        46  -9.9686     60.4098    232.9097   1.1949403334e+02   1.9037504525e+01    0.2491001    0.1669222  66.20 0.0005675863    1.212    0.175
        47  -7.5486     72.2772    231.6425   1.1717699730e+02   1.7704411761e+01    0.1248939   0.07237817  68.91 0.0007009165    1.657    0.396
        48  -8.0298     81.7551    195.3890   1.1147904229e+02   2.3665418144e+01    0.1743719    0.1216274  30.21 0.0008176892    1.690    0.408
