#   1 NUMBER                 Running object number                                     
#   2 MAG_AUTO               Kron-like elliptical aperture magnitude                    [mag]
#   3 X_IMAGE                Object position along x                                    [pixel]
#   4 Y_IMAGE                Object position along y                                    [pixel]
#   5 X_WORLD                Barycenter position along world x axis                     [deg]
#   6 Y_WORLD                Barycenter position along world y axis                     [deg]
#   7 A_WORLD                Profile RMS along major axis (world units)                 [deg]
#   8 B_WORLD                Profile RMS along minor axis (world units)                 [deg]
#   9 THETA_WORLD            Position angle (CCW/world-x)                               [deg]
#  10 FWHM_WORLD             FWHM assuming a gaussian core                              [deg]
#  11 ELONGATION             A_IMAGE/B_IMAGE                                           
#  12 ELLIPTICITY            1 - B_IMAGE/A_IMAGE                                       
         1 -13.0923    174.4390     31.9238   7.4089013654e+01   3.8108396151e+01     1.304064    0.9747688  17.65  0.004663098    1.696    0.410
         2 -11.5809    178.1653     24.8598   7.1323968666e+01   3.8000860985e+01    0.5143581    0.4226442  23.10  0.001246056    1.435    0.303
         3 -10.4182    192.5443      1.7849   6.2698709066e+01   3.6707171725e+01    0.5338138    0.1847794  74.57  0.002006704    2.725    0.633
         4 -12.0712    168.2928    224.5644   1.2119288432e+02   5.3956189403e+00    0.4252898    0.3670826  30.63   0.00288861    1.121    0.108
         5 -19.4789     46.9755    144.4973   1.3591758054e+02   4.0615411518e+01     19.58022     2.581295 -67.57   0.04864847    7.159    0.860
         6  -9.7623     22.1355    205.0867   1.4670255178e+02   3.0275298255e+01    0.1714918    0.1375024  57.92 0.0004844783    1.310    0.237
         7 -11.5864    196.0383    195.9653   1.1141625277e+02   4.8903437789e+00    0.6223359    0.4648257  50.14   0.00216436    1.360    0.265
         8  -9.7794    188.2360    186.5291   1.1119722309e+02   7.8546396683e+00    0.3193692    0.2622138 -74.25  0.001405144    1.664    0.399
         9 -10.4081    208.0242    185.0467   1.0717270401e+02   4.3843570484e+00    0.3152858    0.2398717   9.29  0.001214743    1.414    0.293
        10  -9.4816    212.4241    181.2290   1.0562954030e+02   4.1600261869e+00    0.1702252    0.1260548 -45.01 0.0004956078    1.554    0.356
        11  -9.9519     99.2696    180.4474   1.2871909575e+02   2.5238671443e+01    0.2290378    0.1721766 -69.51 0.0008192114    1.326    0.246
        12  -9.4777    198.4843    178.0289   1.0761783623e+02   7.3073599914e+00    0.2917685    0.2202935 -45.53  0.001115114    1.479    0.324
        13 -10.1077     92.7368    177.6500   1.2975507498e+02   2.6873836430e+01    0.2229155    0.1880576 -69.75  0.000529898    1.218    0.179
        14 -11.4209     95.2993    173.0434   1.2853165044e+02   2.7458533878e+01    0.6027659    0.2685398 -51.05  0.002600105    2.481    0.597
        15  -8.7042      1.2568    177.3074   1.4894847466e+02   3.7823203264e+01   0.09878707   0.06880169 -67.51 0.0003965749    1.518    0.341
        16  -8.9896    113.2716    169.0295   1.2387196378e+02   2.5309426811e+01    0.1918676    0.1707515 -89.48 0.0003956295    1.069    0.065
        17  -9.4081    140.5195    218.7807   1.2559955553e+02   1.1030881840e+01      0.26884    0.1218031 -64.50 0.0008214879    3.455    0.711
        18  -9.8712    100.7904    163.1747   1.2576630215e+02   2.8718274513e+01    0.2290646    0.2151789 -75.14 0.0004014796    1.157    0.136
        19  -9.6675      1.7875    250.7995   1.5214100535e+02   2.4081764493e+01    0.1258012   0.05212557  47.28 0.0006657406    1.813    0.448
        20 -11.8032     90.2173    157.7493   1.2737093859e+02   3.1648992193e+01    0.3643355    0.3025343 -31.74 0.0008580979    1.643    0.391
        21 -10.6133    104.8904    155.6764   1.2354669792e+02   2.9687737293e+01    0.6188799    0.3244004 -40.66  0.001825514    2.631    0.620
        22  -9.3444     94.3419    149.6974   1.2504232523e+02   3.2810745160e+01    0.2151936    0.1063586  60.40 0.0007689015    2.610    0.617
        23  -9.7214      4.7314    214.2015   1.5022163679e+02   3.0238212262e+01    0.1271206   0.09555305  83.87 0.0003619813    1.194    0.162
        24  -9.3149     97.8783    211.5661   1.3293422465e+02   1.9239883526e+01     0.244436    0.1491303 -89.08  0.001326742    1.911    0.477
        25  -9.7941    112.6883    209.5292   1.2979543799e+02   1.7286554203e+01    0.3725793    0.1123303  40.17  0.001426675    3.064    0.674
        26  -9.7926    113.6139    140.3150   1.1854532296e+02   3.1583594322e+01    0.4180757    0.2278732 -39.80   0.00170859    2.286    0.563
        27 -10.6700    102.8823    140.7091   1.2128700002e+02   3.3421404575e+01     0.277195    0.2671849  74.09 0.0005366489    1.113    0.101
        28  -8.6714    165.3641    208.1978   1.1930540933e+02   8.4757515379e+00    0.1583472    0.1228166 -63.11 0.0002098765    1.601    0.375
        29  -9.2342    101.9797    208.4881   1.3177712456e+02   1.9186392033e+01    0.1882231   0.08212519  58.50 0.0008099337    2.499    0.600
        30  -9.8885     22.8482    135.6481   1.4082052194e+02   4.5095889510e+01    0.2152397    0.1582367 -76.31 0.0004343771    1.102    0.092
        31  -9.5237    105.7649    131.0179   1.1860151019e+02   3.5131898698e+01    0.3089246    0.2579057  82.90  0.001356773    1.242    0.195
        32  -9.5375    106.9723    127.0125   1.1743254872e+02   3.5831509401e+01    0.2995292    0.2256272 -38.98 0.0007034031    1.489    0.328
        33  -9.3738    118.6731    130.8327   1.1528496622e+02   3.2766968979e+01      0.23251    0.1840814 -38.36 0.0007902075    1.402    0.287
        34 -11.0958     16.0750    206.2811   1.4785843894e+02   3.0655597023e+01    0.2151207    0.1503883  86.55 0.0007730522    1.135    0.119
        35 -10.0933     86.3489    122.1481   1.2187537913e+02   4.0493750493e+01    0.2277607    0.2000643  26.65 0.0006456511    1.358    0.264
        36  -8.7522    113.4245    119.4817   1.1404815328e+02   3.6341055065e+01    0.1484236    0.1394444 -70.45 6.222146e-05    1.014    0.014
        37  -9.4290    168.0663    114.0354   9.9502239429e+01   2.5735768053e+01    0.2354344    0.2293668 -70.52 0.0005182918    1.028    0.027
        38  -8.6288    205.6478    110.2910   9.1017041470e+01   1.7674859799e+01    0.1530449    0.1182071 -75.88 0.0007028171    1.675    0.403
        39 -11.7289     11.7091    205.8319   1.4860580004e+02   3.1169442529e+01     0.349961     0.274208  42.33  0.002045241    1.578    0.366
        40  -9.8480    106.9868    206.2724   1.3051980708e+02   1.8815302062e+01    0.1803238    0.1437992  55.44  0.000473058    1.084    0.077
        41  -8.4726     89.2939     78.3105   1.0996994300e+02   4.9907560554e+01    0.1426902    0.1092928 -16.28 0.0003098194    1.590    0.371
        42 -12.1427    161.6567     47.9151   8.1436520374e+01   3.9222784409e+01    0.6507401    0.4800372 -37.63    0.0020535    1.359    0.264
        43  -9.0168     25.4757    206.4812   1.4618564788e+02   2.9654278816e+01    0.1790304    0.1127536  51.62 0.0005078343    1.397    0.284
        44 -10.4842    170.3999    238.7291   1.2276512251e+02   2.9957281541e+00    0.2770095    0.1587247  50.69   0.00118506    1.595    0.373
        45  -9.3795    176.6365    235.2303   1.2118007653e+02   2.4627072842e+00    0.1456327    0.1106821 -23.76  0.000266412    1.675    0.403
        46  -8.3331    125.2966     26.6698   8.1574267089e+01   5.1192977830e+01    0.1415291    0.1081586 -62.86 0.0006812349    1.637    0.389
