#   1 NUMBER                 Running object number                                     
#   2 MAG_AUTO               Kron-like elliptical aperture magnitude                    [mag]
#   3 X_IMAGE                Object position along x                                    [pixel]
#   4 Y_IMAGE                Object position along y                                    [pixel]
#   5 X_WORLD                Barycenter position along world x axis                     [deg]
#   6 Y_WORLD                Barycenter position along world y axis                     [deg]
#   7 A_WORLD                Profile RMS along major axis (world units)                 [deg]
#   8 B_WORLD                Profile RMS along minor axis (world units)                 [deg]
#   9 THETA_WORLD            Position angle (CCW/world-x)                               [deg]
#  10 FWHM_WORLD             FWHM assuming a gaussian core                              [deg]
#  11 ELONGATION             A_IMAGE/B_IMAGE                                           
#  12 ELLIPTICITY            1 - B_IMAGE/A_IMAGE                                       
         1 -13.0049    170.6499     90.6529   4.8833116437e+01   2.9458855629e+01     2.394678     1.601792 -22.21  0.009920257    1.935    0.483
         2 -16.1016    240.2381     79.9720   3.5964278784e+01   1.6761334417e+01     5.833334     5.508015  -6.24   0.04016925    1.328    0.247
         3 -14.7578    245.3096     41.6246   2.7371051515e+01   2.1166421002e+01     3.772656     1.794271 -65.87    0.0124646    2.304    0.566
         4  -8.2339     54.6636      7.6721   5.0210204420e+01   6.8309699987e+01    0.1335579   0.08391351  21.55 0.0007051856    1.726    0.421
         5  -7.2319    142.6850      4.3403   2.8259756832e+01   4.8528971048e+01    0.1387318   0.08619618 -65.09 0.0004378346    1.703    0.413
         6  -7.8811     72.6487      3.6876   4.1896948702e+01   6.5075334505e+01    0.1373987   0.08146296  32.40  0.000704559    1.724    0.420
         7  -8.2692    192.4841      2.2211   2.2690568078e+01   3.6888147841e+01     0.161283    0.1158913 -34.41 0.0009872962    1.472    0.321
         8  -8.2898    231.6795      1.3435   1.9910727820e+01   2.8553872387e+01    0.1401828   0.09346876  78.17 0.0003581694    1.494    0.331
         9  -9.5670      8.7261    204.3991   1.1036601535e+02   2.9474887889e+01     0.218994    0.1843992  68.22 0.0002576946    1.096    0.088
        10 -10.3732    188.6480    250.1328   7.6530868928e+01  -2.2530882610e+00    0.1981537    0.1359861  24.62 0.0003967689    1.204    0.169
        11  -8.7661    157.6854    240.1406   8.1117592149e+01   3.3076285175e+00    0.2125822    0.1747753  11.35 0.0002984422    1.115    0.103
        12  -9.2935    155.3891    249.2373   8.2761788240e+01   2.2093669390e+00    0.2572026    0.1771852  31.39 0.0002358057    1.200    0.167
        13  -9.1229    156.7748    244.7787   8.1913242303e+01   2.7069076982e+00    0.2078774    0.1819248 -17.28 0.0004007376    1.240    0.193
        14 -10.4702    191.2257    192.0062   6.6882330661e+01   6.3792369018e+00    0.9997885    0.5002666 -62.18  0.002892453    7.029    0.858
        15  -8.6927    204.9762    200.0000   6.5689810493e+01   3.0000365479e+00    0.1969609   0.06681941  36.93 0.0007260044    2.920    0.658
        16  -7.2723    167.6942    241.3020   7.9297411638e+01   1.7591378097e+00    0.1115028   0.08826362  51.72 0.0003105179    1.597    0.374
        17  -7.8014    186.0190    238.7104   7.5409096614e+01  -3.0474871053e-01     0.160104     0.127929  15.36 0.0004839339    1.033    0.032
        18 -11.0365     41.8326    136.4586   9.5401528556e+01   4.2793997367e+01    0.4017384    0.3417404   2.57 0.0009340064    1.433    0.302
        19 -13.2172     53.0329    133.7376   9.1424468851e+01   4.2167948931e+01     2.449611     1.402069  23.97  0.008038957    2.000    0.500
        20  -9.2290    235.5376    182.5276   5.7284255260e+01   1.3928300403e+00    0.2610917    0.1038553 -38.51   0.00122243    2.223    0.550
        21 -10.8359    239.4510    178.6738   5.5957440240e+01   1.4351212333e+00    0.4973574    0.2560866 -51.45  0.002333742    2.834    0.647
        22 -10.5045    223.5617    177.2019   5.8284657424e+01   3.9268590497e+00     0.488391    0.3026231 -42.37  0.002718084    1.580    0.367
        23  -7.3671     45.3063    236.7007   1.0436825189e+02   1.8893741162e+01    0.1274384   0.06939088  57.99 0.0002582039    1.592    0.372
        24  -8.9605    226.5086    131.0385   4.8661259327e+01   1.1061843386e+01    0.2116055    0.1850005  87.60 0.0004377022    1.476    0.322
        25  -9.3157    160.8402    129.2974   6.0430298326e+01   2.3943040296e+01    0.3629528    0.3334016 -34.13   0.00197958    1.077    0.071
        26  -8.5447    214.4984    142.6646   5.3016010293e+01   1.1153954764e+01    0.2356658    0.2140934  12.21  0.001469597    1.169    0.145
        27  -9.6881    167.7434    121.5313   5.7118110881e+01   2.4104491569e+01    0.4220915    0.4041466 -15.60  0.001146612    1.086    0.079
        28 -10.5719    217.9961    185.7824   6.0822846935e+01   3.3760564795e+00    0.3792909    0.3087861 -18.06  0.001545866    1.063    0.060
        29  -7.9212     94.4128    122.2750   7.6143857905e+01   3.8729048432e+01    0.2032805    0.1460375 -65.50 0.0004651908    1.457    0.314
        30 -10.0258    176.6664    169.1551   6.5534357352e+01   1.2926056878e+01    0.3652706    0.2306273  59.31  0.001636916    2.295    0.564
        31  -9.7277    158.5802    166.9780   6.8986436493e+01   1.6564480221e+01    0.2595597    0.2373476 -23.22 0.0003433164    1.086    0.080
        32  -9.5136    115.1037    113.0024   6.7860887167e+01   3.6975010643e+01    0.3380473    0.2307092  30.43  0.001482357    1.686    0.407
        33  -9.4107    210.9284    187.6940   6.2422401502e+01   4.1084833640e+00    0.1801928    0.1546301  10.45  0.001162767    1.110    0.099
        34  -7.5371    109.6425    109.2623   6.8462864007e+01   3.8935903612e+01    0.1568238    0.1198536  75.14  0.000635957    1.626    0.385
        35 -10.2835     73.2859    107.2450   7.9412585962e+01   4.6029346886e+01    0.2561597    0.2422612 -37.08 0.0002893768    1.087    0.080
        36 -10.0257    208.6184    139.5199   5.3359863183e+01   1.2739162082e+01    0.3121863    0.2064096 -40.27 0.0008862673    1.364    0.267
        37  -9.5780    141.0542     99.2301   5.7481890201e+01   3.4443553709e+01    0.3633123    0.2924858  72.67  0.001028598    1.392    0.282
        38 -10.0024    187.5312    174.4604   6.4365271261e+01   1.0079462027e+01     0.556838    0.2846422 -60.44  0.001994494    3.873    0.742
        39  -8.3679    158.0663     87.1362   5.0407825635e+01   3.2973280429e+01    0.2177468    0.2028535   3.25 0.0004623227    1.248    0.199
        40  -9.1278    163.8522    164.1688   6.7271911468e+01   1.6183386957e+01    0.2075007    0.1979328  75.97 0.0004857074    1.193    0.162
        41  -7.7677    101.6431    159.5088   8.1604068354e+01   2.8369949222e+01    0.1446212     0.137842 -82.22 0.0002012796    1.044    0.042
        42  -8.7545    207.7791    162.1731   5.8148237311e+01   8.8980949835e+00    0.1907239    0.1750013 -40.35 0.0006173254    1.180    0.152
        43  -8.2805    189.0238    155.9961   6.0410874224e+01   1.3237391708e+01    0.1986823    0.1597625  -6.05  0.001078032    1.362    0.266
        44  -8.0629    158.5576     74.9850   4.6964576394e+01   3.5071127610e+01    0.2175427    0.1406239 -40.43 0.0003456861    1.514    0.340
        45  -8.5675    198.4811     57.4610   3.5843434876e+01   2.8691000330e+01    0.2576902    0.2472138 -15.08    0.0010724    1.277    0.217
        46 -10.1978    196.8830     64.9440   3.7920379445e+01   2.7913547329e+01    0.6423737    0.3631933 -21.46   0.00204217    2.518    0.603
        47  -9.2001    193.4842     65.5404   3.8549422470e+01   2.8578791241e+01    0.2521628    0.2235255 -31.87  0.000613426    1.234    0.189
        48  -9.0883    185.9291     65.6340   3.9687693961e+01   3.0272252757e+01    0.2231768    0.1857149 -33.29 0.0003557283    1.268    0.212
        49  -7.9635    148.4191     66.4767   4.6568292592e+01   3.8948439325e+01    0.1442665    0.1397192 -78.52 0.0001762012    1.043    0.042
        50  -8.1168    141.1030     63.8838   4.7336181805e+01   4.1136756314e+01    0.2076314    0.1834626 -79.02  0.001114946    1.149    0.129
        51  -9.4388    191.9739    152.9096   5.9203980348e+01   1.3286145752e+01    0.4965936    0.2255122 -51.21  0.001956298    2.567    0.610
        52 -10.9974    161.4014     52.4700   4.0042297497e+01   3.8084120085e+01    0.6294812     0.430009 -56.69  0.003133712    1.487    0.327
        53  -8.3771    110.9027     53.9893   5.1420842246e+01   4.9918831069e+01    0.2080381    0.1998801  61.10 0.0003110353    1.012    0.012
        54  -9.0475    199.4205     51.2509   3.4182346131e+01   2.9385108667e+01    0.3026739    0.2161436 -34.27  0.001001477    1.422    0.297
        55 -12.7348     11.7869    144.4863   1.0555173243e+02   4.3545195203e+01     1.027677    0.9236066 -66.19  0.004563844    1.175    0.149
        56 -10.4430    170.4370     49.5498   3.7747519886e+01   3.6349851710e+01    0.4908568    0.2888874  33.73  0.002038913    2.735    0.634
        57  -9.6895    204.7693     44.0795   3.1792480382e+01   2.9196210919e+01    0.4440849    0.2587315 -36.37  0.002261787    1.627    0.385
        58  -9.0525    211.0046    156.4374   5.6431959498e+01   9.3580478817e+00    0.2311807    0.1742069 -51.26 0.0005384723    1.457    0.314
        59  -9.6709    178.2354     42.0279   3.4547821358e+01   3.5559742962e+01    0.4133436    0.1587794  54.52  0.001637158    2.659    0.624
        60 -10.7906     28.0703    146.1414   1.0087528285e+02   4.1721363146e+01     0.605644    0.2984081  62.93  0.002599271    2.316    0.568
        61 -10.1851    181.5380     35.0354   3.2237816674e+01   3.5711715702e+01    0.3665303    0.2438119 -18.76  0.001318145    1.957    0.489
        62  -8.7386    169.2334     37.5912   3.4578421064e+01   3.8307604446e+01    0.2959421    0.2319873   6.98 0.0008402412    1.845    0.458
        63  -9.7988     53.8178    123.8157   8.9458811323e+01   4.4631457779e+01    0.3709069    0.3382609  73.52 0.0009575781    1.097    0.089
        64  -8.1304    190.0798     36.9603   3.1703886151e+01   3.3468710431e+01    0.1888815    0.1610401  22.68 0.0006317096    1.626    0.385
        65 -10.2797    148.3537     34.6435   3.6934720667e+01   4.3780900688e+01    0.4004165    0.2499192  33.63  0.001817015    2.229    0.551
        66  -9.5494    149.4794     29.9955   3.5315155354e+01   4.4098233390e+01    0.2739053    0.2108552  -8.06  0.001464339    1.697    0.411
        67 -10.2750    193.0035     30.8185   2.9803439355e+01   3.3581999190e+01     0.439438    0.3302926  31.93  0.001277878    1.938    0.484
        68  -9.1492    197.8018     24.9846   2.7845571028e+01   3.3201786852e+01    0.2456672    0.1690647 -37.27  0.000701847    1.435    0.303
        69  -8.8156    185.4655     28.5323   3.0052332763e+01   3.5610569710e+01    0.2334559    0.2147572  31.90 0.0006555251    1.406    0.289
        70  -8.5188    157.4401     26.7852   3.3139113455e+01   4.2540777729e+01    0.2312486    0.1734573  74.76 0.0004025082    1.232    0.188
        71  -8.5475    151.0179     23.0165   3.2934003353e+01   4.4558640185e+01    0.2085621    0.1516929  40.48 0.0005911759    1.623    0.384
        72  -9.6146    124.8026    231.8400   8.6836915838e+01   9.3554930977e+00    0.2297847    0.2104649 -28.63 0.0005201994    1.254    0.202
        73  -8.4688     76.1309    223.7800   9.6619056473e+01   1.7693494284e+01    0.1899869    0.1459979  54.37 0.0004487723    1.130    0.115
        74  -8.8521     12.0503    188.9487   1.0874338658e+02   3.2680735240e+01    0.1804781    0.1526674  76.97 0.0003126483    1.068    0.064
        75  -8.2500    148.2314    219.1639   8.0126618216e+01   8.1935094650e+00    0.1835217    0.1569028  11.08 0.0005069963    1.127    0.113
        76  -9.9596    124.0051    206.0024   8.3541202192e+01   1.4397584152e+01    0.1900978    0.1719224  35.93  0.001156709    1.002    0.002
