#   1 NUMBER                 Running object number                                     
#   2 MAG_AUTO               Kron-like elliptical aperture magnitude                    [mag]
#   3 X_IMAGE                Object position along x                                    [pixel]
#   4 Y_IMAGE                Object position along y                                    [pixel]
#   5 X_WORLD                Barycenter position along world x axis                     [deg]
#   6 Y_WORLD                Barycenter position along world y axis                     [deg]
#   7 A_WORLD                Profile RMS along major axis (world units)                 [deg]
#   8 B_WORLD                Profile RMS along minor axis (world units)                 [deg]
#   9 THETA_WORLD            Position angle (CCW/world-x)                               [deg]
#  10 FWHM_WORLD             FWHM assuming a gaussian core                              [deg]
#  11 ELONGATION             A_IMAGE/B_IMAGE                                           
#  12 ELLIPTICITY            1 - B_IMAGE/A_IMAGE                                       
         1 -12.9953    118.6203     96.3646   4.9677014450e+01   3.9938971084e+01     4.848968     2.396744 -67.22  0.008733753   12.495    0.920
         2 -13.5571      5.1803     55.9071   8.7468379688e+01   6.5748681526e+01     2.682146    0.7895442  22.19   0.01001635    3.260    0.693
         3 -12.1286      2.9697     28.5615   8.3506891280e+01   7.2250549244e+01    0.8770957    0.4760162 -28.13   0.00309353    1.764    0.433
         4 -12.0945     25.1001     43.6228   7.2968713793e+01   6.7339482370e+01     1.755052    0.7334564 -70.93  0.006701161    3.157    0.683
         5 -12.8587     14.8732     33.6398   7.6477666153e+01   7.0441258684e+01      1.68373    0.7558988 -46.27  0.006258265    1.963    0.491
         6 -12.2543      5.5737     37.6530   8.3833352281e+01   7.0056407204e+01     0.617957    0.4366288 -81.34  0.002552568    1.504    0.335
         7 -13.2390     49.5068     50.7005   6.1727235324e+01   6.2787933666e+01     1.398749    0.6280011 -40.29  0.004024754    2.438    0.590
         8 -12.5903     58.2404      5.9553   3.5914714502e+01   6.9053720131e+01     1.029225    0.8962225  -8.03  0.005579417    1.193    0.162
         9 -11.5808     70.4801      3.5660   2.9545307245e+01   6.6552275189e+01    0.5185952    0.3532396  62.61    0.0021915    1.437    0.304
        10 -11.4163     52.0490     19.6998   4.6789108549e+01   6.8324153231e+01    0.6048043    0.3856198  47.08  0.002216825    1.583    0.368
        11 -11.6726     42.0512     20.3849   5.2808232515e+01   6.9960643259e+01    0.6403074    0.4520558  21.84  0.002264861    1.387    0.279
        12 -12.4317     54.8308     26.0940   4.8610724289e+01   6.6729827740e+01     1.602628    0.5647565  31.71   0.00486682    4.217    0.763
        13 -12.9226     72.5063     24.5500   3.9763145762e+01   6.3368556798e+01    0.5746757     0.482455 -81.34 0.0006111195    1.621    0.383
        14 -11.6752     78.6041     20.9100   3.5645999438e+01   6.2510801536e+01    0.9753376    0.6261886  74.33   0.00374785    2.193    0.544
        15 -12.2237     66.8357     14.5518   3.7019820459e+01   6.6056964817e+01     1.240164    0.5097214  34.96  0.004381964    3.088    0.676
        16 -13.0818     63.9778     34.2839   4.8019870179e+01   6.3544232104e+01     1.185237    0.9711562 -14.77  0.006450083    1.299    0.230
        17 -12.3126    211.3985     20.9162   1.1883159686e+01   2.9086064768e+01    0.5697337    0.3588916  61.56  0.003223125    1.647    0.393
        18 -13.7296    234.5292     50.6638   1.6833917846e+01   2.1124001122e+01     1.978067    0.8446668 -20.29   0.00879871    2.705    0.630
        19 -14.0717    243.5129      8.7128   6.9282658893e+00   2.3585809589e+01     1.161655    0.5602607 -74.63  0.006252958    2.281    0.562
        20 -12.1670    222.6900      9.8100   8.3931652459e+00   2.7698822952e+01    0.7390016    0.3579175 -47.20  0.003935097    1.780    0.438
        21 -12.4326    222.3117     31.2406   1.3457333335e+01   2.5685837379e+01     1.143057    0.5558194 -82.43  0.005129061    2.878    0.653
        22 -13.2046    226.7658     21.3367   1.0790517817e+01   2.5756504732e+01    0.7350145    0.4762721   8.72  0.003587604    2.350    0.574
        23 -11.0520    191.1338     21.7540   1.3938578252e+01   3.3653468505e+01    0.9839917    0.5617916  34.28  0.004542002    2.473    0.596
        24 -10.4676    201.6714     18.0001   1.1970361727e+01   3.1564776778e+01    0.4535214    0.4131308 -48.76  0.003002442    1.084    0.078
        25 -13.8765    192.4605     53.8478   2.2364896446e+01   2.9665039174e+01     1.283738     1.041045 -28.62  0.007433154    1.231    0.188
        26 -12.6575    201.3425     39.2319   1.7469232331e+01   2.9392431851e+01     1.007945    0.5108001 -63.71  0.002877879    2.599    0.615
        27 -13.1942    196.6287     46.9677   2.0023745033e+01   2.9560074948e+01    0.9852021     0.435438 -39.29  0.003153182    2.089    0.521
        28 -12.5630    191.2124     35.2115   1.7558742782e+01   3.2187867597e+01    0.9594452    0.2952262 -31.65  0.003645022    2.885    0.653
        29 -11.4880     31.9556     20.3455   5.9249178626e+01   7.1473929484e+01    0.6066496    0.4043448 -45.37  0.003295832    1.514    0.340
        30 -11.2802    151.0265     21.8839   1.8876762102e+01   4.3726813872e+01    0.3483215    0.2899406   5.84 0.0006244492    1.444    0.308
        31 -11.0354    102.9281     20.6709   2.7970788596e+01   5.6546054717e+01    0.4286465    0.2500957 -14.58  0.001862651    2.167    0.538
        32 -11.0019    187.4177     13.2076   1.1970082538e+01   3.5386479466e+01    0.2870369    0.1859038 -62.68 0.0003180473    1.523    0.344
        33 -10.2285    160.0100     14.8572   1.5389613341e+01   4.2106123956e+01     0.259106    0.1783722 -40.71 0.0009753598    1.469    0.319
        34 -10.7023    153.5356     16.0342   1.6605366753e+01   4.3677235962e+01    0.3179795    0.2664997  63.81  0.001133576    1.126    0.112
        35 -11.8684    150.0000     13.0874   1.6113660197e+01   4.4897358502e+01    0.3809787    0.2388522  72.26 0.0004326357    1.450    0.310
        36 -10.5542     36.7201     14.6849   5.3053549156e+01   7.1808559781e+01     0.198864    0.1770182  30.03 0.0001388311    1.187    0.158
        37 -12.1647    116.3000      9.5761   2.0283165955e+01   5.4237080143e+01     0.414822    0.3131746   0.54  0.001333532    1.598    0.374
        38 -11.1016    123.6873     11.0490   1.9486376427e+01   5.2116522876e+01    0.4090312    0.2550194  24.92 0.0007779535    2.059    0.514
        39 -10.8547     93.8582     11.9018   2.6482634429e+01   5.9884642538e+01    0.2369908    0.1762577  50.72 0.0003067954    1.186    0.157
        40  -9.7915     88.6150     11.9542   2.7996201624e+01   6.1205742126e+01    0.1979006    0.1393455 -24.43 0.0008194666    1.575    0.365
        41 -11.4180     77.1153      6.0755   2.8621254443e+01   6.4692401968e+01    0.5326519    0.2301105 -39.34  0.002159335    2.681    0.627
        42 -12.4561    172.9288      6.6789   1.1482706947e+01   3.9564936390e+01    0.3819996    0.2593609   0.72     0.001006    1.947    0.486
        43 -10.4318     27.1846      9.4779   5.6717870864e+01   7.4113311215e+01    0.2299915    0.1748059   5.26  0.000647868    1.252    0.201
        44  -8.6342    146.7132      9.2830   1.5277396692e+01   4.6126796114e+01    0.1476186    0.1261936  56.65 0.0001804849    1.155    0.134
        45  -9.3145    143.7201      9.6866   1.5821616390e+01   4.6884395389e+01    0.2018347    0.1234583  84.18 0.0003992846    1.615    0.381
        46 -10.0398    131.4395     10.8315   1.8076239298e+01   5.0058931587e+01    0.4920713    0.3008175 -50.87  0.002150848    1.805    0.446
        47 -10.5822     84.8953      8.5948   2.7458543715e+01   6.2506209231e+01    0.2161978    0.1825427   5.56 0.0003544271    1.292    0.226
        48 -11.5550    193.7475      7.0730   9.7744503317e+00   3.4438870473e+01    0.2866188    0.2305487  33.92  0.001159137    1.535    0.348
        49  -9.4965    156.4750      7.7784   1.3564950839e+01   4.3693193327e+01    0.2055095    0.1374156  42.50 0.0007954961    1.663    0.399
        50  -9.9055    210.5727      6.3081   8.3515708176e+00   3.0644416990e+01    0.1532148    0.1166185 -11.11 0.0005969998    1.555    0.357
        51 -10.7466    146.0629      5.8188   1.4185344587e+01   4.6611528809e+01    0.3052166    0.1763471  57.10  0.001460243    1.593    0.372
        52 -10.4233    142.3728      2.3312   1.3452297522e+01   4.7892144219e+01    0.2801579    0.2185233 -71.24 0.0008093255    1.278    0.217
        53  -9.4317     91.3330      6.7167   2.4707860040e+01   6.1074501806e+01    0.1399599     0.106661 -76.32 0.0003494846    1.616    0.381
        54 -10.6040      3.0470      6.1023   7.5913626341e+01   7.7119075060e+01    0.2666249    0.1550931  -4.83  0.001316699    1.699    0.412
        55 -10.1613    101.8434      4.4224   2.1075849348e+01   5.8562299855e+01    0.2650496    0.2011285 -38.68 0.0009113302    1.476    0.322
        56 -10.3729    182.8987      3.1228   9.5766513940e+00   3.7398135709e+01    0.4044871    0.1900167 -69.06  0.001758158    2.382    0.580
        57 -11.0096    187.1242      1.4106   8.7692364634e+00   3.6516110263e+01    0.2517949    0.1070536  71.09 0.0004779209    2.138    0.532
        58 -10.2758    112.2741      3.9629   1.8735234410e+01   5.5833062360e+01    0.2802412    0.1802513  65.11 0.0006888116    1.345    0.256
        59 -10.6003    217.5059      2.3013   6.9481535807e+00   2.9474903988e+01     0.215952    0.1921182 -72.20  0.001018403    1.074    0.069
        60  -9.2765    207.4503      3.0261   7.7497240385e+00   3.1631480952e+01    0.1553738    0.1003799  18.91   0.00067773    2.339    0.573
        61 -11.1330    250.1452      1.5079   5.0855635383e+00   2.2954747887e+01    0.1499712    0.1086205 -68.63 0.0002751232    1.248    0.199
        62 -11.0224    232.0314      1.6791   5.9991406260e+00   2.6479988171e+01    0.3357777    0.1449383  85.44  0.001292857    2.429    0.588
        63 -11.5386     48.1178      1.4912   3.8085120322e+01   7.1728434908e+01    0.4487352     0.132661  48.53  0.001641302    2.952    0.661
        64 -11.3764     87.0935      1.3454   2.3191529934e+01   6.2672764359e+01     0.464783    0.1016527  61.96  0.001000368    3.523    0.716
        65 -12.9076     56.6108     94.8289   7.0730491492e+01   5.1540341745e+01    0.5037011    0.4061985  52.08  0.000669352    1.284    0.221
        66 -12.4353     85.4752     73.1431   5.3695634174e+01   5.1650779331e+01    0.7209907    0.4341868  45.56  0.001728664    1.610    0.379
        67 -12.5925     72.6434     73.0228   5.8602490674e+01   5.4096090288e+01     1.392091    0.6583642  34.20  0.005457519    2.092    0.522
        68 -13.6293     62.3097     90.6996   6.7526401654e+01   5.1716143377e+01      0.92847    0.5710071  58.12   0.00400917    2.062    0.515
        69 -10.8899     70.9872     87.9933   6.3448852452e+01   5.0989399148e+01     0.392905    0.3176301 -19.45  0.001712213    1.426    0.299
        70 -12.5468     67.0499     82.6450   6.3599807311e+01   5.2869906206e+01    0.7136245    0.5566933  51.26  0.002028593    1.352    0.261
        71 -12.3617     48.5132     94.9786   7.4020478428e+01   5.2553577376e+01    0.4478434    0.2999224  34.04  0.002228925    1.444    0.307
        72 -10.2765    250.1881     93.3780   2.4408841056e+01   1.3385723676e+01    0.2252163    0.1451237 -34.99 0.0007142731    1.352    0.260
        73 -10.4020    206.3633     94.1708   3.0357821600e+01   2.1279265510e+01    0.1928939    0.1093438 -40.96 0.0006590359    1.748    0.428
        74 -12.4453    188.9723     81.5009   3.0040166746e+01   2.6701295505e+01    0.4307574      0.29262   6.21  0.001238549    2.038    0.509
        75 -10.7399    173.1729     91.6380   3.5440635810e+01   2.8647941456e+01    0.3452814    0.2649271 -80.00  0.001701303    1.839    0.456
        76 -11.4317     96.6259     90.8623   5.4985207416e+01   4.5650930968e+01    0.5507017    0.3904464  57.01  0.002531006    1.573    0.364
        77 -10.9090     79.7602     90.9409   6.0907947840e+01   4.8812565282e+01    0.2474592    0.2081855  24.13 0.0003759332    1.186    0.157
        78 -12.1095    222.8425     88.3934   2.6684922335e+01   1.8844554713e+01    0.3698606      0.31877  76.56  0.001749201    1.406    0.289
        79 -10.1057    167.7845     89.9712   3.6066091004e+01   3.0111588577e+01    0.2516465    0.2062452  52.48 0.0006724418    1.215    0.177
        80  99.0000     38.7199     41.9681   6.4365153842e+01   6.6180804963e+01    0.9264021    0.8048895  17.81  0.005477109    1.118    0.105
        81 -13.7564     38.5594     80.0972   7.5225255712e+01   5.7340942491e+01    0.9836537    0.6671972 -58.08   0.00504819    1.428    0.300
        82 -14.5522     44.9471     72.0392   7.0401209228e+01   5.8540860133e+01     2.413496     1.359085  47.98   0.01069321    2.030    0.507
        83 -10.9854     36.2407    248.8803   9.2133090758e+01   2.1209092277e+01    0.1725476    0.1322211 -82.36   0.00135005    1.635    0.388
        84 -11.3026      3.6774     48.7335   8.7174515782e+01   6.7525640459e+01    0.3879731    0.2818105  52.48  0.001374973    1.585    0.369
        85 -12.4959     14.4252     45.9921   8.0129877029e+01   6.7631808516e+01    0.6562371    0.4929607 -78.02  0.001365264    1.418    0.295
        86 -10.1477    180.5036    243.4939   6.2337058167e+01   4.9231612009e+00    0.1142605   0.08051623  19.52 -4.50769e-05    1.027    0.027
        87 -10.3686    220.1627    124.1887   3.4857242514e+01   1.4606864601e+01    0.3337642    0.1874257 -39.73  0.001748866    1.819    0.450
        88 -11.9638     26.2251     35.8273   6.9676792536e+01   6.8969068558e+01    0.3060816    0.2436007 -10.48  0.000930866    1.230    0.187
        89 -12.7267     55.1806     71.9174   6.5695761477e+01   5.7183621759e+01    0.9525314    0.4787193 -64.00  0.000467194    2.354    0.575
        90  -9.5984    152.8685    124.1542   4.7723275900e+01   2.7434934027e+01    0.1928955    0.1593476  10.92 0.0002671237    1.256    0.204
        91 -10.7268     57.5309    120.3132   7.5205611872e+01   4.5249821521e+01    0.2465921    0.2338139  -8.55 0.0004394944    1.137    0.121
        92 -12.6914     59.7289     62.1352   6.0698319884e+01   5.8698435814e+01     1.209461    0.9209797 -77.60  0.005972844    1.736    0.424
        93 -10.2991    141.0261    119.7348   4.9550610927e+01   3.0657319694e+01    0.2135575    0.1796321  36.56 0.0003986456    1.100    0.091
        94 -13.1212     38.9340     58.0233   6.9532591422e+01   6.2562626650e+01    0.9446447    0.5173963  37.38  0.002143822    1.851    0.460
        95 -11.6050     39.9011     53.1431   6.7542350472e+01   6.3561525701e+01    0.3293627    0.2265065  36.19  0.001696042    1.476    0.323
        96 -12.1108    236.5202     86.2578   2.4493162495e+01   1.6588981087e+01    0.5110831      0.31705  77.02  0.001760473    2.476    0.596
        97 -11.4784    174.9933     86.3639   3.3736160919e+01   2.9066933779e+01    0.5070403    0.2324338  38.22  0.001556593    2.630    0.620
        98 -11.0375    180.9199     82.8188   3.1745427919e+01   2.8283382713e+01    0.2191493    0.2147841  10.53 0.0008062174    1.010    0.010
        99 -11.3108    179.7020     78.1377   3.0741314236e+01   2.9249931192e+01    0.3570327    0.2673674 -10.85 0.0009051852    1.540    0.350
       100 -12.1857    177.2128     71.0349   2.9284151537e+01   3.0855726071e+01    0.7356536    0.4204451 -57.51  0.001034347    2.360    0.576
       101 -10.5936    157.9933     86.4938   3.7158938840e+01   3.2898860825e+01    0.3985548    0.2579246  77.93  0.001432224    2.432    0.589
       102 -11.4460    163.3150     84.3305   3.5470075689e+01   3.2031755586e+01    0.6136572    0.3780181  52.25  0.002837322    1.582    0.368
       103 -12.0345    168.7905     80.4205   3.3338988413e+01   3.1392312098e+01    0.4336281    0.3936937  53.03  0.001206762    1.091    0.083
       104 -11.1599    167.4630     76.5444   3.2541770695e+01   3.2297800218e+01    0.3530938    0.2277209  46.16 0.0007930152    1.528    0.345
       105 -12.2836    249.8027     75.4160   2.0712511511e+01   1.5528223527e+01    0.5542785    0.2604787 -17.06 0.0001607073    2.579    0.612
       106 -10.8609    250.6146     84.9916   2.2627528729e+01   1.4290460958e+01     0.246935    0.1677985 -39.80            0    1.343    0.255
       107 -10.8989    250.5730     81.5255   2.1910942044e+01   1.4697070311e+01    0.2486537    0.1715584  24.31  0.001471857    1.801    0.445
       108 -10.1887     31.0337     86.0746   7.9754145617e+01   5.6623242678e+01    0.2116789    0.1984236  79.58  0.001285534    1.090    0.083
       109 -12.8064     10.4475     81.8133   8.8351213883e+01   5.9169048490e+01    0.6603004    0.3122866 -60.53  0.001200219    1.872    0.466
       110 -13.7348      7.3853     68.5791   8.8131038926e+01   6.2575229657e+01     1.007933    0.9792294   0.25  0.004525962    1.102    0.092
       111 -11.6144     14.4981     62.5054   8.3520994459e+01   6.3679714997e+01     0.516628     0.223362  16.69  0.002067516    2.378    0.580
       112 -12.3899     20.7562     72.9903   8.2211296983e+01   6.0699025315e+01    0.5601328    0.3566419 -21.98  0.002054263    1.775    0.437
       113 -12.6467    215.1420     83.6704   2.6642621340e+01   2.0948721041e+01    0.4534453    0.3540494  67.80  0.002210301    1.486    0.327
       114 -11.7080    214.3400     77.1768   2.5233224230e+01   2.1952919295e+01    0.3006751    0.1716378 -39.35   0.00101966    1.639    0.390
       115 -10.6859     83.2178     83.3785   5.7580087895e+01   4.9876574193e+01    0.3079665    0.2406551  39.26 0.0008346949    1.214    0.176
       116 -10.3145    203.7363    116.0169   3.5747295298e+01   1.8701127458e+01    0.3638921    0.1856554  62.50  0.001472351    3.231    0.690
       117 -10.4382    180.9963    115.4644   3.9724954869e+01   2.3214677827e+01    0.2222479    0.1850464 -26.71  0.001257042    1.195    0.163
       118 -12.1115     99.6599     78.4914   5.0401306530e+01   4.7623195300e+01    0.9324796    0.3737136 -46.57  0.003286568    2.681    0.627
       119 -11.5677     89.1563    114.9866   6.3385949259e+01   4.1687272239e+01    0.4489646    0.2897751  49.84  0.002040296    1.593    0.372
       120 -10.9780     37.3714     28.9055   5.9823403675e+01   6.9066499667e+01     0.627731    0.4897598  18.44  0.003584015    1.226    0.184
       121 -10.1964    106.3097    116.3601   5.8305724230e+01   3.8255963113e+01    0.1553441    0.1171678  -6.33  0.000704134    1.740    0.425
       122 -11.2038    139.1074    112.0994   4.8205042172e+01   3.2500593758e+01    0.2390179    0.2015845   9.14 0.0009136333    1.276    0.216
       123 -13.0909     92.8193     66.7466   4.8989520544e+01   5.1447413215e+01     1.418219     1.133479 -72.13  0.006900421    1.611    0.379
       124 -12.1494     51.8121     34.4137   5.4069379428e+01   6.5750812984e+01     1.071019    0.5623056  23.36  0.004066067    2.360    0.576
       125 -11.1915     96.7826    110.0308   5.9797953319e+01   4.1427802116e+01    0.3752659    0.2034341 -40.07  0.001405227    2.133    0.531
       126  -9.2536    211.0642    112.0000   3.3666824853e+01   1.7898677084e+01    0.2030761   0.07212339  50.22 0.0008033852    2.949    0.661
       127 -11.1925     63.0134    110.1937   7.1433103139e+01   4.6946045262e+01    0.2562988    0.1472403  54.11  0.001088981    2.008    0.502
       128 -11.1441     87.9151     46.1822   4.3289680452e+01   5.6385577271e+01     0.285025    0.2760041 -62.70 0.0002693352    1.155    0.135
       129 -12.9499     79.5299     59.1990   5.1318148766e+01   5.5712363822e+01    0.7843435    0.5450647  32.45  0.003719083    1.429    0.300
       130 -12.7888     81.6205     49.4429   4.6902266172e+01   5.7170241015e+01    0.7675874    0.6166198   9.62  0.003886149    1.419    0.295
       131 -11.8865     75.9585     52.0353   5.0131252043e+01   5.7847477584e+01    0.3672311    0.2947386 -71.33 0.0003065325    1.641    0.391
       132 -13.0683     81.7608     40.6262   4.3321737471e+01   5.8720706092e+01    0.6321892    0.4443597  36.78  0.001989998    1.367    0.268
       133 -12.0589     75.3013     42.1737   4.6508142673e+01   5.9834564250e+01    0.4096977    0.4001165 -18.62   0.00110492    1.106    0.096
       134 -12.1140    222.0026     79.5846   2.4796367814e+01   2.0128334401e+01    0.3357319    0.2664259  86.58   0.00203193    1.589    0.371
       135 -11.7434    218.3847     75.8401   2.4394001262e+01   2.1313569938e+01    0.2748428    0.2278444   2.00  0.001270893    1.315    0.239
       136 -11.0034     29.9903     81.4767   7.9393826287e+01   5.7853676849e+01    0.2662745    0.1195503  27.68  0.001117387    2.148    0.534
       137 -11.2313     38.9374    110.2585   8.0414392398e+01   4.9868939952e+01    0.2888226     0.174874  46.80  0.001398067    1.651    0.394
       138 -11.0304    230.9210     78.0423   2.3354572877e+01   1.8617337987e+01    0.3803041    0.1898743  74.22  0.001676715    3.284    0.695
       139 -10.8573    155.4814     76.7038   3.4983253014e+01   3.5085462559e+01    0.3898247    0.2545971  59.82  0.001333815    1.572    0.364
       140 -11.5577    232.6406     73.8357   2.2218841385e+01   1.8803927858e+01    0.2741084    0.1998736  24.36 0.0009624088    1.667    0.400
       141 -11.3198    235.3118     70.3656   2.1151336289e+01   1.8716703031e+01    0.2284509    0.1705613  30.85  0.001262569    1.584    0.369
       142 -12.8530    221.2313     69.7105   2.2615935854e+01   2.1512970423e+01    0.6716962    0.3449424  69.46  0.003209592    2.450    0.592
       143 -11.7849    223.6390     61.6923   2.0473998196e+01   2.2003790388e+01    0.3369795    0.2785278 -21.05  0.002153106    1.185    0.156
       144 -12.7682    193.7171     67.3060   2.5685041369e+01   2.7627804878e+01    0.5695227    0.4302461  55.23  0.002203187    1.346    0.257
       145 -13.6802    201.6548     68.0251   2.4736320884e+01   2.5792689626e+01    0.9377887    0.5962635 -66.91   0.00450302    2.152    0.535
       146 -12.9849    203.6736     60.9009   2.2687942396e+01   2.6270920546e+01    0.8471206    0.5108397 -78.66  0.003190948    2.531    0.605
       147 -13.3321    217.0741     59.2912   2.0654611472e+01   2.3626819390e+01     1.095445    0.7085182   1.69  0.004471418    2.195    0.544
       148 -11.9164    209.4368     58.4580   2.1358466224e+01   2.5333040468e+01       0.3044    0.2467085 -87.77  0.001824182    1.375    0.273
       149  -9.8769    242.9436     73.1740   2.0946413787e+01   1.6991907029e+01    0.2104163    0.1508453  33.26  0.001305326    1.660    0.398
       150  -9.8159    151.1259     72.9031   3.4820178128e+01   3.6735376102e+01    0.2108851    0.1923423 -60.77 0.0004278893    1.184    0.156
       151 -11.4846     16.8376     70.0957   8.3641749264e+01   6.1680064645e+01     0.376027    0.2140472 -35.57  0.001498687    1.840    0.457
       152 -10.3427    240.4745     69.5068   2.0411780836e+01   1.7863465405e+01    0.2891912    0.1824837  -4.14    0.0015654    2.059    0.514
       153 -10.3448    161.3825     66.8313   3.0983536352e+01   3.5215575985e+01    0.2767334    0.1747034 -28.49 0.0006389277    1.687    0.407
       154 -11.6881    167.0264     64.6202   2.9303569116e+01   3.4186318705e+01    0.6407248    0.4543321  58.80  0.003220142    1.383    0.277
       155 -10.0343    249.2983     68.3131   1.9265556994e+01   1.6419838654e+01    0.3040246    0.1302505 -38.19  0.001063923    1.952    0.488
       156  -9.7644    250.6587     65.6791   1.8578720701e+01   1.6475738357e+01    0.1649622   0.09190802 -37.06 0.0005519756    1.506    0.336
       157 -11.6770    247.9810     58.0116   1.7199804986e+01   1.7798183200e+01    0.5651535    0.2916209 -33.35  0.002699363    1.611    0.379
       158 -11.0042    196.6008    108.1493   3.5184602683e+01   2.1220301581e+01    0.4954574    0.3541137 -81.25   0.00233233    2.557    0.609
       159 -11.1996    215.3289     42.7893   1.6874758682e+01   2.5915013727e+01    0.4188152    0.2706133 -52.23  0.002333303    1.513    0.339
       160 -11.2185    233.7035     36.8127   1.3785728870e+01   2.2780807104e+01    0.3901121    0.2311091 -65.40  0.001635592    1.876    0.467
       161 -10.1809    191.4986    102.9979   3.4869056763e+01   2.3007820592e+01    0.2678889    0.1594057 -44.76  0.001280557    1.819    0.450
       162 -11.7926    242.0100     61.7830   1.8575289670e+01   1.8464993900e+01    0.5060211    0.4449719 -29.44  0.001978605    1.043    0.041
       163 -10.0042     50.4849    109.5709   7.5950336084e+01   4.8742380004e+01    0.1377483    0.1331773  39.81  7.14942e-05    1.019    0.019
       164 -10.6317     15.1957    106.3460   8.9022747738e+01   5.2827463519e+01    0.2184171    0.1599674 -66.11  0.000456301    1.308    0.235
       165 -13.5178    221.9714     38.6430   1.5236774657e+01   2.4971054706e+01    0.8452384    0.4795644 -89.68  0.003226272    2.187    0.543
       166 -10.0201    209.9619    105.6815   3.2435108404e+01   1.8982624809e+01     0.227002    0.1726994 -51.63 0.0009243701    1.554    0.357
       167 -10.7135    183.8180    104.3628   3.6577999847e+01   2.4378771842e+01    0.4462167    0.2668854 -44.26  0.002118869    1.800    0.444
       168 -12.3146    173.6969     54.4144   2.5277831842e+01   3.4008280035e+01     1.062092    0.3474471  52.73  0.001124611    2.849    0.649
       169 -10.0762    179.8398     99.8532   3.6229026175e+01   2.5914098836e+01    0.2469698    0.1990419 -29.86 0.0006977575    1.236    0.191
       170 -11.6975    155.8194    104.9672   4.2451585285e+01   3.0230469554e+01    0.3255334    0.1999303 -45.05  0.001473871    1.768    0.434
       171 -12.4000    145.7095    103.3966   4.4403266144e+01   3.2705597490e+01    0.6527384    0.3704932  52.40  0.002507934    1.805    0.446
       172 -11.2989    165.0983    102.7940   3.9890782317e+01   2.8596990921e+01    0.3249595    0.2070475 -29.81  0.001522436    1.662    0.398
       173 -10.9218    109.9537    103.2716   5.4042385704e+01   4.0327929882e+01    0.2698053    0.2004984 -26.83  0.001003978    1.587    0.370
       174 -11.6441    198.6180     26.1203   1.4356081715e+01   3.1446572104e+01    0.4122591    0.2918463  65.02  0.001068191    1.414    0.293
       175 -11.8576     69.3604    102.9959   6.7627964646e+01   4.7729028175e+01     0.319208    0.1750812 -50.13  0.001373417    1.883    0.469
       176 -11.1664    186.9134     37.5067   1.8695837051e+01   3.2943910197e+01    0.3991064    0.2912476 -30.34  0.001577551    1.376    0.273
       177 -11.7382    210.1231     46.6993   1.8382880227e+01   2.6588966140e+01    0.5258561     0.323569 -67.51  0.002668235    1.959    0.490
       178 -11.7375    126.9012     59.0173   3.6167561240e+01   4.4911669972e+01    0.5859991     0.305489  36.38  0.002220362    2.312    0.567
       179 -11.7874    161.8260     55.8059   2.7690326796e+01   3.6713910392e+01    0.5111494    0.3832601 -45.15  0.002315753    1.376    0.273
       180 -11.0026    100.7348     53.8007   4.1815643727e+01   5.2109587715e+01     0.559982     0.295354  45.56  0.001831369    1.765    0.434
       181 -10.7069     99.0875     47.8105   4.0122243434e+01   5.3531553526e+01    0.4482601    0.2938565  17.46   0.00157002    2.204    0.546
       182 -10.1537     69.0426     54.5550   5.3961590991e+01   5.8685729677e+01    0.4769506    0.3299972 -63.19  0.002209175    1.875    0.467
       183 -11.4578     63.4978     46.6871   5.3452275765e+01   6.1294660626e+01    0.6266167    0.4714524  53.36  0.002501515    1.494    0.330
       184 -11.9144    201.5350     32.2125   1.5642343804e+01   3.0128014552e+01    0.6662526     0.323083 -44.26  0.001722602    1.925    0.481
       185 -10.9064    241.1280     40.0329   1.3894409423e+01   2.0999713756e+01    0.3228113    0.2021257  -8.59  0.001268268    2.011    0.503
       186 -12.1296    246.6609     42.2052   1.3922641850e+01   1.9732410130e+01    0.3142747    0.2249465 -73.64 0.0006151643    1.539    0.350
       187 -11.3346    245.3951     50.0380   1.5716256694e+01   1.9136218398e+01    0.2168535    0.1842225  77.56 0.0002997796    1.328    0.247
       188 -10.9301    248.3892     46.9843   1.4807790594e+01   1.8912493179e+01    0.3195135    0.2188667 -75.68  0.001284464    1.710    0.415
       189 -11.0606     90.4306     51.0444   4.4263789895e+01   5.4955330828e+01    0.2507732    0.2024017  43.36 0.0003417374    1.153    0.133
       190 -10.8690    181.9198     31.1071   1.7531493657e+01   3.4874587690e+01    0.4520487    0.3045862  -7.09  0.001872848    1.892    0.472
       191  -9.9120    162.7896     47.9281   2.5180094754e+01   3.7553926048e+01    0.5090072    0.3393673  54.89  0.002499428    1.436    0.303
       192 -12.3162    161.6046     38.3001   2.2458611121e+01   3.9089231729e+01    0.7816461    0.4718758  63.59  0.003066604    1.562    0.360
       193 -10.2125    174.1331     39.7901   2.1028497537e+01   3.5772281003e+01    0.2033832    0.1847746  23.55 0.0004292825    1.238    0.192
       194 -11.1627    177.9424     38.0241   1.9996120530e+01   3.5049171378e+01     0.430777    0.2867895  34.80  0.001851831    1.841    0.457
       195  -9.7354    179.3462     47.8442   2.2570315091e+01   3.3503820232e+01    0.1933782    0.1698928 -27.05 0.0002749267    1.180    0.153
       196  -9.9485    182.6869     45.7929   2.1528090263e+01   3.2959970939e+01    0.2701485    0.2017042  56.04  0.001235617    1.336    0.251
       197  -9.3137    134.6471     47.6924   3.0551689369e+01   4.4722517830e+01    0.2084343    0.1600485  -4.98  0.001003493    1.612    0.380
       198 -10.1412    132.6633     45.6806   3.0312218807e+01   4.5521672244e+01     0.309779    0.2020734  33.78  0.001100511    1.781    0.438
       199 -10.6596    128.7130     46.2466   3.1408993730e+01   4.6448233313e+01    0.3464752    0.2108977  54.61  0.001544971    1.508    0.337
       200 -10.6180    125.4589     43.9817   3.1385475174e+01   4.7611241879e+01    0.3095399     0.223522 -39.66 0.0008728318    1.478    0.323
       201  -9.1735    118.4627     48.5268   3.4750668907e+01   4.8691900851e+01    0.1527421     0.139632  42.95 0.0002343149    1.047    0.045
       202 -11.1716    142.6884     46.3513   2.8402622871e+01   4.2859551092e+01    0.4272359    0.2561864  38.01  0.001843543    1.899    0.473
       203 -10.2560    150.3337     46.4483   2.6941576078e+01   4.0895067960e+01    0.3791136    0.2311358  -1.00  0.001282802    2.650    0.623
       204 -11.9233    148.4847     39.6619   2.5111251622e+01   4.2274345765e+01    0.5440121    0.3653784 -32.05  0.002203115    1.563    0.360
       205  -9.3456    120.8832     44.7462   3.2777920431e+01   4.8662203128e+01    0.4273663    0.2554677 -79.72  0.001472445    3.360    0.702
       206  -9.9557    105.4687     43.7037   3.6594595590e+01   5.2669873351e+01    0.3141087    0.2443822 -12.46 0.0006102155    1.520    0.342
       207 -10.6972    133.3117     40.2063   2.8289524148e+01   4.6126032384e+01     0.643546    0.3840455  84.81  0.001387046    2.344    0.573
       208  -9.9325     94.4525     42.5365   3.9589641973e+01   5.5504411894e+01     0.309955    0.2564952 -37.40  0.001613111    1.304    0.233
       209  -9.8713     90.9989     39.0875   3.9359591298e+01   5.6877723287e+01    0.2113998    0.1762781 -84.89  0.000446149    1.535    0.349
       210 -10.6376     99.4865     41.0862   3.7395654321e+01   5.4539376127e+01    0.3009397    0.2644069 -64.86  0.000900741    1.324    0.245
       211 -12.1728    172.2383     44.6896   2.2721612530e+01   3.5631825474e+01    0.6510661     0.554017  72.96  0.002337293    1.146    0.127
       212 -10.4400    249.7532     38.1618   1.2819912012e+01   1.9579453846e+01    0.2418024    0.1534156 -52.77  0.001173126    1.462    0.316
       213 -10.4946    122.8389     34.0426   2.8405365251e+01   4.9678234977e+01    0.3894257    0.1777721 -42.56  0.001506734    2.404    0.584
       214  -9.9486    110.0183     36.2340   3.2431561361e+01   5.2666433128e+01    0.2505781     0.189446  57.69 0.0003725725    1.224    0.183
       215 -10.3223    112.8706     32.6594   3.0292239820e+01   5.2440907563e+01    0.3619225    0.2716443  11.94  0.001003529    1.659    0.397
       216 -10.2661    131.6695     33.7116   2.6358450322e+01   4.7418307421e+01    0.2876778    0.1874005 -57.93  0.000437568    1.844    0.458
       217 -11.2997     92.4938     33.3133   3.6453557702e+01   5.7426842578e+01    0.3431412    0.2748643 -14.51 0.0008876501    1.409    0.290
       218 -10.4324     75.0436     33.4571   4.2870860708e+01   6.1400518248e+01    0.3124482    0.2157243  52.40  0.001011751    1.439    0.305
       219  -9.7716    206.8590     32.7716   1.5248940544e+01   2.8867422845e+01    0.2855892    0.1233753 -49.06  0.001255438    2.315    0.568
       220  -9.5182    247.3050     32.7693   1.1848036474e+01   2.0578050227e+01    0.1109732   0.07271006 -59.09 0.0006817829    1.478    0.323
       221  -9.7823    169.0570     32.5687   1.9623143094e+01   3.7892749365e+01    0.2150557    0.1306077  70.50 0.0009078794    1.594    0.373
       222  -9.1183    141.0000     30.2713   2.3346978312e+01   4.5401725809e+01    0.3018095   0.08411412 -26.98 0.0009287903    3.887    0.743
       223  -9.2062    104.3427     29.3441   3.1229031763e+01   5.5067901723e+01    0.3600064    0.1043711 -39.23  0.001134896    3.644    0.726
       224  -9.2291    162.6524     29.2865   1.9532550359e+01   3.9893736085e+01    0.1479419    0.1001484 -69.09 0.0007021407    1.654    0.396
       225 -11.8726     85.9980     28.2803   3.6446239921e+01   5.9723849190e+01    0.3878673    0.2554133  55.72 0.0005314062    1.444    0.307
       226  -9.9620     28.1888     28.3995   6.5500990454e+01   7.0339954272e+01    0.3948515    0.2190264 -20.93  0.001507275    2.318    0.569
       227 -11.4563    113.0115    246.9771   7.6057887021e+01   1.2939683334e+01    0.3113617    0.2139314 -21.58  0.002028881    2.019    0.505
       228 -10.7289    146.9753     25.5082   2.0709209650e+01   4.4389704430e+01     0.416348    0.2333625  47.12    0.0018359    1.816    0.449
       229 -12.2908    140.5387     96.2502   4.3798227200e+01   3.5151375454e+01    0.8139009    0.5051585  61.82  0.003018465    1.974    0.493
       230  -9.9495    128.5125     27.0201   2.4590665082e+01   4.9084278192e+01    0.3744296    0.1487362 -26.40  0.001377928    2.790    0.642
       231 -10.2616    123.8554     27.3374   2.5679907093e+01   5.0272783916e+01    0.3725006    0.1874466 -40.12  0.001550159    2.123    0.529
       232 -10.2526    234.0545     24.3807   1.0956881544e+01   2.3974550638e+01    0.3056922     0.155218 -26.60  0.001645005    1.840    0.456
       233  -9.8189    168.0889     26.1335   1.7827688383e+01   3.8861952994e+01    0.2119749    0.1788853  51.48  0.001204669    1.223    0.182
       234  -9.9757    160.0724     26.1500   1.8927266406e+01   4.0908517999e+01     0.348519    0.2424839   1.50  0.001698638    1.911    0.477
       235  -9.8166    163.0276     21.2958   1.7014437175e+01   4.0672565449e+01    0.2726372    0.1819836  35.11 0.0007836719    1.813    0.448
       236  -9.7884    132.3947     25.1293   2.3140024973e+01   4.8282518626e+01    0.3098367    0.1643133 -42.13  0.001328444    2.014    0.504
       237  -9.6710     27.0576     19.0000   6.1989203680e+01   7.2363431010e+01    0.2567471   0.08776271  29.09 0.0009115309    2.839    0.648
       238 -10.5162    176.2114     23.8721   1.6150232801e+01   3.7066069068e+01    0.3361457    0.1690385 -33.24  0.001544209    1.928    0.481
       239  -9.7716    135.9197     24.9516   2.2419701622e+01   4.7370025325e+01    0.2289083    0.1601556 -62.77  0.001096874    1.635    0.388
       240 -11.9846    243.3004     22.8563   9.9871449597e+00   2.2311645689e+01    0.5929619     0.230764  74.28  0.002923607    2.818    0.645
       241 -10.5124    244.8448     18.8652   9.0285703514e+00   2.2396720211e+01    0.2397009    0.1530402 -71.24  0.001507817    1.584    0.369
       242 -12.1673    107.5495     85.6190   4.9987320628e+01   4.4486911894e+01    0.7352849    0.5039622  47.21  0.001181819    1.392    0.281
       243 -10.0095    180.1431     20.0959   1.4622153217e+01   3.6484653847e+01    0.1911331    0.1650761  54.54 0.0003686635    1.223    0.182
       244 -10.2588    170.0755     19.2835   1.5526211870e+01   3.9082922657e+01     0.331852    0.1892623  33.46   0.00146122    2.395    0.582
       245 -11.3182    130.2621     19.4853   2.1479877614e+01   4.9486279629e+01    0.3576787       0.2322  55.41  0.001327336    1.395    0.283
       246 -10.4062    185.6394     18.6540   1.3642591139e+01   3.5286352468e+01    0.3563663    0.1463517  49.17   0.00124742    2.760    0.638
       247 -11.6654    147.4602     83.6540   3.8701830022e+01   3.5811208473e+01    0.5928066    0.5054015 -62.67  0.003095123    1.352    0.260
       248  -9.6702    158.8313     19.3889   1.6971374609e+01   4.1954713889e+01    0.3186346    0.1140751  50.38  0.001159487    2.830    0.647
       249 -12.7830    136.7975     82.2907   4.0857736791e+01   3.8532284464e+01    0.7766925    0.6086056 -25.75  0.003597758    1.400    0.286
       250  -9.9254     19.9439     19.1557   6.7324816217e+01   7.3123557716e+01     0.181851    0.1618534  27.99  0.000796942    1.252    0.201
       251 -11.5937    144.7606     68.6979   3.4972639410e+01   3.8951408442e+01    0.8263167    0.5353926  78.14  0.003455742    2.157    0.536
       252 -12.9267    151.8949     62.5719   3.1608578311e+01   3.8169539443e+01     1.785922    0.9229812  69.57  0.006800917    2.475    0.596
       253 -10.2009    139.2470     16.3645   1.8815404022e+01   4.7422215373e+01    0.2617996    0.1772733 -39.55 0.0009507893    1.553    0.356
       254 -10.2868    124.9251     16.3230   2.1288200569e+01   5.1249075491e+01    0.2555976    0.1840447 -44.90 0.0002297668    1.506    0.336
       255  -9.9276    121.3712     16.8494   2.2180868445e+01   5.2140408066e+01    0.2503489    0.1777684  76.84 0.0006362829    1.378    0.275
       256 -10.6417     94.0952     15.9814   2.8302307490e+01   5.9361316819e+01    0.2802495    0.1790337  54.28  0.001136993    1.372    0.271
       257 -10.1376     97.9639     22.0342   2.9915568699e+01   5.7643144888e+01    0.3135819    0.2497253  13.44   0.00144282    1.432    0.302
       258 -11.0939    146.2264     52.3725   2.9619873346e+01   4.1100565500e+01    0.4456165    0.2786857  30.99  0.001438252    2.034    0.508
       259 -12.2554    114.4142     81.4255   4.6675385346e+01   4.3819022009e+01    0.7051105    0.5637984 -56.88  0.003150082    1.430    0.301
       260 -12.1679    133.7691     70.6691   3.8154952914e+01   4.1282297115e+01     1.097862    0.6101912  59.69  0.003811978    1.914    0.477
       261 -13.7259    126.9863     92.0521   4.6164736868e+01   3.8958496719e+01     1.041929    0.9056212  85.09    0.0024653    1.389    0.280
       262 -13.1182    124.3957     83.6319   4.4484116153e+01   4.1144158647e+01     1.361444    0.8373166   9.26  0.004650132    3.369    0.703
       263 -10.9869    141.0001     61.8792   3.3727316655e+01   4.0964842463e+01    0.4996662    0.2560266  56.87  0.001398878    1.876    0.467
       264 -11.1346    137.4623     52.8459   3.1634021712e+01   4.3243763605e+01    0.6820922    0.4263544  68.31  0.001913907    1.726    0.421
       265  -9.5550    149.9469     27.5409   2.0903387134e+01   4.3379451124e+01    0.2779043    0.2095225  28.05   0.00141258    1.580    0.367
       266 -11.7166    124.0377     69.8256   4.0400362794e+01   4.3758629084e+01    0.3955193     0.316965 -61.51  0.000402829    1.474    0.321
       267 -11.5715    112.4888     67.9563   4.3056499909e+01   4.6814704354e+01    0.4303857    0.2676383  48.22 0.0006787805    1.506    0.336
       268 -13.7485    117.1309     61.2897   3.9521405270e+01   4.6909590673e+01     1.251182    0.8415913  51.28  0.001809815    1.392    0.282
       269 -13.1533     87.1424     98.8027   6.0287507853e+01   4.5708895284e+01    0.8438567    0.4140589  31.66  0.003265769    2.101    0.524
       270 -11.4747     89.1847     93.9985   5.8352405370e+01   4.6405900796e+01    0.2681038    0.2337234  32.53 0.0002536626    1.091    0.083
       271 -11.2641     33.8798     99.9834   8.0843348383e+01   5.2910805788e+01    0.3649356    0.1941745 -86.55  0.001573119    2.266    0.559
       272 -12.5431    106.4031     97.1160   5.3529757069e+01   4.2345582590e+01     0.497595    0.3684663  22.84 0.0009085246    1.492    0.330
       273 -12.3735    107.7131     92.1693   5.1785871271e+01   4.3107709808e+01    0.7719996    0.3723113  30.33  0.002688762    2.666    0.625
       274 -10.7193    170.4809     97.5885   3.7481202664e+01   2.8286847399e+01    0.3136108    0.2822205 -31.61  0.001117195    1.133    0.117
       275 -10.3552    158.9597     99.0379   4.0254042870e+01   3.0570021755e+01    0.2140123    0.2041029  22.14 0.0003353526    1.012    0.012
       276 -12.1989    153.3684     96.0828   4.0726597580e+01   3.2317777095e+01    0.7643168    0.4306296  49.70  0.001635414    1.715    0.417
       277 -10.6355    225.5104     98.0016   2.8459867715e+01   1.7110358423e+01    0.1910253     0.111284 -30.16 0.0005321652    1.552    0.356
       278 -10.9828     27.9658     97.4126   8.2867144472e+01   5.4083049399e+01    0.3080381    0.1616193  80.09  0.001293307    2.487    0.598
       279 -11.9105     11.9786     96.7786   8.9343240270e+01   5.5385461190e+01    0.4622255    0.1994054 -57.87  0.002032145    2.120    0.528
       280  -9.7680    232.2306     97.0688   2.7363512121e+01   1.6017920661e+01     0.238311    0.1615563  -3.96  0.001346587    1.690    0.408
       281 -11.3013    199.6596     95.6530   3.1758808827e+01   2.2419472024e+01    0.4102491    0.2371144 -42.24 0.0008512876    1.764    0.433
       282 -12.3024    182.7756     63.7090   2.6401115642e+01   3.0599304585e+01     1.180615    0.4159357 -50.53  0.003558116    4.529    0.779
       283 -13.5885    195.7786     85.4041   2.9912023341e+01   2.4681412572e+01    0.8827803    0.5921705  30.03  0.004272509    1.743    0.426
       284 -12.4364    200.7706     76.6774   2.7004942776e+01   2.4830458662e+01    0.5023637    0.3064033  78.64  0.002316755    2.369    0.578
       285 -12.7549    193.0536     75.8556   2.7962141512e+01   2.6607116442e+01     0.565823    0.3446167  67.85  0.001960341    1.925    0.481
       286 -11.5892     72.9987     96.4349   6.4780909344e+01   4.8696175018e+01    0.2992657     0.234242 -56.08 0.0009682886    1.338    0.253
