#   1 NUMBER                 Running object number                                     
#   2 MAG_AUTO               Kron-like elliptical aperture magnitude                    [mag]
#   3 X_IMAGE                Object position along x                                    [pixel]
#   4 Y_IMAGE                Object position along y                                    [pixel]
#   5 X_WORLD                Barycenter position along world x axis                     [deg]
#   6 Y_WORLD                Barycenter position along world y axis                     [deg]
#   7 A_WORLD                Profile RMS along major axis (world units)                 [deg]
#   8 B_WORLD                Profile RMS along minor axis (world units)                 [deg]
#   9 THETA_WORLD            Position angle (CCW/world-x)                               [deg]
#  10 FWHM_WORLD             FWHM assuming a gaussian core                              [deg]
#  11 ELONGATION             A_IMAGE/B_IMAGE                                           
#  12 ELLIPTICITY            1 - B_IMAGE/A_IMAGE                                       
         1 -14.2608    164.4082     66.4266   8.6746024209e+01   3.5569785865e+01     2.297416     1.642365 -34.66  0.009802235    1.398    0.285
         2 -13.4555    179.2725     29.1581   7.2489164058e+01   3.7193234687e+01    0.8852705    0.8376066 -21.14  0.003364542    1.145    0.126
         3 -13.6148    184.4642     20.3382   6.9073961749e+01   3.6882053344e+01     0.846692    0.7022259   7.04  0.001503442    1.464    0.317
         4 -11.6954     58.7788      4.6006   9.1125086004e+01   6.7389123500e+01    0.2817523    0.1840945 -13.74  0.001682141    1.410    0.291
         5 -10.0431    190.8098    230.2941   1.1794856621e+02   8.0667925541e-01    0.2464578     0.162256 -60.25  0.001380549    2.447    0.591
         6 -19.3389     31.3163    137.4020   1.3891405695e+02   4.3908963402e+01     18.83529      1.53973 -69.75   0.03953449   10.478    0.905
         7  -9.7156    141.4767    197.9732   1.2244102284e+02   1.4518701203e+01    0.1825127    0.1314766 -58.67  0.001016569    1.561    0.360
         8 -11.2957     87.7678    181.9336   1.3141396293e+02   2.6730393231e+01    0.3009759    0.1725338 -46.34  0.001462104    2.307    0.566
         9 -10.4613    135.0112    195.5457   1.2338676409e+02   1.6118670112e+01    0.2443873    0.1800697 -84.76 0.0007672429    1.642    0.391
        10  -9.1495    202.4898    183.5026   1.0791130369e+02   5.6591310370e+00    0.1347465    0.1208067  22.31 0.0008106036    1.002    0.002
        11 -11.4624     90.5250    176.5186   1.3008508479e+02   2.7462240190e+01    0.3839554    0.2409737 -48.43   0.00114662    1.918    0.479
        12  -9.4085     10.6192    213.7514   1.4920460259e+02   2.9762179699e+01   0.08504143   0.07748121 -71.96 0.0006780256    1.650    0.394
        13 -11.4910    115.5670    173.7255   1.2412315228e+02   2.3910851896e+01    0.4021932    0.2091368  57.92  0.001744994    2.112    0.527
        14 -11.7490    106.6534    172.7419   1.2594970142e+02   2.5654294158e+01    0.4725195    0.1940142  50.71  0.001566409    2.416    0.586
        15 -11.6430     96.4588    166.9341   1.2735504111e+02   2.8603369081e+01    0.3051596      0.28167  76.68  0.001168596    1.102    0.093
        16  -9.9261    227.6181    170.7959   1.0082253031e+02   2.9378010149e+00    0.1838372    0.1195318 -42.91 0.0006277331    1.702    0.412
        17 -10.7936    192.4133    193.8252   1.1171903729e+02   5.8904104460e+00    0.6765391    0.3480006 -64.33  0.001844832    7.933    0.874
        18 -11.8765    101.2319    158.8062   1.2494473319e+02   2.9612787481e+01    0.6169455    0.3312531 -44.28  0.002696797    2.294    0.564
        19  -8.5831      3.2611    207.2245   1.5014605487e+02   3.1693464957e+01    0.0832994   0.06888197 -85.57 0.0006671658    1.399    0.285
        20  -9.1762    179.6880    147.6905   1.0507102787e+02   1.6532833500e+01    0.1489036    0.1158326   7.90 0.0005153366    1.626    0.385
        21 -11.9757    112.8030    210.8338   1.2993435603e+02   1.7026445322e+01     0.321382    0.2198755  36.64  0.001446503    1.527    0.345
        22 -10.6436    110.7673    142.5284   1.1968796933e+02   3.1604901155e+01    0.4211319    0.2135624 -37.66  0.001571335    2.893    0.654
        23 -11.4807     99.9461    143.2713   1.2250563456e+02   3.3341753415e+01    0.2679907    0.2441527  45.33 0.0004578572    1.199    0.166
        24 -10.0900    117.0901    132.1384   1.1596717250e+02   3.2776370550e+01    0.2238326    0.2048516 -14.24  0.001038772    1.329    0.247
        25 -10.6428    105.4782    129.4923   1.1835260971e+02   3.5533530021e+01    0.4086335    0.2603644 -60.49  0.001031057    1.544    0.352
        26  -9.2744    111.9308    120.5192   1.1468061389e+02   3.6390666509e+01    0.2166869     0.146454  44.37 0.0005453511    1.529    0.346
        27 -13.1282     53.6559    107.3412   1.2816578304e+02   4.8544193628e+01    0.7460964    0.3834575  47.19  0.003552131    2.221    0.550
        28 -12.7043     67.2798    104.2253   1.2347203405e+02   4.7525652751e+01    0.7274091    0.5027441  81.55  0.003624729    1.870    0.465
        29 -17.1762     59.5148    197.1132   1.3898247102e+02   2.7540386143e+01     8.021404     3.719476  67.04   0.03896399    2.316    0.568
        30  -9.8940    166.3326    210.6061   1.1949183867e+02   7.9122056892e+00    0.1955751    0.1468699  71.20 0.0006954659    1.672    0.402
        31 -13.5714    143.8017     70.9975   9.2711210908e+01   3.9857153733e+01     1.703447     1.164462  70.59  0.007447391    1.786    0.440
        32 -12.3283    167.7082     40.3899   7.7897993032e+01   3.8739374446e+01     0.462324    0.3822338  83.90  0.001462601    1.258    0.205
        33 -11.4684    249.2071    210.5470   1.0467129716e+02  -6.0734682827e+00     0.393756    0.3121666 -12.42  0.002721185    1.210    0.174
        34 -14.3827    103.1167    189.6063   1.2916154269e+02   2.2718590573e+01     1.880721     0.578811  45.73  0.007223914    2.858    0.650
