#   1 NUMBER                 Running object number                                     
#   2 MAG_AUTO               Kron-like elliptical aperture magnitude                    [mag]
#   3 X_IMAGE                Object position along x                                    [pixel]
#   4 Y_IMAGE                Object position along y                                    [pixel]
#   5 X_WORLD                Barycenter position along world x axis                     [deg]
#   6 Y_WORLD                Barycenter position along world y axis                     [deg]
#   7 A_WORLD                Profile RMS along major axis (world units)                 [deg]
#   8 B_WORLD                Profile RMS along minor axis (world units)                 [deg]
#   9 THETA_WORLD            Position angle (CCW/world-x)                               [deg]
#  10 FWHM_WORLD             FWHM assuming a gaussian core                              [deg]
#  11 ELONGATION             A_IMAGE/B_IMAGE                                           
#  12 ELLIPTICITY            1 - B_IMAGE/A_IMAGE                                       
         1 -13.1198    196.8333     45.5840   3.5882435289e+02   3.0387373042e+01     1.067434    0.9577876  33.90  0.004337023    1.494    0.331
         2 -13.3293    225.2880     15.9207   3.4975158634e+02   2.8081069723e+01    0.9022784     0.716449 -50.40  0.004289265    1.123    0.110
         3 -11.7386    119.1415      9.5988   3.5732614446e+02   5.3560952957e+01    0.6765721    0.3920217  54.42  0.002822604    1.688    0.408
         4 -11.9410      4.3446      6.4244   4.7790804981e+01   7.8958775909e+01    0.6285214    0.5580053 -60.06  0.004255997    1.421    0.296
         5  -9.2296    144.3179      5.6733   3.5292559885e+02   4.7430722257e+01    0.1457249   0.08271706 -62.57 0.0007045763    1.677    0.404
         6 -11.1137    242.4819      2.7395   3.4623589941e+02   2.6221363637e+01    0.3373884    0.1712906  88.77  0.002120772    1.985    0.496
         7  -9.9373    172.0097      3.1822   3.4989445642e+02   4.0873558340e+01     0.234397    0.1074954 -66.55   0.00109304    2.052    0.513
         8  -9.1311     70.7277    190.9169   5.9809669796e+01   2.5417603017e+01    0.1855855    0.1635438  65.69 0.0004230955    1.142    0.124
         9 -12.9467    246.9468    242.3039   3.0087184619e+01  -4.9170171218e+00      1.17534    0.4886901 -29.39  0.007537924    1.997    0.499
        10 -18.2714     15.8817    224.6745   7.6551371007e+01   2.3930470217e+01     6.592483      5.56132  45.48   0.03759826    1.102    0.092
        11  -9.4012     32.8754    191.1546   7.0378822670e+01   2.9804916535e+01    0.1883679    0.1712217 -26.60  0.001149114    1.358    0.263
        12  -9.1913     85.3471    186.9767   5.5304090467e+01   2.4326327442e+01    0.2290236    0.2166707 -64.19  0.001352629    1.170    0.145
        13  -9.9208     39.4829    184.0627   6.7957389044e+01   3.0823766163e+01    0.3949619    0.2823029 -42.70  0.001142459    1.722    0.419
        14  -9.9450     81.2756    182.5860   5.5846723564e+01   2.5918449264e+01    0.3538116    0.2451999  37.49  0.001140134    1.286    0.222
        15 -10.2308     37.7801    249.9089   7.2634203206e+01   1.6865543047e+01    0.1527673    0.1401226 -62.01 0.0004818417    1.434    0.303
        16 -10.1276     45.4287    165.7548   6.4424142239e+01   3.4758696691e+01    0.3405872    0.1479672 -58.12  0.001103664    2.339    0.572
        17 -10.0290     46.7452    177.0574   6.5192043724e+01   3.1740129527e+01    0.6641852    0.2592708  24.32  0.002529087    2.494    0.599
        18 -10.2962     43.5987    172.6174   6.5696172536e+01   3.3215790387e+01    0.6312867    0.4051853  15.95  0.003020543    1.712    0.416
        19  -9.1529    150.8852    249.6675   4.7959283406e+01   4.0082781277e+00     0.189899    0.1669042 -32.43  0.001387813    1.431    0.301
        20  -9.4568     56.4087    211.2167   6.5640776266e+01   2.2627275246e+01    0.4083647    0.2689766  85.17  0.002196019    1.750    0.428
        21  -9.7781     58.8867    196.4360   6.3643753336e+01   2.5641118941e+01    0.2028643      0.16449  58.57 0.0004126296    1.165    0.142
        22  -9.6208     53.3420    205.6554   6.5969347891e+01   2.4208516288e+01    0.4440618    0.1904725  56.21  0.001822271    2.543    0.607
        23 -15.6465     68.9159    145.1160   5.4026562903e+01   3.7052911605e+01     10.32905     4.956471  68.17   0.02997411    4.277    0.766
        24 -11.3541     51.8062    190.2632   6.5009293254e+01   2.7933720328e+01    0.4738761    0.3105687 -41.57  0.001242763    1.925    0.481
        25  -9.9895     59.7003    159.8593   5.9218271577e+01   3.4506364987e+01    0.5528886    0.2715879  62.91  0.001999825    2.746    0.636
        26 -12.9127    133.7663    146.4921   3.5312352524e+01   2.5532630924e+01     1.559377    0.5278713 -55.58  0.004598309    4.078    0.755
        27 -12.5148    112.4522    151.7523   4.2007359900e+01   2.8210627686e+01    0.7707204    0.5331185  82.57  0.002234024    2.262    0.558
        28 -12.9838    124.8925    154.5030   3.9211230298e+01   2.5381498867e+01     0.821013    0.5923499  17.43  0.003899966    1.572    0.364
        29 -12.1088    120.3228    149.6592   3.9450007487e+01   2.7286004436e+01    0.6736814    0.3454414  37.36  0.002737851    1.884    0.469
        30  -9.1419     86.7607    205.0591   5.7181061470e+01   2.0141696196e+01    0.4423181     0.324301  44.29  0.002454998    1.241    0.194
        31 -11.8556    144.0316    146.4314   3.2795861366e+01   2.3653428451e+01    0.5795683    0.3696066 -72.38  0.002307461    2.718    0.632
        32 -12.1510    138.3520    143.9172   3.3631141113e+01   2.5235927058e+01    0.9082612    0.4572472 -64.73   0.00295168    3.745    0.733
        33 -10.4701    114.2512    144.7928   4.0112633644e+01   2.9506252745e+01     0.288693    0.2329132  77.81 0.0009818177    1.535    0.349
        34 -10.2019    148.3340    143.8765   3.1245320273e+01   2.3388291839e+01    0.2507173    0.2009422  50.72 0.0005252025    1.353    0.261
        35 -10.4379    124.9607    141.2579   3.6467826107e+01   2.8329641542e+01    0.2165905    0.2010767  32.00 0.0007732355    1.056    0.053
        36 -11.6432    114.9864    139.8653   3.8875662502e+01   3.0517946284e+01    0.5824907    0.3509364  69.03   0.00207184    2.960    0.662
        37 -11.7233    121.4171    135.9500   3.6259380965e+01   3.0204257550e+01    0.6341205     0.341031 -39.42  0.001902547    2.066    0.516
        38 -12.4148    105.4760    135.9932   4.0770432923e+01   3.3204634982e+01    0.8332149    0.5085643 -34.65  0.002629916    2.027    0.507
        39 -12.0760     93.1820    135.5311   4.4401180846e+01   3.5549942598e+01    0.6203219    0.4088257  25.86  0.000551206    1.648    0.393
        40 -11.9628     99.7581    132.2719   4.1679289422e+01   3.5166096105e+01     1.440764    0.7739763  73.56  0.003373218    6.764    0.852
        41 -11.0119    135.2725    128.7646   3.1020397134e+01   2.9091490930e+01    0.4575455    0.3135445 -47.45   0.00212699    1.456    0.313
        42 -10.9292     83.4161    130.2474   4.6441378529e+01   3.8594861152e+01    0.4009985    0.2838937  23.35  0.001789144    1.548    0.354
        43 -11.2707    113.2649    127.8040   3.6685680213e+01   3.3667103689e+01    0.3897772     0.361493 -13.11 0.0009224309    1.165    0.142
        44 -10.6073    100.7450    124.1215   3.9547384887e+01   3.6972894877e+01    0.3614477    0.3023612 -24.55 0.0007588919    1.381    0.276
        45 -10.0947     89.6721    202.6479   5.6144345523e+01   2.0261760735e+01    0.5899038    0.3181143  55.69  0.002596956    2.243    0.554
        46 -10.9270    119.8153    122.4283   3.3579865095e+01   3.3607147534e+01    0.4335215    0.3048885   6.64  0.001779266    2.174    0.540
        47  -9.8564     83.2017    118.5594   4.3959069937e+01   4.1624904209e+01    0.3670453    0.2435483  64.61  0.001216416    1.899    0.473
        48  -9.4802    109.0244    117.9913   3.5582239647e+01   3.6815611721e+01    0.2298602    0.2293924 -78.82 0.0003490052    1.026    0.025
        49  -9.0702     80.4239    205.5871   5.8875055604e+01   2.0868669790e+01    0.2452669    0.1256768  44.64 0.0006054234    1.776    0.437
        50  -9.5142    101.6286    115.2620   3.7149495907e+01   3.8946100237e+01    0.3370469    0.2477632  75.59 0.0008498453    1.773    0.436
        51 -11.1024    116.3175    109.7977   3.1397034352e+01   3.7203496936e+01    0.4341921    0.3011396  42.40   0.00194991    1.440    0.306
        52 -10.1860     66.7706    104.8712   4.6708411919e+01   4.8011262220e+01    0.3007281    0.2329243  52.06  0.001417288    1.325    0.245
        53  -9.3264     12.5439    101.2211   6.9177274312e+01   5.5411857958e+01    0.3022046    0.2195593 -51.59  0.001561825    1.342    0.255
        54 -12.3440     44.1194     87.5340   5.2035857859e+01   5.5983213405e+01    0.8771869    0.5098741  75.71   0.00321371    2.829    0.647
        55  -9.8835     73.0977    205.0961   6.0726727402e+01   2.1922817814e+01    0.2265556    0.1882654  84.82 0.0007641006    1.345    0.256
        56 -10.9444     56.3438     85.5623   4.5991238412e+01   5.4688143160e+01    0.4606857    0.1903487 -61.97  0.001433708    2.682    0.627
        57  -8.8797     10.0169     85.9907   6.8354738649e+01   5.9720593968e+01    0.2027903    0.1989903 -86.75 0.0006499084    1.061    0.057
        58  -9.9678     53.9802    184.4850   6.3826734222e+01   2.9058965378e+01    0.4320729     0.162947  44.57  0.001506822    2.352    0.575
        59 -12.0967     49.2756     77.9919   4.7046642779e+01   5.7696012718e+01    0.5703586    0.3048526 -57.00   0.00235923    1.847    0.459
        60 -11.1706     58.1499     76.8283   4.2609888605e+01   5.6558033807e+01     0.306916    0.2281869 -72.50  0.001126128    1.563    0.360
        61 -12.2308     65.8084     64.0184   3.4881923039e+01   5.8128818898e+01    0.6501458    0.3698876 -45.46  0.002754665    1.805    0.446
        62 -11.5775    181.1407     58.2514   3.8840256735e+00   3.2074374046e+01    0.4602464    0.3931234 -38.12 0.0008015467    1.190    0.159
        63 -10.1370     51.9910     63.1821   4.0953011562e+01   6.0828501438e+01    0.2515775    0.1656752  59.85 0.0006950633    1.993    0.498
        64  -9.9746     44.9243    247.2805   7.0899998589e+01   1.6622510951e+01    0.1254818    0.1168825 -57.16 0.0006109603    1.404    0.288
        65 -11.9476    202.4164     39.9640   3.5690983200e+02   2.9923756356e+01    0.4543443    0.3826416 -88.64  0.001118134    1.200    0.166
        66  -8.1744     99.2873     30.2981   9.5083024193e+00   5.6377120253e+01    0.1432604    0.1070867  33.68 0.0002620163    1.553    0.356
        67  -9.7402     50.7836    181.5945   6.4457990502e+01   3.0145423830e+01    0.2479096    0.2117364  56.51 0.0005913356    1.065    0.061
        68  -9.1367     54.2867    240.0565   6.8320319612e+01   1.6985659485e+01    0.1413809     0.119449  57.40  0.000320295    1.176    0.149
        69 -11.1537    214.7983     20.5266   3.5138943947e+02   2.9659144764e+01    0.2886585    0.2530944  48.14  0.001154735    1.586    0.369
        70 -11.1930     48.0100    239.7538   6.9754840859e+01   1.7719836342e+01    0.1866686    0.1552761  65.99 0.0005600196    1.235    0.191
        71 -10.4866     48.2226    233.7220   6.9325977164e+01   1.8872579275e+01    0.1822162     0.139319  65.88 0.0004463305    1.306    0.234
        72  -9.8501    192.3711    193.6877   3.1609335666e+01   7.3496275715e+00    0.5678211    0.3027403 -60.45  0.001890449    6.470    0.845
        73  -9.6525     58.9295    217.0063   6.5482793497e+01   2.1092929400e+01    0.1778429     0.159764  40.51  0.001142259    1.089    0.081
