#   1 NUMBER                 Running object number                                     
#   2 MAG_AUTO               Kron-like elliptical aperture magnitude                    [mag]
#   3 X_IMAGE                Object position along x                                    [pixel]
#   4 Y_IMAGE                Object position along y                                    [pixel]
#   5 X_WORLD                Barycenter position along world x axis                     [deg]
#   6 Y_WORLD                Barycenter position along world y axis                     [deg]
#   7 A_WORLD                Profile RMS along major axis (world units)                 [deg]
#   8 B_WORLD                Profile RMS along minor axis (world units)                 [deg]
#   9 THETA_WORLD            Position angle (CCW/world-x)                               [deg]
#  10 FWHM_WORLD             FWHM assuming a gaussian core                              [deg]
#  11 ELONGATION             A_IMAGE/B_IMAGE                                           
#  12 ELLIPTICITY            1 - B_IMAGE/A_IMAGE                                       
         1 -14.4236     68.5769    144.2808   9.8558790287e+01   3.7389189713e+01     4.515775     2.386912  74.55  0.005181497    4.362    0.771
         2 -13.6064    202.5089     42.0972   3.9580857000e+01   2.9811528260e+01     1.407277     1.222435   3.55  0.004993786    1.586    0.370
         3 -12.5307      3.2362     24.0834   9.3807063348e+01   7.1008136917e+01      1.10889    0.3767048 -48.04  0.005485726    2.309    0.567
         4 -11.6424      2.3914      7.7169   8.7135673163e+01   7.3707822338e+01    0.8891598    0.2523078 -44.72   0.00414401    3.027    0.670
         5 -12.1557    242.6469      6.5522   2.8335920557e+01   2.5514476808e+01    0.6580284    0.4009786 -44.16  0.004295139    1.470    0.320
         6 -11.9222    236.2293      6.7805   2.8800456736e+01   2.6766749606e+01    0.6793185    0.2982587 -40.73  0.003769434    1.982    0.495
         7 -13.4623    213.7602     31.5984   3.5889461120e+01   2.8648238182e+01    0.8953989    0.8038279  23.62   0.00233386    1.562    0.360
         8 -10.6259     56.3033      5.8486   5.8494943857e+01   6.6811079034e+01    0.3735453    0.1926934  57.92  0.001812233    2.563    0.610
         9  -9.2654     88.9699    210.4635   1.0333208910e+02   1.8150033720e+01     0.238999    0.1823458  87.01 0.0003301028    1.439    0.305
        10 -10.0287    139.9011    249.5948   9.7092293422e+01   2.6575220650e+00    0.2798235    0.2181741 -83.96  0.001642373    1.889    0.471
        11 -11.0097    101.7436    246.5012   1.0480960426e+02   8.8270714092e+00    0.6543159    0.2431604 -66.60  0.002583945    3.805    0.737
        12 -15.3086      5.0778    168.3421   1.1935555171e+02   3.7820156951e+01     8.044963     1.114806 -73.46  0.008143573    4.993    0.800
        13 -13.4411     51.3703    186.8114   1.0960554491e+02   2.8805842401e+01     1.587743     1.011499  68.39  0.007989885    1.663    0.399
        14 -13.7028     18.2476    218.3652   1.1997321233e+02   2.5071121703e+01    0.8036925    0.6076232 -24.41  0.004953662    2.151    0.535
        15 -17.0349     14.1846    242.6080   1.2218016987e+02   2.0415801789e+01     6.249732     2.399856  23.39   0.02773248    3.903    0.744
        16  -8.1409    195.7361    190.3267   7.5161241844e+01   4.5525683130e+00    0.1269059    0.1141772 -73.62 0.0001502198    1.566    0.362
        17  -9.5437    148.7313    189.7633   8.5562053530e+01   1.2897969987e+01    0.3397982    0.2396308  67.81  0.001495583    2.126    0.530
        18  -9.2060    146.4950    186.0362   8.5391318698e+01   1.4106123013e+01    0.2509841    0.2035523  48.41 0.0006817774    1.302    0.232
        19 -14.8638      9.5975    207.4485   1.2108207775e+02   2.8294134399e+01     1.411185      1.08534 -45.06  0.006765918    1.733    0.423
        20 -10.5290     81.9902    183.0444   1.0124067260e+02   2.5631339037e+01    0.6181915    0.4081647  77.00  0.002232243    1.904    0.475
        21  -9.5538     99.3317    180.9127   9.6367421042e+01   2.3467296074e+01    0.2658973    0.2157743  24.31 0.0006654321    1.316    0.240
        22 -10.4073    239.5320    177.9928   6.4340826417e+01  -2.6436086382e-01    0.2821784     0.155405  17.92  0.001285594    2.480    0.597
        23  -9.4339     63.7223    178.1528   1.0533097867e+02   2.9393831542e+01    0.2350045    0.1815016  53.56 0.0003712593    1.281    0.220
        24 -10.2678    186.8926    175.1809   7.3961436948e+01   9.0245633746e+00    0.3823414    0.3043021 -39.70  0.001101794    1.237    0.191
        25 -12.4075     79.6689    159.0835   9.7977899354e+01   3.1986202606e+01     1.282967    0.6274241  59.48 0.0003812485    3.260    0.693
        26 -12.7768     67.6264    154.4881   1.0064202800e+02   3.4887055984e+01    0.6671131    0.4445591 -49.44 0.0008537763    1.472    0.321
        27 -10.2794    120.0756    244.6549   1.0067429223e+02   6.4912925097e+00    0.2004099    0.1743859 -85.47  0.000686625    1.376    0.274
        28 -10.4880    240.2831    169.6033   6.2533210898e+01   1.0388054612e+00    0.2391809    0.1442552 -44.38 0.0007810223    1.624    0.384
        29  -9.2413     90.5100    175.5174   9.7799614437e+01   2.6191682473e+01     0.274415    0.1468602 -65.53 0.0006472209    1.994    0.499
        30  -8.9561    110.7082    167.5588   9.0951499578e+01   2.4806648427e+01     0.253974    0.1887123 -83.94 0.0008200317    1.709    0.415
        31  -9.7221     36.2365    162.0025   1.1060995107e+02   3.6689042899e+01    0.3275936    0.2295013  14.78 0.0009709379    1.786    0.440
        32 -10.8237     32.8522    156.1290   1.1081953819e+02   3.8519218749e+01    0.5443822     0.283367 -80.28  0.002058148    1.896    0.473
        33  -9.9878    134.1846    147.8313   8.0532681989e+01   2.5184117804e+01     0.477609     0.241181 -57.29  0.001717637    2.321    0.569
        34 -10.2208    133.4057    142.6040   7.9535247300e+01   2.6570737753e+01     0.732763    0.2617485 -56.92  0.001969813    4.144    0.759
        35  -8.3799    112.2156    150.4092   8.7061402108e+01   2.8750646806e+01    0.2132012    0.1458398  47.29 0.0003768762    1.534    0.348
        36  -9.4174    174.7121    149.1876   7.0964091853e+01   1.6717131737e+01    0.2412035    0.1917334 -58.34 0.0006977402    1.420    0.296
        37 -10.4175     55.8400    147.8354   1.0299256246e+02   3.8134258675e+01     0.667065    0.3930852 -20.95  0.002671868    2.758    0.637
        38  -8.2278     35.9843    145.0067   1.0844810524e+02   4.1061125298e+01    0.1596045    0.1476417 -77.35 0.0004695592    1.060    0.057
        39 -11.7125     87.0566    152.6401   9.4675129770e+01   3.2493454623e+01    0.6545376    0.4854493 -20.51  0.002532245    1.728    0.421
        40 -10.4388    101.5651    138.5238   8.7504377387e+01   3.3620882503e+01    0.5845373    0.3675146 -20.78  0.002207015    2.452    0.592
        41 -11.5987     88.6171    138.0508   9.1255192892e+01   3.5953647897e+01    0.3115239    0.2723939 -42.12 0.0003964492    1.124    0.110
        42 -10.5711     25.1259    137.1685   1.1060340722e+02   4.4060791737e+01    0.4172014    0.2025092  38.61  0.001932385    2.235    0.553
        43 -10.0847    105.9111    130.9220   8.4472155185e+01   3.4712792990e+01    0.5341032    0.3657511 -60.64  0.002335573    1.565    0.361
        44  -9.6353    110.5550    129.5021   8.2770821361e+01   3.4187838004e+01    0.3742665    0.2725869   8.88  0.001175188    1.793    0.442
        45 -10.4871    135.1663    128.9473   7.5773274605e+01   2.9398060678e+01    0.5183753    0.2945657 -53.75  0.002022186    1.890    0.471
        46 -11.4734     66.3214    172.3378   1.0381422815e+02   3.0507599652e+01    0.4787305    0.3090098 -34.36  0.001993422    2.018    0.505
        47  -9.2425     43.9872    129.4726   1.0354347047e+02   4.4239333224e+01    0.2016142    0.1421378  25.31  0.000728636    1.592    0.372
        48 -10.4498     97.9340    125.2836   8.5514225079e+01   3.7549306336e+01    0.3417134    0.2735299  -9.18 0.0009977045    1.487    0.327
        49 -11.4797     70.9871    167.5565   1.0181760319e+02   3.1079930750e+01    0.5480649    0.2869498 -53.89  0.001096568    1.828    0.453
        50  -9.9689    117.1573    123.6167   7.9405139420e+01   3.4315272350e+01    0.3188433    0.2415308  -2.25  0.001176065    1.721    0.419
        51  -9.6251    193.3255    205.3106   7.8537317784e+01   2.1970401406e+00    0.1442268   0.09800635  -3.04 0.0002879939    1.658    0.397
        52  -8.8199    135.0000    119.9455   7.3526796453e+01   3.1487573174e+01    0.2654518   0.08964118 -45.52  0.000797655    2.909    0.656
        53  -8.9429    107.2908    118.4009   8.0966927541e+01   3.7480537149e+01    0.2171764     0.184534  16.50 0.0005386999    1.269    0.212
        54  -9.0827     83.6231    118.0300   8.8248432240e+01   4.1789117262e+01    0.2830046    0.2076189  52.84 0.0007167176    1.584    0.369
        55 -10.1855    231.3913    113.7718   5.2147030410e+01   1.2345600593e+01    0.2990699    0.2324878 -40.44 0.0007842523    1.112    0.101
        56 -10.6868    111.8002    172.8937   9.1668394777e+01   2.3321070412e+01    0.3628328    0.1861534  46.09  0.001426695    2.025    0.506
        57  -9.0089    135.0000    111.9854   7.1424691901e+01   3.3262872594e+01    0.2689726   0.08938905 -44.41 0.0008055294    2.964    0.663
        58 -11.9816    246.7231    108.9768   4.8906172569e+01   1.0342587189e+01    0.5398054     0.359268 -30.66  0.002948677    1.447    0.309
        59  -9.7863    119.4826    103.9623   7.3501989553e+01   3.8345178361e+01     0.236541    0.1532942 -43.60 0.0004006632    1.522    0.343
        60  -9.2866    205.3395    110.2682   5.5605174203e+01   1.8167611632e+01    0.2865973    0.2055938  43.91  0.001098287    1.546    0.353
        61 -10.0051     35.8656    100.8969   1.0082435637e+02   5.2248152131e+01    0.3248449    0.2094759  39.25  0.001388778    1.806    0.446
        62  -9.7063     42.1083    103.5639   9.9128627519e+01   5.0970478333e+01    0.2911912    0.2109995  53.27  0.001180622    1.729    0.422
        63 -14.8326     41.3998    197.2351   1.1314870407e+02   2.7454592738e+01     3.705937     1.676018  70.25   0.01434922    2.954    0.661
        64 -10.9318     33.2085    108.0753   1.0323650593e+02   5.0725903289e+01    0.5058077    0.2364793 -65.56  0.002190925    1.953    0.488
        65  -8.5509     17.6291     90.2901   1.0547505355e+02   5.6292491968e+01    0.1259649   0.09590679  63.41 0.0007023369    1.718    0.418
        66  -8.3740     73.4122     84.1662   8.2580626617e+01   5.1363863436e+01    0.1905266    0.1379127 -57.39 0.0002504112    1.546    0.353
        67  -9.0252    159.5173     83.0033   5.7475223879e+01   3.3522262773e+01    0.2273547    0.1479253 -37.64 0.0006546894    1.543    0.352
        68 -10.6939      2.1857     62.8020   1.0600822497e+02   6.3430473017e+01    0.5135273    0.1429268 -65.62  0.001981624    3.249    0.692
        69  -9.4050     51.4764     64.1500   8.4727648756e+01   5.8784676749e+01    0.2811011    0.1848947  38.91 0.0006525147    1.738    0.425
        70 -12.8971    192.5766     49.4523   4.2675438315e+01   3.1086791953e+01      1.00418    0.7356686  51.82  0.001212424    1.470    0.320
        71 -10.2093    111.0178    203.4618   9.7037177850e+01   1.6316832870e+01     0.248291    0.1982423 -89.52 0.0004747843    1.477    0.323
        72 -10.5190     13.4167     59.8769   1.0019174536e+02   6.3437868902e+01    0.2514191    0.1993525 -55.01 0.0004396425    1.233    0.189
        73  -9.7529    122.2967    198.9566   9.3576180806e+01   1.5466928675e+01    0.3212915    0.2534637 -83.78  0.001355624    1.573    0.364
        74 -10.9736    192.4182    193.6939   7.6514211213e+01   4.4792184511e+00    0.9905229    0.5584136 -66.44  0.002885524    6.125    0.837
        75  -8.8423     78.7382     57.4958   7.1814871844e+01   5.5730381353e+01      0.24369    0.1334697  44.46 0.0009745988    1.889    0.471
        76 -10.3254      1.9173     51.2321   1.0328986880e+02   6.5897943195e+01    0.3022377   0.09674697 -51.47  0.001193349    2.134    0.531
        77  -8.7193    189.5246     14.9587   3.4514836056e+01   3.6016051525e+01    0.1719973    0.1207008 -35.29 0.0006072684    1.538    0.350
        78 -10.7328    184.7745    211.8953   8.1541099620e+01   2.3819760165e+00    0.4188563    0.3038935 -58.49  0.002166005    1.928    0.481
        79  -9.1326     67.5759    198.2872   1.0695528469e+02   2.3979721419e+01    0.2455224    0.1302491 -73.29  0.001028453    1.977    0.494
        80  -9.0433    118.6022    190.8387   9.3122637104e+01   1.7922738764e+01    0.2037988    0.1423257 -71.48 0.0009389715    1.735    0.424
