#   1 NUMBER                 Running object number                                     
#   2 MAG_AUTO               Kron-like elliptical aperture magnitude                    [mag]
#   3 X_IMAGE                Object position along x                                    [pixel]
#   4 Y_IMAGE                Object position along y                                    [pixel]
#   5 X_WORLD                Barycenter position along world x axis                     [deg]
#   6 Y_WORLD                Barycenter position along world y axis                     [deg]
#   7 A_WORLD                Profile RMS along major axis (world units)                 [deg]
#   8 B_WORLD                Profile RMS along minor axis (world units)                 [deg]
#   9 THETA_WORLD            Position angle (CCW/world-x)                               [deg]
#  10 FWHM_WORLD             FWHM assuming a gaussian core                              [deg]
#  11 ELONGATION             A_IMAGE/B_IMAGE                                           
#  12 ELLIPTICITY            1 - B_IMAGE/A_IMAGE                                       
         1 -12.0950    190.0691     32.6134   5.9952107879e+01   3.3639455432e+01    0.9290691    0.8774009 -42.21  0.003282294    1.039    0.038
         2 -12.2796    198.9256     20.7358   5.4995771123e+01   3.2698356811e+01    0.8643302    0.6978419  17.30  0.002234112    1.409    0.290
         3 -10.5114     49.9645      6.9659   8.4310350923e+01   6.8787257773e+01    0.2027617    0.1637239 -19.43  0.000700396    1.021    0.021
         4 -10.2157     47.8988      2.9946   8.3005894889e+01   6.9664521469e+01    0.3830812    0.1815226  23.39   0.00164819    3.245    0.692
         5  -8.6990     60.6509      2.3187   7.7428072866e+01   6.7727509291e+01    0.1192608   0.09694588 -55.42 7.545541e-05    1.735    0.424
         6 -11.9193    126.2508    230.1594   1.1511318256e+02   1.4162327834e+01    0.5957164    0.2464243  45.45  0.003340457    1.832    0.454
         7 -11.9089    114.3940    244.1178   1.1833810844e+02   1.3945310202e+01    0.6712672    0.3526308  31.70  0.003926632    2.476    0.596
         8 -12.9535    127.1854    245.9885   1.1648035129e+02   1.1904270414e+01     1.739772    0.4071269  40.28  0.007204455    3.804    0.737
         9 -11.6742    109.1026    250.0286   1.1965996188e+02   1.3883883072e+01     1.446818     0.295099  38.52  0.004649015    6.973    0.857
        10 -11.6563    100.1957    249.4202   1.2099321563e+02   1.5158594226e+01    0.8141659     0.307219  48.90  0.003014357    1.879    0.468
        11 -19.3080      7.3762    131.0429   1.2914521734e+02   4.6986502783e+01     16.12076     1.577628 -77.18   0.03994456    9.619    0.896
        12 -11.8292    112.2565    228.4532   1.1727572468e+02   1.6436112801e+01      0.68898    0.2841915  43.28  0.003867242    1.912    0.477
        13  -9.8831     71.1726    228.2827   1.2405411129e+02   2.1982344303e+01    0.2850676    0.1876091  33.05  0.001701947    1.948    0.487
        14  -8.2924     65.1679    223.3590   1.2469590701e+02   2.3500805725e+01    0.1523399   0.06685065  51.09 0.0004484594    1.693    0.409
        15  -8.6274    170.3235    221.6660   1.0677972640e+02   8.5155915571e+00    0.1107896    0.0788709  65.65 0.0004782795    1.709    0.415
        16 -10.1848    160.6386    227.1082   1.0906432298e+02   9.3483819066e+00    0.2626189    0.1076002 -45.45  0.001401867    3.186    0.686
        17 -10.4313    195.3422    194.7532   9.8653483561e+01   7.8187995728e+00    0.5645229    0.4149608  54.93  0.003537464    1.460    0.315
        18  -9.2268     72.3462    189.0149   1.2063846886e+02   2.8467094387e+01    0.2227673    0.1240906  62.70 0.0008262591    1.594    0.373
        19 -10.0312     60.2036    187.5924   1.2280843925e+02   3.0272388476e+01    0.2124668    0.1607608  56.35 0.0006897027    1.187    0.157
        20  -8.4090     63.3199    186.6926   1.2213875458e+02   3.0052082149e+01    0.1588258    0.1135921  74.79 0.0006233443    1.140    0.123
        21  -8.7085    207.5313    183.4756   9.4679567965e+01   7.1478103314e+00    0.1241862    0.1049997  29.38 0.0001081767    1.022    0.022
        22 -10.3427     76.8206    181.1913   1.1899933096e+02   2.9320683343e+01    0.2849704    0.2422222 -39.41  0.001734381    1.793    0.442
        23 -10.5325     81.0887    175.1675   1.1749929953e+02   2.9876339312e+01    0.3242091    0.2415416 -47.63  0.001754099    1.818    0.450
        24  -8.1908    211.3440    180.3198   9.3474939170e+01   6.8775709068e+00    0.1317143   0.08540561  17.75 0.0001955565    1.725    0.420
        25  -7.8737     99.5485    180.4840   1.1444412041e+02   2.6198595608e+01    0.1211929    0.1003995  67.58 0.0001755106    1.005    0.005
        26  -9.6002    197.5206    174.6124   9.4854201697e+01   1.0148750577e+01    0.4669614      0.22174 -45.13  0.002181663    2.589    0.614
        27 -11.0022     45.2890    172.7321   1.2442770406e+02   3.4857611077e+01    0.4200383    0.2206768  48.25  0.002579808    1.670    0.401
        28  -9.5672     79.1389    167.8918   1.1705969232e+02   3.1557868499e+01    0.1918003    0.1358754  72.24 0.0006407755    1.270    0.212
        29 -10.9095     88.4072    165.4388   1.1482785212e+02   3.0717131449e+01    0.4584426    0.2754813  60.85 0.0006122898    1.581    0.367
        30 -11.9971     76.9167    161.0570   1.1670579061e+02   3.3224391436e+01    0.4339235     0.416177 -58.64  0.001184274    1.391    0.281
        31 -12.6620     68.7546    145.0143   1.1646322755e+02   3.7641095963e+01     1.078745    0.5691478  83.38   0.00473723    2.471    0.595
        32 -10.6563     94.1637    158.2547   1.1264173367e+02   3.1279354862e+01    0.5240089    0.3148628 -41.72  0.002025513    2.406    0.584
        33  -8.6527    134.3549    148.2147   1.0234822007e+02   2.6441036107e+01    0.3391094    0.1217354 -58.87  0.001101438    4.222    0.763
        34  -9.1723    106.4914    141.7818   1.0734699440e+02   3.2648732013e+01    0.3857464    0.2228003 -34.93  0.001666699    2.865    0.651
        35 -10.4951     94.4600    142.3609   1.1018738483e+02   3.4480077075e+01     0.241491    0.2250874 -74.65 0.0004487238    1.170    0.146
        36 -11.0172     96.5549    225.9318   1.1967113710e+02   1.9012751974e+01    0.4381728    0.2107805  52.88  0.002695892    1.615    0.381
        37 -12.5472     59.3793    133.0368   1.1704857124e+02   4.1414107686e+01    0.9006396    0.3872389 -80.76  0.003740125    2.949    0.661
        38 -10.8429     70.4969    134.0688   1.1452448202e+02   3.9749923408e+01    0.3080342    0.2429947  24.50  0.001860983    1.713    0.416
        39  -8.5302    106.0014    131.0144   1.0553026291e+02   3.4969131936e+01    0.2134178    0.1924002  83.07  0.001293653    1.016    0.016
        40  -8.9680    114.2220    131.8795   1.0376860352e+02   3.3356462077e+01    0.2365967    0.1855113 -37.47 0.0006836331    1.532    0.347
        41  -9.3634    101.7267    128.2276   1.0602525145e+02   3.6280944008e+01    0.2564543    0.2149485 -41.73 0.0007714797    1.392    0.282
        42  -8.2201    109.7426    120.2193   1.0250360144e+02   3.6596371117e+01    0.1746369    0.1596577 -32.84 0.0003417488    1.286    0.223
        43  -8.3304    167.8302    112.6235   8.7521274509e+01   2.6308004320e+01    0.2068101    0.1380222  61.20 0.0006065051    1.673    0.402
        44 -11.1409     58.4916    121.5014   1.1560601962e+02   4.4058883828e+01    0.3103705    0.2347473  62.42  0.001925057    1.301    0.231
        45  -8.6247    205.7570    110.3797   7.9652186826e+01   1.8177662445e+01    0.2066267    0.1289517  41.90 0.0006336548    1.608    0.378
        46  -9.6185    166.4999     66.7265   7.4985857451e+01   3.4754985892e+01    0.3139704    0.2540155 -80.10  0.000667576    1.500    0.334
        47 -11.4713    179.6782     41.5998   6.4484590289e+01   3.5201968558e+01    0.7066984    0.4568595  -1.42  0.002290245    2.008    0.502
        48  -9.7110     97.5260    239.5187   1.2064149007e+02   1.6885528689e+01    0.2103671    0.1365577  85.46   0.00076804    1.686    0.407
        49 -10.2035     93.9574    237.8593   1.2108142971e+02   1.7600247451e+01    0.2273409    0.1480247  61.74 0.0003651376    1.206    0.170
        50 -11.0713    118.0472    230.5513   1.1651245195e+02   1.5302545852e+01    0.3925659    0.3220578  21.44  0.002935603    1.725    0.420
        51 -11.1467    100.4141    230.0884   1.1938918036e+02   1.7859343881e+01    0.3953919     0.262605  29.42  0.002149258    2.038    0.509
        52 -11.2752    120.0003    247.6477   1.1775968950e+02   1.2699190946e+01    0.5660477    0.3719994 -32.07  0.003631916    3.205    0.688
        53 -11.7635    143.3195    230.1993   1.1228717914e+02   1.1606992176e+01    0.4311177    0.3676488  57.75  0.003414992    1.146    0.128
