#   1 NUMBER                 Running object number                                     
#   2 MAG_AUTO               Kron-like elliptical aperture magnitude                    [mag]
#   3 X_IMAGE                Object position along x                                    [pixel]
#   4 Y_IMAGE                Object position along y                                    [pixel]
#   5 X_WORLD                Barycenter position along world x axis                     [deg]
#   6 Y_WORLD                Barycenter position along world y axis                     [deg]
#   7 A_WORLD                Profile RMS along major axis (world units)                 [deg]
#   8 B_WORLD                Profile RMS along minor axis (world units)                 [deg]
#   9 THETA_WORLD            Position angle (CCW/world-x)                               [deg]
#  10 FWHM_WORLD             FWHM assuming a gaussian core                              [deg]
#  11 ELONGATION             A_IMAGE/B_IMAGE                                           
#  12 ELLIPTICITY            1 - B_IMAGE/A_IMAGE                                       
         1 -12.6706    194.8176     41.0496   4.5828753321e+01   3.1313035309e+01     1.154432    0.8563126  36.03  0.004941856    1.754    0.430
         2 -11.9679    223.6685     10.6116   3.6284028818e+01   2.8567153160e+01    0.6737733    0.6146581  59.66  0.005083806    1.398    0.285
         3 -11.0785    220.1918      5.9390   3.5527438374e+01   2.9730382618e+01    0.5236779    0.3458065  39.87  0.003069576    2.317    0.568
         4 -11.1429     49.8476      7.1031   6.5815973836e+01   6.8798608483e+01     0.277988    0.2415415 -11.01  0.001827158    1.274    0.215
         5  -8.8196     65.9893    241.5920   1.1687495476e+02   1.5368709210e+01    0.1660684     0.148482  64.40 0.0001164104    1.146    0.127
         6 -10.1117    140.6196    249.1454   1.0126038886e+02   4.4169632308e+00    0.2592218    0.2161635 -19.82   0.00173129    1.306    0.234
         7 -19.4850      9.7766    146.0520   1.2294961388e+02   4.2874687472e+01     20.39185     3.344327 -77.65   0.05084358    6.569    0.848
         8 -10.2321    144.1064    221.8499   9.6663466690e+01   8.5861245797e+00    0.2046632    0.1716281  36.60  0.000819986    1.254    0.202
         9  -9.4870    164.0000    215.0416   9.1133534946e+01   6.8796902153e+00    0.3488573   0.07480746 -46.27   0.00106432    5.053    0.802
        10  -9.0295     89.5263    211.5971   1.0824268401e+02   1.8446631678e+01    0.2242166    0.2016681  33.84 0.0005360794    1.011    0.010
        11 -10.5628    135.4831    210.5354   9.6911152760e+01   1.1976949238e+01    0.3931126    0.2003126  24.45  0.001728546    1.925    0.481
        12  -9.6117     71.5779    210.4731   1.1255891507e+02   2.1054171040e+01    0.3360415    0.2546641   2.72  0.001187984    1.597    0.374
        13  -9.5622    144.9482    214.0476   9.5259509137e+01   9.8885097180e+00    0.2271237    0.1529106  -3.28  0.001135948    1.721    0.419
        14 -10.5629    110.7729    203.1244   1.0178670809e+02   1.7201410790e+01    0.4020347    0.2588384  82.80   0.00165699    2.924    0.658
        15 -10.0616    194.3265    197.6505   8.1648208844e+01   5.3712049439e+00    0.4826583    0.2497182 -57.20  0.001688388    4.762    0.790
        16 -10.6973    121.3107    196.7263   9.8152293842e+01   1.6942056231e+01    0.4311151    0.2837676 -73.80  0.001682765    2.318    0.569
        17 -10.1901    107.5018    203.9424   1.0272596120e+02   1.7514191750e+01     0.254774     0.216363  33.05 0.0009137645    1.072    0.067
        18  -9.8466     32.6520    196.2170   1.2093764210e+02   2.8686205618e+01     0.244515    0.1764553  53.79 0.0005127425    1.266    0.210
        19  -9.2085     82.4993    195.3261   1.0793388098e+02   2.2987668759e+01    0.2712691    0.2254146  -4.34  0.001500132    1.377    0.274
        20  -8.4123     79.2286    191.4372   1.0827755530e+02   2.4326356431e+01    0.2027635     0.118097  40.74  0.000941938    1.593    0.372
        21  -8.5003     92.0660    184.4854   1.0383533662e+02   2.4117683298e+01    0.2176916    0.1348276  31.14  0.000404976    1.515    0.340
        22  -9.6220     99.3223    180.9279   1.0130876688e+02   2.3850383108e+01    0.2700799    0.2079909  21.04 0.0006607238    1.290    0.225
        23  -9.6844    186.9356    175.2399   7.8855725613e+01   1.0432702967e+01    0.3358976    0.2690103 -30.22  0.001168038    1.197    0.165
        24  -9.9363     57.3076    165.3741   1.1086686196e+02   3.3476172026e+01    0.2936693    0.1678867 -40.18  0.001278327    2.049    0.512
        25 -10.3359     48.6731    171.6779   1.1418403870e+02   3.2906716924e+01    0.2780687    0.2060211 -41.32 0.0009361206    1.501    0.334
        26  -8.1781    148.5229    175.5008   8.7582013152e+01   1.6903497534e+01    0.2038247    0.1463076 -56.61    0.0006859    1.700    0.412
        27  -8.7611    146.4837    171.9948   8.7385755009e+01   1.7985556977e+01    0.2628083    0.1966066  70.13 0.0009315098    2.149    0.535
        28  -9.2579     84.0277    173.9455   1.0441898042e+02   2.7786662866e+01    0.2165278    0.2088652  29.85 0.0004882725    1.008    0.008
        29 -10.9859    103.1807    171.3832   9.8627272368e+01   2.5469354438e+01    0.5905384     0.380711  66.89   0.00241839    2.375    0.579
        30 -10.3727     53.7055    173.0323   1.1291531502e+02   3.1994937169e+01     0.352687    0.2645187  65.32 0.0006221485    1.400    0.286
        31 -11.1152    101.8845    245.1473   1.0925385053e+02   1.0227214464e+01    0.3762271    0.2843369  31.24  0.002364093    1.082    0.076
        32 -10.8103     46.9377    174.8095   1.1504394604e+02   3.2324241157e+01    0.4812674    0.2829886  61.74  0.002039704    1.914    0.478
        33  -9.9636     87.5720    157.5831   1.0062352397e+02   3.1253798716e+01    0.2903944    0.2594532   0.46  0.001538256    1.172    0.147
        34 -10.2264    107.6873    249.6497   1.0846756459e+02   8.6789583341e+00    0.2574714    0.1982823   2.33  0.001546976    1.427    0.299
        35 -10.8170     93.8044    151.1663   9.7553862173e+01   3.1848667906e+01     0.640573     0.444854 -21.33  0.002488272    1.813    0.448
        36  -9.8904    134.0517    145.8705   8.5016920625e+01   2.5915166233e+01     1.083303     0.266621 -53.21  0.002316468    7.011    0.857
        37  -8.9512    112.1798    150.8303   9.2116229291e+01   2.8804741884e+01    0.2191175    0.1809506  -6.49 0.0006066242    1.325    0.245
        38 -10.1044    106.1429    130.9380   8.9463660513e+01   3.4626437604e+01     0.463008    0.3534035 -58.55  0.001846449    1.427    0.299
        39  -9.6843    105.3225    138.3556   9.1412538949e+01   3.2999673675e+01    0.3210133    0.2417685 -19.13   0.00137436    1.547    0.354
        40  -9.0999    107.6866    135.6285   9.0089912056e+01   3.3224919074e+01     0.259141    0.1824686 -17.29 0.0008557641    1.799    0.444
        41 -10.6254     93.9637    136.9582   9.4566943174e+01   3.5320889617e+01    0.3122054    0.2764616 -19.80 0.0003629279    1.161    0.139
        42  -9.6928     77.8335    134.2874   9.9142602461e+01   3.8589473150e+01    0.2497552    0.1854024  50.03 0.0008167816    1.478    0.323
        43 -10.0452    113.9689    128.9934   8.6668610034e+01   3.3615345606e+01    0.2953162     0.275137 -23.85 0.0009326904    1.055    0.052
        44  -8.8877    160.9956    128.4911   7.4227635214e+01   2.4273007238e+01    0.2125563    0.1362559  67.23 0.0008106149    2.622    0.619
        45  -9.2812    101.2293    124.6954   8.9478984550e+01   3.7020515432e+01    0.2870068    0.2325321 -22.60 0.0004305905    1.321    0.243
        46  -8.8593    119.6630    122.6879   8.3454717195e+01   3.3954589658e+01    0.1652213    0.1230454  -4.26 0.0004061323    1.688    0.408
        47  -9.0671    135.0000    119.9679   7.8522111304e+01   3.1429011400e+01    0.2634776    0.0884814 -44.30 0.0008064752    2.971    0.663
        48  -8.4329    114.4629    118.4869   8.3899049430e+01   3.5944865468e+01    0.1585379    0.1508005  -2.73 0.0008093483    1.011    0.011
        49  -8.8164    109.4976    118.0181   8.5265516311e+01   3.7028689783e+01    0.2320593    0.2104734  26.78 0.0003892244    1.086    0.079
        50  -9.1962    231.0352    113.9389   5.7938694964e+01   1.3400848150e+01    0.2213583    0.1877141  47.67 0.0006818144    1.389    0.280
        51  -8.8771    167.7772    111.7827   6.8564215779e+01   2.6137928742e+01    0.2454679    0.1100044 -48.51  0.000879247    2.476    0.596
        52 -11.2139     54.1976    110.8044   1.0239220958e+02   4.7887603040e+01    0.4395593     0.298662  65.17  0.001942587    2.048    0.512
        53  -8.3054    205.5070    110.4680   6.1102182228e+01   1.8655512604e+01    0.1382633    0.1243645 -31.16 9.808455e-05    1.002    0.002
        54 -10.8468    118.0751    109.5503   8.0473143470e+01   3.7219683030e+01     0.540469     0.371506  57.97   0.00230706    1.791    0.442
        55 -10.5004    105.6657    247.6685   1.0869383713e+02   9.2875701631e+00    0.2651671    0.1964419 -17.28  0.001494585    1.686    0.407
        56 -10.2870     71.9905    245.2361   1.1586764348e+02   1.3964544083e+01    0.3251826    0.2666579 -66.17  0.001161249    1.440    0.306
        57  -9.3644     73.2290    239.9884   1.1512609485e+02   1.4807972555e+01    0.4572906     0.197377 -68.78  0.002158744    2.814    0.645
        58  -9.7449    134.6078    241.2036   1.0152959475e+02   6.5365450823e+00    0.1665672    0.1135407 -32.30 0.0006013685    1.672    0.402
        59  -8.7089     85.6512    240.8558   1.1242764277e+02   1.3101402058e+01    0.1575508    0.1157592 -89.76 0.0003886862    1.729    0.421
        60 -10.3856    102.3397    238.4777   1.0841069432e+02   1.1380612559e+01    0.2216458    0.2037078   9.42 0.0009455633    1.147    0.128
        61 -11.6185    179.5794     53.8149   5.1114434288e+01   3.3109842121e+01    0.4874853     0.439604 -15.30  0.001144283    1.261    0.207
        62 -10.2187    120.2577    247.0862   1.0542125585e+02   7.4672472116e+00    0.3515831    0.2491758 -68.07  0.001413004    1.995    0.499
        63 -11.6036    200.1987     34.9439   4.3741794745e+01   3.0862095711e+01    0.5996969    0.3809391  69.63  0.001421128    1.549    0.354
        64  -9.8845    149.1970    228.3506   9.6499489155e+01   6.7077573472e+00     0.186758    0.1543145  -0.79  0.001148873    1.129    0.114
        65  -8.6953     83.2653    244.5430   1.1332022679e+02   1.2713562216e+01    0.1763904    0.1070879  20.38 0.0008694016    1.659    0.397
        66  -9.3984     75.3988    248.4990   1.1540907215e+02   1.2949704851e+01    0.3918892    0.1666455 -55.38  0.001932724    2.742    0.635
        67  -9.7760     78.1457     14.4268   5.9014085985e+01   6.2172789869e+01    0.3202306    0.1309679  65.45  0.001147939    3.370    0.703
