#   1 NUMBER                 Running object number                                     
#   2 MAG_AUTO               Kron-like elliptical aperture magnitude                    [mag]
#   3 X_IMAGE                Object position along x                                    [pixel]
#   4 Y_IMAGE                Object position along y                                    [pixel]
#   5 X_WORLD                Barycenter position along world x axis                     [deg]
#   6 Y_WORLD                Barycenter position along world y axis                     [deg]
#   7 A_WORLD                Profile RMS along major axis (world units)                 [deg]
#   8 B_WORLD                Profile RMS along minor axis (world units)                 [deg]
#   9 THETA_WORLD            Position angle (CCW/world-x)                               [deg]
#  10 FWHM_WORLD             FWHM assuming a gaussian core                              [deg]
#  11 ELONGATION             A_IMAGE/B_IMAGE                                           
#  12 ELLIPTICITY            1 - B_IMAGE/A_IMAGE                                       
         1 -13.5985    201.9074     32.3605   1.3798247186e+01   3.2408138338e+01    0.7568308    0.6063755 -67.51  0.004287001    1.051    0.049
         2 -11.2046    227.3248      9.6648   7.4951830158e+00   3.0245451413e+01    0.1929968    0.1512621 -63.56 0.0007380962    1.139    0.122
         3 -12.3541     69.2547      7.0904   2.7060748994e+01   6.5641971551e+01    0.4806857    0.1803581  68.06  0.001840517    2.922    0.658
         4 -10.9753      4.5284      5.0998   6.3810704878e+01   7.7540268195e+01    0.4554281    0.1519925  21.72  0.001924375    2.915    0.657
         5 -10.1002    210.8515    198.8243   4.4228243773e+01   5.3123418535e+00    0.1671029    0.1269139 -15.72  0.000444865    1.135    0.119
         6 -13.2211    248.2934    246.2562   4.5228674956e+01  -4.5225778320e+00    0.5701954    0.2547248 -32.35  0.003906567    1.774    0.436
         7 -17.1671     68.6585    142.7306   6.8554296097e+01   3.7821236342e+01     5.417233     3.923191  76.90   0.02527059    1.616    0.381
         8 -19.0209     35.6529     95.4240   7.2665214251e+01   5.4575659091e+01     17.30928     0.975774 -66.05   0.02432716   17.833    0.944
         9 -10.8402    158.8582    189.6981   5.2459322643e+01   1.3397163294e+01    0.2179813    0.1606016 -34.30   0.00068242    1.328    0.247
        10 -11.8140    180.2726    167.4161   4.4430415114e+01   1.4436826339e+01    0.5843578    0.3550456 -62.88  0.002715291    2.400    0.583
        11 -12.4570    133.7139    146.4371   5.0474243260e+01   2.6089378770e+01     1.134835    0.3033898 -56.41  0.002928045    5.612    0.822
        12 -11.8033    117.2176    150.2614   5.5392851301e+01   2.8098027389e+01    0.4787526    0.2932254  74.46  0.001777495    3.041    0.671
        13  -9.7217    224.6318    134.8657   3.1468415391e+01   1.3533429646e+01    0.1751352   0.08835514 -49.86 0.0009374591    1.861    0.463
        14 -10.8842    174.4669    178.5193   4.7452773370e+01   1.3267210979e+01    0.2374332    0.1765508 -40.61 0.0008291856    1.278    0.217
        15  -9.8211    124.5329    133.5411   5.0165949714e+01   3.0556639828e+01    0.1452551    0.1397733  74.13 0.0001039449    1.037    0.035
        16 -11.9525    100.0501    129.5602   5.6108367371e+01   3.5947722069e+01    0.2931499    0.2758428 -17.54 0.0003688186    1.176    0.150
        17 -12.4127    105.8038    130.5955   5.4641870758e+01   3.4663474287e+01    0.4639353    0.3895114  63.83  0.001189893    1.246    0.197
        18 -11.6202    111.2333    131.1571   5.3223466531e+01   3.3541941544e+01     0.343021    0.2484146 -25.50  0.001347537    1.813    0.448
        19  99.0000     49.3279    205.8897   8.2125697877e+01   2.4501179530e+01     9.850214      4.85139  38.09   0.03930167    1.687    0.407
        20 -11.1580    116.8607    124.9132   5.0347796370e+01   3.3915778657e+01    0.2275879    0.2053856  -7.69 0.0007674279    1.294    0.227
        21 -10.7104    105.0101    119.5283   5.2482977073e+01   3.7389447871e+01    0.2666996    0.2075478 -35.46 0.0006308346    1.472    0.321
        22 -12.9715    172.8377    172.9959   4.6828202705e+01   1.4503347053e+01    0.6197091    0.4574852  -7.97  0.002282359    1.550    0.355
        23  -9.8463    111.7363    115.3552   4.9617670991e+01   3.7049828837e+01    0.2018883    0.1394477  35.01 0.0004259115    1.526    0.345
        24 -12.4290    118.6985    110.2978   4.6543912745e+01   3.6792429989e+01    0.5162705    0.3998732 -76.52   0.00174726    1.477    0.323
        25 -12.1143    119.4747    104.9935   4.5072795101e+01   3.7777786871e+01    0.4898164    0.3035268  78.80  0.001859472    2.746    0.636
        26 -11.8849    115.6384    102.3087   4.5440166409e+01   3.9136063479e+01    0.2890186    0.2366337  82.60  0.001078821    1.345    0.257
        27 -11.7471     88.2031    108.6869   5.5196467641e+01   4.3088922136e+01    0.3332217    0.2478252  54.03 0.0006868311    1.351    0.260
        28 -10.1523    132.2108     98.1557   4.0231179691e+01   3.6560034424e+01    0.2005553    0.1640363 -87.80 0.0003799152    1.325    0.245
        29 -10.8110    109.1475     97.2848   4.5977154577e+01   4.1548932730e+01    0.2785105    0.1924338 -83.25 0.0007957314    1.988    0.497
        30 -11.0944    124.0248     96.6663   4.1853297342e+01   3.8576758378e+01    0.3074387    0.2139264  70.41 0.0007120363    1.672    0.402
        31 -11.2635     60.6849     90.8258   6.0880545965e+01   5.2209083942e+01    0.2633696    0.2039349  21.20 0.0009025888    1.380    0.275
        32  -9.7283    152.2997     87.3377   3.3288814109e+01   3.4397100674e+01    0.1318117    0.1127904   3.22  0.000548377    1.661    0.398
        33 -10.1199     95.6764     86.9388   4.7260698327e+01   4.6551346174e+01    0.2060698    0.1907917 -84.38 0.0004946729    1.088    0.081
        34 -10.2174    116.2750     86.4079   4.1195591067e+01   4.2306187688e+01    0.2465037    0.1715423  60.38 0.0004333066    1.442    0.306
        35 -10.4811      9.2268    166.8904   9.1107483047e+01   3.7986550126e+01    0.1806918     0.149893 -87.64 0.0005710426    1.181    0.153
        36 -10.3098     73.3391    250.7721   7.9759668664e+01   1.2409530858e+01    0.1283903   0.07219485  42.43 0.0002957338    1.536    0.349
        37 -10.2040     81.0980    228.3482   7.5902444959e+01   1.5926433145e+01    0.2668412    0.1724714 -58.08 0.0009115964    1.781    0.439
        38 -12.9362    165.5315     70.0534   2.6780656667e+01   3.4554086034e+01    0.4022879    0.3542027 -78.06  0.000817652    1.020    0.019
        39  -9.2479     20.2829     70.2898   7.4970292182e+01   6.2462628432e+01    0.1401216    0.0965373 -30.79  0.000222384    1.530    0.346
        40 -13.6300    179.8818     57.3397   2.1713294837e+01   3.3499242072e+01    0.8518908    0.7821529  -8.31  0.003711028    1.535    0.349
        41 -12.2305    186.5121     50.9551   1.9438661462e+01   3.3049365312e+01    0.3512729    0.3041608 -83.08 0.0008519146    1.114    0.103
        42 -11.3090     56.5383     63.7590   5.4976868768e+01   5.9069183481e+01    0.3315491    0.1868964  44.90 0.0009687232    1.706    0.414
        43 -12.9290     72.5586    224.3880   7.7661395781e+01   1.7748000434e+01      0.27044     0.222068 -49.81  0.001637213    1.418    0.295
        44 -11.7428     69.1415    245.7649   8.0349787615e+01   1.3817205035e+01     0.183368    0.1518563  41.86 0.0005535288    1.108    0.097
        45 -10.5026     60.7586     21.5819   3.6780602859e+01   6.5746060758e+01    0.1900855    0.1162465  60.85 0.0009483892    1.616    0.381
        46 -12.1927    155.1575    178.0601   5.1325368136e+01   1.6138063462e+01    0.3260135    0.2238056  22.99  0.001753094    1.508    0.337
        47 -10.3568     85.6801    239.5755   7.5868958873e+01   1.3166683855e+01    0.1537152    0.1219738  -9.36 0.0007129326    1.416    0.294
