#   1 NUMBER                 Running object number                                     
#   2 MAG_AUTO               Kron-like elliptical aperture magnitude                    [mag]
#   3 X_IMAGE                Object position along x                                    [pixel]
#   4 Y_IMAGE                Object position along y                                    [pixel]
#   5 X_WORLD                Barycenter position along world x axis                     [deg]
#   6 Y_WORLD                Barycenter position along world y axis                     [deg]
#   7 A_WORLD                Profile RMS along major axis (world units)                 [deg]
#   8 B_WORLD                Profile RMS along minor axis (world units)                 [deg]
#   9 THETA_WORLD            Position angle (CCW/world-x)                               [deg]
#  10 FWHM_WORLD             FWHM assuming a gaussian core                              [deg]
#  11 ELONGATION             A_IMAGE/B_IMAGE                                           
#  12 ELLIPTICITY            1 - B_IMAGE/A_IMAGE                                       
         1 -11.5644     95.7821     39.6463   8.9218564885e+01   5.4732999194e+01    0.3776398    0.3318604 -29.91  0.001968847    1.240    0.193
         2 -11.7829      8.8454     26.3638   1.1657960743e+02   6.8399434718e+01    0.6101376    0.2424203 -39.46  0.003342911    1.928    0.481
         3 -10.9831      3.4946     21.0167   1.1707288102e+02   6.9588666644e+01     0.281101    0.1652398 -56.01  0.001194427    2.227    0.551
         4 -12.5395     25.8625     13.6753   1.0395990384e+02   6.8668618819e+01    0.3258461    0.2377914  -0.59 0.0003342425    1.088    0.081
         5 -12.1437     20.1037     16.7615   1.0780408475e+02   6.8847298071e+01     0.904848    0.2345051 -34.21  0.003819098    3.675    0.728
         6 -10.5039     27.2793     19.5684   1.0581041886e+02   6.7748866767e+01    0.2110226    0.1658618  10.25 0.0009015835    1.233    0.189
         7 -11.6446     31.6007      2.4112   9.6472528112e+01   6.9313755766e+01    0.2438903    0.1672093  26.86 0.0008671703    1.361    0.265
         8 -10.9839     23.3908     21.6856   1.0834970088e+02   6.7852427404e+01    0.3622675    0.1579149 -35.69  0.002044867    1.943    0.485
         9 -11.8452    132.3187     15.5007   7.2344674518e+01   4.9654896679e+01    0.5032803    0.3898629 -83.91  0.002106866    1.558    0.358
        10 -12.4773     26.4983      3.9273   9.9360380413e+01   6.9755731793e+01    0.3337704    0.1944689  17.30 0.0004870751    1.528    0.346
        11 -10.6765     75.6782     17.2614   8.6880710220e+01   6.1150127499e+01    0.3959253    0.2272609  10.62  0.002051221    2.114    0.527
        12 -11.5595     78.9302     10.7056   8.3317097196e+01   6.1223679909e+01    0.3966765    0.2673222   7.32  0.001424446    1.504    0.335
        13 -11.7088     81.2438      6.0296   8.0813628561e+01   6.1220417871e+01    0.2114633    0.1692521  26.20 0.0003166639    1.029    0.028
        14 -10.7655     70.6704     14.6580   8.7417427394e+01   6.2292068194e+01     0.201326    0.1748699   9.78 0.0002820895    1.124    0.110
        15 -11.5222     75.0504      4.8323   8.2108681166e+01   6.2457658650e+01    0.4179806    0.2234687 -14.38  0.001380059    2.014    0.504
        16 -10.4617     99.3818     13.2021   7.8747301326e+01   5.7035474116e+01    0.2677145    0.2101034 -43.80  0.001138365    1.611    0.379
        17 -10.5082    115.1784     12.5040   7.4842881762e+01   5.3769032165e+01    0.4726255    0.1935388  64.08  0.001888189    2.516    0.603
        18 -11.7489     61.9015     11.4155   8.8970829897e+01   6.4079912031e+01    0.3147776    0.2361588  61.03  0.001968293    2.029    0.507
        19 -10.0350    175.6803     12.0733   6.4480775529e+01   3.9715779440e+01    0.1705756    0.1577461  76.81 0.0005063399    1.121    0.108
        20 -10.0316      3.8249     10.8960   1.1296641074e+02   7.1022078549e+01    0.1643346    0.1231591 -42.99 0.0006907266    1.621    0.383
        21  -9.5315    122.1744      8.7951   7.2160943176e+01   5.2559915820e+01     0.168483    0.1273085  34.65 0.0004344556    1.271    0.213
        22  -9.3218    226.0343      8.7221   5.8258300561e+01   2.8251747082e+01    0.1486659   0.09266604  80.61 0.0003584222    1.373    0.272
        23  -9.7134     37.1535      8.4855   9.6920284569e+01   6.7963597000e+01    0.1495177   0.09250399  27.58 0.0004053811    1.453    0.312
        24 -10.2087      9.2669      7.7511   1.0900856037e+02   7.1010395295e+01    0.6176534    0.2617436 -10.69  0.002744822    4.028    0.752
        25 -10.4361     14.7036      5.9780   1.0564526277e+02   7.0747284692e+01    0.2149951    0.1737506  32.95 0.0008584975    1.859    0.462
        26 -10.9591     18.9232      4.0053   1.0279273986e+02   7.0567619452e+01     0.236316     0.172592  17.28 0.0003412894    1.326    0.246
        27 -10.6397    114.8493      3.9373   7.2013334512e+01   5.4574851230e+01    0.2595907    0.2136906  54.61 0.0007016453    1.071    0.066
        28 -10.5151    136.1553      3.7908   6.8024950541e+01   4.9817152332e+01    0.1836029    0.1434256  60.81 0.0003366071    1.071    0.066
        29 -10.5039    139.3263      1.7041   6.6872965254e+01   4.9256560545e+01    0.1887428   0.08946285  64.34 0.0005683814    1.742    0.426
        30  -9.6334    128.9486      2.7065   6.8934217045e+01   5.1546456808e+01    0.2187165    0.1103479 -60.20 0.0008987299    3.561    0.719
        31 -10.2477     11.0906      2.0719   1.0559129057e+02   7.1554453558e+01    0.2781897    0.1203349  11.82  0.001289894    2.861    0.650
        32  -9.2808    162.2142      3.0593   6.3889301284e+01   4.3779312078e+01    0.1395088    0.1058582 -23.46  0.000353757    1.603    0.376
        33 -10.2792    130.2165    226.9023   1.2467648047e+02   9.0052171303e+00    0.3433779    0.1642927  54.72  0.001468086    2.184    0.542
        34 -11.2027    247.0289    249.9994   1.0571152812e+02  -1.4123163179e+01    0.4362693    0.1780216  29.74  0.002132182    2.333    0.571
        35 -11.1724    250.3312    244.0763   1.0412870805e+02  -1.3832008682e+01    0.5884684    0.2047796 -35.52  0.002728332    2.910    0.656
        36 -12.4971    231.9206    247.3797   1.0797211755e+02  -1.1613130121e+01    0.5870444    0.3479011  21.12  0.003341091    1.618    0.382
        37 -10.0323     72.6289    250.1181   1.3863036851e+02   1.3754686470e+01    0.1755983    0.1655805  30.35  0.001254042    1.579    0.367
        38 -10.2080     31.4766    250.2675   1.4580234488e+02   1.9152884711e+01    0.1569097   0.08270311  85.40 0.0009430498    1.662    0.398
        39 -11.3601     27.6825    246.4119   1.4617968115e+02   2.0337735991e+01    0.4082545     0.145262 -73.14  0.002113567    2.519    0.603
        40 -12.5301     21.1815    248.9342   1.4741247829e+02   2.0603718908e+01    0.6166348    0.3995927  75.45  0.004401325    1.125    0.111
        41 -11.7755     14.2213    244.5755   1.4828437611e+02   2.2205730370e+01    0.4313931    0.1415154 -75.47  0.002219537    2.614    0.617
        42 -12.3053      7.1089    243.5355   1.4937280043e+02   2.3159123249e+01    0.6260903    0.3501866 -84.76  0.004272067    1.437    0.304
        43 -10.2760     66.4313    226.4306   1.3751121777e+02   1.9354643895e+01    0.2674472    0.1653177  47.89 0.0009090919    1.466    0.318
        44 -10.3607      1.4114    244.9936   1.5035318893e+02   2.3464596974e+01    0.1515056   0.07840613 -84.54 0.0004167367    1.536    0.349
        45 -10.4420    115.8405    225.8041   1.2748895035e+02   1.1717686211e+01     0.194512    0.1423459  70.59 0.0006228215    1.373    0.272
        46 -10.4134    180.9444    224.2456   1.1384143688e+02   3.6325467640e-01      0.23093     0.168275 -26.68 0.0006708071    1.613    0.380
        47 -10.0570     81.2456    224.5692   1.3438330148e+02   1.7571283927e+01    0.2532641    0.1495957 -88.42   0.00109201    1.870    0.465
        48 -11.2874    141.1737    221.5150   1.2159847932e+02   8.1019308490e+00    0.3126833    0.2366154  20.06  0.001381913    1.661    0.398
        49  -9.4231     51.4888    222.5459   1.4002413715e+02   2.2203457310e+01    0.1235295   0.09824283  78.08 0.0001773687    1.034    0.033
        50 -10.5987     13.1231    221.9848   1.4705387534e+02   2.6804716437e+01    0.1760848    0.1352923  69.42 0.0004596437    1.164    0.141
        51  -9.8009    174.1407    219.9219   1.1449212044e+02   2.3680195079e+00    0.2074913    0.1800493  59.76 0.0007826593    1.234    0.189
        52 -10.2762     22.1164    220.1846   1.4531955499e+02   2.6221283399e+01    0.1616104    0.1016913  70.24 0.0004121854    1.287    0.223
        53  -9.7707    250.4725    219.0964   9.9667633102e+01  -1.0451039680e+01    0.1776112    0.1103898 -30.37 0.0005711264    1.519    0.342
        54 -10.9580    123.2632    221.5484   1.2535384631e+02   1.1290220584e+01     0.289512    0.2356669  56.21 0.0009979398    1.081    0.075
        55 -10.1055    191.5252    217.0352   1.1045455752e+02  -2.8730616277e-01    0.2308885    0.1806175 -45.67  0.001199576    1.423    0.297
        56  -9.9520    194.5265    215.4740   1.0957225388e+02  -5.5779808930e-01    0.2075118    0.1220151  31.07 -2.199819e-05    1.705    0.414
        57 -10.8963      9.9837    217.0565   1.4727916345e+02   2.8139150036e+01    0.2747474    0.1576145  66.53 0.0008452414    1.439    0.305
        58  -9.4728     37.9721    217.4850   1.4215481027e+02   2.4971141553e+01    0.1644844    0.1063709  46.53 0.0004930898    1.520    0.342
        59 -11.1683    234.9802    215.2884   1.0175076319e+02  -7.4778416620e+00     0.373345    0.1789852 -31.17  0.001457899    2.154    0.536
        60 -10.0989     31.1119    215.8383   1.4331555318e+02   2.6127241885e+01    0.1949767    0.1289923  74.22  0.001236308    1.237    0.191
        61  -9.4067    137.1711    215.6467   1.2153243863e+02   9.9935988467e+00     0.200473    0.1223822  33.93 0.0009380016    1.724    0.420
        62  -9.9299    170.4794    213.4528   1.1413593387e+02   4.2402548713e+00    0.1396559    0.1270159  37.53 0.0002229838    1.007    0.007
        63  -9.5188    142.8300    213.3832   1.1996674930e+02   9.4107831493e+00    0.1954526    0.1252775  33.67 0.0005578559    1.624    0.384
        64 -11.0579     20.6713    211.6835   1.4494367111e+02   2.8164447071e+01    0.3179142    0.1523841  74.03 0.0009216637    2.011    0.503
        65  -9.4369    212.8660    211.9030   1.0529743360e+02  -3.2149526990e+00    0.1675236    0.1604976  63.71 0.0004977884    1.303    0.233
        66 -10.3528    208.9657    212.0804   1.0609022382e+02  -2.5587553103e+00    0.2058072    0.1826272  13.01 0.0004781563    1.022    0.022
        67 -12.2868      4.2696    207.8988   1.4769086504e+02   3.0602669589e+01      0.49921    0.2688381 -78.91  0.003125187    1.464    0.317
        68  -9.7869    205.7716    206.0138   1.0558367874e+02  -9.4431220756e-01    0.1777409    0.1119831 -39.95  0.000752952    1.646    0.392
        69 -10.4513    184.6022    208.8733   1.1039246557e+02   2.4498962552e+00    0.2454674     0.180163  28.77 0.0007867471    1.354    0.261
        70 -10.1074    175.0295    202.4831   1.1121478508e+02   5.4715770867e+00    0.2217525    0.1329387  42.50 0.0005515493    1.561    0.359
        71  -9.8182    201.4776    215.7173   1.0823116036e+02  -1.8469191484e+00    0.1731266    0.1252957 -22.71 0.0009214564    1.524    0.344
        72  -9.7570    218.2775    201.3620   1.0225177914e+02  -2.3869465736e+00    0.1404865   0.09981666  -3.68 0.0007009786    1.667    0.400
        73  -9.3669     34.4534    200.8228   1.4134072640e+02   2.8999947040e+01     0.154952   0.09799573 -66.98 0.0004560776    1.468    0.319
        74 -10.0007    223.0918    201.1079   1.0128193239e+02  -3.1933913836e+00    0.3069056    0.2110277 -72.69  0.001324191    3.085    0.676
        75 -10.0905    227.0438    196.9733   9.9729293850e+01  -3.1871028815e+00    0.2076084    0.1846074  -1.24  0.000614806    1.018    0.017
        76 -11.3273    192.7568    195.1241   1.0612082016e+02   3.4676434885e+00    0.3513456    0.2408993 -50.38  0.001731738    1.609    0.379
        77  -9.6861    202.9837    196.0033   1.0421525050e+02   1.3593893136e+00    0.2209091    0.1653563   1.81  0.001006947    1.601    0.375
        78  -9.5103    218.4847    206.9807   1.0328798756e+02  -3.3743383571e+00    0.1923388    0.1099804 -16.07 0.0008092172    2.540    0.606
        79 -10.4891    215.3708    194.7501   1.0152291904e+02  -7.1352167089e-01    0.2370606      0.16683 -28.00 0.0005906157    1.451    0.311
        80 -10.3166    231.9057    191.4726   9.7735952172e+01  -3.1059549459e+00    0.2349063    0.1747461 -12.62  0.001276585    1.403    0.287
        81 -10.1257    163.0000    192.0276   1.1184401312e+02   9.9091556589e+00    0.2411018   0.08435812 -47.98 0.0001732504    3.009    0.668
        82  -9.3125     56.6433    197.7068   1.3641083470e+02   2.6956460151e+01    0.1186287   0.09950384 -38.40 0.0007030512    1.691    0.409
        83  -9.5751    250.3831    190.1848   9.4163365174e+01  -6.0167087247e+00     0.180808    0.1128463 -43.90 0.0004560453    1.663    0.399
        84  -9.6189    246.3357    190.3164   9.4898468969e+01  -5.3726729952e+00    0.1375174   0.09470823  -0.18 0.0007047897    1.695    0.410
        85  -9.2420    205.5088    190.4576   1.0261435582e+02   1.9000143561e+00    0.1413822    0.1312133   7.55 0.0001110465    1.017    0.017
        86 -10.6117    225.5965    189.0066   9.8421655520e+01  -1.5619120255e+00    0.3211488    0.1782076   9.01  0.001087219    4.043    0.753
        87  -9.2944      1.6612    187.7337   1.4674810628e+02   3.5155111932e+01    0.1033477   0.07671044 -56.45 0.0003181284    1.595    0.373
        88 -10.3610    167.8425    184.0809   1.0924469791e+02   1.0589105418e+01    0.4496893    0.2422794  63.95  0.001556539    3.141    0.682
        89  -9.3945     61.6286    184.8126   1.3374602066e+02   2.9251036979e+01    0.1949029    0.1124564 -79.58 0.0009488715    1.706    0.414
        90 -11.5972     16.0952    182.7807   1.4343030275e+02   3.4952745149e+01    0.4136467    0.2077009  88.74  0.002182715    1.854    0.461
        91  -9.4933      8.6378    184.2818   1.4508843347e+02   3.5304640186e+01    0.1230964   0.06876595  68.82 0.0005883621    1.677    0.404
        92 -11.2889    248.5167    182.4852   9.2953531720e+01  -4.4494099524e+00    0.5323738    0.2293463  26.83  0.001847179    4.092    0.756
        93  -9.6878    236.4648    182.5126   9.5099462900e+01  -2.3765122210e+00    0.1355763    0.1227137 -14.06 0.0005963719    1.023    0.022
        94 -10.5712      2.3947    180.3942   1.4603283930e+02   3.6702303238e+01    0.2851545    0.1454161  67.21  0.001372788    1.906    0.475
        95 -11.1825    244.4558    178.2984   9.2816069524e+01  -3.0542313168e+00    0.3043549    0.1729586 -20.17  0.001181338    2.177    0.541
        96 -11.2886    224.3446    178.3645   9.6491163987e+01   5.5503436066e-01    0.2794914    0.2624683 -21.32 0.0004825143    1.062    0.058
        97  -9.5387     36.0795    178.5000   1.3870721484e+02   3.3875369244e+01    0.1610602    0.1194809  45.32 0.0005226261    1.459    0.315
        98 -10.5570    200.2825    176.6017   1.0084072786e+02   5.5441177734e+00     0.248343    0.1753913 -19.86 0.0007413264    1.698    0.411
        99  -9.5994     70.2145    177.6101   1.3078417017e+02   2.9744154520e+01    0.1636155    0.1333745  28.83 0.0004897492    1.519    0.342
       100  -9.6450     59.6155    171.7811   1.3245688255e+02   3.2591714168e+01    0.1980694    0.1147362 -78.56 0.0009492913    1.709    0.415
       101  -9.7243     74.6832    171.4201   1.2879815374e+02   3.0565418184e+01    0.1674326    0.1375444  28.49 0.0008807001    1.487    0.328
       102 -11.3727     12.5325    170.2722   1.4302132037e+02   3.8101826051e+01    0.2977063    0.1495297  82.13   0.00105756    2.046    0.511
       103  -9.8861      4.5198    167.9984   1.4453897711e+02   3.9288783906e+01     0.190964   0.09099631 -75.61  0.001042614    1.621    0.383
       104  -9.7457    209.8995    166.1872   9.6707690624e+01   5.6313783979e+00    0.2023783    0.1701172   2.09 0.0005942208    1.320    0.242
       105  -9.5512     36.0074    166.2256   1.3728775253e+02   3.6745248525e+01    0.1886836    0.1563422 -61.48 0.0003848492    1.243    0.196
       106 -10.4036     36.3072    162.6852   1.3677743594e+02   3.7545471843e+01    0.2588629     0.152413 -70.86 0.0007345137    1.420    0.296
       107 -10.7893     37.0919    158.2555   1.3601962303e+02   3.8506521386e+01    0.2830238    0.1859567 -82.19  0.001584952    1.366    0.268
       108  -9.1891     21.6434    166.6883   1.4063973840e+02   3.8091434157e+01    0.1213182   0.08230866 -47.13 9.247882e-05    1.736    0.424
       109 -10.6126     51.4929    164.5258   1.3338583325e+02   3.5358531943e+01    0.3923811    0.1976272 -38.41  0.001569696    3.292    0.696
       110 -10.2572     45.0327    163.8386   1.3484639431e+02   3.6296171516e+01    0.3879564    0.1627172 -76.29  0.001581176    2.544    0.607
       111  -9.5120    200.1916    162.8171   9.7919419583e+01   8.2767822192e+00    0.1975013    0.1717482  10.42 0.0004496348    1.257    0.204
       112 -10.3251    246.4935    162.4906   8.9200237738e+01  -6.8985491176e-01     0.136681    0.1226907 -29.36 -7.447101e-05    1.037    0.036
       113 -10.5636    248.0603    158.6929   8.8139527373e+01  -3.0841587604e-01    0.2052322    0.1802014  75.68  0.001197119    1.468    0.319
       114 -10.4264    238.5268    158.4754   8.9729179828e+01   1.4848651789e+00    0.2578529    0.1872342  -4.88 0.0009750762    1.735    0.424
       115 -10.2899    196.6109    168.8202   9.9947746923e+01   7.8198216990e+00    0.2131837    0.1374231 -53.19 0.0008897714    1.714    0.416
       116  -9.5233     23.7094    152.6497   1.3854575924e+02   4.1157544785e+01    0.2178263    0.1000854 -65.05 0.0005467461    1.727    0.421
       117 -10.5881     23.5078    156.5220   1.3906026215e+02   4.0273572565e+01    0.2470848    0.1930613 -67.45  0.001397095    1.144    0.126
       118  -9.8289     20.6647    155.3440   1.3959586630e+02   4.0808255355e+01    0.1935325    0.1607015  73.71   0.00110832    1.203    0.169
       119  -9.0400    235.6774    154.6868   8.9418832560e+01   2.7108142874e+00    0.1428941     0.107712  -0.97 0.0004554402    1.657    0.397
       120  -9.1213    216.9843    155.0000   9.2904708826e+01   6.3500952612e+00    0.2396263   0.08381279  46.98 0.0008100813    2.996    0.666
       121  -9.8124    196.9905    153.7558   9.6571073020e+01   1.0772276628e+01    0.2046329     0.128331  46.18 0.0008925725    1.627    0.385
       122  -9.3170    151.6739    153.3409   1.0648013671e+02   2.0657181354e+01    0.1635682    0.1233976  87.74 0.0006505875    1.733    0.423
       123 -10.5390     10.7607    152.7301   1.4163397742e+02   4.2254851606e+01    0.3631965    0.1730577  41.34  0.001970359    2.298    0.565
       124  -9.9457    205.4771    151.9890   9.4467714751e+01   9.3247135092e+00    0.2361549    0.1435044 -40.61 0.0007925556    1.597    0.374
       125 -10.4145    178.1716    151.4566   1.0003179173e+02   1.5322974491e+01    0.3343371    0.2726855  77.27  0.001604547    1.457    0.314
       126  -9.3278    233.5497    146.5373   8.8025854724e+01   4.6194500326e+00    0.1424394    0.1305243 -32.90 5.021258e-05    1.008    0.008
       127 -10.5337    206.9996    146.0108   9.2822509204e+01   1.0187527140e+01    0.2284813    0.2211501 -19.98 0.0006572826    1.036    0.035
       128  -9.1901    156.9955    145.6715   1.0349494340e+02   2.1225080210e+01    0.2616029     0.124082  63.75 0.0007049629    4.308    0.768
       129 -10.4856      2.8771    143.7882   1.4253374890e+02   4.4886233972e+01    0.2220558    0.1207569 -64.15  0.001303822    1.437    0.304
       130 -11.2374      9.2630    145.2556   1.4116278645e+02   4.4084424334e+01    0.2655505    0.2124744  51.54  0.001839408    1.427    0.299
       131  -9.9769     49.4213    141.9283   1.3049624742e+02   4.1014483779e+01    0.2027338    0.1692978 -44.76 0.0003740609    1.286    0.222
       132 -10.4917    236.6152    138.8947   8.5823154031e+01   5.4196932846e+00    0.2351801     0.207299  63.71 0.0003569598    1.282    0.220
       133  -9.9265     57.8286    138.8399   1.2772208073e+02   4.0728812238e+01    0.2990353    0.2011232  78.84 0.0009032646    1.837    0.456
       134  -9.6977     53.8842    135.3993   1.2818517035e+02   4.2041685181e+01    0.2743103    0.1433145  52.31  0.001115496    2.334    0.572
       135 -11.1258      2.7571    137.8099   1.4190591635e+02   4.6249379858e+01    0.3718852    0.1264937 -67.44  0.000651394    2.121    0.528
       136 -12.0567      9.2717    136.6702   1.4015311206e+02   4.6048612726e+01    0.2480851       0.2119 -38.92  0.000154688    1.396    0.284
       137 -10.5006      5.7061    133.7069   1.4069346922e+02   4.6978177803e+01    0.1851831    0.1515376 -50.10 0.0005769725    1.298    0.230
       138 -10.5847     22.0685    135.9900   1.3679048379e+02   4.5187596900e+01    0.2817256    0.2010373  65.61  0.001713305    1.554    0.356
       139 -10.4327     40.3877    135.6094   1.3188210595e+02   4.3525205221e+01    0.2050675    0.1881643  66.22 0.0007108029    1.204    0.169
       140  -9.8351    138.0434    135.4749   1.0568264757e+02   2.7627638481e+01     0.240916    0.1548718  41.84  0.001023806    1.596    0.373
       141  -9.9791     80.0525    133.1830   1.2054664784e+02   3.8969667904e+01    0.2140752    0.1881751 -36.69 0.0005117613    1.220    0.181
       142 -11.8272     36.6752    130.7249   1.3209812226e+02   4.5060094732e+01    0.3573956    0.3325816  -4.20  0.002003704    1.327    0.246
       143 -10.0684    249.4556    129.9442   8.1782721644e+01   4.5188815565e+00    0.2070028    0.1913555  58.73  0.001248257    1.219    0.180
       144 -10.1679     73.9753    129.2481   1.2142514107e+02   4.0820310296e+01    0.2536419    0.1906323 -56.46 0.0007349201    1.204    0.170
       145  -9.4777    243.0134    128.4751   8.2480781874e+01   6.0447554031e+00    0.1898485    0.1413298  53.38 0.0004927003    1.496    0.332
       146  -9.4561     60.0117    127.0261   1.2491885974e+02   4.3267140066e+01    0.1619994    0.1478228 -64.32 0.0003480818    1.037    0.036
       147 -10.9395      1.6780    125.8010   1.4076237042e+02   4.9030735506e+01    0.3357767    0.1161272 -64.65 0.0004189236    2.045    0.511
       148 -10.1193    219.8219    124.6536   8.5530498767e+01   1.1581978066e+01    0.2438842    0.1960489 -32.16  0.000589972    1.255    0.203
       149 -10.1828    123.7359    131.0033   1.0825925388e+02   3.1635325598e+01    0.2019509    0.1323861 -50.02 0.0004585051    1.492    0.330
       150 -11.5193     10.4107    122.6510   1.3803288432e+02   4.9161718792e+01    0.3445535    0.2715101 -29.50  0.001912404    1.515    0.340
       151 -10.5414      9.9753    102.2697   1.3505378532e+02   5.3747947251e+01    0.3070262     0.183572  63.82  0.001670883    2.407    0.585
       152  -9.6341     10.9620    109.2514   1.3589463270e+02   5.2138038860e+01    0.2415749    0.1672222  -2.11 0.0009778055    1.921    0.479
       153 -11.4347     17.5089    117.0562   1.3524546347e+02   4.9912508169e+01    0.3566189    0.2342704 -50.90  0.002174224    1.328    0.247
       154 -10.4841     19.6738    113.1924   1.3400659558e+02   5.0621521936e+01    0.2554574    0.1430971 -60.54 0.0007586097    1.397    0.284
       155 -12.1224     16.8456    108.4949   1.3405142564e+02   5.1892188071e+01    0.3312524    0.2694123 -65.92  0.002251224    1.057    0.054
       156  -9.5972     20.1937    121.5993   1.3519718563e+02   4.8666530049e+01    0.1517336    0.1160158 -11.20 0.0009466743    1.716    0.417
       157  -9.6879    221.6171    120.1712   8.4180334515e+01   1.2041028704e+01    0.2123453    0.1349417 -30.56 0.0009426944    1.705    0.413
       158  -9.7378    249.6844    118.3138   7.9230035655e+01   6.5348467584e+00     0.141521     0.100793 -67.58 0.0003516624    1.643    0.391
       159 -10.8387     86.0684    116.6120   1.1516816390e+02   4.1915268637e+01    0.2591288    0.1933939 -47.82  0.001319747    1.252    0.201
       160  -9.7907    179.1735    116.5033   9.1454056113e+01   2.2442678332e+01    0.2290881    0.1542686  51.65 0.0009006214    1.503    0.335
       161  -8.8652    212.7021    112.3189   8.3907439538e+01   1.5504871462e+01    0.1535429    0.1127781 -72.04 0.0003309579    1.616    0.381
       162  -9.8296     66.4192    112.8485   1.2007047890e+02   4.5729788785e+01    0.2043353    0.1830081  62.98 0.0004667437    1.262    0.208
       163 -11.6109     36.0567    110.9608   1.2878219018e+02   4.9701791998e+01    0.5313193    0.2658865 -58.91  0.001738521    1.635    0.388
       164 -10.3153    241.9727    108.1720   7.8162115245e+01   9.8949213065e+00    0.2298291    0.1568079 -83.12 0.0008060989    1.986    0.497
       165  -9.3834    133.3879    107.7857   9.9886618284e+01   3.4778574158e+01    0.2218018     0.145125 -33.99 0.0009418828    1.678    0.404
       166 -11.4573     23.9558    107.2753   1.3172445131e+02   5.1613728691e+01    0.2977368    0.2055797  44.39  0.001796557    1.765    0.434
       167 -10.8896      3.6130    100.5151   1.3667316344e+02   5.4521560843e+01    0.2826929    0.2294697  88.24  0.001115272    1.347    0.258
       168 -10.1511      6.4879    106.4618   1.3675895192e+02   5.3046138248e+01    0.2551643    0.1342075 -62.31   0.00131538    1.430    0.301
       169 -10.6269      2.9547    105.2637   1.3760362807e+02   5.3522129145e+01    0.3131998    0.1915635 -82.60  0.001550875    1.622    0.383
       170 -10.2589     62.0879    107.1642   1.2008222227e+02   4.7606282876e+01     0.204201    0.1680634 -34.73 0.0003243738    1.201    0.167
       171 -10.5543    243.4984    104.4798   7.7117849177e+01   1.0228258222e+01    0.1402187    0.1256273 -51.92 0.0008101217    1.033    0.032
       172 -10.0828    223.3391    103.9351   8.0119112336e+01   1.4674291374e+01    0.2317907    0.1977272 -89.16 0.0005078791    1.233    0.189
       173  -9.6773     92.3200    102.4246   1.0979132316e+02   4.4054428606e+01    0.3804165    0.2395991 -84.12  0.001363603    3.444    0.710
       174 -11.0858     70.0427    102.3993   1.1650571494e+02   4.7585215379e+01    0.3228668     0.252165  17.81 0.0007974571    1.469    0.319
       175 -10.9145    247.8761    102.1622   7.5976172774e+01   9.7268195263e+00    0.2205291     0.175613 -64.72 0.0007664679    1.225    0.184
       176 -10.6423     35.5570    101.2728   1.2700355297e+02   5.1930051338e+01    0.2282962    0.1996744  36.62  0.001117974    1.359    0.264
       177 -10.3331     27.7387    101.0088   1.2938886032e+02   5.2695256610e+01    0.2210029    0.1378206 -40.77 0.0009533782    1.502    0.334
       178  -9.9277    119.9982    101.2065   1.0163081570e+02   3.9028017352e+01    0.2500506     0.177644  13.17 0.0009174063    2.004    0.501
       179 -10.9548     63.1889     98.7048   1.1772327003e+02   4.9346834924e+01    0.4311615    0.3096134  16.72   0.00231316    1.650    0.394
       180  -9.2313     84.6836    100.3183   1.1151264657e+02   4.5801256896e+01    0.1407987    0.1133604  86.59 0.0002965117    1.655    0.396
       181 -11.0290     20.4266     96.7287   1.3084337935e+02   5.4226786589e+01    0.3197471    0.1553288 -64.25  0.001646949    1.751    0.429
       182  -9.2797     50.3559     99.1866   1.2188531754e+02   5.0835560568e+01    0.1801048    0.1138442 -63.79 0.0003513717    1.577    0.366
       183 -10.4152      1.8004     93.5765   1.3609200269e+02   5.6120714275e+01    0.3168069     0.103445 -57.25  0.001543861    2.072    0.517
       184 -11.1766     11.4393     91.1906   1.3263884902e+02   5.6057058743e+01    0.3500986    0.2278932 -11.86   0.00215366    1.900    0.474
       185 -10.8605      6.0768     87.6311   1.3369591080e+02   5.7144472939e+01    0.3239332    0.1810473  52.13 0.0005614449    2.683    0.627
       186  -9.4259    227.4628     93.4652   7.7034917196e+01   1.5627686174e+01    0.1448601    0.1296598 -63.93  0.000208886    1.012    0.012
       187  -9.5078    170.8254     91.3928   8.6711247600e+01   2.9387075930e+01    0.2258795    0.1388381  43.64  0.000948547    1.727    0.421
       188 -10.1690     26.3821     90.8285   1.2773642324e+02   5.5031567205e+01    0.2354143     0.167794  -4.04  0.001436259    1.693    0.409
       189  -8.6992     21.2801     91.3459   1.2950304317e+02   5.5327933168e+01     0.129692   0.07209928 -40.41 0.0004006858    1.637    0.389
       190 -10.7360     96.8144     89.7014   1.0497041732e+02   4.5949746876e+01    0.3082194    0.2165844  -6.90   0.00140082    1.982    0.495
       191 -10.3977     73.0654     88.7730   1.1200969703e+02   5.0082118500e+01    0.1865037     0.179992 -71.22 0.0003590416    1.181    0.153
       192 -10.1767     40.5333     80.8642   1.2066198568e+02   5.5820387073e+01    0.3385794    0.2273951  64.39  0.001719678    2.579    0.612
       193 -10.0807     45.3127     87.2861   1.2066868255e+02   5.3973916949e+01    0.2077094    0.1687417 -19.62 0.0001943387    1.256    0.204
       194 -11.3683     48.4555     85.0585   1.1905840289e+02   5.4092195100e+01    0.4277592    0.3219561  72.41 0.0004033587    2.049    0.512
       195 -10.3972    113.0593     85.6750   9.9136524828e+01   4.3619434098e+01    0.2593496     0.204439 -54.92  0.001031083    1.377    0.274
       196 -10.8384     67.1171     85.5549   1.1303412855e+02   5.1612927138e+01    0.2821476    0.1791035 -40.82  0.001445976    1.438    0.305
       197 -10.7530    117.8245     83.5711   9.7208735002e+01   4.3044167004e+01    0.3068047    0.2469292  16.41 0.0005605649    1.421    0.296
       198 -11.7462     18.8125     80.9785   1.2812098672e+02   5.7704214824e+01    0.5215676    0.3142007   7.38  0.003063865    2.053    0.513
       199 -11.2528     23.6889     79.8650   1.2620072850e+02   5.7561863382e+01    0.3170364    0.2231062 -60.13  0.001237903    1.297    0.229
       200 -10.9014     85.2445     80.9067   1.0592864171e+02   4.9745695591e+01    0.2755764    0.2282158 -28.80  0.001156792    1.150    0.131
       201  -9.3392     29.9776     81.9798   1.2454388467e+02   5.6596214788e+01    0.1512272    0.1180031 -46.97  0.000406141    1.051    0.048
       202 -10.7795     75.3545     80.0787   1.0881527251e+02   5.1505860381e+01    0.3407759    0.1904139 -35.23  0.001582075    1.798    0.444
       203 -11.7689     71.7622     78.7676   1.0959507339e+02   5.2311092888e+01    0.4994367    0.3206443  -9.81  0.001270133    2.185    0.542
       204  -9.5487    126.4219     80.4795   9.4010755546e+01   4.1788227299e+01    0.1444674    0.1440604 -58.80 3.676003e-05    1.040    0.038
       205  -9.9453      2.3113     72.1437   1.3191470173e+02   6.0549034710e+01    0.2149336    0.1152652 -37.96 0.0008679389    1.611    0.379
       206 -11.9089      3.5319     77.8874   1.3266650590e+02   5.9317228945e+01    0.3967221    0.2428748 -47.37 0.0008282045    1.262    0.208
       207 -10.9261      7.9765     73.5147   1.3022588172e+02   5.9953448992e+01    0.2731843    0.2073593 -12.67  0.001923779    1.435    0.303
       208  -9.4210     81.3054     79.0224   1.0660590790e+02   5.0769033865e+01    0.1872171    0.1627272 -31.22 0.0003230591    1.069    0.064
       209 -11.9558     58.4604     75.4300   1.1305257506e+02   5.4830025776e+01    0.5667244    0.4153552  80.05  0.002812705    2.564    0.610
       210 -12.1513     62.4944     72.0465   1.1068847606e+02   5.4948973594e+01    0.3789813     0.313599 -48.87  0.000628324    1.251    0.201
       211 -10.9676    150.2206     77.6437   8.7398334459e+01   3.6859089571e+01     0.276843    0.2507575 -59.97 0.0005480542    1.146    0.127
       212  -9.0915    132.8048     74.9927   9.0759986610e+01   4.1369387655e+01    0.1853608    0.1160828 -38.09 0.0008227053    1.637    0.389
       213 -10.6907     51.5525     62.5231   1.1159484647e+02   5.8161196561e+01    0.2902459    0.1876664 -27.24 0.0009066699    1.480    0.325
       214 -11.9375     49.4644     69.4388   1.1442349400e+02   5.7113812220e+01    0.5084838     0.348548 -20.97  0.002288937    1.495    0.331
       215 -10.5075     45.5128     74.6474   1.1728987101e+02   5.6547351464e+01    0.3202687    0.1827121  18.18   0.00145054    2.077    0.519
       216 -11.3823     40.4259     72.9110   1.1859667829e+02   5.7439134608e+01    0.4907683    0.2613959 -41.96 0.0008006255    1.596    0.374
       217 -10.1511    145.2558     72.0125   8.6903350756e+01   3.9018762709e+01    0.3387085    0.1591261 -50.39  0.001011905    2.572    0.611
       218 -10.5536    102.8165     72.9071   9.8201685023e+01   4.8072934988e+01    0.2211993    0.1868453   3.81 0.0005664616    1.252    0.201
       219 -11.1200     27.4857     71.1112   1.2272451165e+02   5.9022366057e+01    0.4865443    0.2124987 -64.07  0.002150435    2.815    0.645
       220 -10.3634     21.7370     66.0899   1.2350788769e+02   6.0480806872e+01    0.2283283    0.1648676  21.00 0.0007766681    1.600    0.375
       221 -10.8208     16.9184     72.4966   1.2684125908e+02   5.9573627555e+01    0.2309028    0.1719079 -71.60 0.0007900074    1.517    0.341
       222 -10.8141     16.4933     67.5193   1.2578990248e+02   6.0593081343e+01    0.2495342     0.201266  81.21  0.001652291    1.833    0.454
       223  -9.8279    244.5436     72.5343   6.9955252465e+01   1.5383485044e+01    0.1382104    0.1156753 -65.93  0.000103619    1.032    0.031
       224 -10.4894    175.0907     71.6900   8.0551219143e+01   3.1864480618e+01    0.2636993    0.2140512 -32.94 0.0004023992    1.330    0.248
       225  -9.7133    121.5356     76.4814   9.4099887302e+01   4.3585451845e+01    0.1450544    0.1407765  14.97 0.0002217615    1.002    0.002
       226 -11.0737     78.2022     72.0033   1.0547222311e+02   5.2617278150e+01    0.3705488    0.1901934  45.39   0.00111932    2.213    0.548
       227 -10.1125    140.5404     71.5285   8.7858456699e+01   4.0204468920e+01    0.1472871     0.140959  35.94 0.0001321599    1.040    0.039
       228 -11.7250     95.4483     67.2547   9.8600580519e+01   5.0488014704e+01    0.5823871    0.3521105 -30.90  0.002717278    1.715    0.417
       229 -10.2472    159.0348     68.9982   8.3014551543e+01   3.6235191514e+01    0.4331223    0.1896059  67.03  0.001405171    3.268    0.694
       230 -10.9041     36.2731     68.1837   1.1877365587e+02   5.8786951573e+01     0.360984     0.222362 -19.09  0.001992817    1.810    0.448
       231 -10.8533     31.1145     66.4338   1.2016250799e+02   5.9617005650e+01    0.3105004    0.1890649 -53.56  0.001023805    1.495    0.331
       232 -11.9134      4.4887     65.2786   1.2963407500e+02   6.1793101135e+01    0.4518576    0.3088594  74.50  0.001978249    2.528    0.604
       233  -9.7579    146.7347     65.9498   8.4791466214e+01   3.9689614664e+01    0.1958191    0.1857477 -49.11 0.0002795552    1.098    0.089
       234 -10.4400    130.0238     64.1217   8.8162074481e+01   4.3858591707e+01    0.2389684    0.2010534 -33.86  0.001284965    1.234    0.189
       235 -11.0119    121.6803     62.3719   8.9721732624e+01   4.5994861334e+01    0.4315064    0.2805696   5.35  0.001603389    2.442    0.591
       236 -11.4328     83.7653     62.3005   1.0060740275e+02   5.3443099207e+01    0.3864748    0.3475783  35.58  0.001636496    1.196    0.164
       237 -10.0914     86.3161     58.6518   9.8601513086e+01   5.3618919079e+01    0.2259009    0.2093045 -48.38 0.0006825445    1.275    0.216
       238 -10.6450     77.2251     65.3990   1.0371367797e+02   5.3985891437e+01    0.2275307    0.1676781  42.83  0.001102037    1.487    0.328
       239 -10.0759    174.0443     63.9342   7.8644661260e+01   3.3391459231e+01    0.2243571     0.203269  79.54 0.0005923346    1.046    0.044
       240 -11.3295     68.6189     67.5512   1.0724432874e+02   5.4923496428e+01    0.3569645    0.1958646 -39.09 0.0009257743    1.689    0.408
       241  -9.7041     41.4364     64.2566   1.1577319826e+02   5.9005626159e+01    0.1539886    0.1091173 -52.97 0.0003067182    1.431    0.301
       242 -11.2992     56.5697     62.0308   1.0965741918e+02   5.7612760702e+01    0.3176844    0.2191067 -16.79 0.0003543735    1.505    0.336
       243 -10.8363     10.8216     62.5421   1.2664367471e+02   6.1945571621e+01    0.2073085    0.1849043 -44.53  0.000390628    1.197    0.165
       244  -9.4139    202.4265     62.4513   7.3455127180e+01   2.6678436120e+01    0.1408877    0.1309619 -87.78 0.0002271947    1.057    0.054
       245  -9.9815     92.9073     61.5544   9.7527750304e+01   5.1943176487e+01    0.2402571    0.1738326 -25.14 0.0005733673    1.399    0.285
       246 -11.8859     37.8355     51.9662   1.1331786084e+02   6.1620542930e+01    0.6859384    0.3946226 -35.87  0.003950268    1.482    0.325
       247 -10.6345     44.7028     51.8929   1.1069508758e+02   6.0870317637e+01    0.2330017    0.1702834 -28.61 0.0003362599    1.164    0.141
       248 -11.3743     27.0071     61.4537   1.2029448099e+02   6.0934805446e+01    0.3413391    0.1924331  12.22   0.00192955    2.068    0.516
       249 -11.5823     33.5816     59.7612   1.1734172798e+02   6.0647882304e+01    0.2776987    0.1978116 -12.33  0.000345205    1.403    0.287
       250  -9.3878    160.5249     61.4658   8.0571200839e+01   3.7093660234e+01    0.1458577    0.1372992  66.42 0.0007260416    1.013    0.013
       251 -11.0501     70.1229     59.2662   1.0407701860e+02   5.6179309729e+01    0.3702604    0.3046429 -37.44  0.002258985    1.216    0.178
       252 -11.3261     64.1872     59.7262   1.0625501974e+02   5.6977936647e+01    0.3224137    0.1825954  37.98 0.0009910797    1.879    0.468
       253 -10.2034    137.1055     57.8341   8.4546662293e+01   4.3241833874e+01     0.193421    0.1612909  26.87            0    1.278    0.218
       254 -10.1735     43.9404     57.4378   1.1277043502e+02   5.9983680008e+01    0.2075295    0.1606166 -51.85 0.0004750502    1.431    0.301
       255 -11.0487    123.1905     56.7135   8.7552849060e+01   4.6564170795e+01    0.2952408    0.2364516 -61.24 0.0007995705    1.531    0.347
       256 -10.7149    101.6658     55.5456   9.2962730645e+01   5.1252534758e+01    0.4930342    0.2067661  51.03  0.001907124    2.538    0.606
       257  -9.8268     18.2234     59.6040   1.2309450293e+02   6.1993130339e+01    0.2026178    0.1300907 -62.80 0.0007062656    1.699    0.412
       258 -11.4735      5.2117     52.8149   1.2629459146e+02   6.4125294652e+01    0.5981311    0.2135443 -50.45   0.00315315    1.988    0.497
       259 -11.2447     13.2315     50.7550   1.2256390648e+02   6.3989592552e+01    0.4145567    0.2886588 -55.48  0.002158439    1.423    0.297
       260 -11.1325     11.6684     43.7326   1.2111974049e+02   6.5344401195e+01    0.3889922    0.2197789 -22.92  0.002343202    1.662    0.398
       261 -11.5823      6.9518     41.2350   1.2231507384e+02   6.6091113447e+01    0.4681576     0.118631 -49.42 0.0006205739    2.729    0.634
       262 -10.0242    113.2883     57.6056   9.0412521055e+01   4.8557797186e+01    0.4033614     0.147345  43.57   0.00147801    2.676    0.626
       263 -11.8540    128.0145     51.6123   8.4753477238e+01   4.6258658745e+01    0.4066301    0.3066274 -20.59 0.0005080039    1.469    0.319
       264 -10.2797     87.1357     52.6132   9.6312687588e+01   5.4452264924e+01     0.196735    0.1586347  47.95 0.0009394235    1.373    0.272
       265  -9.5423    157.6735     52.0488   7.8443208212e+01   3.9214586968e+01    0.1886982    0.1855787 -50.84 0.0003635458    1.096    0.087
       266 -10.3226     72.1715     51.2237   1.0067148236e+02   5.7201932559e+01    0.3884246    0.2048513  34.44  0.001321683    1.906    0.475
       267 -10.1862     76.5331     50.5217   9.8979894522e+01   5.6608057198e+01    0.2038351    0.1212527  36.20  0.000613265    1.657    0.396
       268  -9.4133     50.1911     51.8610   1.0864477924e+02   6.0213655282e+01     0.166118    0.1226048 -12.45 0.0002612267    1.276    0.216
       269 -10.7946    114.5901     49.4735   8.7418783086e+01   4.9518141378e+01    0.3556075    0.2569344 -26.95  0.001887647    1.457    0.314
       270  -9.8317    107.8646     48.8196   8.8990770003e+01   5.1023925923e+01    0.1985859    0.1648276  21.87 0.0002441959    1.176    0.150
       271 -11.2182    101.7219     47.8684   9.0370494134e+01   5.2408206715e+01    0.4288763    0.2452349  32.31  0.001440092    1.863    0.463
       272  -9.2317    122.3685     51.3030   8.6033510103e+01   4.7562995876e+01    0.1495495    0.1019557  23.72 0.0007033856    1.745    0.427
       273  -9.0485    208.7379     48.6573   6.9174442006e+01   2.7229915892e+01    0.1270762    0.1088085  25.18 0.0002857641    1.595    0.373
       274  -9.6191    196.8290     48.1798   7.0738644706e+01   3.0172537747e+01    0.1752633    0.1577299  47.92  0.000234447    1.271    0.213
       275 -10.7181    154.4998     48.5054   7.8040373880e+01   4.0491924941e+01    0.2083498    0.1301693 -45.88 0.0007571812    1.731    0.422
       276 -10.9723    142.5462     45.9796   7.9729060833e+01   4.3702347515e+01    0.3114231    0.2553721 -66.06  0.000731446    1.415    0.293
       277 -10.3347     62.3369     47.2111   1.0265725391e+02   5.9335648135e+01    0.3108703    0.1627117  23.44   0.00134062    2.205    0.547
       278  -9.2353    233.2800     45.3229   6.5363765284e+01   2.1991801098e+01     0.117707    0.1049106  30.61 0.0003767194    1.588    0.370
       279 -10.8624    122.8081     44.1284   8.3611446441e+01   4.8484676249e+01    0.3889546    0.3294014 -23.50  0.001444455    1.256    0.204
       280  -9.9326    120.0935     39.1458   8.2639141027e+01   4.9748311014e+01    0.1988106    0.1851225  86.93 0.0004181965    1.244    0.196
       281  -9.7592     91.7049     45.0151   9.2295775364e+01   5.4761257474e+01    0.1819088    0.1543237 -16.87   0.00027275    1.156    0.135
       282 -10.2926     86.8604     44.9000   9.3724757614e+01   5.5671808447e+01    0.3352297    0.1260774  34.95 0.0008378373    3.100    0.677
       283 -11.0064    181.1321    248.7204   1.1772900847e+02  -3.7050464474e+00    0.2834069    0.1548242 -36.76  0.001450307    2.221    0.550
       284 -10.5899     64.5247     41.6337   9.9892567460e+01   5.9869035255e+01    0.2352535     0.181785 -20.85   0.00122727    1.178    0.151
       285 -10.7363     24.0071     42.0035   1.1550731005e+02   6.4665575180e+01    0.2208233      0.18772 -25.13 0.0007643422    1.163    0.140
       286  -8.9807     29.1112     40.8120   1.1303063833e+02   6.4389799047e+01    0.1892985    0.1274472  12.88 0.0008613375    1.502    0.334
       287  -9.8161     32.2014     34.1158   1.0939063759e+02   6.5139218058e+01    0.2501673    0.1421819  27.57  0.001512448    1.827    0.453
       288 -10.1205     19.7847     38.1426   1.1595414749e+02   6.5669055107e+01    0.1877135    0.1349206 -21.79 0.0006534898    1.120    0.107
       289 -11.7069     25.3208     35.4538   1.1271308506e+02   6.5612592195e+01    0.3762247    0.2208735  23.59  0.001517271    1.785    0.440
       290  -9.6271    110.8524     41.9035   8.5874043152e+01   5.1374182180e+01    0.1762483    0.1588947  77.51 0.0004165075    1.335    0.251
       291 -10.2229     89.6627     39.8472   9.1083737088e+01   5.5870975897e+01    0.3375673    0.1896142 -58.52  0.001268275    4.193    0.762
       292 -12.0062     81.4056     36.5391   9.2419880933e+01   5.7820739627e+01    0.4274392     0.364251   4.90  0.002746714    1.045    0.043
       293 -10.2482     56.6089     41.9109   1.0281660102e+02   6.0974286561e+01    0.2357461    0.1459003 -48.11  0.001284073    1.964    0.491
       294 -10.2920    226.3831     40.1461   6.5007082380e+01   2.4283248558e+01    0.2375387    0.1701071  86.67 0.0004362047    1.290    0.225
       295 -11.0338    135.6523     38.5495   7.8909292860e+01   4.6304037107e+01    0.3927584    0.2385424 -31.88  0.001937207    1.786    0.440
       296  -9.9575     44.0098     39.2489   1.0657551349e+02   6.3018746897e+01    0.2115759    0.1335395 -45.58 0.0009605155    1.724    0.420
       297  -9.8427      1.3265     37.8715   1.2367031811e+02   6.7007293065e+01     0.155497   0.06774161 -44.28 0.0004392713    1.658    0.397
       298  -9.5048    101.9814     37.0119   8.6560905290e+01   5.3852598651e+01     0.165087     0.136868  37.71 0.0008531554    1.101    0.091
       299 -10.1103    146.0286     35.9692   7.5993032199e+01   4.4190289180e+01    0.2226164     0.151203  33.34 0.0006402893    1.665    0.399
       300 -10.4586     56.5579     36.0047   1.0065750525e+02   6.1858112779e+01    0.1793323    0.1072581 -32.43 0.0005689262    1.563    0.360
       301  -9.7987    111.1496     34.9621   8.3446711556e+01   5.2213252833e+01    0.1815168    0.1740731 -86.86 0.0003907543    1.250    0.200
       302 -10.0929    105.9587     34.2565   8.4540266222e+01   5.3388885864e+01    0.2280704    0.1861605 -61.70 0.0008955972    1.654    0.395
       303 -10.3171    150.9982     34.0465   7.4471931220e+01   4.3240408348e+01    0.2174085    0.1503635  34.55 0.0005636868    1.629    0.386
       304  -9.4280    157.5771     32.7168   7.2894304531e+01   4.1817030357e+01     0.246918    0.1594779  87.36  0.001173459    1.877    0.467
       305  -9.8880    129.6617     33.0189   7.8456119823e+01   4.8368491867e+01    0.1782426    0.1673039   5.74 0.0004121803    1.134    0.118
       306 -10.3800    163.0365     42.4817   7.4705603996e+01   3.9244679339e+01    0.1953963    0.1879307 -69.29 0.0003208773    1.101    0.092
       307 -11.4245      2.2753     32.2227   1.2149734889e+02   6.7899371769e+01    0.4194902    0.2018004  24.13   0.00252355    2.366    0.577
       308 -12.2398    226.1376    245.8389   1.0876984975e+02  -1.0536267885e+01    0.6334164    0.3594424   1.30  0.003035258    2.610    0.617
       309  -9.6040    115.4379    244.7172   1.2999410500e+02   8.1322768286e+00     0.153264    0.1217076 -51.89 0.0006061601    1.547    0.354
       310 -10.5922      5.0000     17.9873   1.1522936875e+02   6.9933655251e+01    0.2545084    0.1238033 -45.01  0.001312999    1.823    0.451
       311 -10.3829    178.9160     31.8636   6.9199698318e+01   3.6720278983e+01    0.2215236    0.1825679 -67.66  0.001283017    1.225    0.184
       312  -9.8064     89.9048     31.8455   8.8126982558e+01   5.6871951791e+01    0.1876033    0.1495792  20.88 0.0003273705    1.140    0.123
       313 -10.5684     18.7068     31.8686   1.1422910888e+02   6.6766815628e+01     0.184821    0.1432946  46.84  0.001251353    2.161    0.537
       314 -11.2937     70.2879     36.4082   9.5989615044e+01   5.9720217747e+01    0.4157556    0.2474967  -6.11  0.001212315    2.127    0.530
       315  -9.6212    162.5740     30.2856   7.1348489051e+01   4.0897240111e+01    0.1736063    0.1354727  -7.52 0.0009478723    1.641    0.391
       316  -9.9359    124.8273     27.9261   7.7869109716e+01   5.0057154864e+01    0.1946735    0.1568605  32.75  0.001140709    1.204    0.170
       317 -10.5817     81.1691     42.3829   9.4610876545e+01   5.7048876254e+01    0.2725078    0.2134757  53.76    0.0015988    1.561    0.359
       318 -10.2469     50.2851     27.3696   9.9663945808e+01   6.3926985256e+01    0.2676563     0.129125 -22.46  0.001338357    2.246    0.555
       319  -9.6636    203.7959     27.1275   6.4670922453e+01   3.1276418997e+01    0.1720387     0.144495  56.51 0.0003748217    1.308    0.235
       320  -9.5537    154.3415     27.3313   7.1907232338e+01   4.3230660472e+01    0.1431691   0.09364741  35.89 0.0007051322    1.748    0.428
       321  -9.7601    131.0342     26.7729   7.6171307897e+01   4.8778531021e+01    0.1967537     0.174768  85.99  0.000527213    1.246    0.198
       322 -10.7049    129.4259     23.5362   7.5471141490e+01   4.9499589441e+01    0.2068303    0.1948952 -50.06 0.0005679213    1.216    0.177
       323 -11.0530     70.4940     25.9071   9.1925808189e+01   6.1053754255e+01    0.4734212    0.1977716  37.15  0.002229611    2.257    0.557
       324 -10.9123     24.6973     26.9963   1.0985855837e+02   6.6963008336e+01    0.2570046    0.1711674  -6.65 0.0004374977    1.347    0.258
       325 -10.1839     71.9238    243.8360   1.3817476712e+02   1.5062847476e+01    0.1940958    0.1572313 -74.72 0.0007884805    1.346    0.257
       326 -11.6029     73.9820    238.0810   1.3723196256e+02   1.5896938034e+01    0.5852893    0.3502491  56.09  0.003374665    1.403    0.287
       327 -10.2054    137.0328    247.7149   1.2616624788e+02   3.9696059404e+00    0.1825756      0.14667  46.91   0.00048153    1.058    0.055
       328  -9.9629    109.9527    242.9683   1.3085076635e+02   9.3601903186e+00    0.2129107    0.1330918  68.43 0.0008411626    1.695    0.410
       329 -10.1324     89.8421     26.2848   8.6104540795e+01   5.7551770604e+01     0.279799    0.1702519  64.55   0.00137362    2.339    0.572
       330 -11.4487     61.1311     23.8129   9.4293458833e+01   6.2808023350e+01    0.3843509    0.2517848 -47.95  0.002165225    2.281    0.562
       331 -10.9229     65.6092     21.2408   9.1722661581e+01   6.2409157889e+01     0.301219    0.1817186  24.65 0.0009321594    1.578    0.366
       332 -11.5803     34.8825    241.5770   1.4462206625e+02   2.0420472448e+01    0.4334466    0.2106734  44.13  0.002527672    1.876    0.467
       333  -9.2575    220.5549     24.4729   6.2173286706e+01   2.7664042079e+01     0.129588     0.108439 -84.29  8.71489e-05    1.027    0.027
       334 -10.0344    215.4933     23.9784   6.2604284527e+01   2.8899332296e+01    0.2548231    0.1467534 -67.94 0.0007079209    1.787    0.440
       335  -9.4965    161.5348     23.9899   6.9752488729e+01   4.1872173437e+01    0.1777098    0.1125975  15.67 0.0008087239    2.516    0.603
       336 -10.6840     54.1887     23.4005   9.6625395279e+01   6.3893734177e+01    0.2181446    0.1722272   0.56 0.0005423427    1.037    0.035
       337 -10.4206     99.6759     21.6926   8.1742249719e+01   5.6126023373e+01    0.4158384    0.1463183  37.47  0.001567823    3.207    0.688
       338 -10.1678    103.9300     19.1692   7.9761200945e+01   5.5516912607e+01    0.2536525     0.145854  36.24  0.001323361    1.637    0.389
       339 -10.5170     84.3364     22.2045   8.6177264377e+01   5.9049197957e+01     0.215167    0.1618801  14.08 0.0009360433    1.253    0.202
       340 -10.1555     89.9581     21.5282   8.4306837611e+01   5.8062426251e+01    0.1827392    0.1105546  47.63  0.000352784    1.498    0.333
       341  -9.9320    136.9595     20.2856   7.2955527200e+01   4.8107221656e+01     0.192077    0.1664064  72.42 0.0004272422    1.138    0.121
       342  -9.5629     24.4548    232.4740   1.4578599291e+02   2.3448492144e+01    0.1901662    0.1184653  60.10 0.0008941106    1.314    0.239
       343  -9.0960     45.5164     20.5212   9.8732122773e+01   6.5454759127e+01    0.1179482   0.09100534   0.17 0.0008098561    1.033    0.032
       344 -11.1713     31.4888    237.7558   1.4493522354e+02   2.1580231038e+01     0.317056    0.2152039 -72.93  0.001638868    1.465    0.317
       345 -10.2925     29.1610    232.9168   1.4499308379e+02   2.2820220317e+01    0.2747483    0.1454963  58.53  0.001138021    1.563    0.360
       346 -10.9829    156.4959    241.0280   1.2140391194e+02   1.7829425574e+00    0.1788583    0.1319979 -51.61  0.001030979    1.584    0.369
       347  -9.9762     88.6436    241.1617   1.3476031248e+02   1.3092519849e+01    0.1632407    0.1087284 -57.58 0.0009417465    1.747    0.427
       348 -10.6977    217.3951     16.3516   6.0709198674e+01   2.9360230314e+01    0.4095789    0.1265799  59.54  0.001656592    2.905    0.656
       349  -9.9517    108.2686     17.2556   7.8038725130e+01   5.4800283425e+01    0.1589719    0.1430178  79.17 0.0004883823    1.328    0.247
       350 -10.3207      9.9792     15.9321   1.1209179690e+02   6.9850994265e+01    0.1937034    0.1238417  -1.53 0.0007637754    1.391    0.281
       351 -10.0558    164.2821     14.7554   6.6774624897e+01   4.2186890062e+01    0.2190424    0.1553361  79.55 0.0005480094    1.313    0.238
       352  -9.3667     50.2941    240.3363   1.4180854896e+02   1.8725600272e+01    0.1021539   0.08930476 -57.25  0.000371411    1.646    0.392
       353 -11.4864    176.8397    235.8746   1.1657345389e+02  -8.9746100108e-01    0.4990964    0.3042549 -10.44  0.002090857    3.252    0.693
       354  -9.9556    195.7753    238.4023   1.1326729025e+02  -4.5650961267e+00    0.2398545    0.1437077  31.64  0.001260055    1.526    0.345
       355  -9.7702     50.2600     14.3954   9.4368378803e+01   6.5530237442e+01    0.1921088    0.1400045  36.48  0.001294446    1.437    0.304
       356 -10.4004    159.8952    235.8602   1.1995482779e+02   2.0865416526e+00    0.2029173    0.1693844  24.67 0.0005886637    1.240    0.193
       357 -10.3396     56.1674     13.0761   9.1657462383e+01   6.4803287439e+01    0.1840091    0.1287568  11.85 0.0009456985    1.247    0.198
       358 -11.0648     73.9875    232.9930   1.3671744044e+02   1.6918312710e+01    0.3338183    0.1819419  50.86  0.001757874    1.569    0.363
       359  -9.1610    168.6395    250.6889   1.2043333223e+02  -1.9075748640e+00    0.1291498   0.09229818  13.92 0.0007041656    1.745    0.427
       360 -11.8386     17.4897    238.2299   1.4735879066e+02   2.3080091356e+01    0.4984544    0.2675028  37.45  0.003084868    2.112    0.527
       361  -9.6883    108.1892     10.4092   7.5665053698e+01   5.5458995328e+01    0.1703933    0.1113967  67.71 0.0008273283    1.647    0.393
       362  -9.3492    102.3280     10.2783   7.6976833229e+01   5.6697993018e+01    0.1308443   0.07812478  33.10 0.0002777702    1.595    0.373
       363  -9.3682    224.0348     18.9613   6.0616893698e+01   2.7530854781e+01    0.1483314    0.1217544 -73.16 0.0009451576    1.068    0.064
       364 -10.3322    167.0387    233.7800   1.1819962157e+02   1.1861886588e+00    0.2107635    0.1981609 -39.03 0.0008025609    1.216    0.177
       365 -11.1037    153.4202    233.6242   1.2092133105e+02   3.6304246778e+00    0.2449523    0.2034396 -16.50 0.0008458662    1.554    0.356
       366  -9.7691     85.9900    233.1777   1.3440588937e+02   1.5081541234e+01    0.1896657    0.1222581  81.83  0.000746629    1.605    0.377
       367  -9.9322     79.6066    231.3774   1.3545811510e+02   1.6414828589e+01    0.2265292    0.1371965  43.98 0.0006573543    1.536    0.349
       368 -10.2022     87.9205    227.1291   1.3333881172e+02   1.6015137754e+01    0.2291512    0.1672538  44.10  0.001342849    1.347    0.258
       369  -9.8447    128.0009    249.5171   1.2815079668e+02   5.1736514490e+00    0.1826416    0.1640066 -82.28  0.001188277    1.242    0.195
       370  -9.3843     58.3519    230.2931   1.3943898407e+02   1.9676509346e+01    0.1049513   0.09753711 -37.13 0.0004528104    1.679    0.404
       371  -9.6735    169.5156    229.4693   1.1701572886e+02   1.4992657881e+00     0.135063    0.1186529  35.16 0.0003535895    1.030    0.029
       372 -10.4336    190.4360    226.8873   1.1238926690e+02  -1.7791239298e+00    0.3000999     0.158758 -42.45  0.001185178    2.089    0.521
       373  -9.3261    249.3439    227.2742   1.0135451248e+02  -1.1443679000e+01    0.1260643   0.08159027   6.26 0.0003735815    1.621    0.383
       374 -10.0081    152.6756    227.6817   1.2016628799e+02   4.8499843467e+00    0.1328467    0.1048032   7.37 0.0005210285    1.673    0.402
