#   1 NUMBER                 Running object number                                     
#   2 MAG_AUTO               Kron-like elliptical aperture magnitude                    [mag]
#   3 X_IMAGE                Object position along x                                    [pixel]
#   4 Y_IMAGE                Object position along y                                    [pixel]
#   5 X_WORLD                Barycenter position along world x axis                     [deg]
#   6 Y_WORLD                Barycenter position along world y axis                     [deg]
#   7 A_WORLD                Profile RMS along major axis (world units)                 [deg]
#   8 B_WORLD                Profile RMS along minor axis (world units)                 [deg]
#   9 THETA_WORLD            Position angle (CCW/world-x)                               [deg]
#  10 FWHM_WORLD             FWHM assuming a gaussian core                              [deg]
#  11 ELONGATION             A_IMAGE/B_IMAGE                                           
#  12 ELLIPTICITY            1 - B_IMAGE/A_IMAGE                                       
         1 -12.9925    194.7300     31.3373   6.6838190892e+01   3.2935278372e+01    0.9649127    0.8949376  51.82  0.006069855    1.254    0.203
         2 -13.7738    208.9878     14.4289   6.1143698911e+01   3.1532760497e+01     1.348027    0.9569089  40.74  0.007656648    1.898    0.473
         3 -11.5724      2.2591     13.8586   1.1491949854e+02   7.0720499328e+01    0.4057898    0.1249937 -44.22  0.002131021    2.594    0.615
         4 -11.6004      2.3460      4.7943   1.1110483958e+02   7.1945850940e+01    0.4775387    0.1933891 -36.03  0.002925876    1.951    0.488
         5  -9.6106    177.3311      2.3215   6.1785765175e+01   4.0254551522e+01    0.1294058   0.08343334  45.86 0.0004885103    1.696    0.411
         6 -13.9755      9.0730    207.3687   1.4677616545e+02   3.0257492111e+01     1.670333     0.865995 -82.70  0.005424816    1.533    0.348
         7 -11.4025    139.6781    249.7762   1.2592293396e+02   3.1628634858e+00    0.4415028    0.1892638  45.38   0.00204006    1.941    0.485
         8 -12.0313    100.3318    248.9599   1.3338111085e+02   9.7851430939e+00    0.4876393     0.238725  40.53  0.002462927    1.862    0.463
         9 -12.0367     76.5257    246.8155   1.3760915986e+02   1.3818864204e+01    0.4525626    0.3316481 -88.07  0.002943763    1.289    0.224
        10 -11.5394     65.2210    248.8415   1.3985160315e+02   1.5048433685e+01    0.3507175    0.2323615  54.37 0.0006882629    1.244    0.196
        11 -11.4142     41.1471    206.5804   1.4054303009e+02   2.6942421528e+01    0.3968984    0.2552771 -56.11 0.0004526862    1.777    0.437
        12 -13.9743     32.3836    247.1313   1.4543904619e+02   1.9643208485e+01     1.851402      1.11346  30.49   0.01108304    2.422    0.587
        13 -14.8284      7.9804    243.4816   1.4923010858e+02   2.3078714231e+01     6.172874     3.545416  39.98   0.04161545    1.922    0.480
        14 -14.8102     52.0995    209.9293   1.3867355604e+02   2.4832616040e+01     6.149245     1.041864  49.37   0.01814119    5.753    0.826
        15 -12.8560     64.9962    173.2449   1.3138809321e+02   3.1515254746e+01    0.5162387    0.2779926 -45.77  0.001673257    2.252    0.556
        16 -11.6523     85.8624    166.7987   1.2532296784e+02   2.9956971476e+01    0.7197449    0.5470791  54.17   0.00382522    1.318    0.241
        17 -14.0572     42.6275    219.6698   1.4145910688e+02   2.3939465399e+01     1.194221     0.692942  60.17  0.004856268    1.500    0.333
        18  -9.6809     98.2520    150.7518   1.1923899665e+02   3.1761344844e+01    0.2741449    0.2520852 -48.49 0.0007486066    1.147    0.128
        19  -9.1166    101.1958    146.8485   1.1768501476e+02   3.2183198122e+01    0.2353901    0.1826598 -22.01 0.0005197069    1.729    0.422
        20 -11.7831     86.8554    149.9394   1.2204482197e+02   3.3864278271e+01    0.2978763    0.2531254 -47.66 0.0004786164    1.222    0.181
        21 -12.2581     67.4230    143.9743   1.2606483533e+02   3.8220685393e+01    0.7075178    0.4974878  72.36  0.002795003    1.672    0.402
        22  -8.5305    134.4206    148.5099   1.0957360954e+02   2.5387765848e+01    0.1549673    0.1479526 -81.36 0.0001272779    1.019    0.019
        23  -8.5511    192.4032    144.4355   9.5397932123e+01   1.3670561867e+01    0.1509263    0.1455611 -54.55 0.0001183858    1.025    0.024
        24 -10.2991    150.9803    229.4955   1.2079218046e+02   4.8187226390e+00    0.2178731    0.1190872  42.37 0.0008122371    1.606    0.377
        25  -9.4801    110.0004    136.3777   1.1311280184e+02   3.3069428493e+01    0.2977356    0.2045475 -35.79 0.0007638084    1.670    0.401
        26 -11.6642     58.1939    132.6743   1.2650545727e+02   4.2156869978e+01    0.7628429    0.3158164 -74.63  0.002425055    4.121    0.757
        27 -10.6982     50.0355    129.9854   1.2828013677e+02   4.3786930473e+01    0.2719231     0.187475  44.99 0.0007155703    1.627    0.385
        28 -15.3567      8.3008    149.5654   1.4186929150e+02   4.3172341202e+01     5.738808     1.793189 -79.24   0.02208945    3.356    0.702
        29  -8.9120    106.9561    123.2951   1.1088962947e+02   3.6701957459e+01    0.1984961    0.1857651  40.96 0.0002670822    1.119    0.107
        30 -10.3162     97.1192    133.4708   1.1592405476e+02   3.6096721695e+01    0.2797909    0.2254931 -38.74 0.0005622777    1.311    0.237
        31 -10.4597    168.0056    113.1318   9.3019265169e+01   2.5754026501e+01    0.3724779    0.2952406 -78.49 0.0007931811    1.497    0.332
        32 -11.2563     62.4175    195.2772   1.3488197445e+02   2.6728490179e+01    0.3404341    0.2498536 -46.19 0.0008972176    1.743    0.426
        33  -9.6239    192.0258    193.2048   1.0589653902e+02   3.9722963692e+00    0.3787551    0.1974168 -65.91  0.001094698    5.338    0.813
        34 -12.5543     35.8387    228.3798   1.4345401619e+02   2.2953123888e+01    0.3663296    0.2901663 -71.49 0.0007449361    1.410    0.291
        35 -10.7199    248.6024    248.7753   1.0522949459e+02  -1.4187841619e+01    0.2983503    0.1900799  13.85   0.00184586    1.449    0.310
        36 -12.3262    128.0351    244.6543   1.2752675723e+02   6.0390934583e+00    0.4616826    0.2530231  43.69  0.002384365    1.547    0.353
        37 -11.5212     68.3802    187.6012   1.3258785078e+02   2.7662216592e+01    0.2920227    0.2684403 -53.30 0.0004747058    1.331    0.249
        38  -9.0227    126.0415    185.3059   1.1893529344e+02   1.8563098145e+01    0.2330246    0.1233782  21.45 0.0007042358    4.267    0.766
        39 -10.6660     78.0803    175.5135   1.2861283818e+02   2.9082017963e+01    0.2479274    0.2178085 -74.61 0.0003754604    1.090    0.082
