#   1 NUMBER                 Running object number                                     
#   2 MAG_AUTO               Kron-like elliptical aperture magnitude                    [mag]
#   3 X_IMAGE                Object position along x                                    [pixel]
#   4 Y_IMAGE                Object position along y                                    [pixel]
#   5 X_WORLD                Barycenter position along world x axis                     [deg]
#   6 Y_WORLD                Barycenter position along world y axis                     [deg]
#   7 A_WORLD                Profile RMS along major axis (world units)                 [deg]
#   8 B_WORLD                Profile RMS along minor axis (world units)                 [deg]
#   9 THETA_WORLD            Position angle (CCW/world-x)                               [deg]
#  10 FWHM_WORLD             FWHM assuming a gaussian core                              [deg]
#  11 ELONGATION             A_IMAGE/B_IMAGE                                           
#  12 ELLIPTICITY            1 - B_IMAGE/A_IMAGE                                       
         1 -12.4559    165.4890     83.4682   5.7792413628e+01   3.2295975979e+01    0.9967684    0.7507055  66.85  0.004585438    1.465    0.318
         2 -13.2310     37.1173     50.1059   8.6564794221e+01   6.2782124447e+01    0.8605182    0.6957325  -0.12  0.005235575    1.148    0.129
         3 -12.1265      8.7194      8.8415   8.3799443930e+01   7.2437808655e+01    0.4522884    0.2621937  25.59  0.002391934    1.768    0.434
         4 -10.8271     25.0970     20.4377   8.0391567065e+01   6.9087919532e+01    0.4349861    0.2397388   1.93  0.001760729    2.046    0.511
         5 -11.8769     13.4372      3.7127   7.8485404018e+01   7.2668423916e+01    0.4952602    0.4497715 -51.87  0.003622958    2.108    0.526
         6 -11.7884     21.8559      5.2408   7.4680444836e+01   7.1521902402e+01    0.5268865    0.3647151 -43.95  0.003341378    2.148    0.534
         7 -10.9965     26.5170      2.5976   7.0891438552e+01   7.1245581321e+01    0.2662199    0.1803007  35.48 0.0009210566    1.587    0.370
         8 -11.4751     11.7456     23.6778   8.8788837444e+01   6.9896908225e+01     2.305469    0.7174355  10.46  0.005754445   10.712    0.907
         9 -11.7920     20.3531     16.3698   8.0969161172e+01   7.0203005552e+01     0.573014    0.3160274  -8.98  0.003181643    1.920    0.479
        10 -11.9191      4.1910     17.6362   9.0436264912e+01   7.1474959401e+01    0.4218178    0.4087131 -13.49  0.002547452    1.606    0.377
        11 -11.1012      9.7182     15.8156   8.6505138726e+01   7.1316933788e+01    0.2665252    0.1730254 -17.47 0.0008451791    1.232    0.188
        12 -11.3432    108.3758     17.6460   4.9495466497e+01   5.4697605776e+01    0.4329076    0.2782201  10.63  0.001209469    1.916    0.478
        13 -12.3264    129.2415     19.2058   4.5714009772e+01   4.9790768210e+01    0.2661005    0.2436789  21.52 0.0004333786    1.157    0.136
        14 -11.7043    238.1772     18.0095   3.2232224512e+01   2.5425650273e+01    0.2241848    0.1811152 -50.55 0.0002486016    1.181    0.153
        15 -11.9585    234.0658     13.6053   3.1655779208e+01   2.6732454131e+01     0.454852    0.1435114 -33.96  0.002074172    2.912    0.657
        16 -10.6750     43.5432      8.5340   6.6033491308e+01   6.8140548086e+01     0.262332    0.2050273 -11.45 0.0009018395    1.223    0.182
        17 -11.1165     48.4715     16.0151   6.7532311627e+01   6.6511219715e+01    0.4429162    0.3204781   8.03  0.002812072    1.200    0.166
        18 -11.9851     41.1031     16.6680   7.1010278364e+01   6.7542251627e+01    0.5205805    0.4394909 -24.64  0.002925718    1.386    0.279
        19 -11.4225    157.9035     13.2850   3.9309655623e+01   4.3642866018e+01    0.5110961    0.1907335 -44.82  0.002131261    2.955    0.662
        20 -10.1177     70.6381     13.7709   5.8296596548e+01   6.2907476165e+01    0.2147581    0.1675955  10.70   0.00112758    1.167    0.143
        21 -11.5073     77.1568     11.1403   5.5116741847e+01   6.1906521656e+01    0.5895038    0.2585002  50.60  0.001492165    1.973    0.493
        22  -9.9471    118.5151     12.5014   4.5532974200e+01   5.2894425621e+01    0.3654777    0.1934895  25.88  0.001664848    2.485    0.598
        23  -9.7794    117.7065      9.3378   4.4603537740e+01   5.3355916270e+01    0.1878439    0.1267647 -30.08  0.001048895    1.669    0.401
        24 -10.6389    100.0354     12.2835   4.9451833273e+01   5.7038746125e+01    0.2460986    0.1799103  26.33 0.0008383018    1.340    0.254
        25  -9.9879    138.5559     11.7010   4.1706938686e+01   4.8327835860e+01    0.2138242    0.1491384 -82.68  0.001018159    1.673    0.402
        26 -12.2875    128.7646     11.5957   4.3320944473e+01   5.0617598151e+01    0.3901563    0.2595347  77.93  0.002131665    1.568    0.362
        27 -11.2256    164.2740      7.9872   3.7023392456e+01   4.2643665396e+01    0.3736402    0.2296079  -7.08  0.001088352    2.293    0.564
        28 -11.4310    146.1165      7.3306   3.9238216538e+01   4.6942951812e+01    0.4864798    0.2774717  37.81  0.002233674    2.003    0.501
        29 -10.6725    148.5162      1.9249   3.7327210029e+01   4.6831017310e+01    0.2288337    0.1576642 -89.32 0.0008606741    1.469    0.319
        30 -12.6312    213.7282      5.7226   3.1583280142e+01   3.1764953843e+01    0.7601997    0.3988295 -70.58  0.004117603    1.919    0.479
        31 -10.7922    203.9393      2.8703   3.1754877554e+01   3.4146135195e+01    0.3393482     0.159409 -28.58  0.001772357    2.341    0.573
        32 -11.2005    190.8290      6.6706   3.3806351405e+01   3.6683209397e+01    0.3692619    0.3336947 -81.73  0.002601818    1.093    0.085
        33 -11.0829    194.9760      2.3318   3.2402326263e+01   3.6163501617e+01    0.3619213    0.1898013 -85.08  0.001885814    1.956    0.489
        34 -10.8724     91.2433      6.8733   4.9497650296e+01   5.9398812171e+01    0.4376194    0.2025955  38.66  0.001974511    1.990    0.498
        35 -10.8549    230.9125      6.4060   3.0432763943e+01   2.8126238096e+01    0.1876707    0.1272922 -55.95 0.0003855427    1.253    0.202
        36 -10.1577     39.7089     11.0347   6.8934937207e+01   6.8434873243e+01    0.1939529    0.1462725  20.60 0.0004836143    1.145    0.127
        37 -12.3417    179.0842      4.3827   3.4419115495e+01   3.9552552063e+01    0.3086021    0.2257314 -89.33 0.0002248239    1.234    0.189
        38  -9.4056    156.4716      6.4690   3.7584123286e+01   4.4596757458e+01    0.1254014    0.1084563  74.35 0.0001666782    1.007    0.007
        39 -11.7226     98.1369      4.4974   4.6935362799e+01   5.8113155858e+01    0.3208087    0.2571333   9.72  0.001691937    1.308    0.236
        40 -10.3493     81.4374      5.4174   5.1471737029e+01   6.1558928059e+01    0.2280111    0.1825749 -48.87  0.001415223    1.698    0.411
        41  -9.9197     74.3800      2.6125   5.2270340875e+01   6.3207759862e+01    0.2491552    0.1729786 -47.62  0.001116752    2.096    0.523
        42 -11.8642     67.8164      3.7132   5.4752761589e+01   6.4390501522e+01    0.2178808    0.1694186  31.73 0.0003370938    1.042    0.040
        43 -10.8102    243.0770      2.7314   2.8901992376e+01   2.6087278028e+01    0.1860338     0.148626 -44.23 0.0005484322    1.308    0.236
        44 -10.9069    237.3168      2.8410   2.9290773295e+01   2.7205622716e+01    0.1906679    0.1124318 -55.31 0.0009912093    1.415    0.293
        45 -10.4426    169.6036      2.6031   3.4974764503e+01   4.1882878014e+01    0.2407153    0.1390054 -66.67 0.0007121607    1.919    0.479
        46 -10.2940    126.4009      2.7514   4.0845587700e+01   5.1898103556e+01    0.2300329    0.1515324  33.94 0.0005747064    1.605    0.377
        47  -9.1763    118.6286      3.7443   4.2517823012e+01   5.3601952033e+01    0.1352395   0.07604662  43.05 0.0006967697    1.643    0.392
        48 -10.8116    230.7621      1.6450   2.9488911367e+01   2.8635371038e+01    0.1779325    0.1272369  73.62    0.0003517    1.376    0.273
        49 -10.8751    108.1177      1.6222   4.3758974130e+01   5.6134558218e+01    0.2035775     0.142776  51.93 0.0005108523    1.182    0.154
        50  -9.4201     33.1829      1.6575   6.7164194724e+01   7.0428578398e+01    0.1886297    0.1490275  37.82 0.0009735127    1.527    0.345
        51 -12.3165     50.0310    161.6374   1.0711714257e+02   3.5451110905e+01    0.5201437    0.3774767  68.69 0.0005550153    1.490    0.329
        52 -10.6935    249.0196    248.1476   7.6864490757e+01  -1.0722081683e+01    0.4413057    0.2073307  -7.93  0.002091499    2.904    0.656
        53 -12.4480    226.4278    245.7990   8.0472153960e+01  -7.7019470063e+00    0.6839784    0.3501561  -1.10  0.003256102    2.676    0.626
        54 -12.1936    232.4900    245.8101   7.9379996405e+01  -8.4585936866e+00     0.609076    0.1927205 -30.18  0.002541872    3.489    0.713
        55 -11.3531     89.0071    249.6029   1.0841767210e+02   1.0960562713e+01    0.2855466    0.2173301  36.71 0.0008310007    1.191    0.161
        56 -10.0571     72.6075    250.1201   1.1175128958e+02   1.3010820981e+01    0.1932711    0.1605589   0.27  0.001265586    1.694    0.410
        57 -13.0172     19.0035    237.1033   1.2117900938e+02   2.1651502413e+01     1.338325    0.3681231  56.80  0.005458779    3.676    0.728
        58 -11.8749      5.2476    235.8462   1.2365846796e+02   2.3203958162e+01    0.5736517    0.3047045  42.13  0.003358022    1.662    0.398
        59 -13.4525      5.7922    245.1607   1.2401222845e+02   2.1344452084e+01    0.9482245    0.5697057  34.63  0.004734086    1.711    0.416
        60 -12.7698     22.1654    249.0523   1.2128186531e+02   1.9012153835e+01    0.7946234    0.2320409  33.93  0.003771363    2.996    0.666
        61 -11.1050     17.4782    247.4829   1.2204324257e+02   1.9781663082e+01    0.2059502    0.1686607  77.15  0.000630629    1.124    0.111
        62 -11.2919     44.7180    163.0052   1.0872900035e+02   3.5705134630e+01    0.3811695    0.2238953 -71.03  0.001565643    1.559    0.359
        63  -9.9074     99.1696    164.9165   9.4374921622e+01   2.7826063503e+01    0.2166886    0.1943713  82.27 0.0003567418    1.193    0.161
        64 -10.6477     10.1996    162.8171   1.1765730751e+02   3.8918452774e+01    0.3003765    0.1511786  37.26 0.0009290416    2.084    0.520
        65 -11.5146     19.0839    158.1608   1.1492988558e+02   3.9343907260e+01    0.3375215    0.2350457 -76.44 0.0003806057    1.217    0.178
        66 -12.3201     22.8045    157.0098   1.1382762598e+02   3.9312566415e+01    0.5543138    0.4775147  80.50  0.003215912    1.115    0.103
        67  -9.4543    157.5045    154.9966   7.7528455759e+01   1.9550008787e+01    0.2318397    0.1257892 -25.24 0.0008102302    2.728    0.633
        68 -10.2800     11.3378    153.8347   1.1650780190e+02   4.1000495997e+01    0.2200102    0.1948015   3.30  0.001471483    1.433    0.302
        69  -9.8886    177.5833    151.0236   7.2097028977e+01   1.6476298740e+01    0.2493559    0.2067393  71.70  0.001242639    1.599    0.375
        70  -9.4449    216.3910    155.2105   6.5250599728e+01   8.4294368005e+00    0.1898677    0.1212747 -45.50 0.0003865895    1.552    0.356
        71  -9.6102      5.6788    149.9731   1.1761159995e+02   4.2334468884e+01     0.169055     0.129007 -79.35 0.0003261926    1.070    0.066
        72 -10.8782     33.1173    148.1162   1.0992642477e+02   4.0581230824e+01    0.2089123    0.1829047 -68.74 0.0003322533    1.037    0.035
        73 -10.2891     17.6466    146.9327   1.1407753788e+02   4.2207619503e+01    0.2887757    0.1712545 -32.94  0.001467591    2.134    0.531
        74 -10.1594    207.0447    146.4956   6.5096401011e+01   1.1729191036e+01    0.2010767    0.1424286  41.75 0.0005867823    1.532    0.347
        75  -9.4108     41.1920    146.1981   1.0736691766e+02   4.0260923483e+01    0.1786136    0.1458166  74.32 0.0003449928    1.288    0.223
        76 -10.3109     10.4892    144.4488   1.1576138968e+02   4.3345770048e+01    0.2284678    0.1387329 -46.17 0.0006736843    1.685    0.407
        77  -9.7522    220.4619    143.9802   6.2093032265e+01   9.7330493815e+00     0.214347    0.1239204 -38.60 0.0006980387    1.537    0.349
        78  -9.5126     30.3073    143.3477   1.1007972624e+02   4.2027965606e+01    0.1414308   0.08697323 -43.15 0.0007043285    1.703    0.413
        79  -9.7818     82.2278    139.8280   9.4257814455e+01   3.6631658381e+01    0.2093014    0.1658707 -34.47 0.0009822437    1.325    0.245
        80 -10.2680     55.2772    138.2351   1.0195672094e+02   4.0688553380e+01    0.3047715    0.2260116  61.19  0.001573761    1.562    0.360
        81 -10.7004      2.6434    137.0568   1.1714197181e+02   4.5654312608e+01     0.324757    0.1230717 -73.72  0.001056629    2.133    0.531
        82 -10.0567      9.4666    136.8643   1.1520734262e+02   4.5268046410e+01    0.1946994    0.1050816 -72.27 0.0004910001    1.519    0.342
        83 -10.0922     32.1365    135.7513   1.0846986988e+02   4.3753311398e+01    0.1996673    0.1661243 -89.63 0.0006834821    1.196    0.164
        84  -9.9007    123.1443    135.1969   8.1646921077e+01   3.0671407123e+01    0.2120485    0.1878038  87.11 0.0004805564    1.339    0.253
        85  -9.7838     20.6728    135.2399   1.1178117322e+02   4.4854320550e+01     0.197053   0.09493133 -61.50 0.0009377576    1.679    0.405
        86 -10.1183    249.2772    133.9844   5.5298843295e+01   6.4729510217e+00    0.1931659    0.1459156 -34.53 0.0008657727    1.099    0.090
        87  -9.2278    104.5351    134.5015   8.6643978551e+01   3.4265576832e+01    0.1526199    0.1462509 -37.08  0.000139545    1.004    0.004
        88  -9.2575     48.9530    134.3079   1.0317792483e+02   4.2404651992e+01    0.2292441    0.0756298  47.04  0.000704249    4.320    0.768
        89 -10.1407    127.9828    132.6765   7.9753378553e+01   3.0314460094e+01    0.2088825    0.2000844  29.27 0.0004995135    1.066    0.062
        90 -10.5458    111.7562    132.2834   8.4089487213e+01   3.3490815880e+01    0.2953355    0.1882195 -52.90  0.001281861    1.563    0.360
        91 -10.7560     55.0369    132.5774   1.0101334778e+02   4.2133453522e+01    0.3521983    0.2179711  47.47  0.001134456    1.845    0.458
        92 -11.3312     74.0014    129.4494   9.4574847289e+01   4.0412855764e+01    0.3524398    0.3106467 -68.11  0.001050732    1.139    0.122
        93 -11.9187     36.8884    130.2114   1.0617511614e+02   4.4687058722e+01    0.6784945    0.3518379 -48.34  0.003175254    1.775    0.437
        94 -10.6015     24.2340    126.0261   1.0941778310e+02   4.6849341930e+01    0.1932776    0.1857212 -44.10 0.0004249387    1.154    0.133
        95 -11.4047     21.7049    121.1822   1.0947588779e+02   4.8243000336e+01    0.6100597    0.2290538 -38.89            0    3.213    0.689
        96 -11.0799     13.2829    126.0193   1.1276151235e+02   4.7665659689e+01    0.3652975    0.1850437  20.92 0.0003455934    2.339    0.573
        97 -11.2340     10.7492    122.9891   1.1313146488e+02   4.8574651464e+01    0.2956853    0.2378183  85.84  0.001141536    1.263    0.208
        98 -10.0136    220.0490    124.3350   5.7817064551e+01   1.3328451182e+01    0.1886112    0.1768509 -32.28 0.0004640255    1.062    0.059
        99 -10.5376      2.8477    122.8819   1.1550842043e+02   4.9076521097e+01    0.2185361    0.1328493 -60.76 0.0003740555    1.318    0.241
       100  -9.8505      1.3957    119.0267   1.1548428342e+02   5.0086860541e+01    0.1897183     0.100253 -72.89            0    1.541    0.351
       101  -9.0605     32.4434    121.5462   1.0613074718e+02   4.7254669920e+01    0.1375153    0.1144984 -53.63 6.125595e-05    1.062    0.059
       102  -9.5432     15.5868    119.5337   1.1115598200e+02   4.9094926667e+01    0.1311409    0.1066097 -63.48 2.078781e-05    1.016    0.016
       103 -10.3051     72.3423    117.1938   9.2395575321e+01   4.3649722891e+01    0.3878501     0.135444 -57.70  0.001298275    2.869    0.651
       104 -10.6527     86.1684    116.6916   8.7912368142e+01   4.1646027622e+01    0.2797271    0.2336287 -54.48 0.0008077245    1.173    0.147
       105  -9.9080    213.8935    115.7658   5.6905164081e+01   1.6049262026e+01    0.2035229    0.1830573  -1.78 0.0005297487    1.211    0.175
       106 -10.5564     16.5905    115.5387   1.1024518962e+02   5.0000265441e+01     0.268893    0.1393272 -33.94   0.00128071    2.178    0.541
       107  -9.4956     35.3066    114.6708   1.0398719923e+02   4.8683840936e+01    0.1345496    0.1006292  74.50 0.0003068548    1.657    0.397
       108 -11.0638    249.2909    112.1621   5.0730255882e+01   1.0047019130e+01    0.2511211    0.1859042 -46.88 0.0004182306    1.199    0.166
       109 -10.0818     94.9067    112.3481   8.4128918059e+01   4.1192127377e+01    0.2645777    0.2084804 -58.90  0.001020887    1.337    0.252
       110 -11.3963     37.0765    110.1390   1.0253432551e+02   4.9622174705e+01    0.5047183    0.2962795  52.20  0.001734281    2.263    0.558
       111 -11.8397     55.3030    109.7686   9.6301278976e+01   4.7720680067e+01    0.4732015    0.2390152 -49.82  0.001447887    1.734    0.423
       112 -12.1021     14.2724    109.2107   1.1002278096e+02   5.1693223794e+01    0.4254232     0.329116   6.00  0.002621488    1.544    0.352
       113 -10.0270      5.7002    106.6243   1.1246792879e+02   5.2834376735e+01    0.2046803    0.1102396 -44.80 0.0006695659    1.660    0.398
       114 -10.4777      1.4130    108.9607   1.1419477052e+02   5.2502735257e+01    0.3133157    0.1645059  89.18  0.001257935    2.177    0.541
       115 -10.3267      2.5062    105.5042   1.1336187086e+02   5.3271694400e+01     0.201497    0.1732933 -49.85 0.0005547352    1.127    0.113
       116  -9.1399    109.0086    108.9851   7.9027631960e+01   3.9374049117e+01     0.177805    0.1709579   2.34 0.0003879516    1.037    0.036
       117  -9.6554     82.4659    108.8701   8.7135667231e+01   4.4087988338e+01    0.2223285    0.1398366 -50.64 0.0004749487    1.504    0.335
       118  -9.1502     70.4863    107.4344   9.0678678030e+01   4.6252903572e+01    0.1454391    0.1340876 -36.04 0.0001129436    1.010    0.010
       119 -10.3695    243.9403    104.7186   4.9878124051e+01   1.2205916631e+01    0.1780423     0.160431 -47.10 0.0006176961    1.072    0.067
       120 -10.4402     51.4319    104.2761   9.6377535658e+01   4.9502467698e+01    0.2723641     0.177441 -40.47  0.001356682    1.432    0.302
       121  -9.0781    186.6138    104.2668   5.9052123647e+01   2.3812692682e+01    0.1485151    0.1148754 -82.91 0.0006985732    1.700    0.412
       122 -10.5260    119.6536    101.6556   7.3984447520e+01   3.8864225963e+01     0.512186    0.1887141 -38.00  0.001632939    2.989    0.665
       123  -9.6201     87.9989    104.0141   8.4104284713e+01   4.4296138821e+01    0.1803563    0.1671987 -29.56 0.0004032181    1.009    0.009
       124 -10.9059     13.6362    103.2240   1.0926757049e+02   5.3173670891e+01    0.3389235    0.1314105 -33.62  0.001346786    3.160    0.684
       125 -11.1336     36.9225    102.1596   1.0096674166e+02   5.1561438203e+01     0.441973    0.2614393  13.56  0.002175843    2.017    0.504
       126 -10.4065     24.3165     99.8477   1.0494309198e+02   5.3216960987e+01    0.3238443    0.2198385  74.48  0.001104066    2.051    0.513
       127 -11.4752      3.6308     98.6830   1.1197533453e+02   5.4831605421e+01     0.331398    0.3094716  75.25  0.002088598    1.269    0.212
       128 -10.2683      1.2345     96.0129   1.1239346984e+02   5.5578649456e+01    0.2194895    0.1451744 -84.47 0.0003854735    1.550    0.355
       129 -11.4898    143.5805     98.3354   6.6806841216e+01   3.4451307846e+01     0.665467    0.4183796  49.75  0.002918531    1.640    0.390
       130 -10.7846     62.1328     98.9505   9.1386985092e+01   4.9406635175e+01    0.3228805    0.2753988  -7.29   0.00103295    1.215    0.177
       131 -10.3073     66.7878     98.1880   8.9585151333e+01   4.8938914894e+01    0.2188099    0.1938351  35.45 0.0003879651    1.245    0.197
       132 -10.3237     50.7629     99.1777   9.5419150287e+01   5.0788041746e+01    0.1939288    0.1806268 -58.97  0.000549535    1.135    0.119
       133 -11.1508     14.8630     97.5223   1.0785598579e+02   5.4450658975e+01    0.4064596    0.1596731 -68.68  0.001736874    2.313    0.568
       134  -9.6490    250.0310     95.7618   4.7183121994e+01   1.2528942827e+01    0.1721336    0.1520043 -50.59 0.0004755291    1.068    0.064
       135  -9.7299     20.6675     94.6631   1.0523960605e+02   5.4721938211e+01    0.2394962   0.06856447 -53.85 0.0009349172    2.484    0.597
       136 -11.5899     26.1265     91.5057   1.0259358034e+02   5.5038264977e+01    0.6198695    0.3067943 -72.45   0.00271857    2.360    0.576
       137 -10.9222     21.8951     87.2475   1.0326184559e+02   5.6357626651e+01    0.4791316    0.1658354 -56.25   0.00203276    2.194    0.544
       138 -10.6247     37.8545     95.2094   9.9113402726e+01   5.3115601805e+01    0.3113908    0.1820501  30.98  0.001179653    1.907    0.476
       139 -12.6116    158.1880     89.9107   6.1100846861e+01   3.2798764058e+01    0.7476245    0.5462128 -56.22  0.003442167    1.518    0.341
       140 -12.1532     37.0092    243.9930   1.1820506626e+02   1.8417219115e+01    0.6307189    0.3003862 -87.13  0.002893605    2.241    0.554
       141  -9.0529    113.2948     93.3448   7.3419609813e+01   4.1897833699e+01     0.157271    0.1176604  -6.05 0.0003585959    1.666    0.400
       142  -9.7080     31.4619     93.0336   1.0095947617e+02   5.4225790933e+01    0.1975721    0.1157044 -58.80 0.0003491112    1.486    0.327
       143  -9.4540    127.6730     92.6997   6.9261437845e+01   3.9030966398e+01    0.1560562     0.119275   5.49  0.000293609    1.638    0.390
       144  -9.4536     46.5474     92.5597   9.5323327168e+01   5.2813813445e+01    0.1373988    0.1217846 -40.66 7.280753e-05    1.034    0.033
       145 -11.8711    151.7201     90.9655   6.2838132799e+01   3.4063293245e+01    0.5029362    0.4122187 -85.25  0.002476904    1.533    0.348
       146 -11.0091     10.7462     91.0588   1.0816584417e+02   5.6226717999e+01     0.359752    0.1882659  11.37   0.00124093    2.288    0.563
       147  -9.4388     10.3056     87.6775   1.0769893306e+02   5.7037562961e+01    0.1945067    0.1549548 -67.13  0.001230514    1.180    0.152
       148 -10.5426     96.5843     89.6646   7.7352582372e+01   4.5914170789e+01     0.370057    0.1828042  36.91  0.001476395    2.097    0.523
       149 -10.5418     57.7764     89.9487   9.0577047441e+01   5.2043166123e+01    0.3944216    0.2186042  23.92  0.001595477    2.006    0.502
       150 -10.4972     83.0426     88.9410   8.1510117905e+01   4.8472080775e+01    0.2247818    0.1983755 -20.52 0.0005313194    1.068    0.064
       151 -10.9234     78.4592     88.1502   8.2818957226e+01   4.9401588885e+01     0.339537    0.2442833 -47.35  0.001421189    1.349    0.259
       152 -10.2503     65.1021     87.6299   8.7314582601e+01   5.1557108202e+01    0.2541704    0.1980653 -47.16  0.001360639    1.215    0.177
       153 -10.5297     68.0413     83.7875   8.5165036515e+01   5.1964315899e+01    0.2476931    0.1642857 -17.68  0.001154086    1.788    0.441
       154 -11.1078     45.5217     86.3320   9.4123902505e+01   5.4349140100e+01    0.5411837    0.3900405  89.79  0.002656585    2.187    0.543
       155  -9.2078    139.2945     87.6850   6.4850215066e+01   3.7466597628e+01    0.1496314    0.1206636 -77.37 0.0007010394    1.601    0.375
       156  -9.2475    120.7086     87.3126   6.9566025636e+01   4.1579803868e+01    0.1468286    0.1219855 -81.11 0.0004226936    1.590    0.371
       157 -11.0407      4.3563     85.3058   1.0948061132e+02   5.7910431703e+01    0.3369814    0.2224555 -37.53  0.002029361    1.366    0.268
       158 -10.7475      6.3476     82.6922   1.0824322799e+02   5.8404426604e+01    0.3640602    0.2241513 -33.12  0.001979212    1.529    0.346
       159  -9.2388     51.4812     86.4422   9.1934868122e+01   5.3625730904e+01    0.1368127    0.1245062 -36.30 0.0008065007    1.072    0.067
       160 -10.0943    115.2386     84.3743   7.0209955708e+01   4.3302108258e+01    0.2911135    0.1396058  40.89  0.001124603    2.117    0.528
       161 -10.1621     73.6569     82.9535   8.2938879091e+01   5.1280930590e+01     0.207581    0.1789849 -35.01 0.0009198847    1.088    0.080
       162 -11.4551     31.0388     81.3749   9.8395727902e+01   5.6935169969e+01      0.60855    0.3215718 -15.04  0.002385301    2.558    0.609
       163 -10.8048     21.8561     73.7892   1.0016585036e+02   5.9391479002e+01    0.4345011    0.1583637 -59.40  0.001837818    2.398    0.583
       164 -11.1969     21.9407     80.6985   1.0178624505e+02   5.7847202992e+01    0.5087476    0.2282669 -33.68  0.002279085    2.306    0.566
       165 -10.3268     18.3443     79.3136   1.0288203241e+02   5.8424534754e+01    0.2110846    0.1455167 -41.56 0.0009809741    1.206    0.171
       166 -12.7054     44.7287     75.2809   9.1408370125e+01   5.6869661736e+01    0.2738853    0.2644549  27.09  0.000598675    1.260    0.206
       167 -11.4410     43.5677     38.1050   7.9224459793e+01   6.4084242166e+01    0.4964305      0.30667  50.45  0.002448855    2.688    0.628
       168 -12.1817     30.9391     63.7548   9.3657203165e+01   6.0746374677e+01     1.244037    0.7817296  56.48   0.00583808    2.983    0.665
       169 -11.1120     15.1756     59.5872   9.9282064402e+01   6.2920199810e+01    0.3662059    0.2233974  -2.61 0.0005661661    1.774    0.436
       170 -12.8930     11.2476     75.2189   1.0479104459e+02   5.9809086455e+01    0.9936873    0.5738972 -15.80  0.005383752    1.926    0.481
       171 -13.0380     74.5103    238.0967   1.1024116908e+02   1.5078941116e+01    0.7982258      0.56444 -73.67  0.004917916    1.505    0.335
       172 -11.6842     35.6760     42.5471   8.4456377943e+01   6.4311954123e+01    0.7698811    0.3298802  15.00    0.0030916    3.357    0.702
       173 -10.8836     26.7766     56.1154   9.3128711470e+01   6.2685967640e+01    0.2627415    0.2156322 -24.12 0.0004157943    1.034    0.033
       174 -12.0343     26.8214     49.7834   9.1055873265e+01   6.3917024378e+01    0.5122663    0.3105931 -51.75  0.001833757    1.625    0.385
       175 -13.7887     16.2655     67.7620   1.0096689368e+02   6.1114679655e+01    0.4852647     0.276954 -41.04 0.0007892654    1.429    0.300
       176 -11.2463     22.1072     66.8363   9.8264418222e+01   6.0875356559e+01    0.2581587    0.2171207  43.04 0.0007396428    1.559    0.358
       177  -9.9664     86.0670     80.7681   7.8050566352e+01   4.9659235012e+01    0.2413459    0.1635706   7.34  0.001081174    1.908    0.476
       178 -11.0989     61.0360     78.3255   8.6089436254e+01   5.4141207086e+01     0.325407    0.2240228 -52.50  0.000535153    1.480    0.324
       179 -11.6891     62.2284     71.6403   8.3588446488e+01   5.5354479555e+01    0.3600163    0.2256036 -29.63 0.0003351605    1.593    0.372
       180  -9.6113    134.8133     78.4013   6.3232321304e+01   4.0183836259e+01    0.2029307    0.1363051  38.25 0.0002581502    1.540    0.351
       181 -10.5695     74.5390     75.2476   8.0261684205e+01   5.2731687128e+01    0.3568625    0.1843636 -38.47 0.0009120172    1.867    0.464
       182 -10.4330     76.9152     64.2140   7.5806264813e+01   5.4467593981e+01    0.4000582    0.2593997 -42.42  0.001991362    1.543    0.352
       183  -9.9185     74.0100     71.5024   7.9250975424e+01   5.3563413231e+01    0.2935338    0.1954565   8.79  0.001030804    1.835    0.455
       184 -10.5561     77.4122     69.7141   7.7471065385e+01   5.3345253797e+01    0.3615093    0.2470897  55.86  0.001687423    2.031    0.508
       185  -9.6847     90.6379     75.3079   7.4837446990e+01   4.9918961708e+01    0.1419388     0.118812  83.52 7.633986e-05    1.741    0.425
       186 -10.7034     51.4080     62.9233   8.4952464296e+01   5.8586842128e+01    0.3384634    0.2038874 -29.19  0.001092642    1.624    0.384
       187  -9.8951     48.9863     60.2470   8.5038225871e+01   5.9422795638e+01    0.1840209    0.1766795  -3.88 0.0003723898    1.247    0.198
       188 -10.9557     54.0869     73.9313   8.7382306062e+01   5.6006273211e+01    0.3059662    0.2648246  68.90 0.0009331867    1.642    0.391
       189 -11.8989     50.2775     68.7036   8.7255473768e+01   5.7576415609e+01    0.4177058    0.2907386 -24.98 0.0006472862    1.377    0.274
       190 -10.9196    207.5894     73.3402   4.7879566707e+01   2.4509609090e+01    0.2219391    0.2170477 -36.60 0.0002805168    1.127    0.113
       191 -11.2061    155.6526     83.3020   5.9819337002e+01   3.4576184497e+01    0.6468642    0.3344613  35.61  0.002447534    2.491    0.599
       192 -10.3143     93.9796     74.0369   7.3358268903e+01   4.9537678282e+01    0.2266175    0.1684355  -1.23 0.0003672249    1.578    0.366
       193 -10.6457      1.8381     72.2500   1.0795412258e+02   6.0976612935e+01    0.4266707    0.1379634 -63.22   0.00186719    2.401    0.584
       194 -10.9336    100.7025     72.2678   7.0696090039e+01   4.8565527522e+01    0.3355598    0.2571254  78.06 0.0005972845    2.030    0.507
       195  -9.4505    129.1833     71.5970   6.2573272714e+01   4.2646457600e+01    0.2136072    0.1321076  39.04 0.0004907603    1.662    0.398
       196  -9.7988    194.5251     70.1019   4.9057614136e+01   2.7894070684e+01    0.2041209    0.1323597 -35.12 0.0008392337    1.520    0.342
       197 -11.9658    167.7465     69.8595   5.3611694000e+01   3.4065652100e+01    0.2567754    0.2237176  54.32 0.0003494336    1.147    0.128
       198  -9.5607    123.0000     68.3950   6.3158162020e+01   4.4569712293e+01    0.3118564   0.08299024 -37.30 0.0009208377    3.823    0.738
       199 -10.1416     42.7646     68.6813   9.0245786799e+01   5.8485669365e+01    0.2397416    0.2031093 -38.42 0.0009489763    1.111    0.100
       200 -11.6525      6.2495     51.7847   1.0116202044e+02   6.5093878224e+01    0.5975856    0.2712476 -39.24  0.003055649    1.748    0.428
       201 -11.5011      6.3894     42.0744   9.8230289784e+01   6.7001192262e+01    0.5280576    0.1374508 -43.93  0.001521894    2.674    0.626
       202 -11.4872     12.8403     51.8479   9.8130923702e+01   6.4661387924e+01    0.5598897    0.2154099 -51.25  0.002490941    2.020    0.505
       203 -10.9614     11.2981     45.3832   9.6885108284e+01   6.6040538722e+01    0.3378695     0.246904 -41.54  0.001530153    1.137    0.120
       204 -11.0244     10.3919     63.0559   1.0228404617e+02   6.2507623911e+01    0.3793762    0.2920521  -7.09   0.00161938    1.339    0.253
       205 -12.0126      5.1835     58.8783   1.0351280082e+02   6.3691192345e+01    0.2546853    0.2365412 -53.51 0.0003206357    1.262    0.208
       206 -11.9561      6.1657     67.9090   1.0524086500e+02   6.1709091836e+01    0.2552512    0.1806124 -58.13 0.0003301992    1.218    0.179
       207 -12.4776      3.2375     63.0154   1.0535970058e+02   6.2916951520e+01    0.4172554    0.3020999 -75.08  0.002534528    1.560    0.359
       208  -9.1080    189.2859     68.6597   4.9524342064e+01   2.9299513815e+01    0.1457032    0.1014353 -65.51 0.0002712315    1.637    0.389
       209  -9.8034    127.6856     66.6739   6.1421246240e+01   4.3820384839e+01    0.1896936    0.1703084 -77.29  0.001022074    1.313    0.238
       210 -11.3245     93.7470     66.6118   7.1000494321e+01   5.0960685747e+01     0.352461    0.2562263  11.65 0.0007697633    1.577    0.366
       211  -9.6305     99.4934     65.0132   6.8683055142e+01   5.0115809573e+01    0.2125287    0.1761622  13.66  0.001137936    1.217    0.178
       212  -8.7598    222.6211     62.3068   4.3284115827e+01   2.2962894280e+01    0.1407756   0.08904833 -68.38 0.0002159719    1.783    0.439
       213 -10.1333    201.8442     62.1513   4.5991914447e+01   2.7464769746e+01     0.206502    0.1670917 -65.54 0.0005660115    1.210    0.173
       214 -10.3473    120.0950     61.0182   6.1556522070e+01   4.6439048707e+01    0.3546241    0.1905238  48.95  0.001467532    1.792    0.442
       215  -9.2793    113.4652     61.5063   6.3483384559e+01   4.7804970709e+01    0.1416399    0.1370697  21.33   0.00080885    1.062    0.059
       216 -10.6441     84.1720     61.2838   7.2311576397e+01   5.3711399539e+01    0.2331375    0.1701494  19.08  0.001025475    1.424    0.298
       217 -10.4419    155.0529     60.0468   5.3295591043e+01   3.8567861435e+01    0.2085112    0.2007224  86.96            0    1.042    0.040
       218  -9.4417     98.3463     60.2132   6.7412227134e+01   5.1171747504e+01    0.1853392    0.1293735 -42.97 0.0002182284    1.532    0.347
       219 -10.9874     59.3437     58.6349   8.0373192390e+01   5.8300579077e+01     0.271992    0.2611389  -7.18   0.00113605    1.230    0.187
       220 -10.0178    147.0186     56.9584   5.4014409479e+01   4.0916306280e+01    0.2064793    0.2035044 -71.03 0.0003435422    1.046    0.044
       221  -9.4753    112.0018     57.4951   6.2552915354e+01   4.8769986647e+01     0.216896    0.1099594  30.47 0.0008106699    2.621    0.618
       222 -10.2190    105.4415     56.5313   6.4061581232e+01   5.0319161813e+01     0.247801    0.1704599  35.65 0.0005204944    1.420    0.296
       223 -12.0446    104.9714     52.6982   6.2880295770e+01   5.1020781702e+01    0.2854998    0.2468684  40.85 0.0002267701    1.121    0.108
       224 -10.8218     75.3195     56.2761   7.3604129993e+01   5.6164206195e+01    0.2252452    0.2054813 -14.08 0.0003320774    1.103    0.093
       225  -9.6089     68.8733     56.4747   7.6004403082e+01   5.7213605428e+01    0.2031392    0.1290469  35.69  0.001025029    1.576    0.366
       226 -10.0572     48.0855     56.2337   8.4041934455e+01   6.0304975202e+01    0.2109757    0.1519423  -5.89  0.001176295    1.391    0.281
       227 -10.1817    132.0784     54.3474   5.6478911415e+01   4.4773395041e+01    0.3479638    0.2290101  27.69  0.001610779    1.835    0.455
       228  -9.5556     82.7126     53.8885   7.0196702216e+01   5.5246622132e+01    0.2138257    0.1707394   3.62 0.0005748514    1.243    0.196
       229 -11.5284     88.3135     51.3191   6.7429758660e+01   5.4606108384e+01     0.308865    0.2390649  26.49 0.0006367413    1.229    0.186
       230 -11.8138     62.7689     52.1930   7.6753712990e+01   5.8939591779e+01    0.4511513    0.2707349 -42.15  0.002283653    1.676    0.403
       231 -10.2651    120.0509     52.4686   5.8768495939e+01   4.7778525712e+01    0.2413076    0.1908202   0.60 0.0005419991    1.433    0.302
       232  -9.8774     56.4207     53.2227   7.9605016741e+01   5.9714163866e+01    0.2220611    0.1474949 -20.92 0.0009653635    1.498    0.332
       233 -10.7614     53.4817     49.8577   7.9558181960e+01   6.0732904951e+01     0.320858    0.2051056  23.78  0.001057536    1.558    0.358
       234  -9.7871    237.3812     51.2105   3.9182846104e+01   2.1494501763e+01    0.1844788   0.09448058 -45.97 0.0009506544    1.669    0.401
       235 -11.4435    129.1903     49.1369   5.5479518210e+01   4.6194477193e+01    0.5011682    0.3437227  -8.82   0.00241763    1.845    0.458
       236 -10.4187    199.7838     49.6826   4.3221060289e+01   2.9692390644e+01    0.2373146     0.192096  83.84 0.0008028124    1.213    0.175
       237 -10.3466    135.0527     93.7820   6.7654284188e+01   3.7221112183e+01    0.2883267    0.2704436 -60.83  0.001541014    1.145    0.126
       238 -10.1660    152.2130     47.5028   5.0169169533e+01   4.1046871551e+01     0.266958    0.1195127  52.69 0.0008860493    2.069    0.517
       239  -9.3630    119.9606     47.1140   5.7010807953e+01   4.8576217736e+01    0.1620971    0.1548205  10.24 0.0009603903    1.056    0.053
       240 -10.3555     77.9442     46.1316   6.8969283106e+01   5.7367110198e+01    0.3251044    0.2027951 -52.17  0.001037298    2.276    0.561
       241 -10.5375    142.9167     45.3643   5.1336093511e+01   4.3526458884e+01    0.2701602    0.2203508 -70.74  0.001024689    1.424    0.298
       242 -10.1156    110.3960     46.3579   5.9197217091e+01   5.0799354761e+01    0.4642488    0.1340833  47.25   0.00157003    3.124    0.680
       243 -10.2338     99.4575     39.5824   5.9788409015e+01   5.4081315527e+01    0.3981676    0.1464175  49.55  0.001550617    2.492    0.599
       244 -10.6269     91.7230     43.2601   6.3416648858e+01   5.5156833622e+01    0.3535469    0.2773845 -53.35  0.001928664    1.665    0.399
       245 -10.5985     95.8430     42.8721   6.2034446392e+01   5.4376197213e+01    0.2586667    0.1851696  -2.54   0.00061996    1.586    0.370
       246  -9.5329     50.8509     44.8523   7.8759921043e+01   6.1967860624e+01    0.1638716    0.1471841 -36.73 0.0005530614    1.338    0.252
       247 -10.2822    107.5624     42.6933   5.8673643897e+01   5.1927988167e+01    0.3432087    0.1991935  33.18  0.001147018    1.841    0.457
       248  -9.8270     62.4400     40.4884   7.2431981868e+01   6.0915324713e+01    0.2190514    0.1217964  37.82  0.001093139    1.756    0.431
       249 -11.8809     74.7717     36.1274   6.6203768143e+01   5.9424759375e+01    0.5530969    0.3056394  15.95  0.001661294    2.545    0.607
       250 -10.5401     71.2012     41.0858   6.9410995148e+01   5.9343899711e+01    0.2359497    0.1655661  -4.15 0.0009325955    1.512    0.339
       251 -11.1539     66.8144     40.8378   7.0917420903e+01   6.0136611102e+01    0.3680725    0.2284192 -12.53  0.001832732    1.847    0.459
       252 -10.8142     69.4232     37.7948   6.8758739437e+01   6.0142676031e+01    0.3088184    0.2092212 -33.45  0.001703569    1.504    0.335
       253 -10.2443     18.1840     42.3912   9.2582871293e+01   6.6081972318e+01    0.4718751    0.1204578 -42.03  0.001685107    3.069    0.674
       254 -10.3060    109.4852    242.7920   1.0345602878e+02   9.3821632956e+00     0.240059    0.1599274  54.55 0.0006905303    1.517    0.341
       255  -9.2952     50.3226    240.3069   1.1534334889e+02   1.7632026917e+01    0.1051036   0.09148921 -28.70 0.0005614336    1.643    0.391
       256 -10.3195     14.9677     13.9608   8.2733104623e+01   7.1106934378e+01    0.1857449    0.1364032  -0.18 0.0006280747    1.121    0.108
       257 -10.0024    195.2555    238.6300   8.5199986977e+01  -2.4963391590e+00    0.2318106    0.1422606  20.56  0.001286691    1.492    0.330
       258 -10.9175     23.9368     41.8444   8.9638528727e+01   6.5670563741e+01    0.2800115    0.2617735  85.92  0.001403731    1.699    0.411
       259 -10.9834      8.4848     34.3500   9.4598995081e+01   6.8304142515e+01    0.3948139    0.3162113 -56.63  0.001756389    1.524    0.344
       260 -10.6872    243.8897    237.3392   7.5958885517e+01  -8.7281754606e+00    0.1937716    0.1429119 -27.63 0.0009400899    1.381    0.276
       261 -10.7795     29.8083    232.9960   1.1884711423e+02   2.1376029811e+01    0.2693912    0.1514634  65.94   0.00158131    1.616    0.381
       262 -11.3467     22.2472     25.4356   8.4034127032e+01   6.8631149213e+01    0.2851491    0.2284656  -8.08 0.0007181705    1.085    0.078
       263  -9.6857    159.6836    236.2948   9.2035244657e+01   3.1027229745e+00     0.122773     0.096673  56.39 0.0003459495    1.604    0.377
       264  -9.8586    177.4731    235.0382   8.8177955727e+01   6.5099383579e-01    0.1772332   0.09951677 -18.84 0.0008086521    2.441    0.590
       265 -10.1689     88.7048    241.4646   1.0764047147e+02   1.2534059569e+01     0.199919    0.1434132 -39.58  0.001168507    1.822    0.451
       266 -10.0198     24.0012    232.5012   1.1994398201e+02   2.2074789314e+01    0.1935662    0.1398642 -66.59 0.0006593943    1.491    0.329
       267 -11.8020     17.8143     31.5024   8.8766324041e+01   6.8059233275e+01    0.5414012    0.3914137  14.98  0.003476483    1.396    0.284
       268 -12.1254     28.1838     38.0133   8.6201169476e+01   6.5928320293e+01    0.3781371    0.2244273  20.70   0.00125031    1.688    0.407
       269 -11.7151     24.1848     35.1025   8.7001197946e+01   6.6839226531e+01    0.3643057     0.220237  -4.69  0.001463472    1.700    0.412
       270  -9.8113     71.6328     51.4749   7.3186614925e+01   5.7615581441e+01    0.3643235    0.1268412  38.94  0.001377319    2.842    0.648
       271 -11.2629     52.3747     40.4720   7.6429665704e+01   6.2472444508e+01    0.3264818     0.224883  33.93  0.001182885    1.485    0.327
       272 -11.9988     57.2645     34.1845   7.1911847098e+01   6.2696267355e+01    0.3906422    0.3110622 -27.13  0.001559694    1.267    0.211
       273  -9.4362    232.4770     39.9838   3.7280641577e+01   2.3955810700e+01    0.1733151    0.1086853 -39.07 0.0003371622    1.478    0.324
       274 -11.0135    152.5992     39.1232   4.7621886285e+01   4.2054886492e+01    0.2401078    0.2291455  60.39 0.0004139617    1.037    0.035
       275  -9.5933    142.2074     40.6446   5.0024583575e+01   4.4313959624e+01    0.1936859    0.1155617  51.11 0.0003439297    1.552    0.356
       276 -10.9307    225.1219     38.3083   3.7646432873e+01   2.5685965382e+01    0.2511877    0.1855116 -89.83 0.0004379476    1.311    0.237
       277  -9.6330    116.7926     39.6242   5.5252654764e+01   5.0304540138e+01    0.1908866    0.1266606  63.54 0.0006937746    1.620    0.383
       278  -9.4561    160.2210     38.3766   4.6094188301e+01   4.0344959962e+01    0.1761715      0.12263  74.94  0.000218737    1.462    0.316
       279 -10.6205      2.0636     37.2442   9.8863673523e+01   6.8177021983e+01     0.256142     0.154361 -33.80  0.001046693    1.284    0.221
       280 -11.0376     81.3225     35.7848   6.3868557093e+01   5.8244965292e+01    0.3565189    0.2464841 -23.80  0.001959429    1.465    0.318
       281  -9.5438    134.4414     35.7568   5.0042359353e+01   4.6746078133e+01    0.1790149    0.1333511  -8.04 0.0007884097    1.597    0.374
       282 -11.5127     98.4113     32.5042   5.7474365081e+01   5.5219041880e+01    0.5701925    0.4004434 -60.84  0.002855311    2.197    0.545
       283 -11.1514    102.0010     28.7615   5.5122651747e+01   5.4902816159e+01    0.3778948    0.3137313  79.26 0.0007198433    1.520    0.342
       284  -9.5400     63.8178     35.3803   6.9863123667e+01   6.1453167972e+01    0.1768445    0.1081081  27.46 7.103668e-05    1.574    0.365
       285  -9.6628    201.7848     34.2052   3.9226431356e+01   3.1241534933e+01    0.1601599     0.145585  49.89 0.0003559008    1.284    0.221
       286 -10.0007    108.8686     34.4766   5.5424474992e+01   5.2719078122e+01    0.3189136    0.1603667  51.78  0.001456543    1.800    0.445
       287 -11.2129    221.7272     32.1695   3.6637144784e+01   2.7157260583e+01    0.2170029    0.1755237 -69.76 0.0002783575    1.072    0.067
       288 -10.2518    205.9077     32.4526   3.8346318557e+01   3.0539358523e+01    0.1817464    0.1554422 -54.02 0.0003086282    1.121    0.108
       289 -10.0147    166.4755     33.0338   4.3597404923e+01   3.9517654308e+01     0.192457    0.1321721 -29.26  0.001027902    1.585    0.369
       290 -10.6286     89.5728     31.8509   5.9765066418e+01   5.7132008552e+01    0.2427474    0.1857885  38.18 0.0001334401    1.173    0.147
       291 -11.5429     48.1017     31.9253   7.4737438788e+01   6.4420385251e+01     0.303842    0.1904587  33.74   0.00171601    1.572    0.364
       292 -10.5406     50.1839     27.8244   7.2113820216e+01   6.4706592335e+01    0.2793689    0.1767345  21.27 0.0008955794    1.494    0.331
       293 -10.7439    236.0718     30.2774   3.4907867024e+01   2.4427267292e+01    0.2268205    0.1902132  70.93 0.0008484006    1.309    0.236
       294  -9.5430    145.4424     31.2330   4.6533802507e+01   4.4699734826e+01    0.1892344    0.1182691 -44.34 0.0009476016    1.740    0.425
       295  -9.7005    176.9799     30.5138   4.1407720187e+01   3.7350408931e+01       0.1889    0.1039324 -83.23 0.0007856942    2.490    0.598
       296  -9.9168    111.4830     28.1844   5.2546462233e+01   5.2889416875e+01     0.230147    0.1336665 -18.15 0.0008896439    1.996    0.499
       297 -11.1948     69.6013     26.8371   6.4228094490e+01   6.1603608011e+01    0.3785876     0.288986  18.19  0.001749486    1.165    0.142
       298 -10.2856     60.1247     26.9548   6.7759328798e+01   6.3240191774e+01    0.2022446    0.1725778 -20.32            0    1.250    0.200
       299 -11.5524     59.4829     22.2648   6.5974694795e+01   6.3949818779e+01    0.6008126    0.2836496  38.73  0.002293996    1.922    0.480
       300 -11.1131    129.0612     26.8501   4.8248500099e+01   4.9032781074e+01    0.5351375    0.2237321  65.74  0.001953152    2.522    0.604
       301 -10.0914    193.5644     25.7522   3.8128775856e+01   3.4083127567e+01    0.1797342    0.1046691 -46.51 0.0009472464    1.657    0.397
       302 -10.4436    169.0067     25.9631   4.1286253009e+01   3.9732605102e+01    0.1928036    0.1738503  88.50  0.001220146    1.029    0.028
       303 -11.6814    164.9005     23.1532   4.1091858884e+01   4.1003052967e+01    0.2600829    0.2105428  64.68            0    1.131    0.116
       304  -9.3796    144.3055     26.6446   4.5336876697e+01   4.5485007034e+01    0.1371696    0.0969073 -67.34 0.0007041023    1.717    0.418
       305  -9.3998    214.2965     25.3734   3.5854906818e+01   2.9543958308e+01    0.1159479   0.09356017  31.12 0.0007027016    1.740    0.425
       306 -10.1084    203.8795     25.5943   3.6959629067e+01   3.1792306223e+01     0.265587    0.1287108 -49.79  0.001307072    1.979    0.495
       307 -10.2045     89.5392     20.7865   5.5460727547e+01   5.8428226509e+01    0.2391973    0.1473318  41.08 0.0007045143    1.418    0.295
       308 -10.8941     97.7989     23.6753   5.4325984842e+01   5.6379926873e+01    0.5085443     0.172737  50.55  0.001650702    2.472    0.596
       309 -10.8307     94.1372     22.3104   5.4784492707e+01   5.7304772997e+01    0.5778353    0.2159309  42.74  0.002386437    2.429    0.588
       310 -11.2179    103.0536     19.4707   5.1417016661e+01   5.5688822339e+01    0.4345081    0.2429918  57.73  0.002012936    1.654    0.395
       311 -10.1665     38.2207    232.8026   1.1717265766e+02   2.0512013622e+01    0.1735039    0.1302053  68.04 0.0005692813    1.121    0.108
       312 -10.3526    186.1251     22.9927   3.8309251856e+01   3.6085141855e+01    0.1941522    0.1660742 -79.91 0.0004899482    1.066    0.062
       313  -9.7349    226.1741     22.1511   3.4062900771e+01   2.7400911127e+01    0.1654318    0.1482663  78.20 0.0006154878    1.230    0.187
       314 -10.0164    192.6772     21.6232   3.7221376147e+01   3.4742914249e+01    0.1951784    0.1390307  41.98  0.001113989    1.723    0.419
       315 -10.1250     68.6441     22.0557   6.2544437687e+01   6.2362885915e+01     0.221598    0.1658799  52.06 0.0007669429    1.536    0.349
       316  -9.5621    169.7338    229.3291   8.8861229810e+01   2.7704805166e+00    0.1173437    0.1030949  66.50 0.0003407088    1.575    0.365
       317 -11.3126      4.6335    226.7861   1.2330937307e+02   2.5076459783e+01    0.3131153    0.1742543  58.27  0.001979652    1.494    0.331
       318 -10.3135    154.8017    227.1959   9.1671267461e+01   5.4442339437e+00    0.2177107    0.1431942  68.41 0.0009605854    2.894    0.654
       319  -9.5766    172.6525     20.2688   3.9265860114e+01   3.9493308785e+01    0.1322845   0.08876753 -74.19 0.0006990167    1.618    0.382
       320 -10.3395    139.0545     20.1795   4.4255579829e+01   4.7401505835e+01    0.2320831    0.1177417  43.06  0.001069242    2.024    0.506
       321 -10.6107    120.5812    226.7561   9.9027828655e+01   1.0799747375e+01    0.1710064    0.1289749 -74.09  0.000950399    1.636    0.389
       322 -10.1399     65.9810    226.2036   1.1086400291e+02   1.8588082390e+01    0.2018096    0.1695544 -81.98 0.0006251801    1.193    0.162
       323 -11.6403     21.1446    222.2870   1.1983923823e+02   2.4465906311e+01    0.2668121    0.1773534  85.73 0.0009921441    1.310    0.237
       324  -9.3992    181.4767     19.5397   3.7985765996e+01   3.7524501178e+01    0.1257354    0.1118386  82.24 8.391198e-05    1.043    0.041
       325  -9.6186     54.8536     19.1032   6.6363338164e+01   6.5111445454e+01    0.1728054    0.1575679  23.73  0.001179389    1.310    0.237
       326  -9.3156    151.6355     18.3270   4.1659183691e+01   4.4626565003e+01    0.1379912   0.09164795 -70.83 0.0007038621    1.800    0.444
       327 -10.4134    123.6967    221.6766   9.7626483556e+01   1.1321679045e+01    0.2207272    0.1581464 -27.17  0.001161117    1.751    0.429
       328 -10.5834     74.6988     16.0095   5.7946665418e+01   6.1900359485e+01    0.4312363    0.1927386  51.32  0.001067457    2.093    0.522
       329  -9.9583     38.0092    217.6998   1.1603680617e+02   2.3696215936e+01    0.1695977    0.1413922  55.92 0.0008359056    1.122    0.109
       330 -11.6579      9.9020    217.2795   1.2175843939e+02   2.6577820934e+01    0.3152626     0.193075  60.76  0.001999857    1.396    0.284
       331 -11.4867     29.9279    215.9417   1.1759273913e+02   2.4931289691e+01    0.3590001    0.2603776  22.61  0.001904059    1.705    0.413
       332 -11.9272    237.6003    213.0091   7.2812810129e+01  -4.4987196479e+00    0.5806443    0.3267232  -0.04  0.002162459    2.203    0.546
       333  -9.7256    190.5702    226.2560   8.4090487824e+01   1.3819192385e-01     0.173586     0.112607 -25.19 0.0005280463    1.581    0.367
       334  -9.2562     96.5256     13.5362   5.0782566927e+01   5.7681698541e+01     0.184518    0.1678306 -13.49 0.0008705456    1.225    0.184
       335 -10.8498     30.1480     33.1313   8.3345938103e+01   6.6540711895e+01    0.3623577    0.1831047  12.73   0.00106816    2.288    0.563
       336  -9.9994     30.9500     12.8930   7.3931961127e+01   6.9419804045e+01    0.1819242    0.1241978  -0.81 0.0005381407    1.260    0.206
       337 -10.6034     21.6976    212.7608   1.1907040834e+02   2.6442100532e+01    0.2875842    0.1489381  48.61  0.001612332    1.724    0.420
       338  -9.8997    208.8696    211.9319   7.7957126570e+01  -2.5116401415e-01    0.2042412    0.1509556  -4.41 0.0005668442    1.269    0.212
       339 -12.1637      4.9034    208.1322   1.2221079400e+02   2.8967907497e+01    0.5508826    0.2719162  85.37  0.003035133    1.833    0.454
       340 -10.3319    108.0178    210.0060   9.9503494021e+01   1.6129128944e+01    0.2232607    0.1571766  65.97 0.0009562781    1.696    0.410
       341 -10.5301     10.7924    208.4251   1.2102759886e+02   2.8394666710e+01    0.2191755    0.1686569 -60.71 0.0004523202    1.453    0.312
       342  -9.2244    188.2499    205.3395   8.0884926374e+01   4.0701229807e+00    0.1374688   0.09577921 -10.33 0.0003417975    1.568    0.362
       343 -10.7969    243.9006    202.4498   6.9770745168e+01  -3.7629963606e+00    0.2231047    0.1171955  39.31  0.001159059    2.182    0.542
       344 -10.3167    175.4122    202.7772   8.3115094423e+01   6.6287249225e+00    0.2407878    0.1801973  31.97 0.0005227942    1.274    0.215
       345 -11.0897     20.4878    199.9866   1.1837852835e+02   2.9375569863e+01    0.4642341    0.2552012 -72.39  0.002600889    1.610    0.379
       346  -9.5361    215.6475    194.6930   7.3428430648e+01   1.5871820411e+00    0.1415965   0.09319067  -2.28 0.0007042573    1.714    0.417
       347 -10.8829     16.8357    193.3016   1.1866324227e+02   3.1222399757e+01    0.2770781     0.240518   8.29  0.001528911    1.542    0.351
       348  -9.6464    211.3270    188.6681   7.3086370982e+01   3.3027219622e+00    0.1244019    0.1115733 -79.67 0.0007051369    1.712    0.416
       349 -11.2743     16.5221    184.5625   1.1803243910e+02   3.3261444833e+01    0.4217981    0.1869485 -76.08  0.002013367    1.954    0.488
       350 -10.1133     14.7069    180.6602   1.1812820789e+02   3.4327122380e+01    0.2136484    0.1608122 -47.95 0.0007250141    1.533    0.348
       351 -10.3386    168.2065    183.9872   8.1127044420e+01   1.1505281980e+01     0.209659    0.1646781  57.86  0.001057226    1.607    0.378
       352  -9.8106     58.8065    182.1841   1.0757494134e+02   2.9391816026e+01    0.1835509    0.1553537 -41.81  0.001002774    1.343    0.255
       353  -9.3762      1.5423    180.5196   1.2113510250e+02   3.5402523381e+01     0.120646   0.09592056  88.78 0.0001753182    1.003    0.003
       354  -9.8932    244.4426    178.5199   6.5103028238e+01  -9.5860277813e-02    0.2394909    0.1024755 -28.75  0.001022054    2.344    0.573
       355 -10.7791     46.5259    177.6564   1.1009720480e+02   3.1926182289e+01    0.2984514    0.2413059 -83.98   0.00121441    1.127    0.112
       356  -9.7398     69.5875    178.2000   1.0430530127e+02   2.8967773396e+01    0.1901446    0.1189424 -52.53 0.0005431623    1.592    0.372
       357 -11.0835     34.2341    174.1572   1.1278067932e+02   3.4074682334e+01    0.2579696    0.1964172 -66.52 0.0003946583    1.204    0.170
       358 -10.9601     17.9640    173.0174   1.1668107205e+02   3.5855242803e+01    0.3772103    0.1983736  67.16  0.001865924    2.064    0.516
       359  -9.1125     74.3324    171.3269   1.0205385465e+02   2.9991462745e+01    0.1451576    0.1063993 -29.23 0.0007051416    1.713    0.416
       360 -12.2412     36.2626    165.8208   1.1131182365e+02   3.5898076819e+01    0.7880467    0.4413577 -80.47  0.003839041    1.743    0.426
       361 -11.0720     40.2921    162.5865   1.0985364899e+02   3.6280028096e+01    0.4056095    0.2316173 -69.85  0.001422747    1.567    0.362
