#   1 NUMBER                 Running object number                                     
#   2 MAG_AUTO               Kron-like elliptical aperture magnitude                    [mag]
#   3 X_IMAGE                Object position along x                                    [pixel]
#   4 Y_IMAGE                Object position along y                                    [pixel]
#   5 X_WORLD                Barycenter position along world x axis                     [deg]
#   6 Y_WORLD                Barycenter position along world y axis                     [deg]
#   7 A_WORLD                Profile RMS along major axis (world units)                 [deg]
#   8 B_WORLD                Profile RMS along minor axis (world units)                 [deg]
#   9 THETA_WORLD            Position angle (CCW/world-x)                               [deg]
#  10 FWHM_WORLD             FWHM assuming a gaussian core                              [deg]
#  11 ELONGATION             A_IMAGE/B_IMAGE                                           
#  12 ELLIPTICITY            1 - B_IMAGE/A_IMAGE                                       
         1  -9.6848     40.7046     12.4695   7.7665382739e+01   7.1862177970e+01    0.2678068    0.1538675 -36.89  0.001353009    1.629    0.386
         2  -9.5318     57.4898     10.0000   6.7300669036e+01   6.9260668452e+01    0.2841091   0.07435196  50.03 0.0009237126    3.846    0.740
         3 -10.0157    246.2674    247.5534   8.2885265740e+01  -4.5794763102e+00    0.1830447   0.07515542  34.22  0.001147882    2.105    0.525
         4  -9.6042     73.6905    229.3315   1.1203971464e+02   1.9370718935e+01    0.1203165   0.06545458  56.30 0.0007041763    1.669    0.401
         5 -10.7059    162.4565    226.1190   9.4144583819e+01   8.1495268401e+00    0.3868111    0.2088726  24.45  0.002203034    1.703    0.413
         6 -10.6083     99.5470    226.1420   1.0653842174e+02   1.6677010004e+01    0.2725059    0.1507325  27.77  0.001552811    1.704    0.413
         7 -11.0360    125.9699    220.9438   1.0064100075e+02   1.3960869311e+01    0.2042402    0.1785928   9.36 0.0009664871    1.252    0.201
         8 -10.0485    131.4046    214.7436   9.8807523717e+01   1.4176336539e+01     0.147354    0.1116132 -33.36 0.0009439319    1.633    0.388
         9  -9.8538     89.5534    199.7839   1.0606093533e+02   2.2629696030e+01    0.1560867    0.1127866  85.06 0.0006841293    1.604    0.377
        10 -10.0148    126.6688    197.2067   9.7563207110e+01   1.7786082599e+01    0.2017549    0.1609824 -35.17  0.001258085    1.494    0.331
        11  -9.5368    113.3402    198.6510   1.0065386349e+02   1.9498953168e+01    0.1328058    0.0855796  60.57 0.0001882924    1.794    0.443
        12 -11.2980    173.0094    195.9481   8.7818844800e+01   1.0918317786e+01      0.25982    0.2368351  33.72  0.000863985    1.239    0.193
        13  -9.6787    174.2273    192.0068   8.6953886075e+01   1.1321936299e+01    0.1621704    0.1440988  38.11 0.0005639565    1.255    0.203
        14  -9.8902     44.4980    194.4986   1.1580747509e+02   2.9180454605e+01    0.1227438   0.09407063  57.99 0.0008102562    1.046    0.044
        15 -10.3164     87.7897    189.6201   1.0536375708e+02   2.4828990885e+01    0.1956591   0.09503268  43.27 0.0009554951    1.731    0.422
        16 -10.4188    156.8365    188.1444   8.9835746323e+01   1.4653444944e+01    0.1935593    0.1650494  43.65  0.001227384    1.216    0.178
        17 -11.7244     96.8311    187.6848   1.0303787740e+02   2.3941773035e+01    0.5716972    0.1943001  45.51  0.002294187    2.652    0.623
        18  -9.9254     56.0183    188.0183   1.1265352649e+02   2.9205700359e+01    0.2708861   0.09029766  59.46 0.0009508476    4.066    0.754
        19  -9.4307    121.0000    187.0017   9.7416489888e+01   2.0479096042e+01    0.1921569   0.07523528 -54.87 0.0008026743    2.944    0.660
        20 -10.5406    110.4691    186.9664   9.9801427087e+01   2.2083246664e+01    0.3013932    0.1258054  49.18  0.001260615    2.477    0.596
        21 -10.9365     13.3416    184.5852   1.2237576128e+02   3.4235895669e+01    0.2563809     0.203279  27.71  0.001391085    1.433    0.302
        22  -9.9993    148.7127    181.5971   9.0499927072e+01   1.7057393695e+01    0.1868206    0.1097833  44.38 0.0008680155    1.610    0.379
        23 -10.3908     78.5261    176.7561   1.0611985937e+02   2.8718688230e+01     0.455259    0.1251322  45.44  0.001636038    3.224    0.690
        24  -9.8888     61.0024    177.6712   1.1052824941e+02   3.0782576687e+01    0.2273989    0.0457519  46.93 0.0007051642    4.347    0.770
        25  -9.8808     14.1834    177.4069   1.2186904671e+02   3.5676638556e+01    0.1749749   0.08024769  42.02 0.0009545195    1.755    0.430
        26 -10.1248    204.6170    176.1657   7.8520588408e+01   8.8993449153e+00     0.177301    0.1056696 -21.47 0.0009509682    1.746    0.427
        27  -9.8319    106.3522    175.6874   9.9223610155e+01   2.4911883332e+01    0.1411676   0.09274991  61.69 0.0004257334    1.727    0.421
        28  -9.7347    212.6549    182.6918   7.8269245534e+01   6.7825059419e+00    0.1284085   0.08068154   6.76 0.0007043947    1.699    0.411
        29  -9.7289    135.6695    172.3532   9.1868784491e+01   2.0862853659e+01    0.1371564    0.1017469  68.55 0.0007046358    1.778    0.438
        30  -9.5287     45.3257    172.6562   1.1397054229e+02   3.3689335007e+01    0.1396565   0.07527502  60.65 0.0007050745    1.740    0.425
        31 -10.1228    122.7839    170.5844   9.4558688085e+01   2.3324002338e+01    0.2059769    0.1111716  46.73 0.0009520393    1.772    0.436
        32 -10.1051     56.0212    170.5226   1.1108311750e+02   3.2934784764e+01    0.2033855    0.0705256  49.47 0.0008101755    2.664    0.625
        33  -9.9846    101.1697    167.4201   9.9300574096e+01   2.7403486738e+01    0.3413205   0.09133935  42.69  0.001149401    3.274    0.695
        34 -10.2656    140.5214    166.1822   8.9722847494e+01   2.1202102168e+01    0.3465023    0.1702923  53.40  0.001396509    2.616    0.618
        35 -10.1772     80.8918    165.1117   1.0410681194e+02   3.0893908668e+01     0.396963    0.1731818  59.32  0.001471416    3.201    0.688
        36  -9.7503     38.4954    165.4727   1.1511924625e+02   3.6014631736e+01    0.1286006    0.1035712  65.02 0.0001812237    1.041    0.039
        37 -10.3508      9.6546    161.4461   1.2224262187e+02   3.9533577082e+01    0.3330162    0.1093234  66.26  0.001389951    2.965    0.663
        38 -10.2234     94.0000    161.1490   1.0019165702e+02   2.9838199810e+01    0.3443819    0.1342099  51.62  0.001243111    3.026    0.670
        39 -10.3837    108.0213    159.1168   9.6312341876e+01   2.8067917490e+01    0.7184078     0.147745  44.65  0.001958564    4.938    0.797
        40 -10.8940     51.4042    156.2782   1.1086307847e+02   3.6694000893e+01    0.5299407    0.1338851  48.15  0.001776008    3.809    0.737
        41  -9.9934    219.0377    156.0414   7.2198648933e+01   9.4366888390e+00    0.1887159     0.161772  -1.00 0.0003696567    1.048    0.046
        42 -10.5391     83.5822    155.9294   1.0215657758e+02   3.2544649792e+01    0.5249116     0.141006  47.59  0.001602421    4.129    0.758
        43 -10.3664     69.1667    154.5901   1.0584809612e+02   3.4865379421e+01    0.4420189    0.1521348  47.56  0.001654871    2.832    0.647
        44 -10.1184    134.9702    154.1365   8.8841329433e+01   2.4495018803e+01    0.3509621    0.1666373  56.27  0.001251129    3.201    0.688
        45 -10.0977     29.6835    150.7349   1.1628365410e+02   4.0275671653e+01    0.3786616    0.1253218  54.90   0.00147961    3.029    0.670
        46  -9.4682     22.6553    151.3438   1.1825000221e+02   4.0771870010e+01    0.1418433   0.07198653  60.00 0.0007046019    1.792    0.442
        47 -10.8913     40.7027    148.3778   1.1301402980e+02   3.9730668979e+01    0.4985942    0.1679358  48.61  0.001984876    2.758    0.637
        48 -11.3652    109.2762    146.6731   9.3870381958e+01   3.0534877900e+01    0.7294875    0.3247286  59.02  0.002240842    4.283    0.767
        49  -9.6572     79.0183    147.8266   1.0221539681e+02   3.5054902185e+01    0.2426287    0.1319608  55.75  0.001069895    1.978    0.494
        50 -11.1779     57.4114    146.7095   1.0811746820e+02   3.8215626280e+01    0.6038376    0.2294121  54.62  0.002227376    3.090    0.676
        51 -11.3170    150.4709    146.0909   8.3668732808e+01   2.3239888291e+01    0.5529784    0.3205311  64.00  0.002119565    3.037    0.671
        52 -10.3299     14.3360    146.7162   1.2022223657e+02   4.2542559010e+01    0.2344068    0.1179401  40.26  0.001244471    1.782    0.439
        53 -10.6921    126.7466    144.5033   8.9005155829e+01   2.7928737431e+01    0.4222651     0.255957  67.56  0.001677614    2.698    0.629
        54 -10.6787     89.7011    144.8842   9.8810460728e+01   3.4127994087e+01    0.4952117    0.1854918  45.19   0.00184783    2.577    0.612
        55 -10.7462    197.3040    143.2172   7.3414405424e+01   1.5063288754e+01    0.2671828    0.2183875 -25.60 0.0006454773    1.170    0.146
        56  -9.7342      3.4274    142.6314   1.2300278650e+02   4.4287617107e+01    0.2352169   0.04984985  37.66 0.0009444588    3.257    0.693
        57  -9.6235    215.2158    141.2319   6.9829922608e+01   1.2200525268e+01     0.165389    0.1505739 -39.09 0.0007367077    1.315    0.240
        58 -10.7943     24.7552    139.2651   1.1674726951e+02   4.3450061138e+01    0.5567395    0.1689593  48.84  0.002188817    2.999    0.667
        59 -10.3809     40.0214    136.7715   1.1201628964e+02   4.2590535058e+01    0.2911242    0.1487763  43.20  0.001353968    1.814    0.449
        60 -11.3256     84.9597    132.7415   9.8080048087e+01   3.7695834478e+01    0.6345827    0.2384568  47.84  0.002251398    2.843    0.648
        61 -10.4308    144.9480    132.9778   8.2184634648e+01   2.6855978906e+01     0.353625    0.1791056  54.59  0.001360388    2.456    0.593
        62 -10.9913    133.8326    132.8048   8.4842752805e+01   2.9044064470e+01    0.4589668    0.2548145  54.80  0.001884639    2.133    0.531
        63 -10.3468    154.3249    130.5507   7.9469896408e+01   2.5487227706e+01    0.3291878    0.2054183  62.72  0.001383448    2.265    0.559
        64 -11.2120    101.2940    129.5528   9.2795807141e+01   3.5746076815e+01    0.6997522    0.3176895  52.53  0.002561342    2.647    0.622
        65 -10.7331     74.5937    130.4212   1.0073976263e+02   3.9816877598e+01    0.3739488    0.1854364  47.96  0.001580907    2.028    0.507
        66 -10.6287     13.6299    130.0970   1.1933234729e+02   4.6564333467e+01    0.4119346    0.1603056  56.79  0.001800694    2.491    0.599
        67 -10.0009    169.7453    130.7426   7.6134848372e+01   2.2396677835e+01    0.2255656    0.1177815  55.58 0.0008936138    2.439    0.590
        68 -10.8466    120.3356    126.8508   8.7015597309e+01   3.2891044081e+01    0.6514931     0.231205  50.93  0.001989218    3.643    0.725
        69 -11.4899     61.0904    125.6380   1.0409458694e+02   4.2856387332e+01    0.6602179    0.3104216  56.77  0.002595952    2.577    0.612
        70 -11.4331     45.3419    124.1396   1.0885129652e+02   4.5134564503e+01    0.7935952    0.3227733  59.22   0.00285788    3.281    0.695
        71 -10.4314    181.8397    126.1516   7.2616775742e+01   2.0815670102e+01    0.2863505     0.175162  66.71  0.001163398    2.755    0.637
        72 -11.6157     29.5165    123.2850   1.1380015820e+02   4.6943864447e+01    0.8573336    0.2953211  62.47  0.002768174    4.334    0.769
        73  -9.5024    173.6469    122.3143   7.3379104725e+01   2.3134971768e+01    0.1429658    0.1166543 -84.37 0.0007045807    1.734    0.423
        74 -11.2897    143.7090    120.5114   7.9638728600e+01   2.9610619152e+01    0.4942307     0.258312  50.47  0.001620838    2.024    0.506
        75 -10.3941     72.5242    120.9087   9.9708023333e+01   4.2436161317e+01    0.4253287    0.1928983  47.95  0.001681858    2.306    0.566
        76 -10.4579    132.3490    119.8395   8.2296641160e+01   3.2052438120e+01    0.5190116    0.2628151  60.33  0.001768098    3.143    0.682
        77 -10.7071      4.0987    118.3396   1.2148484345e+02   5.0066435200e+01    0.4148417    0.1560539  56.75  0.001817131    2.569    0.611
        78 -10.9731    110.9637    115.8622   8.7110544685e+01   3.7117435061e+01    0.5947662    0.3220341  62.15   0.00212699    2.861    0.650
        79 -11.1717     80.8288    114.1943   9.5785742416e+01   4.2808443600e+01    0.6558043      0.34956  62.24  0.002453153    2.731    0.634
        80 -11.4470     95.5860    113.8779   9.1152684513e+01   4.0401195902e+01    0.8109072    0.3100967  44.97  0.002855588    2.647    0.622
        81 -10.4232    123.7468    113.8599   8.3116118490e+01   3.5061693730e+01    0.3708415    0.1874669  52.16  0.001420853    2.203    0.546
        82 -10.8329     68.1096    111.9440   9.9447092460e+01   4.5292071929e+01    0.4947073     0.249733  52.26  0.002013183    2.241    0.554
        83 -10.8046     15.2964    111.5811   1.1730088396e+02   5.1020588257e+01    0.4380022    0.2053064  56.73  0.002036149    2.164    0.538
        84  -9.8349    176.9238    113.0000   7.0472556871e+01   2.4118887994e+01    0.2360469   0.08218218  48.48 0.0008026639    2.944    0.660
        85 -11.7890     47.4616    103.9047   1.0505442917e+02   5.0002263427e+01    0.9809335    0.3964434  57.13   0.00327192    3.751    0.733
        86 -11.6638     24.0606    103.4936   1.1338619422e+02   5.2402793658e+01    0.9165909    0.3349949  59.17   0.00321532    3.716    0.731
        87 -10.6498    142.0800    106.1560   7.6472920170e+01   3.2863725562e+01    0.5308654    0.2125735  54.33  0.001720909    3.123    0.680
        88 -10.3838    151.0615    104.3603   7.3863767339e+01   3.1275788898e+01    0.3025551     0.199995  64.04  0.001302977    1.902    0.474
        89 -11.0005    130.8103    103.3891   7.8598210141e+01   3.5845749172e+01     0.556843    0.2230197  50.56  0.001892354    2.712    0.631
        90 -10.5133      7.6795    103.7977   1.1923545930e+02   5.3463113625e+01    0.3321564    0.1704441  47.64  0.001544167    1.933    0.483
        91 -11.7185    112.7474    101.0702   8.2950174718e+01   4.0099725160e+01    0.9943684    0.4159215  55.04  0.003118802    3.389    0.705
        92 -10.4160     83.4431    101.1062   9.2036730743e+01   4.5558649313e+01    0.4453422    0.2335191  58.40  0.001648764    2.649    0.622
        93 -10.8961     97.1417     98.0098   8.6851718274e+01   4.3845670972e+01    0.6049092    0.2634699  42.26  0.002245088    2.304    0.566
        94 -11.3977     66.0587     97.5038   9.7156841322e+01   4.9187501985e+01    0.8369833    0.3372021  48.07  0.002995008    2.880    0.653
        95 -10.6303    140.8244     93.4088   7.3340778306e+01   3.5705996476e+01    0.4140251    0.2401769  58.70  0.001667884    2.005    0.501
        96 -11.0234    127.4962     92.4788   7.6494882534e+01   3.8853018285e+01    0.7137146    0.3014027  52.72   0.00244848    2.654    0.623
        97 -10.7454      7.9547     92.9906   1.1816074869e+02   5.6166448158e+01    0.6251858    0.1439689  26.88  0.002352395    3.858    0.741
        98 -11.1225     35.9196     90.9059   1.0708374495e+02   5.4557723963e+01    0.5093842     0.291968  61.62  0.002282189    2.066    0.516
        99 -11.2313     88.9579     88.2553   8.6895325539e+01   4.7649518893e+01    0.7580681    0.3136301  50.76  0.002556841    2.968    0.663
       100 -11.3474     50.6700     86.2580   1.0038609060e+02   5.4093821053e+01    0.7147787    0.3184401  53.36  0.002611482    3.073    0.675
       101 -11.1885    107.7214     85.1352   7.9999120138e+01   4.4667299868e+01    0.7492612    0.3560759  55.74  0.002623037    2.679    0.627
       102 -10.0146    142.9635     84.3010   7.0199732894e+01   3.7006160066e+01    0.4140546     0.190987  58.20  0.001451204    2.594    0.614
       103 -11.0556     25.8190     81.5675   1.0953723634e+02   5.7854908655e+01     0.588485    0.2893101  53.28  0.002216909    2.402    0.584
       104  -9.8639    121.1834     81.8248   7.5086249307e+01   4.2468114616e+01    0.3098108    0.1814914  61.29  0.001208366    2.125    0.530
       105 -10.5751     75.8598     81.6702   8.9641840981e+01   5.1521252629e+01    0.3995909    0.2357419  63.13   0.00156106    2.506    0.601
       106 -10.4878     12.9935     82.5012   1.1499527218e+02   5.8530929146e+01    0.2886165    0.1328651  34.47  0.001362646    2.277    0.561
       107 -10.1348      8.9909     81.0000   1.1646047886e+02   5.9141081630e+01    0.2349901    0.1497371  38.66   0.00107156    1.701    0.412
       108  -9.6679    152.2004     81.4158   6.7210492377e+01   3.5391888549e+01     0.217884    0.1494276  65.07 0.0009580656    1.677    0.404
       109 -10.6136    129.8525     76.7773   7.1188668761e+01   4.1516582627e+01    0.5842822    0.2830673  60.88  0.002026633    2.698    0.629
       110 -10.8413     84.4954     74.5167   8.4400766590e+01   5.1655959148e+01    0.6590158    0.3609307  62.53  0.002331645    3.022    0.669
       111 -10.1190     43.8747     73.9615   1.0030268095e+02   5.7995547559e+01    0.2861684     0.187398  44.69  0.001273485    1.666    0.400
       112 -10.3679     96.6186     72.7789   7.9685485264e+01   4.9668440338e+01    0.3997719    0.2682948  66.12  0.001697518    1.976    0.494
       113  -9.8610      7.6251     73.3797   1.1609888231e+02   6.1136009127e+01    0.3169578    0.1069851  36.47  0.001314929    3.072    0.674
       114 -10.2572    107.4661     72.7065   7.6211494245e+01   4.7393141942e+01    0.4071864    0.1365028  51.80  0.001213065    3.472    0.712
       115 -10.7817     53.0188     71.2406   9.5702937449e+01   5.7520913556e+01    0.5566887    0.3312266  58.60  0.002406209    2.258    0.557
       116 -10.8379     17.9456     70.9781   1.1114115605e+02   6.1132424941e+01    0.3739789    0.2131077  43.68  0.001889134    1.939    0.484
       117  -9.7601    149.1309     69.2911   6.4195629965e+01   3.8319155052e+01     0.362282    0.1419408  57.39  0.001215355    2.745    0.636
       118  -9.8910    123.6577     67.4343   6.9805899063e+01   4.4783704749e+01    0.3115972    0.1534772  56.21  0.001155599    2.204    0.546
       119 -10.5531     38.9900     65.6273   1.0036423298e+02   6.0612243118e+01    0.4609299    0.2014829  45.01  0.001851757    2.712    0.631
       120  -9.4646     10.6361     66.3001   1.1372899476e+02   6.2757995113e+01    0.1338968   0.08667786  60.84 0.0007034639    1.725    0.420
       121 -10.2555    112.6550     65.2032   7.2138247323e+01   4.7767828581e+01    0.4596475    0.2121113  59.60  0.001549304    2.864    0.651
       122 -10.0919    101.9070     61.8398   7.4243160703e+01   5.0844991680e+01    0.3585594       0.2452  84.31  0.001424887    2.425    0.588
       123 -10.9857     75.2143     60.7265   8.3292170692e+01   5.6461818598e+01    0.5891736    0.3011315  54.09  0.002248449    2.571    0.611
       124 -10.3304     26.7436     60.3883   1.0484345140e+02   6.3105375646e+01    0.3950348    0.1648472  45.82   0.00158189    2.986    0.665
       125 -11.1322      9.2972     58.6362   1.1311598593e+02   6.4741425529e+01    0.4664338    0.2067826  36.09  0.002180173    2.499    0.600
       126 -10.1161    121.4366     57.1380   6.6842762011e+01   4.7240271011e+01    0.4208291    0.2304333  70.90  0.001475559    2.819    0.645
       127 -10.5470     55.3831     55.5746   8.9822140007e+01   6.0900225866e+01    0.4320754     0.287966  82.24  0.001816554    2.621    0.618
       128 -10.4755     45.5318     56.6637   9.4735420026e+01   6.2004179369e+01    0.3952388    0.2303425  53.49  0.001753162    2.269    0.559
       129 -10.4142     64.1679     55.8088   8.6049697862e+01   5.9469550444e+01    0.4563546    0.2379943  52.41  0.001815562    2.513    0.602
       130  -9.6869    107.6582     54.8199   6.9903373982e+01   5.0920438561e+01    0.3291135    0.1849704  73.41  0.001082373    3.377    0.704
       131 -10.8396     33.1628     52.9790   9.9667956882e+01   6.4303696176e+01    0.5098962     0.236981  45.04  0.002151311    2.653    0.623
       132 -10.1823     21.8758     53.4596   1.0560926937e+02   6.5206314527e+01    0.3697777    0.1693471  35.44  0.001687301    2.393    0.582
       133 -10.6777     94.5911     52.0017   7.2985865307e+01   5.4391638437e+01    0.4891637    0.3016511  60.46  0.002070638    1.955    0.488
       134 -10.3903     83.4858     47.9696   7.5309268780e+01   5.7527736438e+01    0.4386414    0.2110733  54.88  0.001641927    2.553    0.608
       135  -9.7113    124.0230     46.9826   6.2453942357e+01   4.8373432121e+01    0.2534949     0.185817 -71.83  0.001134225    1.743    0.426
       136 -10.3103     46.2300     45.6720   9.0602525438e+01   6.4441788264e+01    0.3762908    0.2192959  51.01  0.001694693    2.245    0.555
       137 -10.6183     18.6006     45.8304   1.0540884369e+02   6.7299044359e+01    0.3899953      0.18413  30.02  0.001852062    2.309    0.567
       138 -10.2961     59.5310     43.8764   8.3520589440e+01   6.2822095687e+01    0.3430737    0.2320213  63.08  0.001563875    2.170    0.539
       139 -10.7695      6.2352     42.9394   1.1174838256e+02   6.8731872854e+01    0.4144027    0.2502684  71.54  0.002148033    2.061    0.515
       140 -10.6228     71.1402     42.8254   7.8018022758e+01   6.0976750529e+01    0.4372893    0.2588579  57.28  0.001861688    2.218    0.549
       141  -9.8407    107.2803     42.5587   6.5256107596e+01   5.3205737500e+01    0.2936533    0.1506573  60.18  0.001133931    2.164    0.538
       142 -10.1833     37.9862     41.5158   9.3313985689e+01   6.6430979370e+01    0.3443404    0.1930363  51.62  0.001523469    2.505    0.601
       143  -9.9988     97.1312     39.2703   6.6983878615e+01   5.6148614008e+01    0.2856651    0.2149763  75.85  0.001347808    1.676    0.403
       144  -9.8543     81.9586     37.8229   7.1584387276e+01   5.9758382743e+01    0.2384576    0.1757747  80.42   0.00108573    2.019    0.505
       145 -10.2327     26.9689     36.3309   9.7596711271e+01   6.8804739797e+01    0.2376843    0.1855719  89.74  0.001338928    1.631    0.387
       146  -9.7402    113.4825     36.0105   6.0869657139e+01   5.2754484384e+01    0.3123449    0.1832728 -77.61  0.001036784    3.525    0.716
       147 -10.4910     62.4588     33.6782   7.7713757606e+01   6.4358650993e+01    0.4141783    0.2388835  56.68  0.001769564    2.386    0.581
       148 -10.5653     51.1368     33.7063   8.3155959261e+01   6.6270089192e+01    0.3870328    0.2283048  54.74  0.001707641    2.423    0.587
       149 -10.3100     14.0829     31.5550   1.0390013891e+02   7.0968788751e+01    0.2332316    0.1949053  75.86   0.00113769    1.459    0.314
       150  -9.6658    103.1705     30.3933   6.1318124833e+01   5.6144449098e+01    0.2123036    0.1426146  69.87 0.0009532793    1.722    0.419
       151 -10.4035     74.1416     32.2790   7.2068053195e+01   6.2367324440e+01    0.4201826    0.1982223  57.26  0.001566139    2.840    0.648
       152 -10.1271     82.7377     28.6501   6.7077041025e+01   6.1159622635e+01    0.3547749    0.2413752 -83.47  0.001451471    2.722    0.633
       153 -10.2061      4.8175     28.3915   1.0906617592e+02   7.2231583038e+01    0.2698542    0.1875446  51.17  0.001582108    1.811    0.448
       154 -10.1625     93.8019     27.9057   6.3005424608e+01   5.8758431709e+01    0.4058173    0.2426724  77.57  0.001577402    2.689    0.628
       155 -10.6189     50.2679     22.3802   7.8004276296e+01   6.8574019854e+01    0.3966579    0.2227607  49.13  0.001841894    2.126    0.530
       156 -10.3011     65.0196     21.6840   7.0577071295e+01   6.5993664495e+01    0.3449812    0.2457595  76.46   0.00160408    2.306    0.566
       157  -9.5242     20.4661     21.9593   9.5940398421e+01   7.2581703966e+01    0.1663712    0.1106511 -86.53 0.0008081523    2.427    0.588
       158 -10.3501     76.0384     20.5760   6.5521676878e+01   6.3879929528e+01    0.4559168    0.2190286  61.36  0.001763594    2.697    0.629
       159  -9.6501     89.7884     18.3788   5.9692128622e+01   6.1066751582e+01    0.2154383    0.1225684  47.27 0.0009593382    1.687    0.407
       160  -9.7615     32.2556     17.1312   8.5619575257e+01   7.2240364467e+01    0.2678439    0.1387046  51.99  0.001095988    3.379    0.704
       161  -9.6825     99.1483     16.3995   5.6016653107e+01   5.9054782364e+01    0.2079631    0.1381816  75.06  0.000955233    1.748    0.428
       162  -9.3987     18.3281     14.6750   9.3993476941e+01   7.4299266834e+01    0.1168458   0.09850777  72.87 0.0006048263    1.698    0.411
       163 -10.6687    165.5074    249.0249   9.6358686044e+01   4.8294387535e+00    0.1324171    0.1066892 -34.19 0.0009971393    1.598    0.374
