#   1 NUMBER                 Running object number                                     
#   2 MAG_AUTO               Kron-like elliptical aperture magnitude                    [mag]
#   3 X_IMAGE                Object position along x                                    [pixel]
#   4 Y_IMAGE                Object position along y                                    [pixel]
#   5 X_WORLD                Barycenter position along world x axis                     [deg]
#   6 Y_WORLD                Barycenter position along world y axis                     [deg]
#   7 A_WORLD                Profile RMS along major axis (world units)                 [deg]
#   8 B_WORLD                Profile RMS along minor axis (world units)                 [deg]
#   9 THETA_WORLD            Position angle (CCW/world-x)                               [deg]
#  10 FWHM_WORLD             FWHM assuming a gaussian core                              [deg]
#  11 ELONGATION             A_IMAGE/B_IMAGE                                           
#  12 ELLIPTICITY            1 - B_IMAGE/A_IMAGE                                       
         1 -15.9204    241.7362     83.4752   4.5603734933e+01   1.5973054951e+01     2.866901     1.479113 -21.17   0.01171435    3.143    0.682
         2  -9.8675     40.8142     14.2040   6.9972266884e+01   6.7892055649e+01    0.1671956    0.1134125   9.09 0.0003117844    1.310    0.237
         3 -10.2866    145.3188    233.6320   9.4660904227e+01   5.7452164702e+00    0.1302754   0.09832192  64.94 0.0007037215    1.786    0.440
         4  -9.9791     72.6686    228.3503   1.0965148663e+02   1.7283407959e+01     0.137112    0.0824282  64.03 0.0002864971    1.773    0.436
         5 -10.8733    162.5911    225.0954   8.9682699498e+01   4.6100072449e+00    0.3085927    0.2019985 -17.21  0.001555539    1.906    0.475
         6  -9.8819     99.5120    225.5361   1.0349981505e+02   1.4164345090e+01    0.1302684     0.115842  50.13 0.0001278977    1.015    0.015
         7  -9.9371    183.3376    223.6539   8.5118983143e+01   1.6599537864e+00    0.1236568    0.1049933  66.03 0.0007048211    1.778    0.438
         8 -10.2955    193.3438    221.6670   8.2750812587e+01   4.7654899802e-01    0.1206359     0.105297  65.17 0.0007050425    1.759    0.431
         9 -10.8250    126.1195    220.8114   9.6962877436e+01   1.1118300311e+01    0.2019276    0.1711584  54.83 0.0005333427    1.224    0.183
        10 -10.4042    143.9549    216.7894   9.2390737047e+01   9.0938262439e+00    0.2320475    0.1998364 -40.49  0.001373242    1.247    0.198
        11 -10.2098    186.0062    214.5009   8.2993834884e+01   2.8144549937e+00    0.2069966     0.170503 -27.55 0.0006942648    1.212    0.175
        12 -10.6553    116.4178    209.7545   9.7528161319e+01   1.4883945484e+01    0.2551598    0.1374165 -62.39  0.001137757    2.175    0.540
        13  -9.9634    206.3118    208.6475   7.7857138869e+01   6.7574218231e-01    0.1184283      0.10916 -88.57 0.0005574563    1.726    0.421
        14 -10.0731     99.3214    206.0049   1.0095799703e+02   1.8306970575e+01    0.2139678    0.1117154 -86.34 0.0007041842    4.223    0.763
        15 -11.8085    185.9664    203.9069   8.1095131817e+01   4.6948161587e+00     0.355102    0.1950043 -47.06  0.001656381    2.000    0.500
        16 -12.3700    164.6785    201.6398   8.5235875596e+01   8.6299432765e+00    0.5718512    0.3411711 -49.95  0.002555615    1.850    0.459
        17 -11.7955    162.4438    193.8073   8.4293543983e+01   1.0544830800e+01    0.4281857    0.3227617 -84.44   0.00198258    2.231    0.552
        18 -10.5890     88.8404    199.0418   1.0246634824e+02   2.1399786061e+01    0.2318408    0.1501822  80.10  0.001075834    2.047    0.511
        19 -10.6503    177.5808    197.7954   8.1730275040e+01   7.2023015907e+00    0.1910207    0.1332145 -53.36 0.0009511703    1.724    0.420
        20 -10.9937    124.5295    197.4986   9.3701977677e+01   1.6193517988e+01    0.3288811     0.238285  41.49  0.001693762    1.325    0.245
        21 -10.6215    112.8238    197.5588   9.6497512143e+01   1.8074024940e+01    0.2711049     0.178314  74.04  0.001193293    2.266    0.559
        22 -10.8746    172.4019    195.7794   8.2469167764e+01   8.4587642975e+00    0.1947417    0.1267736 -32.09 0.0007560221    1.581    0.367
        23 -10.4648    205.9930    191.2870   7.4638289713e+01   3.7019596792e+00    0.1922525    0.1692633  -0.48  0.001156747    1.054    0.051
        24  -9.7186    179.5853    190.7799   7.9967688195e+01   8.1945853508e+00    0.1907148    0.1339491 -51.17 0.0009466942    1.630    0.386
        25 -10.6745    172.7816    190.9674   8.1474142312e+01   9.3256960685e+00    0.2521982     0.207067 -63.71  0.001339231    1.579    0.367
        26 -10.6692    138.8932    188.9713   8.8816286131e+01   1.5609082300e+01    0.3715463    0.1945659 -63.06  0.001425793    2.714    0.632
        27  -9.8966    210.6752    189.3398   7.3344034830e+01   3.2900975431e+00    0.1249127    0.1115191 -78.96 0.0007051216    1.726    0.421
        28 -10.3468    129.0368    188.0350   9.0999873937e+01   1.7499079950e+01    0.2321369     0.178887  74.20 0.0009533897    1.713    0.416
        29  -9.9690    217.5186    187.4932   7.1673715841e+01   2.5209023098e+00    0.1357996    0.1160586 -11.62 0.0001736456    1.022    0.022
        30 -10.9418    165.2287    185.5670   8.2100601209e+01   1.1712579888e+01    0.4845911    0.2204492 -53.81  0.001815077    2.748    0.636
        31 -10.7282    149.1588    198.0911   8.8073759960e+01   1.1949508301e+01    0.3235803    0.1981791 -73.90  0.001243422    3.203    0.688
        32 -11.5271    120.2317    184.3110   9.2482939574e+01   1.9814266368e+01    0.6100163    0.1971583 -59.58  0.001785529    4.298    0.767
        33 -11.2372     94.9806    186.4992   9.9116669889e+01   2.3363925841e+01    0.2830227    0.2006716 -84.12  0.001380391    1.697    0.411
        34 -10.6830     16.6446    185.3530   1.1806962231e+02   3.3067146101e+01    0.2282778    0.1442559 -44.53 0.0008862778    1.947    0.486
        35 -10.6661    203.8897    184.5208   7.3721234506e+01   5.2515525486e+00     0.271087    0.1793056 -52.94  0.001026923    1.909    0.476
        36 -11.1623    174.1750    182.7581   7.9567203567e+01   1.0695762881e+01    0.3830003    0.2354716 -48.66  0.001640285    1.734    0.423
        37 -10.4734    243.7804    181.0369   6.5707434825e+01  -4.0329218279e-01    0.1775338   0.09051027 -36.43  0.000876336    1.694    0.410
        38 -11.5675    147.7846    179.9420   8.5015246764e+01   1.5982898193e+01    0.4609911    0.2131914 -53.18  0.001766572    2.404    0.584
        39 -10.6615    183.1379    175.5182   7.6165803236e+01   1.0528171734e+01    0.2773343    0.2013186 -39.03  0.001406621    1.337    0.252
        40 -11.2392     77.4715    175.9937   1.0194866506e+02   2.8422361543e+01    0.2930735    0.1810679  50.16    0.0013852    1.691    0.409
        41 -10.1649    105.5063    174.9908   9.4535650979e+01   2.4400093277e+01    0.2066257    0.1299838 -86.09 0.0008102213    2.542    0.607
        42 -10.7564    177.2302    170.8829   7.6479122838e+01   1.2515832508e+01    0.3280756    0.2332056 -62.87  0.001447501    1.920    0.479
        43 -10.1336    134.4928    171.0229   8.6469802445e+01   2.0325572254e+01    0.2320828    0.1469989 -50.74  0.001035063    1.602    0.376
        44 -11.3767    121.7368    168.8515   8.9241562935e+01   2.3087329937e+01    0.5095101    0.3191814 -75.98  0.002015385    2.487    0.598
        45 -10.1665    205.9902    169.0520   7.0151824909e+01   7.7179039825e+00    0.2118085    0.1781117 -72.56   0.00113066    1.724    0.420
        46 -10.2020    168.0071    168.7631   7.8078255065e+01   1.4647992756e+01     0.270454    0.1929332 -57.13 0.0009988802    1.655    0.396
        47 -10.6343    137.9527    178.7340   8.7128768606e+01   1.7994918678e+01    0.2661543    0.1966349 -65.49  0.001108621    1.624    0.384
        48 -10.6411    192.3821    164.2281   7.1860270098e+01   1.1056112917e+01    0.5871651    0.1304567 -44.79  0.001608361    4.555    0.780
        49  -9.8815    185.3057    166.6616   7.3855128483e+01   1.1875848623e+01    0.1402792    0.1188858 -81.38 0.0004132987    1.677    0.404
        50 -11.5542    139.1627    164.1975   8.3931755569e+01   2.1004780100e+01      0.55472    0.2930479 -59.59  0.002109574    2.392    0.582
        51 -11.1685    213.0579    163.3957   6.7609235037e+01   7.5258910336e+00    0.2531402     0.194374 -57.20  0.001327088    1.647    0.393
        52 -10.1432    159.5135    163.5683   7.8921158851e+01   1.7329134397e+01    0.2777921    0.1431244 -56.31  0.001036905    2.458    0.593
        53 -10.7985     79.3533    163.2413   9.9406975436e+01   3.1263928326e+01    0.3883657    0.2145849  86.82  0.001331055    3.512    0.715
        54 -11.4385    205.8788    161.6416   6.8610305249e+01   9.1112263283e+00    0.4091579    0.1918218 -45.92  0.001681063    2.158    0.537
        55 -10.6226    177.5860    159.9567   7.4071672592e+01   1.4657023306e+01     0.423428    0.2219337 -55.96  0.001602443    2.565    0.610
        56 -10.3769    151.5610    160.3191   8.0098713830e+01   1.9536374044e+01    0.2903205    0.1470588 -51.41  0.001126257    2.095    0.523
        57 -10.6020     92.6911    159.7403   9.5162557763e+01   3.0112729966e+01    0.2989758    0.1833772 -83.26   0.00117808    2.462    0.594
        58 -10.0701    128.4678    158.9597   8.5527420289e+01   2.4165570704e+01    0.2103737    0.1373508 -77.28 0.0007704132    2.473    0.596
        59 -11.2533    196.6291    156.7587   6.9384889270e+01   1.1716675869e+01    0.4188544    0.2478145 -48.02  0.001547363    1.759    0.431
        60 -10.6802    167.8191    156.5304   7.5488917814e+01   1.7230325255e+01     0.437853    0.2147143 -52.14  0.001657376    2.326    0.570
        61 -10.2301    188.4549    157.0660   7.1124643069e+01   1.3183028229e+01    0.2313504    0.1370514 -41.63  0.001032136    1.606    0.377
        62 -11.1312    204.5883    154.7225   6.7371005253e+01   1.0639047513e+01    0.3335461    0.1650356 -38.30  0.001378836    1.866    0.464
        63 -10.3765    157.5030    155.5398   7.7648787588e+01   1.9433332102e+01    0.2798524    0.1440031 -55.94  0.001034958    2.413    0.586
        64 -10.9052    119.3344    154.7656   8.7020579684e+01   2.6801371749e+01    0.4330736    0.2645909 -70.07  0.001703179    2.305    0.566
        65 -10.2969    144.4160    154.2471   8.0510846958e+01   2.2239415721e+01    0.2188369    0.1461333 -57.59  0.000951679    1.686    0.407
        66 -10.9356    133.1166    152.2795   8.2910697398e+01   2.4835184955e+01    0.4816318     0.257857 -60.30    0.0018041    2.366    0.577
        67 -10.9197     81.1651    153.7582   9.7244088437e+01   3.3340366186e+01    0.2948171    0.1748959 -75.77  0.001223506    2.111    0.526
        68 -10.4111     49.3192    154.6545   1.0631428073e+02   3.7268440016e+01     0.145617   0.09821813  71.07 0.0007049233    1.727    0.421
        69 -10.3539     67.5059    153.0321   1.0095735690e+02   3.5436871992e+01    0.2084754    0.1213386  89.29 0.0008100621    2.597    0.615
        70 -11.5005    190.1455    149.3420   6.9064528863e+01   1.4382765232e+01    0.5404666     0.287597 -49.05  0.002027147    1.993    0.498
        71 -10.1132    182.4522    150.4870   7.0929789891e+01   1.5639449575e+01    0.2730132     0.134741 -51.81   0.00102978    2.366    0.577
        72 -12.0142    248.9975    149.4442   5.8528816415e+01   3.9636883431e+00    0.3649609    0.1100552 -40.20  0.001381336    2.785    0.641
        73 -10.6741    105.1840    157.3087   9.1312850283e+01   2.8665120248e+01    0.3520599     0.249297 -82.13  0.001563011    1.884    0.469
        74 -10.2383     98.3898    150.2204   9.1753923134e+01   3.1515025970e+01    0.2204225    0.1424162 -66.56 0.0009563997    1.732    0.423
        75 -11.7866    200.3084    147.6217   6.6642319159e+01   1.2779782572e+01    0.4797646       0.2331 -42.42  0.001994582    1.924    0.480
        76 -10.0632    142.5817    148.7830   7.9749248757e+01   2.3813661754e+01      0.22098    0.1466584 -57.61 0.0009507437    1.695    0.410
        77 -11.8532    234.1050    147.2131   6.0452872990e+01   6.7796636355e+00    0.3156889    0.1686781 -41.23  0.001414133    1.656    0.396
        78 -10.3136     39.3112    147.6454   1.0811242964e+02   4.0091782731e+01    0.1427205   0.09558313  71.97 0.0007044171    1.730    0.422
        79 -10.2066    175.5995    145.8247   7.1350671127e+01   1.7928969372e+01    0.2208557    0.1379085 -51.72 0.0009517904    1.735    0.424
        80 -11.7795    148.7365    143.4104   7.7005388632e+01   2.3796740407e+01    0.7722373    0.3574297 -54.76  0.002694637    2.626    0.619
        81 -11.5159    106.5006    143.9846   8.8196815650e+01   3.1645461461e+01     0.454354    0.2993111 -81.35    0.0018091    2.365    0.577
        82 -10.9342     54.9337    144.3350   1.0310130461e+02   3.9200067383e+01    0.3428434    0.1838012 -74.95  0.001458353    2.069    0.517
        83 -11.7629    247.0442    144.0013   5.7711882241e+01   5.1779371933e+00    0.2031374    0.1514557 -59.00  0.001134416    1.696    0.410
        84 -11.7349    196.1866    143.2457   6.6472473705e+01   1.4407272116e+01    0.3513605    0.2546208  28.90  0.001083126    1.521    0.342
        85 -10.6072    165.7409    143.2799   7.2963757959e+01   2.0423309917e+01    0.3786205    0.1763158 -48.75  0.001407437    2.226    0.551
        86 -11.4403    124.3952    141.5446   8.2784780211e+01   2.8961098120e+01    0.6505914     0.294727 -58.98  0.002167491    2.892    0.654
        87 -11.1774     87.7977    143.1023   9.3305425565e+01   3.4965099618e+01    0.3880197    0.2039247 -67.03  0.001492558    2.293    0.564
        88 -10.5825    182.0125    141.2445   6.8918056301e+01   1.7584922454e+01    0.3425073    0.1985693 -49.01   0.00140835    1.787    0.440
        89 -12.8650    247.3907    130.0796   5.4762853752e+01   7.4338342610e+00    0.3679699    0.2530898 -64.81  0.001914635    2.036    0.509
        90 -11.1478    197.9264    136.2992   6.4547969900e+01   1.5404393337e+01    0.6076073    0.1975804 -43.40  0.002035162    2.896    0.655
        91 -10.4651    172.0138    137.5264   7.0210548745e+01   2.0355129617e+01    0.3075688    0.2094991 -56.36  0.001371131    1.693    0.409
        92 -10.1621    138.4829    137.4929   7.8173805637e+01   2.7151719445e+01    0.2815043    0.1478102 -57.00  0.001031495    2.307    0.567
        93 -10.3953    162.4864    135.5418   7.1887624091e+01   2.2714624397e+01    0.3278525    0.1472161 -43.98  0.001206391    2.155    0.536
        94 -10.3361    187.8470    134.7686   6.6200336523e+01   1.7704832705e+01    0.2921925    0.1620564 -48.94  0.001218275    1.870    0.465
        95 -10.7444    179.4911    133.1593   6.7558859514e+01   1.9719422733e+01    0.3894303    0.2314594 -49.84  0.001324602    1.757    0.431
        96 -10.5409    112.2985    132.4604   8.3979252315e+01   3.3349316253e+01    0.2743047    0.1945229 -71.66  0.001188443    1.823    0.452
        97 -11.2468    143.0457    130.1445   7.5250687122e+01   2.7865554124e+01    0.5477576    0.2316704 -45.45  0.001939608    2.308    0.567
        98 -11.5085    131.6022    129.7719   7.8093894029e+01   3.0258970010e+01    0.6263295    0.2704296 -52.56  0.002153078    2.546    0.607
        99 -11.7905     83.0201    129.2086   9.1777151207e+01   3.9123703624e+01    0.8716643    0.2350421 -56.08  0.002553578    3.649    0.726
       100 -11.0427    204.8354    130.3553   6.1871265925e+01   1.5172602415e+01    0.3010979    0.2169394 -62.79  0.001078774    1.766    0.434
       101 -10.6131    192.9492    129.5117   6.3945608764e+01   1.7700029657e+01    0.3152434    0.2134966 -39.49  0.001088226    1.374    0.272
       102 -11.3524    168.4237    128.5148   6.8846875214e+01   2.2950969586e+01    0.4371025    0.2252474 -45.86   0.00173562    1.908    0.476
       103 -11.2808    152.6892    127.8610   7.2324202192e+01   2.6371536081e+01    0.5969489    0.2475806 -49.28  0.002044954    2.557    0.609
       104  -9.9530    186.4865    129.0289   6.5124669810e+01   1.9108350394e+01    0.2346125    0.1399016 -40.50 0.0008449135    1.575    0.365
       105 -11.9601     98.3947    125.2751   8.6274572396e+01   3.7544478012e+01    0.9245576     0.317669 -55.03  0.002903055    3.123    0.680
       106 -11.3111    160.2715    239.1464   9.2340165489e+01   2.5314468268e+00    0.2462944     0.153821  53.07  0.001247205    2.092    0.522
       107 -10.6732    182.7503    108.4931   6.0862494851e+01   2.3859238269e+01    0.2963309    0.1936387 -40.36  0.001212704    1.449    0.310
       108 -10.6684    133.1685    108.5242   7.2222197134e+01   3.4601216293e+01    0.3098377    0.2175517 -43.34  0.001413135    1.397    0.284
       109 -10.3572    194.8929    121.6216   6.1701770516e+01   1.8811963643e+01    0.3077262    0.1784796 -53.24   0.00111079    1.950    0.487
       110 -10.7028    172.2584    120.5149   6.6038215194e+01   2.3768187700e+01     0.304774    0.2030682 -41.59  0.001053502    1.436    0.303
       111 -10.9292    189.2716    107.0207   5.9230334224e+01   2.2730568351e+01    0.3779018    0.1837929 -41.69  0.001502528    1.925    0.481
       112 -11.1217    158.3927    119.8731   6.8980502388e+01   2.6852446743e+01    0.4578474    0.2613126 -40.44  0.001901758    1.702    0.412
       113 -11.9234    141.3798    116.6849   7.2274201900e+01   3.1133619027e+01    0.8231593    0.2920245 -46.78   0.00264648    2.846    0.649
       114 -11.7978    139.7130    102.6973   6.8963973114e+01   3.4416882604e+01    0.6080937    0.2862153 -41.22  0.002295858    2.090    0.522
       115 -11.0726    166.7742    102.3653   6.2585943883e+01   2.8527167299e+01    0.4169213    0.1932449 -36.27  0.001568201    2.185    0.542
       116 -11.9174    150.0429    100.5635   6.5868275549e+01   3.2585777378e+01    0.7797979    0.2521222 -42.95  0.002462645    3.030    0.670
       117 -11.3746     22.4197    101.9151   1.0600029791e+02   5.2870185917e+01    0.5197765    0.2796443  77.60  0.002039292    3.554    0.719
       118 -11.5154    130.4032    117.1454   7.5228899988e+01   3.3314031807e+01    0.5416155    0.2811017 -52.99  0.002052529    2.130    0.531
       119 -11.4851     44.8814    101.7823   9.8091107801e+01   5.0836314789e+01    0.4450161    0.2637631  73.95  0.001690179    3.542    0.718
       120 -11.7097    128.5068    100.0243   7.1118512505e+01   3.7365047768e+01    0.5341116    0.2786377 -34.75    0.0020679    2.061    0.515
       121 -11.2997    159.5993     99.5726   6.3412150144e+01   3.0658500958e+01    0.4367474    0.1432072 -40.21  0.001393334    2.967    0.663
       122 -11.9212    107.8631     97.7586   7.6269342840e+01   4.2050007591e+01    0.4219141    0.3319694 -67.32   0.00179615    1.589    0.371
       123 -11.2439     81.4352     97.8481   8.4561990265e+01   4.6781739456e+01    0.5070186    0.1335422 -48.97  0.001525426    3.513    0.715
       124 -10.9747     43.3590    122.2916   1.0277566830e+02   4.6005274042e+01    0.3736563    0.2004313  85.35  0.001337521    3.570    0.720
       125 -10.6537    183.6279     95.8122   5.7484924183e+01   2.6008572271e+01     0.217807    0.1279414 -47.08 0.0009493002    1.684    0.406
       126 -10.9213     63.2058     95.4061   9.0098656332e+01   5.0076918206e+01    0.3056825     0.174286 -75.94  0.001086048    3.466    0.711
       127  -9.8248    171.4583     95.4827   5.9795079449e+01   2.8778483894e+01    0.1476829    0.1426871 -40.50 0.0001157072    1.003    0.003
       128 -11.4153    164.7838     92.9631   6.0512362062e+01   3.0744070968e+01    0.3939295    0.1982832 -30.08  0.001496336    2.301    0.565
       129 -10.4765     70.6602    118.5063   9.3232142394e+01   4.3572346695e+01     0.277841    0.1288067 -55.80  0.001100935    2.004    0.501
       130 -11.4896    176.9688     92.5292   5.7919157540e+01   2.8081897816e+01    0.2991274    0.1953755 -51.25  0.001316836    1.596    0.373
       131 -11.5059    138.5572     90.2174   6.5758324269e+01   3.7146669694e+01    0.5239774    0.2681127 -40.49  0.002095181    1.936    0.483
       132 -10.5555    157.5892     90.6953   6.1447725858e+01   3.2789123907e+01    0.2921511    0.1454566 -34.39  0.001131632    2.095    0.523
       133 -11.8950    124.8273     87.7154   6.8568456973e+01   4.0624605300e+01     0.798034    0.3924481 -30.50  0.002940526    2.451    0.592
       134 -11.1530    175.5499    101.1762   6.0446282069e+01   2.6809820462e+01     0.362271    0.1441425 -36.92  0.001277438    2.505    0.601
       135 -10.3971    183.5008     89.4998   5.5890734405e+01   2.7158019844e+01    0.1441215    0.1386383 -44.23 -3.509795e-06    1.019    0.018
       136 -11.1599    150.7823     87.9210   6.2201164728e+01   3.4843120042e+01    0.3404458    0.1781898 -34.95  0.001364701    1.968    0.492
       137 -11.0213     95.0172     94.0835   7.9130592682e+01   4.5263787955e+01    0.6974434    0.2354049 -38.10  0.002124894    3.491    0.714
       138 -10.1083    188.3152     87.3133   5.4457186005e+01   2.6464234382e+01    0.1430094    0.1138143  11.57 0.0006118324    1.641    0.390
       139 -10.4864    188.8196    123.4884   6.3332638650e+01   1.9706592732e+01     0.308592    0.1829854 -52.98  0.001181094    1.885    0.470
       140 -11.3924    179.4085     85.2348   5.5545560328e+01   2.8819762796e+01    0.2766996     0.175369 -46.15  0.001279403    1.551    0.355
       141 -10.7763     85.8515     86.0292   7.9719754666e+01   4.8609209388e+01    0.2385097    0.1780458 -76.72  0.001086488    2.075    0.518
       142 -10.7392     48.2329     84.2268   9.2550332479e+01   5.4508848304e+01    0.2118854    0.1584206  72.63  0.001053546    2.128    0.530
       143 -10.7830     28.9965    123.2532   1.0750387131e+02   4.7137159119e+01    0.2412823    0.1234561  73.60 0.0008946596    3.514    0.715
       144 -10.7421    170.6755     82.4742   5.6485414103e+01   3.1282905744e+01    0.2659598    0.1329684 -36.81  0.001079016    1.974    0.493
       145 -10.9303    158.2834     82.1075   5.8918688182e+01   3.4186180203e+01    0.3641097    0.2013104 -35.00   0.00153611    1.838    0.456
       146 -11.5099    140.9484     81.5205   6.2663386318e+01   3.8240355124e+01    0.4448861    0.2266451 -32.95  0.001759063    2.103    0.524
       147 -11.7753    104.1976     80.7825   7.2328596498e+01   4.6249597480e+01    0.6631598    0.2545535 -41.57  0.002368195    2.577    0.612
       148 -10.5850     24.3952     80.6152   1.0080595024e+02   5.7673554706e+01    0.2446071    0.1187821 -75.90 0.0009534811    3.243    0.692
       149 -10.9293    185.8918    115.1687   6.1894868236e+01   2.1918328707e+01    0.3849836    0.2068772 -42.98  0.001583915    1.760    0.432
       150 -10.8973    180.0000     78.9950   5.3799649275e+01   2.9746167920e+01    0.2376626   0.07973571 -36.50 0.0007975657    2.909    0.656
       151 -10.1968    202.3025     78.3446   4.9889105591e+01   2.4868422082e+01    0.1367869    0.1097968   9.44 0.0005709833    1.684    0.406
       152 -10.7532    174.5905     77.3357   5.4355202175e+01   3.1259502512e+01    0.2816489     0.130898 -40.83  0.001127878    2.076    0.518
       153 -11.2655    211.5183     75.9770   4.7939931590e+01   2.3252962419e+01    0.3019865    0.1324973 -30.43  0.001198449    2.534    0.605
       154 -10.5008    189.4842     75.9909   5.1367565446e+01   2.8092239304e+01    0.2222471    0.1338341 -37.61  0.000933863    1.599    0.375
       155 -10.8876    157.5011     75.4099   5.7202008680e+01   3.5525498255e+01    0.3052405    0.1442869 -35.65   0.00120259    2.142    0.533
       156 -11.4585    127.9145     72.3537   6.3127163111e+01   4.2797095148e+01    0.5995333    0.3022891 -24.16  0.002199338    2.733    0.634
       157 -11.2504    150.1437     79.0152   5.9816712414e+01   3.6596950786e+01    0.3667272    0.2150177 -37.19  0.001602163    1.709    0.415
       158 -11.6995    108.5854    111.4893   7.9816040880e+01   3.8892679548e+01    0.8023897    0.2891704 -49.37  0.002639786    2.775    0.640
       159 -10.5937    119.1681     78.6970   6.7388983021e+01   4.3557668059e+01    0.3453249    0.2015177 -36.97  0.001497631    1.725    0.420
       160 -10.8601    175.5965     71.0521   5.2486131908e+01   3.2056195740e+01    0.3370384    0.1436403 -25.94  0.001142167    3.316    0.698
       161 -10.6673    163.2169     70.3928   5.4633081580e+01   3.5032419736e+01     0.271265    0.1851063 -21.25   0.00126653    1.737    0.424
       162 -10.6305    170.4944     70.0171   5.3139356123e+01   3.3402486042e+01    0.2200999    0.1404108 -34.07  0.001029862    1.591    0.372
       163 -10.8288     51.4097     69.6225   8.7097011931e+01   5.7244236091e+01    0.2638853    0.1273771 -62.75 0.0009601074    3.477    0.712
       164 -11.0441    179.7370    123.7808   6.5253290874e+01   2.1539989941e+01    0.4474417    0.2810863 -36.74  0.002003503    1.533    0.348
       165  -9.6950    153.2919    114.6524   6.8839049919e+01   2.9024920741e+01    0.1558032    0.1231504 -76.75 0.0004457189    1.666    0.400
       166 -10.7153    167.5530     76.7515   5.5542891545e+01   3.2976541233e+01    0.2769472    0.1436975 -32.26  0.001134637    2.036    0.509
       167 -10.9086     58.6378    123.3844   9.8112553507e+01   4.3979855477e+01     0.371366    0.1855396 -76.55  0.001320428    3.099    0.677
       168 -11.0469    140.2708     73.8280   6.0556454884e+01   3.9758093110e+01     0.368052    0.1982044 -38.17   0.00155159    1.867    0.464
       169 -11.2899    193.8423     67.4164   4.8487732021e+01   2.8462018218e+01    0.2338609    0.1662032 -31.93  0.001210927    1.445    0.308
       170 -10.9141    147.0082     66.1823   5.6764675829e+01   3.9485052775e+01    0.4025477    0.2144395 -28.48  0.001669261    2.117    0.528
       171 -11.6262     92.1469    109.2463   8.4178591664e+01   4.2388121811e+01    0.9585663    0.2663863 -50.85  0.002840993    3.517    0.716
       172 -11.5381    203.5438     66.1627   4.6728484278e+01   2.6491888489e+01     0.318794    0.1310643 -33.06  0.001272658    2.476    0.596
       173 -11.0611    138.6603     64.6183   5.8155785274e+01   4.1666117938e+01    0.3660994    0.1807438 -32.44  0.001488428    2.145    0.534
       174 -11.2371     78.2208    111.1517   8.9069525052e+01   4.4218899737e+01     0.576602    0.2818069 -69.05  0.001850292    3.675    0.728
       175 -11.3355    117.2439    123.3859   8.0398925077e+01   3.4528194970e+01    0.5751929    0.2757377 -51.90  0.002143486    2.146    0.534
       176 -11.0933    192.9904    114.4984   6.0354175435e+01   2.0548681796e+01    0.4362267    0.2030066 -43.54  0.001707954    2.024    0.506
       177 -11.0049    174.6864    110.5988   6.3034372709e+01   2.5202631934e+01    0.4486238    0.2508449 -42.62  0.001858128    1.712    0.416
       178 -10.7713    109.8543     61.1320   6.4359536351e+01   4.8638731848e+01    0.3418609    0.1732283 -25.11  0.001343627    2.452    0.592
       179 -11.5217    159.1870    110.6248   6.6424331414e+01   2.8570900868e+01    0.4632315        0.215 -39.73   0.00173867    2.109    0.526
       180 -10.6077     81.5137     67.4748   7.5313811236e+01   5.3061694803e+01    0.3192382    0.1121044 -29.90 0.0008104308    5.737    0.826
       181 -11.5409    122.0044    110.7296   7.5808856721e+01   3.6429681276e+01    0.4928165    0.2322349 -42.99  0.001848623    2.077    0.519
       182 -10.4104    130.4815     56.0058   5.7376597820e+01   4.4889806379e+01    0.2183232    0.1417765 -30.65  0.001038492    1.618    0.382
       183 -10.6248    121.5324     64.2020   6.2208235406e+01   4.5600213469e+01    0.3652633    0.1452982 -33.35  0.001320721    2.701    0.630
       184 -10.0875    100.4249     54.7852   6.4920691831e+01   5.1639706763e+01    0.1996274     0.131723 -19.74 0.0009499803    1.692    0.409
       185 -10.7244     13.9888    109.8055   1.1020992053e+02   5.1568251271e+01    0.3173316    0.1643599 -88.47  0.001414284    2.457    0.593
       186 -10.2773     45.4689     49.4660   8.2735401895e+01   6.1887785162e+01    0.1334804    0.1080834 -13.60 6.422661e-05    1.046    0.044
       187 -10.6214     66.0000    110.0072   9.2784737060e+01   4.6273665340e+01    0.2471092   0.07701309 -55.50 0.0008044388    2.956    0.662
       188 -10.3989    113.6197     42.1250   5.6899202089e+01   5.0679258441e+01    0.1909127     0.129187 -11.71 0.0009364881    1.750    0.429
