#   1 NUMBER                 Running object number                                     
#   2 MAG_AUTO               Kron-like elliptical aperture magnitude                    [mag]
#   3 X_IMAGE                Object position along x                                    [pixel]
#   4 Y_IMAGE                Object position along y                                    [pixel]
#   5 X_WORLD                Barycenter position along world x axis                     [deg]
#   6 Y_WORLD                Barycenter position along world y axis                     [deg]
#   7 A_WORLD                Profile RMS along major axis (world units)                 [deg]
#   8 B_WORLD                Profile RMS along minor axis (world units)                 [deg]
#   9 THETA_WORLD            Position angle (CCW/world-x)                               [deg]
#  10 FWHM_WORLD             FWHM assuming a gaussian core                              [deg]
#  11 ELONGATION             A_IMAGE/B_IMAGE                                           
#  12 ELLIPTICITY            1 - B_IMAGE/A_IMAGE                                       
         1 -12.4401    186.9289     29.9533   6.6885193341e+01   3.4969132366e+01    0.8710703    0.7879294  66.98  0.003817577    1.139    0.122
         2 -12.4734    195.5339     17.7784   6.2798318148e+01   3.4338739041e+01    0.7077245    0.6697652  68.97  0.002017943    1.231    0.187
         3  -9.2754     46.3225      6.6653   9.2071308209e+01   6.6773976193e+01   0.09396959   0.09066981 -33.18 0.0007050433    1.708    0.414
         4 -10.5065     58.3888      3.4304   8.6332036078e+01   6.5269193105e+01    0.2599223    0.1932617  10.39  0.001822049    1.125    0.111
         5  -9.1501     73.5360    245.5021   1.3740444263e+02   1.4092162900e+01    0.1248023   0.09699439  68.66 6.746595e-05    1.012    0.011
         6 -12.8176    139.9742    242.9227   1.2415821366e+02   3.9361000634e+00      1.63084    0.5055888  49.43  0.005787177    3.310    0.698
         7 -11.1500    114.4886    249.7232   1.3005395366e+02   6.9629153369e+00    0.4668541    0.3686062  36.87  0.002916235    1.323    0.244
         8 -11.0245    120.5270    249.0613   1.2880090604e+02   6.0950295158e+00    0.6055744    0.2890902  39.85  0.001733689    1.859    0.462
         9 -11.7592    141.2288    249.4472   1.2479374564e+02   2.5676719945e+00     1.255209    0.2912652  36.58  0.003568741    5.331    0.812
        10 -12.2083    132.0842    247.2364   1.2630337327e+02   4.4998472826e+00    0.9897611     0.489976  50.94  0.004780438    1.831    0.454
        11 -10.6363     97.9234    249.5476   1.3321740249e+02   9.6403167230e+00    0.6020359    0.2097555  52.00  0.002181803    2.657    0.624
        12 -10.4120     96.7556    243.7369   1.3280349888e+02   1.0928819374e+01    0.2561086     0.201907 -68.48   0.00126634    1.391    0.281
        13  -9.6464     74.5338    250.5481   1.3769592770e+02   1.2974700412e+01    0.2322431    0.1480775  48.07  0.000622226    1.356    0.262
        14 -10.3373     70.9923    250.3671   1.3832738714e+02   1.3518016825e+01    0.4609301    0.2257985 -80.97  0.002059374    2.302    0.566
        15 -10.2845     62.9362    250.1702   1.3977012744e+02   1.4687076921e+01    0.2739988    0.1434557  49.15 0.0005848923    1.577    0.366
        16 -19.3320     12.0939    127.9377   1.3773519939e+02   4.7609546449e+01     18.10328     1.494589 -68.79   0.03644663   11.261    0.911
        17 -13.1605    126.4108    230.1566   1.2514808492e+02   8.6740057734e+00     1.367895    0.6316869  37.98  0.006017894    2.066    0.516
        18 -12.9203    114.9820    228.6317   1.2730229096e+02   1.0931965914e+01     1.244641    0.6060093  49.99  0.005735933    1.856    0.461
        19 -11.0635    149.8851    228.3449   1.2001444627e+02   4.8882190770e+00    0.3749541    0.2626658 -62.24  0.001998794    1.690    0.408
        20 -10.8050    146.5052    230.0156   1.2096905117e+02   5.1752522282e+00    0.3551238    0.2354342 -80.24  0.001706372    2.248    0.555
        21 -11.0446    142.5100    229.0018   1.2164466903e+02   6.0759019305e+00    0.4486931    0.2765152 -45.12  0.002264932    1.895    0.472
        22 -10.2002     82.3772    230.3550   1.3414146797e+02   1.5821649910e+01    0.3325372    0.2255744  60.29  0.001421146    1.277    0.217
        23  -9.9811    162.1031    224.3448   1.1684223035e+02   3.4405456825e+00    0.2851807    0.1177731  34.95  0.001073875    2.509    0.601
        24  -8.3384     66.5306    224.5466   1.3666809933e+02   1.9356839682e+01    0.1284158    0.1031529  74.26 0.0001003245    1.004    0.004
        25 -10.1580     45.7233    219.0507   1.4021942738e+02   2.3311037613e+01    0.5174996    0.3369381   6.49  0.002328472    4.096    0.756
        26  -9.6025     41.4285    214.0731   1.4060154545e+02   2.4916793511e+01     0.468472    0.1647794  56.63  0.001966045    2.963    0.662
        27  -9.6579     78.9404    211.5154   1.3265685678e+02   2.0360773900e+01    0.2866501    0.2045946 -65.88  0.001624587    1.397    0.284
        28  -9.7016     57.5204    239.5114   1.3982738023e+02   1.7519601620e+01     0.247907    0.1562599  86.20  0.001406966    1.454    0.312
        29  -8.7360    109.3729    204.2901   1.2505603897e+02   1.7031363236e+01    0.2082152    0.1750317 -13.27 0.0009594912    1.731    0.422
        30  -9.8065    198.3245    199.6774   1.0492072910e+02   1.3506287723e+00    0.4715554    0.1653356  46.98  0.001646984    3.051    0.672
        31  -9.4070     58.4729    188.7952   1.3431521019e+02   2.8443291950e+01     0.317878    0.1576671 -57.56 0.0008449765    1.942    0.485
        32 -10.4302     79.3701    183.2849   1.2877788760e+02   2.6761673649e+01    0.4265168    0.2763937 -42.36  0.002055717    1.960    0.490
        33 -10.4748     83.1822    177.3730   1.2697822284e+02   2.7580827838e+01     0.377903    0.2439089 -48.47 0.0007902965    1.689    0.408
        34  -8.3225     73.1558    175.8450   1.2914817231e+02   2.9459258952e+01    0.1854685    0.1587296 -50.51 0.0006716644    1.312    0.238
        35 -10.3691     90.2592    167.1729   1.2356949292e+02   2.8904499072e+01    0.3337306    0.2856915  60.84  0.000498859    1.155    0.134
        36 -11.9439     79.0655    163.0187   1.2566366771e+02   3.1674482463e+01    0.5548108    0.4067136 -44.70  0.001235286    1.508    0.337
        37 -10.7267     95.9834    159.6681   1.2077867549e+02   2.9768394685e+01     0.627736    0.3958999 -33.54  0.001813326    2.216    0.549
        38  -8.8208     88.6541    242.8006   1.3426643901e+02   1.2367609895e+01    0.1715096    0.1432428 -68.21 0.0007143488    1.365    0.267
        39 -10.6148     95.7616    143.7357   1.1771388216e+02   3.3667579293e+01    0.3013582    0.2811495 -20.22 0.0006193595    1.228    0.186
        40  -9.5967    107.5788    142.7232   1.1435869843e+02   3.1811475724e+01    0.5453109    0.2678957 -31.32  0.001621514    4.167    0.760
        41 -11.3861     72.9604    136.4845   1.2245485442e+02   3.9030066195e+01    0.5423039    0.3479571 -86.60  0.002418924    2.076    0.518
        42  -8.3967    105.6614    131.3183   1.1233905101e+02   3.4882198607e+01    0.2533558     0.189899 -68.60  0.000951899    1.437    0.304
        43  -9.3804    102.5291    128.9667   1.1265552344e+02   3.6009955138e+01    0.2898679    0.2667468  31.28 0.0006833825    1.168    0.144
        44  -9.6469    114.4911    132.3724   1.1020283961e+02   3.2966359103e+01    0.2997507    0.2510909 -27.49  0.001082766    1.353    0.261
        45  -8.9835    109.9635    120.6337   1.0862593807e+02   3.6568890514e+01    0.2558587    0.1990128 -39.35 0.0005106185    1.303    0.233
        46  -8.1516    168.5230    113.4850   9.2124196130e+01   2.5444063633e+01    0.1606419    0.1474379 -81.26 0.0002032703    1.122    0.109
        47  -9.6663    194.8799    241.3505   1.1300624952e+02  -5.1810114120e+00    0.2064419    0.1788952 -48.95 0.0009230779    1.424    0.298
        48 -10.2961    102.8937    236.4452   1.3075135033e+02   1.1374105115e+01     0.261038    0.1830682 -57.32  0.000566245    1.616    0.381
        49 -10.0644    107.4080    236.3722   1.2983855668e+02   1.0654220472e+01     0.219597     0.164836 -68.95  0.001212784    1.430    0.301
        50  -9.9606     58.5055     79.9775   1.1365840179e+02   5.3754221673e+01    0.3217468    0.1365464 -39.24  0.001351505    2.300    0.565
        51 -11.8983     98.5622    226.8185   1.3045185445e+02   1.4018351235e+01     1.144365    0.2976925  45.59  0.004040517    3.276    0.695
        52 -11.5091    177.7822     38.2326   7.0371745877e+01   3.6138441840e+01    0.5089312    0.3426569  60.16  0.001611761    1.351    0.260
        53 -11.8540    163.3105    244.2758   1.1969264745e+02  -3.0832722781e-01    0.5399394    0.4194369  88.06  0.003087578    1.808    0.447
        54 -10.0054     83.5813    246.0914   1.3557675799e+02   1.2497688684e+01    0.2622858     0.193268 -80.54  0.001453353    1.359    0.264
        55  -9.5370     59.6233    246.2007   1.4002633891e+02   1.5910592476e+01     0.198966   0.09556039 -59.01 0.0006202541    2.354    0.575
