#   1 NUMBER                 Running object number                                     
#   2 MAG_AUTO               Kron-like elliptical aperture magnitude                    [mag]
#   3 X_IMAGE                Object position along x                                    [pixel]
#   4 Y_IMAGE                Object position along y                                    [pixel]
#   5 X_WORLD                Barycenter position along world x axis                     [deg]
#   6 Y_WORLD                Barycenter position along world y axis                     [deg]
#   7 A_WORLD                Profile RMS along major axis (world units)                 [deg]
#   8 B_WORLD                Profile RMS along minor axis (world units)                 [deg]
#   9 THETA_WORLD            Position angle (CCW/world-x)                               [deg]
#  10 FWHM_WORLD             FWHM assuming a gaussian core                              [deg]
#  11 ELONGATION             A_IMAGE/B_IMAGE                                           
#  12 ELLIPTICITY            1 - B_IMAGE/A_IMAGE                                       
         1 -11.8761    178.0761     29.3880   7.2738788039e+01   3.7476991423e+01     1.228032    0.8876289   4.42  0.005904831    1.815    0.449
         2 -10.7277    182.5451     22.4431   6.9967842670e+01   3.7141194470e+01    0.6006326    0.4583024 -41.10  0.001504498    1.317    0.241
         3  -9.4043    235.5930      3.7796   5.9448413705e+01   2.5883822012e+01    0.3744397    0.2318103 -33.01   0.00110638    1.577    0.366
         4  -9.0359    104.3415    238.7177   1.3458509551e+02   1.3461305923e+01    0.2751313    0.1899335  65.86  0.001305129    1.272    0.214
         5 -11.2793    130.6569    249.6846   1.3107999767e+02   7.7391911906e+00     2.170067    0.5231777  35.69  0.004763232   11.922    0.916
         6 -10.2862    120.7501    249.1506   1.3274337717e+02   9.3333109328e+00    0.5923281    0.2699966  42.81  0.001228283    1.741    0.425
         7  -8.7134    107.0181    250.5327   1.3524344873e+02   1.1171280483e+01     0.285879    0.0882581  42.14  0.001034476    2.565    0.610
         8 -12.5877     20.6996    226.2838   1.4814887946e+02   2.6422315271e+01     1.538234    0.5727302  35.92  0.008442069    2.859    0.650
         9  -8.8679    171.3012    234.0047   1.2196633338e+02   3.5122867498e+00    0.1692573    0.1442187  38.18  0.001174537    1.059    0.055
        10  -9.2819    130.5264    232.0613   1.2913469690e+02   1.0487866058e+01    0.2532272    0.2043659 -45.51  0.001323756    1.618    0.382
        11  -8.3112    177.9939    220.4767   1.1880471910e+02   4.3524267731e+00    0.2001449    0.1049981  41.61 0.0006655565    1.596    0.373
        12  -8.6510      8.8256    218.0517   1.4971607732e+02   2.9131491726e+01    0.3351331    0.1650508 -57.38  0.001999851    2.894    0.654
        13  -7.7993    155.2055    214.4004   1.2218569061e+02   9.2430263094e+00    0.1906322     0.102543  50.49 0.0009349309    1.687    0.407
        14  -8.2046    167.0316    210.0116   1.1926666869e+02   7.8847425771e+00     0.365589    0.2125659 -71.60  0.001531351    3.593    0.722
        15 -11.9044     11.7472    207.3165   1.4867835086e+02   3.0879167006e+01    0.6817294    0.3161969  40.45  0.003988215    2.066    0.516
        16 -12.3569     65.8427    244.0132   1.4170213307e+02   1.7963586718e+01     0.725049    0.5765256  72.76  0.001633211    1.154    0.134
        17  -9.5633    199.2392    200.6370   1.1164218004e+02   3.5982148072e+00    0.3810181    0.2500362  25.59  0.002055806    1.558    0.358
        18 -11.1843     80.6066    196.7128   1.3470039422e+02   2.4728584706e+01    0.7150269    0.5748092 -71.09  0.003714947    1.310    0.237
        19  -8.5435     28.8109    200.2358   1.4516099429e+02   3.0533211350e+01    0.1838713    0.1723782 -84.50 0.0008500837    1.494    0.331
        20 -10.1596    180.0144    199.1444   1.1501419862e+02   7.3110024687e+00    0.2244817    0.1988256  39.52 0.0002540545    1.033    0.032
        21  -8.0640     35.9506    200.3605   1.4382821515e+02   2.9726013530e+01    0.2224017   0.07241455  45.13   0.00109468    2.497    0.599
        22  -9.2893     23.9417    204.1723   1.4631808130e+02   3.0267451706e+01    0.2900847    0.1483009 -83.57  0.001613927    1.647    0.393
        23  -9.4473      5.1313    208.1060   1.4986665610e+02   3.1353333475e+01     0.198279    0.1112814  58.72 0.0006633436    1.385    0.278
        24  -8.4024    190.2115    190.1347   1.1147508418e+02   6.8914855896e+00    0.3812187    0.1766722 -55.46  0.001432469    3.665    0.727
        25 -12.8516     20.8227    238.3751   1.4873252334e+02   2.4258110709e+01    0.7252587    0.5054287  34.63  0.001970435    1.931    0.482
        26  -8.5344     48.4283    189.2730   1.4047459668e+02   3.0544610792e+01    0.1808417    0.1416042  33.19 0.0007569297    1.647    0.393
        27  -7.6046     17.4282    188.6865   1.4653651759e+02   3.4031120194e+01    0.1451706   0.08474322 -73.44 0.0009307386    1.526    0.345
        28  -8.3441    209.7294    188.5175   1.0751279496e+02   3.5375770757e+00     0.259086    0.1154526  39.06  0.001134999    2.093    0.522
        29  -7.8455    214.4506    184.5163   1.0589213051e+02   3.2823770001e+00    0.1334482    0.1161343  14.88  0.000276283    1.036    0.034
        30  -7.4026    180.5440    184.4808   1.1232360477e+02   9.6625461498e+00    0.1358988    0.1240534  36.96 4.645515e-05    1.015    0.015
        31  -7.8197    201.4102    182.3414   1.0789328169e+02   6.0481585752e+00    0.2749167    0.1602696  45.22  0.001346778    1.622    0.383
        32  -9.3955     89.4183    181.7646   1.3103532376e+02   2.6513563055e+01    0.3584754    0.2229765 -47.53  0.001849092    2.022    0.505
        33  -9.2939     92.4856    176.0039   1.2958060954e+02   2.7266363045e+01    0.3238164    0.2142257 -53.19  0.000950956    1.666    0.400
        34 -13.7311      9.6903    246.6412   1.5081520024e+02   2.3993447558e+01       1.2061     0.492988  66.24  0.003057459    1.797    0.444
        35  -7.7166     87.9892    168.4990   1.2951908660e+02   2.9601344549e+01    0.1727694    0.1231939   9.39 0.0008105707    2.603    0.616
        36  -8.7721     98.0362    166.4659   1.2692193997e+02   2.8449057159e+01    0.2444553    0.1874366 -66.86 0.0003889675    1.277    0.217
        37  -9.1365     20.8153    166.5413   1.4422813166e+02   3.8380044435e+01    0.2517346    0.1000334  35.95  0.001304009    2.603    0.616
        38 -10.7439     87.2675    161.6088   1.2866447180e+02   3.1243824141e+01    0.3636999    0.2934148 -33.54 0.0009927495    1.723    0.420
        39 -12.1371     53.4000    220.4210   1.4211755609e+02   2.3758154870e+01    0.9457522     0.246995  49.11  0.001553449    2.888    0.654
        40  -8.3570      2.5496    163.5040   1.4783747095e+02   4.0616946662e+01    0.1980759      0.14728  84.92 0.0008371544    1.036    0.035
        41  -9.0005    102.2556    159.3496   1.2479553556e+02   2.9319290895e+01    0.5291609    0.2872428 -39.80  0.002202212    2.663    0.625
        42  -8.0159     11.3493    161.4245   1.4584099469e+02   4.0340835900e+01    0.1745554    0.1105156   0.44 0.0009587401    3.294    0.696
        43  -7.2198    167.2854    159.3039   1.1014744522e+02   1.6899454874e+01    0.1411812     0.114076   4.69 0.0001873305    1.561    0.359
        44 -14.9937     41.9931    244.3735   1.4565757323e+02   2.0857997781e+01     2.689844     1.771482 -80.08   0.02024792    1.517    0.341
        45  -8.7121     22.3802    157.1804   1.4308228710e+02   4.0285936529e+01    0.2448621    0.1728113  29.67  0.001593085    1.818    0.450
        46  -8.8060      9.0073    154.2782   1.4579705165e+02   4.2092698996e+01    0.2085128    0.1671077  50.89  0.000683213    1.392    0.282
        47  -7.3837    195.0088    148.4607   1.0214881629e+02   1.3134334006e+01    0.1926749    0.1206353  22.99 4.321267e-05    2.160    0.537
        48  -8.4831    133.8710    146.2142   1.1488583774e+02   2.6386956788e+01    0.4608747   0.09879085 -51.42  0.001186639    5.068    0.803
        49  -9.2070      9.7460    147.6434   1.4509431620e+02   4.3493881945e+01    0.2736911    0.1171711  71.98  0.001327568    2.508    0.601
        50  -7.9785    112.3813    140.8273   1.1895240310e+02   3.1694873586e+01    0.3158118    0.1649546 -36.38  0.001176375    2.861    0.650
        51  -8.6162    100.9843    143.4691   1.2228507443e+02   3.3118764272e+01      0.24917    0.1959016 -52.92 0.0004763535    1.296    0.228
        52 -12.0944     35.8306    242.0729   1.4652198543e+02   2.1966212038e+01    0.4007383    0.3002816  25.29  0.001638192    2.258    0.557
        53  -7.6963    125.7106    145.0707   1.1657856798e+02   2.8235408012e+01    0.1982244    0.1812044 -71.70 0.0003439356    1.073    0.068
        54  -7.7277    190.8996    135.5372   1.0001976845e+02   1.6394276870e+01    0.2158329    0.1455852  49.26 0.0004630868    1.490    0.329
        55  -9.8339     67.5853    134.3757   1.2917832503e+02   4.0397516942e+01    0.2540337    0.2176663 -62.30  0.000756316    1.160    0.138
        56  -9.6666     60.1697    132.1013   1.3074750017e+02   4.1911817306e+01    0.4265929    0.2086572 -61.91  0.002011161    1.777    0.437
        57  -7.7187    117.0079    133.4888   1.1627930180e+02   3.2487457665e+01    0.2192633    0.1446372  42.80 0.0009962249    1.554    0.356
        58 -10.4310    236.5314    127.8943   8.9945572681e+01   7.9458342526e+00    0.2680773    0.2510918  44.51 0.0003409624    1.172    0.147
        59  -7.9313    160.0590    126.6608   1.0443651798e+02   2.4997129605e+01    0.2093348    0.1945045  46.28 0.0004169354    1.079    0.073
        60  -9.0690     65.3895    125.8476   1.2828972232e+02   4.2701303881e+01    0.3139082    0.1522021  41.57  0.001435982    2.177    0.541
        61  -7.3954    182.8127    113.3894   9.6222300916e+01   2.2424545834e+01    0.2025026    0.1440163  41.24 0.0004067692    1.469    0.319
        62  -8.6552    240.3153    109.6120   8.5048465125e+01   1.0089181923e+01    0.3809449    0.2076272 -48.58  0.001427052    1.979    0.495
        63  -7.9366    196.5843    107.5041   9.1990872302e+01   2.0289163694e+01    0.2850712    0.1510898  52.53   0.00075672    1.935    0.483
        64  -7.8025    134.7047    106.2063   1.0524851833e+02   3.4908836398e+01    0.3262664    0.1306653 -51.01  0.001081988    2.688    0.628
        65 -11.6544     34.2653    236.2209   1.4644918270e+02   2.3162634601e+01    0.2704529    0.1782352  57.82 0.0003186912    1.182    0.154
        66  -7.1188    207.5748     87.5212   8.4753936541e+01   2.1183896585e+01    0.1497243    0.1428468 -34.90 0.0002978026    1.034    0.033
        67  -7.1611    246.7176     73.6384   7.5423346166e+01   1.4277931257e+01    0.1378555    0.1074829   6.33 0.0007017066    1.678    0.404
        68  -7.7054    153.6948     69.0327   8.9834894933e+01   3.7797374629e+01    0.2118364    0.1987071 -39.91 0.0005626114    1.060    0.056
        69  -8.2656    191.0133     65.8362   8.1573759611e+01   2.8896906001e+01    0.2146441    0.2104753 -61.30 0.0003450704    1.032    0.031
        70  -7.7369    131.8282     54.1707   9.0024587210e+01   4.5641641729e+01    0.2133547    0.1975944 -73.81 0.0003320767    1.185    0.156
        71  -9.7405    246.2829     52.4871   7.0300147600e+01   1.7420759416e+01    0.2403337    0.2341402  51.18 0.0002939422    1.200    0.167
        72  -9.8599    160.7850     52.7475   8.3165711633e+01   3.8712452158e+01    0.3685236    0.2683555  71.78  0.001731511    1.476    0.322
        73 -11.0327    165.5736     45.3504   7.9872760825e+01   3.8590675098e+01    0.8246236    0.4496884 -41.38  0.002453083    1.839    0.456
        74  -8.4853    250.1269     48.3762   6.8886970058e+01   1.7116863383e+01    0.2558959    0.1739678 -41.27 0.0006636714    1.285    0.222
        75  -7.6800    246.9861     41.4710   6.7543431880e+01   1.8751769053e+01    0.1901622    0.1299275  71.22 0.0004811606    1.536    0.349
        76  -7.4490    187.4809     39.0402   7.4260605441e+01   3.3779827088e+01    0.2056063    0.1449333 -28.88 0.0005092557    1.467    0.318
        77 -11.7536     92.9662    247.3523   1.3736490843e+02   1.3708701170e+01        1.893    0.4949999  51.70  0.004535557    3.273    0.694
        78 -13.6290     72.9760    214.6358   1.3802285821e+02   2.2283331728e+01     5.803428     2.568696 -78.13   0.02866953    2.562    0.610
        79  -7.1956    230.0593     35.0000   6.7704600127e+01   2.3568993010e+01      0.22391   0.07666771  68.64 0.0008078571    2.980    0.664
        80  -7.7010    142.0172     31.2901   7.9684400482e+01   4.6519806709e+01     0.206492    0.1848118  55.59  0.000748529    1.074    0.069
        81  -6.9998    238.6617     19.6988   6.3042506490e+01   2.3399230902e+01    0.1275674   0.09971061  38.60   0.00070367    1.666    0.400
