#   1 NUMBER                 Running object number                                     
#   2 MAG_AUTO               Kron-like elliptical aperture magnitude                    [mag]
#   3 X_IMAGE                Object position along x                                    [pixel]
#   4 Y_IMAGE                Object position along y                                    [pixel]
#   5 X_WORLD                Barycenter position along world x axis                     [deg]
#   6 Y_WORLD                Barycenter position along world y axis                     [deg]
#   7 A_WORLD                Profile RMS along major axis (world units)                 [deg]
#   8 B_WORLD                Profile RMS along minor axis (world units)                 [deg]
#   9 THETA_WORLD            Position angle (CCW/world-x)                               [deg]
#  10 FWHM_WORLD             FWHM assuming a gaussian core                              [deg]
#  11 ELONGATION             A_IMAGE/B_IMAGE                                           
#  12 ELLIPTICITY            1 - B_IMAGE/A_IMAGE                                       
         1 -14.2233    165.1225     52.0991   7.5583794691e+01   3.7260485244e+01     1.864054     1.300873  17.54   0.00671985    2.184    0.542
         2 -13.9988    178.7003     34.9850   6.8723966204e+01   3.6302850017e+01    0.9040902    0.8492643  85.48  0.003358095    1.094    0.086
         3 -13.1904    182.8526     28.5619   6.6476506322e+01   3.6098143088e+01    0.5187331    0.4548438  80.03  0.001220334    1.030    0.030
         4 -12.3354    189.7378     14.6857   6.2170127885e+01   3.6041264768e+01    0.2848705    0.2163851  72.35 0.0008352731    1.137    0.121
         5 -13.7894    198.4836      4.3472   5.8798596799e+01   3.5074584111e+01     0.882432    0.4962389  71.46  0.004388586    1.487    0.328
         6 -10.4817      9.2529    221.2222   1.4657378126e+02   2.6849588023e+01   0.09137541   0.07582358 -76.03 0.0002140637    1.384    0.277
         7 -18.9150     52.0896    242.7339   1.4046196728e+02   1.7436677193e+01     6.582393     5.894716  81.71   0.04785095    1.299    0.230
         8 -10.6077    208.8231    197.7794   1.0160145400e+02  -2.8262773007e-01    0.1804357    0.1690361  86.62 0.0004736533    1.348    0.258
         9 -10.3605    154.0664    196.0634   1.1286403402e+02   1.0463390977e+01    0.2277545    0.2151079  67.87 0.0007567769    1.062    0.058
        10 -19.0442     37.5803    106.6222   1.2603175573e+02   5.0360457871e+01     17.03665     0.727091 -60.40   0.02455157   19.662    0.949
        11 -13.9455     12.4690    206.0908   1.4491156192e+02   2.9744539010e+01    0.5346799    0.2793292  35.04  0.003109539    2.186    0.542
        12 -10.6467     18.7385    214.2609   1.4434642220e+02   2.7343622993e+01    0.1476787    0.1135561  71.33 0.0003427967    1.121    0.108
        13 -10.7641    167.8394    189.0087   1.0847739545e+02   9.2562186234e+00    0.3341191    0.2175064 -47.79  0.001039026    1.592    0.372
        14  -9.8762    163.2872    188.3282   1.0935182666e+02   1.0298515733e+01    0.1474566    0.1175566  -6.06 0.0001890175    1.613    0.380
        15 -10.4868     73.0174    184.0141   1.2962106544e+02   2.7461332055e+01     0.206305     0.183757 -84.60 0.0004112293    1.064    0.060
        16 -11.4551    207.3863    179.5906   9.8237257535e+01   3.3918588207e+00    0.6238233    0.4003932  18.32  0.002737471    2.105    0.525
        17 -10.4525    158.4887    204.5951   1.1343354643e+02   7.8447246408e+00    0.3660479    0.1911093  63.83  0.001230957    3.579    0.721
        18 -12.0819    140.8730    176.6831   1.1220429606e+02   1.7309289790e+01    0.3564574     0.232565 -40.62  0.001580821    1.694    0.410
        19 -10.0557    195.7055    174.3338   9.9520782028e+01   6.7136057618e+00    0.2799413    0.1925793 -69.38 0.0007607434    2.137    0.532
        20 -11.5334    195.9826    170.2632   9.8603866024e+01   7.4781680855e+00    0.4665725    0.3999369 -69.70  0.001846257    1.366    0.268
        21 -10.7473    193.8175    164.9367   9.7912177554e+01   9.0033956727e+00    0.3552766    0.2941971 -63.23  0.001536708    1.357    0.263
        22 -10.9988     18.5787    219.1119   1.4473872077e+02   2.6328354448e+01    0.1692166    0.1293015 -74.23  0.000770892    1.331    0.249
        23 -12.6435    136.5032    171.3023   1.1217610649e+02   1.9407502499e+01    0.6495053    0.3385276  36.47  0.002022532    2.062    0.515
        24  -9.8918    120.0777    163.7904   1.1468177203e+02   2.4367646238e+01    0.2306879    0.1944263  75.08 0.0004501818    1.246    0.197
        25 -10.2097    115.0799    162.2669   1.1562644764e+02   2.5674329353e+01    0.2102125    0.1914261  70.37 0.0003817785    1.079    0.074
        26  -9.9143     14.4307    160.1349   1.4034865419e+02   3.9953585591e+01    0.1755318    0.1635982   6.70  0.001072919    1.472    0.321
        27 -11.5412    120.0776    156.4079   1.1318225592e+02   2.6127025112e+01    0.3539453    0.2975315  80.45  0.001230126    1.283    0.221
        28 -12.8429    134.0363    145.6732   1.0734160537e+02   2.5881836638e+01     1.393718    0.3510836 -54.88  0.003138934    5.891    0.830
        29  -9.5887      9.8863    153.5170   1.4069873267e+02   4.1864649089e+01    0.2211006    0.1276128  10.08  0.001190499    2.726    0.633
        30 -10.4221    174.8813    149.1231   9.8470904242e+01   1.6358154232e+01    0.2429053    0.2145612 -87.32 0.0005866737    1.263    0.208
        31 -12.3221    145.0287    146.0065   1.0470270543e+02   2.3504682417e+01    0.4614678    0.3729722 -85.80  0.001401683    1.466    0.318
        32 -10.3539      4.2569    146.3784   1.4126786028e+02   4.3937317810e+01    0.1689807    0.1398108 -13.87  0.001164263    1.679    0.404
        33 -12.9489    111.1356    139.8687   1.1194780557e+02   3.1787972117e+01    0.7997864    0.5512655 -14.63  0.003237227    2.403    0.584
        34 -12.4840    101.1092    139.3073   1.1450601550e+02   3.3761969202e+01    0.3067613    0.2869605 -45.86 0.0004807169    1.094    0.086
        35 -10.2150    163.4489    204.1402   1.1227444299e+02   6.9961855687e+00    0.2448061    0.1971418  41.84 0.0004612974    1.166    0.142
        36 -11.9582    105.9249    130.6957   1.1127231603e+02   3.4942484528e+01    0.4119688    0.3325741 -55.83  0.001236361    1.192    0.161
        37 -11.2261    105.9210    125.9129   1.1015418849e+02   3.6068546025e+01    0.3307464    0.2653743 -17.14 0.0006530178    1.546    0.353
        38 -12.2749    118.1590    129.7515   1.0775360161e+02   3.2820664242e+01    0.4124949    0.3983326   7.90   0.00114393    1.119    0.106
        39 -10.2970     24.2467    213.1171   1.4321441061e+02   2.6998921419e+01    0.1505722    0.1104344  68.92            0    1.148    0.129
        40 -11.2522    160.7821    127.5241   9.6559743262e+01   2.4199769993e+01    0.3752343    0.2867407 -84.65  0.001159185    1.685    0.407
        41 -11.6358    125.2587    127.0302   1.0522403007e+02   3.2020351211e+01    0.4586971    0.2898579  79.82   0.00161094    2.977    0.664
        42 -12.3633    135.2740    122.2448   1.0145285211e+02   3.1004855170e+01    0.6924894    0.2588926 -48.05  0.002273714    2.664    0.625
        43 -10.7739     84.9970    126.2997   1.1611079933e+02   3.9611139471e+01    0.2026382    0.1890126  52.90 0.0005608937    1.143    0.125
        44 -10.6228    112.2974    118.9526   1.0670829238e+02   3.6465174759e+01    0.2680873    0.2240012  33.45 0.0002490877    1.270    0.213
        45 -10.9064    168.4293    113.2583   9.1261998414e+01   2.5486487786e+01    0.3942012    0.2889991 -75.44  0.001037606    1.739    0.425
        46 -10.6246      2.3781    112.6802   1.3757258978e+02   5.1730724770e+01    0.2253318    0.1634454 -52.67 0.0007349877    1.190    0.160
        47 -10.7202    205.0992    110.4702   8.3174962707e+01   1.7564909936e+01    0.3776658    0.2582876  37.62  0.001273111    1.759    0.432
        48 -11.4945    139.3703    200.3401   1.1691173206e+02   1.2352869769e+01    0.2880789    0.2336132 -73.96  0.001514729    1.355    0.262
        49 -12.5773    193.5061    192.6615   1.0370675419e+02   3.5265029076e+00    0.8789963     0.495694 -53.17  0.003085655    2.086    0.521
        50 -10.9049     82.8602    107.0226   1.1217857693e+02   4.4418357562e+01    0.3405471    0.1976072  48.65  0.001508488    2.009    0.502
        51  -9.7127    153.8634    103.8392   9.2133387790e+01   3.0807897060e+01    0.2084154    0.1801927 -87.87  0.001026144    1.283    0.220
        52 -10.0580     68.0081     98.6878   1.1464963386e+02   4.8507886872e+01     0.188442    0.1800784  -0.36  0.001149213    1.109    0.098
        53  -9.2221     85.6685     98.3099   1.0907758401e+02   4.5881822700e+01    0.1413151    0.1144898  83.46 0.0005226805    1.670    0.401
        54 -10.4580     84.0118     76.9202   1.0353101869e+02   5.0533319441e+01    0.2064278    0.1905526 -10.33 0.0003501419    1.013    0.012
        55 -11.0500      1.4844    247.9514   1.4944179517e+02   2.2305513000e+01    0.1450689     0.080879 -83.80 0.0009801147    1.451    0.311
        56 -11.8018    159.0073    238.0097   1.1882679007e+02   1.3651737646e+00     0.256188    0.1922334 -48.53  0.001470455    1.526    0.345
        57  -9.7772    220.6177    229.0619   1.0512051493e+02  -7.5633359250e+00    0.3182632     0.109476 -50.89  0.000941949    6.273    0.841
        58 -10.0256     13.5100     59.9574   1.2355609171e+02   6.2110333007e+01    0.1643136    0.1304289 -34.85 0.0004299172    1.037    0.036
        59  -9.8987    113.5151     21.9720   7.7106215078e+01   5.2972802225e+01    0.1960792    0.1516456  51.09 0.0003596223    1.144    0.126
        60 -10.6527    198.7914    222.8679   1.0827480740e+02  -2.9319624776e+00    0.2254137    0.1748079  32.97 0.0004881882    1.179    0.152
