#   1 NUMBER                 Running object number                                     
#   2 MAG_AUTO               Kron-like elliptical aperture magnitude                    [mag]
#   3 X_IMAGE                Object position along x                                    [pixel]
#   4 Y_IMAGE                Object position along y                                    [pixel]
#   5 X_WORLD                Barycenter position along world x axis                     [deg]
#   6 Y_WORLD                Barycenter position along world y axis                     [deg]
#   7 A_WORLD                Profile RMS along major axis (world units)                 [deg]
#   8 B_WORLD                Profile RMS along minor axis (world units)                 [deg]
#   9 THETA_WORLD            Position angle (CCW/world-x)                               [deg]
#  10 FWHM_WORLD             FWHM assuming a gaussian core                              [deg]
#  11 ELONGATION             A_IMAGE/B_IMAGE                                           
#  12 ELLIPTICITY            1 - B_IMAGE/A_IMAGE                                       
         1 -11.2113      4.2439     90.5875   1.1774412182e+02   5.6465933754e+01      1.97947    0.2941722 -70.09  0.005970323    5.111    0.804
         2 -13.0620     90.4493     55.0593   7.7532762475e+01   5.3984257269e+01     2.373759     1.386516  38.83   0.00664418    1.753    0.429
         3 -13.1527     62.4988     68.3898   9.1812165305e+01   5.6013786859e+01     2.639729     1.282578  44.82    0.0113868    2.567    0.610
         4 -11.5651     57.9214     48.3435   8.6674925493e+01   6.0622852193e+01    0.7041802     0.578711 -36.00  0.002450362    1.143    0.125
         5 -12.5067    115.6578     14.9112   5.4924020287e+01   5.4194716091e+01     1.640118     0.820576  35.16  0.007162068    2.158    0.537
         6 -11.8908     15.8685     34.1229   9.9741456589e+01   6.7833906197e+01     1.156616    0.6130786 -36.09  0.004645407    1.536    0.349
         7 -12.2525      8.8679     26.1316   1.0029201408e+02   6.9805966166e+01    0.7299787    0.3751986   5.43  0.004191084    2.252    0.556
         8 -12.0117    106.5465      8.4917   5.4455637121e+01   5.6915019409e+01     2.926197     0.851706  45.05   0.01066818    3.027    0.670
         9 -13.8498      8.6085      9.2266   9.3288662845e+01   7.2694195619e+01     1.291233    0.9361415 -13.58  0.004557072    1.138    0.121
        10 -11.7116     25.1272      6.9072   8.3145831484e+01   7.1456485124e+01    0.7000183    0.2339255 -37.79  0.003307353    2.625    0.619
        11 -13.5174     70.8300     31.2004   7.4873771658e+01   6.1461854282e+01     2.219415      1.02763  44.82   0.01010226    2.256    0.557
        12 -12.9427     31.7080     25.1720   8.8613315413e+01   6.7957816641e+01     1.506704     1.260996 -23.95  0.006586475    1.150    0.130
        13 -10.3806    120.8004     55.0271   6.8570796441e+01   4.7606690818e+01     1.552457    0.4326694 -39.06  0.004793489    3.500    0.714
        14 -11.3895    192.7056     32.3251   4.7302296095e+01   3.2954343581e+01    0.6285371    0.4723568  15.10 0.0004643583    1.823    0.451
        15 -10.8403    199.9842      5.7695   3.9276614954e+01   3.4128593995e+01    0.5938846    0.4353505 -53.74  0.002306066    1.304    0.233
        16 -10.5631    208.3056      4.1955   3.8095770615e+01   3.2262512366e+01    0.5367255    0.3283369 -79.89  0.002052439    1.603    0.376
        17  -9.6303    205.3357     15.4993   4.1266647838e+01   3.1797935701e+01    0.5965203    0.3321358  66.49  0.002955675    1.676    0.403
        18 -10.6985    213.4788     12.0049   3.9571215677e+01   3.0205959155e+01    0.5891005    0.4958272 -75.14  0.002454884    1.036    0.035
        19 -10.9099    212.7608     30.3517   4.4297263309e+01   2.8239651145e+01    0.8365557    0.6040319  35.16  0.004349152    1.827    0.453
        20 -10.7538    215.9421     21.2422   4.1639642485e+01   2.8574977176e+01    0.7987845    0.4121091 -83.60  0.003489627    2.324    0.570
        21 -10.3639    157.3495      6.0872   4.4353804244e+01   4.4784472149e+01     1.005919    0.3715229 -20.74  0.003927222    3.118    0.679
        22  -9.0071    184.7264     13.7663   4.3101908235e+01   3.7110274141e+01    0.5612123    0.2097621  76.29  0.002069385    2.871    0.652
        23  -9.3082    181.7116     18.5305   4.4836926291e+01   3.7362140368e+01    0.3207703    0.2454696 -10.49 0.0009033392    1.589    0.371
        24 -11.9029    171.1996     14.7222   4.5108018969e+01   4.0437414623e+01     1.285627    0.7800519 -63.52  0.003919382    1.910    0.476
        25 -10.4756    163.5674      5.9849   4.3476313787e+01   4.3223203679e+01    0.5411205    0.3777904 -20.75  0.001699534    1.625    0.384
        26 -10.5880    151.8031      8.8967   4.6064464866e+01   4.5926130077e+01    0.5114518    0.3158907  46.45  0.001836618    1.573    0.364
        27 -10.6188    162.2143     17.8410   4.7352283133e+01   4.2397779165e+01    0.5058399    0.4017639  23.19  0.001579402    1.472    0.321
        28 -10.4408    154.1365     17.6243   4.8544484707e+01   4.4472869754e+01    0.3710351    0.2410914  42.64 0.0003903802    1.575    0.365
        29 -10.4359    150.1091     15.4898   4.8499560145e+01   4.5711805507e+01    0.5150349    0.4705261  21.24  0.003090349    1.179    0.152
        30  -9.4469    125.6240     15.6679   5.3066966259e+01   5.1751411004e+01    0.5262702    0.2237839  36.71  0.002001976    2.795    0.642
        31 -10.2893    123.7086     22.9653   5.6192138712e+01   5.1425087055e+01    0.5185634    0.3529351  16.36  0.001987188    1.731    0.422
        32 -11.3325    131.8803     19.3725   5.3151753331e+01   4.9845320851e+01     0.730767    0.3534491  52.57  0.003030408    1.821    0.451
        33  -9.0200     71.2708     16.1895   6.8017284173e+01   6.3402192602e+01    0.3443865    0.2509374 -16.94  0.001786716    1.298    0.230
        34  -9.4827     81.6448     19.7605   6.6161447927e+01   6.1011776915e+01    0.5460211    0.4399336  67.37  0.003162828    1.679    0.404
        35  -9.3292    239.6171     17.5536   3.8580801172e+01   2.3513746542e+01     0.333077    0.1496398 -37.83  0.001604343    1.946    0.486
        36  -9.3640    234.0028      7.0388   3.6639593385e+01   2.5954085400e+01    0.4042397    0.1954333 -72.27  0.001891697    2.219    0.549
        37 -10.5245    226.0951      8.0628   3.7505209514e+01   2.7654656089e+01    0.5999348    0.3743654  22.76  0.002807887    2.998    0.666
        38  -9.9691    233.9275     11.7993   3.7733076667e+01   2.5450589905e+01    0.6049005    0.2419321 -68.60   0.00231588    3.321    0.699
        39  -9.6835    232.5451     17.4556   3.9159015525e+01   2.5124179288e+01    0.3746247    0.1931839 -56.08 0.0008000169    1.819    0.450
        40 -11.2249     99.9358      5.7332   5.4888747866e+01   5.8646361540e+01    0.4021659     0.251988  30.53 0.0003938676    1.545    0.353
        41  -9.4951    198.1708     16.2053   4.2221753604e+01   3.3485642320e+01     0.369252    0.2184708  62.13  0.001849893    1.598    0.374
        42 -12.2880     52.4712     23.4578   7.8590685472e+01   6.5549473194e+01     3.198588     1.354435 -22.51   0.01041798    3.174    0.685
        43  -9.9689     38.8033     11.5051   7.8831953129e+01   6.9148308595e+01    0.3921272    0.3300878  -6.59  0.002771933    1.160    0.138
        44  -8.7082     36.7205      6.3400   7.7128266931e+01   7.0099990798e+01    0.2356366    0.1481873  28.99  0.001244997    1.533    0.348
        45 -10.2025     41.8237      3.4407   7.3243715063e+01   6.9736363739e+01    0.4075615    0.2591091 -21.16  0.001708398    1.401    0.286
        46  -8.4804    133.4887      1.5142   4.6460637647e+01   5.1120831755e+01    0.1903258    0.1264047   4.99 0.0008283291    1.809    0.447
        47  -9.4383    130.9694     10.2071   5.0018108302e+01   5.0985267830e+01    0.4249783     0.134634  53.84  0.001612136    2.532    0.605
        48  -9.0802    134.3814      6.7779   4.8174868286e+01   5.0459204520e+01    0.2997703    0.1984627 -18.11  0.001355259    1.681    0.405
        49  -9.3874    131.5141      4.5216   4.7870621338e+01   5.1356425275e+01    0.3258136    0.1822392  43.99  0.001589819    1.677    0.404
        50 -10.8862    139.1801      4.8579   4.6692981309e+01   4.9441562525e+01    0.4933933    0.2743723 -21.74  0.001486797    1.987    0.497
        51  -9.7167     77.6693      8.6564   6.2383261668e+01   6.3026603203e+01    0.2492496    0.1993194  44.48 0.0003514192    1.247    0.198
        52  -8.6768     77.6454      4.6868   6.0529908077e+01   6.3420009924e+01    0.2076072    0.1388257  14.78 0.0007721314    1.458    0.314
        53  -9.1777    249.6943      7.5445   3.5604874849e+01   2.2435770748e+01    0.3072063    0.1602756 -70.65  0.001598523    1.869    0.465
        54  -8.4666    143.4717      8.4302   4.7217288887e+01   4.8058706086e+01    0.1373909    0.1196529  54.69 4.004792e-05    1.048    0.045
        55  -9.8053    243.8721      5.1287   3.5489310247e+01   2.3962268950e+01    0.2983512    0.1989191 -18.42  0.001700171    1.946    0.486
        56  -9.8437    248.7652      1.6372   3.4407532173e+01   2.3273109708e+01    0.3093922    0.1442563  76.18   0.00159936    2.048    0.512
        57  -9.0775    190.4937      7.4847   4.0703991310e+01   3.6304242938e+01    0.2365387    0.1676153  77.65 0.0008541477    1.277    0.217
        58  -9.1282    189.5418      3.7371   3.9785143981e+01   3.6904023168e+01     0.297843    0.1882325 -42.16  0.001047359    1.579    0.367
        59  -9.2240    185.4204      5.7670   4.0781448157e+01   3.7737865227e+01    0.3224072    0.2125423  -4.90  0.001641323    2.052    0.513
        60  -9.9499    181.8002      4.5550   4.0842400373e+01   3.8759255244e+01    0.3735878    0.3039274  70.59   0.00164774    1.122    0.109
        61  -9.5732    218.4067      4.5452   3.7306639027e+01   2.9819571807e+01    0.4121752    0.2118827  41.03  0.001818541    2.970    0.663
        62  -9.1075     84.4973      3.3165   5.7877020759e+01   6.2162837686e+01      0.35271    0.1967679  28.80  0.001296725    1.763    0.433
        63  -8.5631     29.8570      5.7778   8.0149080590e+01   7.1053009013e+01    0.1741039    0.1188873  -1.46  0.001134849    1.271    0.213
        64  -9.8151     77.4821    242.9812   1.1719963489e+02   1.4927183397e+01    0.1567089    0.1056405 -78.58  0.001022496    1.563    0.360
        65  -8.8953    211.6607    250.2980   9.3299308554e+01  -6.5517662078e+00    0.1060219   0.08487329  50.26 0.0007033492    1.661    0.398
        66  -9.1352    124.7371    250.1124   1.0920030525e+02   6.8296774291e+00    0.2202528    0.1438754  20.72  0.001229673    2.127    0.530
        67 -11.9724     32.1777     42.0782   9.5088997515e+01   6.4905982826e+01    0.9402414    0.4794805  21.72  0.003944723    2.220    0.550
        68 -11.7998     56.5851     37.7176   8.3066153020e+01   6.2695856733e+01    0.4971414    0.3309029  -9.61   0.00167034    1.637    0.389
        69  -9.1237     37.0000    152.9408   1.1675369837e+02   3.9084944431e+01    0.2217638   0.06262214 -69.60 0.0001624944    3.025    0.669
        70 -10.5729     31.2813    151.5302   1.1800386530e+02   3.9998663513e+01    0.3859577    0.2610036  20.07   0.00148644    1.992    0.498
        71  -8.6745     45.9449    150.4750   1.1420455815e+02   3.8699382783e+01    0.1974894     0.148556 -72.29 0.0003932114    1.150    0.130
        72  -8.9289     67.4857    147.9742   1.0828386170e+02   3.6614585612e+01    0.2132539    0.1251525 -66.87 0.0005419891    1.566    0.362
        73 -10.3161     23.1626    136.4604   1.1832757920e+02   4.4326786502e+01    0.3470697    0.2463577 -78.47  0.001285548    1.143    0.125
        74 -11.2076     30.0325    141.1909   1.1710760031e+02   4.2576435643e+01    0.7255465    0.4318355  84.77  0.003844117    1.700    0.412
        75 -10.0779     40.5312    146.3305   1.1504642311e+02   4.0288076502e+01    0.3403912    0.2586068 -33.19   0.00180844    1.750    0.429
        76 -10.1508     37.7060    143.0056   1.1534549820e+02   4.1382515447e+01    0.3188882    0.2496066  41.76    0.0010605    1.425    0.298
        77  -8.7793     98.6668    139.9080   9.8552844737e+01   3.3751189486e+01    0.2091071    0.1783052 -68.20 0.0005117432    1.126    0.112
        78  -9.1755     47.6237    139.3712   1.1222533257e+02   4.1185211429e+01    0.2658363    0.1469464 -66.03  0.001142265    1.552    0.356
        79 -10.4910      3.5027    136.4006   1.2335217354e+02   4.5849183488e+01     0.402721    0.2843601 -53.57  0.001948986    1.480    0.324
        80 -10.0456     59.0241    138.0127   1.0893575161e+02   4.0146479957e+01    0.2997614     0.223266  35.29 0.0009570208    1.507    0.336
        81  -9.6203    236.8263    136.6689   6.7103100570e+01   6.1106973318e+00    0.2104184    0.1708096 -18.87  0.001166981    1.147    0.128
        82  -9.9574     66.6006    134.2276   1.0620971135e+02   4.0075998146e+01    0.3326936    0.2202739 -88.13  0.001605665    1.734    0.423
        83 -10.0823     60.6526    120.5862   1.0538704331e+02   4.4191496101e+01    0.4241987    0.2849635  10.66  0.001718179    2.138    0.532
        84 -10.7896     56.0813    126.3006   1.0776963128e+02   4.3371122862e+01    0.4914721    0.3773272 -13.71  0.002479611    1.806    0.446
        85  -9.8863     75.5356    119.4962   1.0078595375e+02   4.2398867536e+01    0.6820469    0.2718705  43.83  0.002186836    2.737    0.635
        86 -11.3474     69.5487    113.4129   1.0126336474e+02   4.4735804777e+01     1.138513     0.289405 -47.32  0.003385373    3.977    0.749
        87  -9.8608     65.8041    128.4307   1.0537997696e+02   4.1599076350e+01    0.2839208    0.2333916 -19.07  0.001032174    1.563    0.360
        88 -10.5987     66.6779    124.5136   1.0438695406e+02   4.2436761189e+01    0.5019392    0.4177107 -18.60  0.002780698    1.511    0.338
        89  -9.7211     55.5516    133.2220   1.0910314964e+02   4.1746613427e+01    0.2400505    0.1871578 -78.15  0.001360597    1.163    0.140
        90 -10.6316     34.6548    131.7096   1.1463915674e+02   4.4409835510e+01     0.393308    0.2025473 -69.35 0.0005412666    1.622    0.384
        91  -8.7955     28.2197    115.8063   1.1414513876e+02   4.8837962516e+01    0.2183505    0.1273661 -58.81 0.0002246116    1.419    0.295
        92 -11.7395     47.2867    124.8137   1.1003784937e+02   4.4763556551e+01    0.7773511    0.6083516 -75.23  0.004554736    1.128    0.113
        93 -12.1171     34.3335    120.5353   1.1308645854e+02   4.7141089643e+01     1.032511     0.689669  35.92  0.005883821    1.715    0.417
        94 -10.9058     45.0416    113.9848   1.0881194947e+02   4.7640817982e+01    0.6110874    0.3813714  -9.85  0.002834954    2.663    0.624
        95  -9.0565     73.1570    129.3674   1.0347275810e+02   4.0345225395e+01    0.2292877    0.1725848 -55.46 0.0003665868    1.231    0.187
        96  -8.8016    131.4556    124.3139   8.6371187764e+01   3.1136760627e+01    0.2906893    0.1491223 -42.90 0.0006896424    1.962    0.490
        97  -9.2178     81.8977    124.5280   1.0000709112e+02   4.0212985929e+01     0.230956    0.1804643 -50.90  0.001202281    1.217    0.178
        98  -8.8576     74.2096    125.0297   1.0231702481e+02   4.1249491195e+01    0.2102223    0.1792053 -41.74 0.0005458284    1.235    0.190
        99 -10.3634     91.5451    121.5967   9.6606694321e+01   3.9357713392e+01    0.4779333     0.362407 -33.19  0.002099189    1.499    0.333
       100  -9.3423    104.4647    116.7135   9.1785531284e+01   3.8232788826e+01    0.3683353    0.2831868 -23.41  0.001745014    1.593    0.372
       101  -9.1327    108.6723    114.9512   9.0165994235e+01   3.7853513271e+01    0.3447759    0.2215935 -33.86  0.001471334    1.799    0.444
       102  -9.7318    116.0856    116.4753   8.8496215406e+01   3.6058998564e+01    0.2754983    0.2351479 -45.82 0.0003945021    1.139    0.122
       103 -10.7455     31.7990    109.3086   1.1202599071e+02   5.0080358017e+01    0.6572948    0.2753431 -66.02   0.00296261    1.971    0.493
       104  -9.4536     82.4844    114.9851   9.7740501401e+01   4.2423463552e+01    0.3045177    0.2216313  37.44  0.001391226    1.489    0.328
       105  -8.2744    142.4572    114.5927   8.1095504429e+01   3.0930311834e+01    0.1538834    0.1533069 -28.41 0.0001185653    1.015    0.015
       106  -9.0522     63.7260    113.4306   1.0303142479e+02   4.5528323852e+01     0.198294    0.1531982 -39.28 0.0007404446    1.352    0.260
       107 -10.2655     57.0192    112.8155   1.0494620464e+02   4.6537763014e+01    0.5178695     0.294458  30.67     0.002487    2.018    0.505
       108  -9.5159     62.3902    109.3932   1.0258331307e+02   4.6679433073e+01    0.3778521    0.2579245  22.53  0.001441288    1.787    0.440
       109  -8.5969     99.4810    112.0109   9.2047394714e+01   4.0248147160e+01    0.2190252    0.1215259 -31.86 0.0008094804    2.475    0.596
       110  -8.6635     90.5250    112.5219   9.4786465973e+01   4.1695426631e+01    0.1487044    0.1385278 -54.66 0.0001745626    1.012    0.012
       111  -8.6968    133.1852    110.8123   8.2456642215e+01   3.3787219535e+01    0.2234224    0.1908965  -8.57  0.001077138    1.366    0.268
       112  -9.5186     96.4082    108.9979   9.2186343519e+01   4.1504677016e+01    0.4103078     0.227414 -39.84  0.001687198    1.910    0.477
       113  -9.1803     23.8610    108.8416   1.1437344452e+02   5.0870400700e+01    0.2621924    0.1840659  25.90  0.001570716    1.742    0.426
       114 -10.1476     50.8166     92.3975   1.0249354343e+02   5.2148979848e+01    0.3654704     0.285495 -28.13 0.0006644791    1.376    0.273
       115 -10.7211     49.7515    102.6585   1.0512585145e+02   4.9845755571e+01    0.6393995    0.4497859 -25.38  0.003370273    1.747    0.428
       116 -10.1327     54.4551     99.0851   1.0282835912e+02   5.0143996650e+01    0.5824528    0.2227508 -51.70  0.002355439    2.191    0.544
       117  -9.4953     50.8709     97.6322   1.0367338270e+02   5.0912041810e+01    0.3210111     0.227593 -54.29 0.0008622925    1.207    0.172
       118  -9.5488     46.2493     98.3910   1.0535362535e+02   5.1251994057e+01    0.3156117    0.2482061  40.66  0.001224115    1.467    0.318
       119 -10.6617     55.1978     86.0786   9.9448748182e+01   5.3085153597e+01    0.6187828    0.3646503  17.62  0.001817623    2.198    0.545
       120 -10.0389    105.9762    103.2724   8.7899306290e+01   4.1057142804e+01    0.4351668    0.2910653 -54.90  0.001371233    1.501    0.334
       121  -9.4479    107.0258     96.4384   8.5707652976e+01   4.2389391872e+01    0.5025464     0.275473 -27.42  0.001803756    2.695    0.629
       122 -11.0506    142.8937    101.4180   7.7407366437e+01   3.3654162880e+01    0.6515453    0.3684091  30.97  0.002405072    2.362    0.577
       123  -8.8596     68.0000    102.9656   9.9379794977e+01   4.7456066713e+01    0.2757691    0.1762529 -78.13 0.0009725189    2.030    0.507
       124  -9.7014     62.4489    102.6051   1.0105644574e+02   4.8296978801e+01    0.4090149     0.303014 -22.54 0.0007164499    1.650    0.394
       125  -9.6335    133.9447    102.5204   7.9996399478e+01   3.5427454271e+01    0.3355156    0.2507395 -48.15 0.0006675296    1.325    0.245
       126  -9.2293    132.5322     98.0720   7.9110116647e+01   3.6690975249e+01    0.3616573    0.2426447 -46.10  0.001060389    1.468    0.319
       127 -10.3185     78.4254    101.7454   9.5806732025e+01   4.6204906659e+01    0.6203772    0.2790734  36.01  0.002423403    2.427    0.588
       128  -9.3519     39.1636    102.9850   1.0857861386e+02   5.0896501949e+01    0.2691365     0.202464  10.33 0.0009162062    1.683    0.406
       129 -10.7792     37.9156    109.7589   1.1022555758e+02   4.9395344749e+01    0.5235372     0.367664 -76.29 0.0008885874    1.324    0.245
       130 -11.2485     76.0509     44.9437   7.8607902507e+01   5.8367668654e+01     1.027711    0.4064485 -32.78  0.003979764    2.641    0.621
       131  -8.9808     10.8763     99.6709   1.1698111128e+02   5.3971023806e+01    0.1589334    0.1379608 -69.20 0.0002803701    1.107    0.097
       132  -9.6446     87.5747     97.1261   9.1757444624e+01   4.5791230016e+01    0.3936868    0.2414326  46.25  0.001600256    1.804    0.446
       133  -9.3429    156.2103     96.2643   7.2739635453e+01   3.1614307693e+01    0.4318852    0.2160079 -32.97  0.001393405    2.197    0.545
       134 -10.4487    116.0153     95.1120   8.2750474341e+01   4.0871196274e+01    0.6443182    0.4114485  53.01  0.001530064    1.739    0.425
       135  -9.8549    122.8950     92.1439   7.9974033500e+01   4.0055550800e+01    0.4689411    0.3452078  74.61  0.001985761    1.866    0.464
       136  -9.4706    118.8668     91.8170   8.0991540068e+01   4.0984191330e+01    0.2639418    0.2550347 -87.63 0.0006125058    1.107    0.096
       137 -11.1598     72.7340     95.1794   9.5943400392e+01   4.8600987493e+01    0.5520161    0.4407086  43.27  0.001878581    1.392    0.282
       138 -10.4171     74.0865     89.8865   9.4099786453e+01   4.9613384005e+01    0.7511028    0.3423587  40.35  0.003084958    2.401    0.583
       139  -8.8406    189.3752     94.0825   6.5095674579e+01   2.4071478348e+01     0.242898    0.1866446 -15.89  0.001126738    1.510    0.338
       140  -9.6615    104.3306     92.1129   8.5262559457e+01   4.3868680946e+01    0.4433279    0.2916959   7.90  0.001491686    2.538    0.606
       141  -9.4294    106.7931     87.0008   8.3025951837e+01   4.4490975648e+01    0.3674042    0.2063888 -43.61 0.0007953915    1.706    0.414
       142  -9.4112    109.1403     83.8295   8.1373249405e+01   4.4688820262e+01    0.2666957    0.2272689  32.01 0.0005983566    1.222    0.182
       143 -10.2530     88.9767     88.6908   8.8970304766e+01   4.7453430160e+01    0.6269151    0.5068563   7.63   0.00167152    1.457    0.314
       144  -9.0234     82.9867     90.0000   9.1246224311e+01   4.8177342321e+01    0.2677334    0.1441025  32.32 0.0009342994    2.108    0.526
       145  -9.8724     82.9869     85.5913   8.9988108826e+01   4.9160148686e+01    0.4722892    0.2404508 -34.52   0.00186298    2.279    0.561
       146  -8.8502    193.9429     89.5167   6.3001010382e+01   2.3802051800e+01     0.218085    0.1518499  54.59 0.0004197321    1.487    0.328
       147  -8.9059    187.3049     89.3103   6.4194532385e+01   2.5441466929e+01    0.2005496    0.1702695 -69.99 0.0003573511    1.291    0.225
       148 -10.1424    112.2486     88.0145   8.1738955822e+01   4.3171860399e+01    0.4110115     0.193287 -34.82  0.001472509    2.421    0.587
       149  -9.3355     53.2306     81.9814   9.9066382878e+01   5.4257348822e+01    0.4275524    0.2578292 -21.98  0.001964058    2.238    0.553
       150  -9.7726    248.4703     87.2641   5.3879234692e+01   1.1868060787e+01    0.2781832    0.1584985  43.44  0.001297431    2.159    0.537
       151 -10.0441    119.0033     86.6645   7.9416013625e+01   4.2040384261e+01    0.3605071    0.2760988  43.69  0.001356711    1.341    0.254
       152  -8.3082    136.7876     95.4048   7.7241335021e+01   3.6299356553e+01    0.2148336    0.1488652  36.50 0.0006398415    1.558    0.358
       153  -8.8672    222.5172     86.5359   5.7401643847e+01   1.7616785909e+01    0.1465408    0.1335304 -48.34 4.571267e-05    1.021    0.020
       154  -8.9414    155.4824     85.8965   6.9909624968e+01   3.3822213714e+01    0.3321832     0.197613  33.44  0.001285762    2.107    0.525
       155 -10.8989    135.6205     82.2704   7.3628848049e+01   3.9228576639e+01     1.241384    0.7748399   5.59  0.004162656    3.339    0.700
       156 -10.1126    146.8356     82.3947   7.0891873460e+01   3.6569342756e+01    0.9463903    0.4024001 -25.91  0.002672973    4.037    0.752
       157  -9.1197    144.3500     78.2804   7.0234621150e+01   3.7945372231e+01      0.30837    0.2261924  31.80 0.0008361018    1.533    0.347
       158  -9.6417    146.8437     74.8951   6.8594395568e+01   3.7977010978e+01     0.274914     0.220386  39.73 0.0002669553    1.282    0.220
       159  -8.9304     76.7079     84.1120   9.1617702048e+01   5.0504731603e+01    0.2619111    0.1967383  55.22 0.0008242216    1.637    0.389
       160  -8.7519     72.4759     84.4361   9.3120932314e+01   5.1085153196e+01    0.2084814    0.1625314 -17.74 0.0005036991    1.444    0.307
       161  -9.5305    160.7970     81.6733   6.7468583328e+01   3.3328022620e+01     0.448505    0.2695727  66.88  0.001735547    2.063    0.515
       162 -10.1040    106.6797     60.0346   7.4284800125e+01   4.9839428229e+01    0.5248356    0.3804947  28.99  0.001952036    1.473    0.321
       163 -10.0840    107.7960     69.1993   7.7087014976e+01   4.7903807588e+01    0.4857886    0.3445259 -54.66  0.001704152    1.619    0.382
       164 -10.3805    101.3472     69.0246   7.8967021522e+01   4.9250508368e+01     0.617751    0.3944683 -52.69  0.002774775    1.768    0.435
       165 -11.7837    116.4368     70.6573   7.5079807922e+01   4.5787934392e+01    0.8265298     0.687445  44.68  0.004251031    1.224    0.183
       166 -10.3350    111.9716     63.5616   7.3966750405e+01   4.8076169062e+01    0.3088492    0.2949046  -2.64 0.0003491671    1.007    0.007
       167 -10.9775    103.0843     80.8221   8.2244786174e+01   4.6528370208e+01    0.6530659    0.4766637  -5.11  0.002380498    1.825    0.452
       168 -10.4098     98.7085     75.9886   8.2056823922e+01   4.8378720579e+01    0.6095427    0.3347446 -37.17  0.002563976    1.806    0.446
       169  -9.8237    189.0276     78.4083   6.0858059142e+01   2.6951314831e+01    0.5281016    0.3404877   4.33  0.001792522    2.811    0.644
       170 -10.1583    123.3383     80.4561   7.6309412909e+01   4.2364501060e+01    0.4778686    0.2890498  53.30  0.001915722    1.786    0.440
       171  -9.4409    168.4928     78.5360   6.4898051442e+01   3.2007147850e+01     0.329551    0.2766611  27.59  0.001619089    1.334    0.250
       172  -9.0567     89.0100     78.2667   8.5837582203e+01   4.9705222497e+01     0.285679    0.1894564  42.83  0.001357162    1.619    0.382
       173  -8.7278     92.0000     76.0085   8.4169741566e+01   4.9637011523e+01    0.2247598    0.2061597 -57.75  0.001242949    1.181    0.153
       174  -9.7156      5.1454     77.3223   1.1526602336e+02   5.9437025540e+01    0.2479903     0.190221  89.19  0.001041531    1.414    0.293
       175  -9.6887      3.5784     72.8282   1.1501681787e+02   6.0522887756e+01     0.303953    0.1129021 -54.08  0.001029453    1.902    0.474
       176  -8.9465     58.8332     76.4958   9.5569342072e+01   5.4771003191e+01    0.2139323    0.1825615 -71.82 0.0008998767    1.344    0.256
       177 -10.0388    247.0056     75.8314   5.1387306030e+01   1.3945719264e+01    0.3860824    0.1999524  71.07  0.001694572    2.481    0.597
       178  -8.7063    215.5253     76.5039   5.5914078698e+01   2.0880842718e+01    0.1476096    0.1349599 -53.94 -2.776526e-05    1.022    0.022
       179  -8.9650    204.3515     75.9314   5.7531434813e+01   2.3634165344e+01    0.2597831    0.1979408  30.90 0.0005647815    1.608    0.378
       180  -9.3782    166.1808     73.8257   6.3986867754e+01   3.3418430324e+01    0.4263525    0.2146965 -29.85  0.001600544    2.176    0.541
       181  -9.0937    164.5614     68.6228   6.2760328601e+01   3.4724271691e+01    0.3155963    0.2633635 -86.13 0.0008567719    1.366    0.268
       182  -9.3160    130.9238     74.7497   7.2489134684e+01   4.1764453323e+01    0.3767015    0.2468103  66.16  0.001402591    1.947    0.486
       183 -10.5445    124.0256     68.2629   7.2206603794e+01   4.4552090924e+01    0.8163872    0.5415316  89.50  0.003036164    2.970    0.663
       184  -8.4360    219.3106     74.6231   5.4861096008e+01   2.0299568926e+01    0.1588968    0.1024424 -62.07 0.0001569916    1.788    0.441
       185  -8.2406    171.8356     74.3578   6.2990055228e+01   3.1917553732e+01     0.214202    0.1378864  45.75 0.0004306501    1.611    0.379
       186  -9.5922     55.8758    238.0607   1.2071411588e+02   1.8659073755e+01    0.2161444    0.1316131 -85.48 0.0009421852    1.589    0.371
       187  -9.6160    196.8613     71.5321   5.7582464634e+01   2.6183621743e+01    0.2601631    0.2240389  12.55 0.0007055314    1.395    0.283
       188 -10.7711    149.7800     66.7463   6.5367766997e+01   3.8716089089e+01    0.7446747    0.4950364 -41.34  0.003353361    1.509    0.337
       189 -11.1846    141.9223     44.3114   5.9773783743e+01   4.4228060910e+01     0.883311     0.383085 -20.94 0.0006115772    3.174    0.685
       190 -10.0506    150.7968     59.5348   6.2850882986e+01   3.9679158067e+01    0.6025031    0.2737371  60.37  0.002202077    2.367    0.577
       191 -10.5480    147.2055     34.8565   5.5493363915e+01   4.4205317485e+01     1.014662    0.2603794  58.28  0.003168699    3.387    0.705
       192  -9.0645    156.0916     32.3129   5.2985831409e+01   4.2283033221e+01    0.2884712    0.2258331 -38.20   0.00151662    1.328    0.247
       193  -9.9366    143.9725     58.0199   6.3881564070e+01   4.1611445131e+01    0.2786941    0.2246262  44.85 0.0003988627    1.226    0.185
       194 -12.1863    147.2351     53.7765   6.1765766913e+01   4.1485831798e+01    0.5535977    0.3530774  48.00 0.0002509199    1.534    0.348
       195 -10.3442    145.4520     48.9460   6.0561934910e+01   4.2670289616e+01    0.4336275    0.2903973  41.44 0.0007771289    1.532    0.347
       196 -11.1868    138.5884     69.5716   6.8900208355e+01   4.0927093886e+01    0.6931624    0.4451901  56.42  0.001931278    1.621    0.383
       197  -9.2563    177.1878     69.4432   6.0507765647e+01   3.1421784594e+01    0.4913853    0.3423987 -69.60  0.002154042    1.817    0.450
       198  -9.4656    250.1828     70.1146   4.9663730419e+01   1.4139346259e+01     0.198913    0.1794012 -16.66 0.0008790132    1.256    0.204
       199  -8.8465    170.0876     70.4989   6.2201475103e+01   3.3021101374e+01    0.2308618    0.1491574  53.77 0.0005944601    1.541    0.351
       200  -8.8354    131.6787     67.1219   6.9832429855e+01   4.2998788405e+01    0.2656398    0.1852834  35.14 0.0007910345    1.542    0.351
       201  -8.3541    226.0000     65.9759   5.1723353915e+01   2.0103533863e+01    0.2436733   0.07554083 -33.50  0.000810921    3.002    0.667
       202 -10.0533    130.3648     61.7824   6.8399295351e+01   4.4247835685e+01    0.6303565    0.3768759  74.43  0.002336127    2.780    0.640
       203 -10.4833    137.6884     59.3072   6.5771721339e+01   4.2926900381e+01    0.3782912    0.2661394  18.19            0    1.851    0.460
       204  -9.8091    186.4973     61.0563   5.6404763999e+01   3.0447630322e+01    0.4466651     0.303792  82.22  0.001878081    1.753    0.430
       205 -10.6039    173.9221     46.4963   5.4286374043e+01   3.5825826447e+01     0.671023    0.4020739  81.60  0.002224969    2.095    0.523
       206  -9.5657    179.4850     44.0254   5.2621028437e+01   3.4755985469e+01    0.4310854    0.2733737  51.53  0.002007271    1.575    0.365
       207 -10.4587    185.0054     55.8834   5.5171608545e+01   3.1623884093e+01    0.3242213    0.2781688  63.39 0.0003393879    1.157    0.136
       208 -10.6906    183.4832     51.9874   5.4297694099e+01   3.2594032419e+01    0.5892399    0.3848867  57.06 0.0007465964    1.503    0.335
       209  -9.0384    206.9949     60.9486   5.3109068524e+01   2.5383880327e+01    0.2312123    0.2048725 -55.97 0.0007277481    1.061    0.058
       210  -8.9742    234.1306     59.8551   4.9160873908e+01   1.9166627973e+01    0.2089667     0.166041 -60.11  0.000262141    1.181    0.154
       211  -9.2033    201.1201     59.9294   5.3720473498e+01   2.6979430482e+01     0.280946    0.1994167  63.38 0.0007299747    1.429    0.300
       212  -8.9806    212.9522     59.0326   5.1740814092e+01   2.4233062643e+01    0.2411666    0.1780994  23.76   0.00115616    1.881    0.468
       213 -10.5306    193.4760     55.1910   5.3598536299e+01   2.9598116935e+01    0.6360012    0.4201558  22.61  0.002704063    2.313    0.568
       214  -9.2240    174.0996     57.1728   5.7459858725e+01   3.4187238293e+01    0.3077028    0.2129313 -10.55 0.0005994409    1.883    0.469
       215  -9.8417     14.4654    237.1479   1.2781438354e+02   2.3544845177e+01    0.2675664    0.1095488 -79.41  0.001397056    2.172    0.540
       216 -10.0795    117.6972     48.9897   6.7256673978e+01   4.9291932530e+01    0.6244245    0.3986059   6.96  0.002581349    2.342    0.573
       217  -9.5872    118.3309     44.6606   6.5523329048e+01   4.9816008942e+01    0.5612416    0.1864391 -38.88  0.001919364    3.036    0.671
       218  -9.9271    166.4707     53.7193   5.7832106203e+01   3.6655774973e+01    0.5236047    0.2892591 -40.35  0.002215303    1.803    0.445
       219 -10.3692    160.9346     51.8568   5.8318591176e+01   3.8342963818e+01      0.55699    0.4328578 -43.29  0.002262397    1.308    0.235
       220 -10.4199    153.4500     44.0621   5.7300989344e+01   4.1380692143e+01    0.7350427    0.4997252 -59.53  0.003371751    1.774    0.436
       221  -9.9119    157.3828     40.9083   5.5522256160e+01   4.0825289764e+01    0.5518502    0.2837759 -50.15  0.002198749    2.297    0.565
       222  -9.1105     12.5965     56.7060   1.0799737020e+02   6.3529026889e+01    0.2467006    0.1175779  29.93  0.001311876    2.539    0.606
       223 -10.1295    234.3624     55.5422   4.8082395047e+01   1.9743076218e+01    0.3657873    0.2712033 -87.49  0.001979609    1.451    0.311
       224 -11.5296     66.2270     45.3611   8.2357331154e+01   5.9920153690e+01    0.6842045     0.480664 -41.86  0.002656522    1.399    0.285
       225  -9.0137    244.2211     55.0338   4.6824451770e+01   1.7622395662e+01    0.1954384    0.1810046 -10.84 0.0006154973    1.297    0.229
       226  -9.8727    238.6981     51.8801   4.6696472333e+01   1.9290753070e+01    0.2330538    0.2103581 -69.58 0.0002290323    1.061    0.058
       227  -9.0897    236.9904     47.5164   4.5843308134e+01   2.0284434545e+01    0.2289581    0.1918902 -48.09 0.0008830452    1.080    0.074
       228  -8.6983    211.8188     50.7967   4.9736319174e+01   2.5718528513e+01     0.363439    0.1824342 -34.90  0.001568752    1.886    0.470
       229  -9.0031      9.9448     52.1504   1.0793658270e+02   6.4648016250e+01    0.1570489    0.1410223 -49.58 0.0003873845    1.187    0.158
       230  -8.7131    228.2254     49.8470   4.7416984330e+01   2.1962070982e+01    0.1726695    0.1599623  41.18 0.0004975979    1.287    0.223
       231  -8.0927     16.6541     50.6946   1.0466459885e+02   6.4514021403e+01    0.1300627   0.07069098 -33.34 0.0007041917    1.694    0.410
       232  -9.9445    206.2113     46.3979   4.9327090725e+01   2.7711874862e+01    0.5457088    0.2030328  53.58  0.001806366    2.715    0.632
       233 -10.3617    113.3698     32.3780   6.2228801208e+01   5.2686663477e+01    0.4407913    0.2709402   0.27 0.0009567271    2.211    0.548
       234  -8.2848    117.3396     28.7351   5.9846142205e+01   5.2239696603e+01    0.1989489    0.1667153 -45.00 0.0005387843    1.348    0.258
       235  -9.6966    105.7095     42.8757   6.8312798692e+01   5.2896857450e+01    0.4717158    0.4251209 -18.32  0.002707941    1.098    0.089
       236  -9.1883     95.4615     46.0090   7.2563700448e+01   5.4545274511e+01    0.2783659    0.2051099 -11.46 0.0008413402    1.451    0.311
       237 -10.0883     97.9129     41.6646   7.0143652710e+01   5.4730032517e+01     0.404818    0.3619639  -8.87  0.001804382    1.062    0.058
       238  -9.8765    100.7652     37.9669   6.7857659785e+01   5.4686470385e+01    0.4555725    0.2985459  49.34  0.002058493    1.520    0.342
       239 -10.4347    106.0027     34.0172   6.4826775990e+01   5.4114959615e+01    0.4167765    0.2659496  43.86 0.0006070164    1.480    0.324
       240 -10.1318    108.3344     29.8139   6.2553363269e+01   5.4157255072e+01    0.5070343    0.3436445  78.86  0.002343758    2.215    0.549
       241  -9.2833    220.0370     44.0286   4.6941058065e+01   2.4695157551e+01    0.4524248    0.1444088 -39.48  0.001668991    2.676    0.626
       242  -9.5958    248.6722     44.6531   4.3944089252e+01   1.8096180377e+01    0.2220778    0.1649037 -10.51  0.001206151    1.824    0.452
       243  -8.8257     20.9970    232.3572   1.2647073201e+02   2.3755467804e+01    0.1503666    0.1058746  62.22  0.000590976    1.117    0.105
       244  -8.5924    191.7315     44.6320   5.0895898005e+01   3.1565716741e+01    0.2123714    0.1767779  75.22 0.0005810236    1.175    0.149
       245  -9.0563    190.8380     40.4954   4.9859036690e+01   3.2358647304e+01    0.3114353    0.2255202   4.18  0.001477814    1.945    0.486
       246 -10.1253    136.3193     42.1853   6.0282294327e+01   4.5910534700e+01    0.4898997    0.3152944 -56.20  0.002170939    1.979    0.495
       247  -8.5024    127.9358     44.7443   6.3134492528e+01   4.7560873609e+01    0.2344354    0.1721274 -87.55  0.001070772    1.952    0.488
       248 -12.5115     49.1160     39.6801   8.6904990377e+01   6.3389378678e+01    0.5135059    0.3799247   7.59  0.000374582    1.378    0.275
       249  -9.2931     16.5573     44.2621   1.0278848289e+02   6.5822199483e+01    0.2321588    0.1155655 -43.02 0.0005884285    1.560    0.359
       250  -9.2647    166.5229     38.1873   5.3017132515e+01   3.8863044057e+01    0.3619375    0.1918714  -7.98  0.001293028    3.227    0.690
       251 -10.2193    133.4850     53.9750   6.4992113901e+01   4.4810538698e+01    0.6557488    0.3711471  -8.76  0.002330694    3.042    0.671
       252  -8.2433    207.9422     41.7553   4.7861829450e+01   2.7927639356e+01    0.1741076    0.1149623  66.87 0.0003995133    1.499    0.333
       253  -8.5494    202.6033     41.7284   4.8557828210e+01   2.9247208805e+01    0.1458085    0.1034379  38.04 0.0006984947    1.737    0.424
       254  -8.3431    112.4801     41.4898   6.5908668628e+01   5.1614722072e+01     0.141095    0.1359224  15.95 -2.772836e-05    1.061    0.057
       255  -8.7122    235.4670     39.6813   4.4133193333e+01   2.1692717651e+01    0.1750402    0.1274828 -22.03 0.0009406654    1.586    0.370
       256  -9.4379    173.5047     39.2177   5.2160012653e+01   3.6940423707e+01    0.3053847    0.2726992  63.81  0.001130252    1.082    0.076
       257  -9.1441    215.7178     38.9457   4.6162205656e+01   2.6415718630e+01    0.2789922    0.1947355  82.82  0.001067673    1.461    0.316
       258 -10.7136    220.5219     34.6364   4.4513299762e+01   2.5830978569e+01    0.4948245    0.4274786 -69.26  0.001388617    1.036    0.035
       259 -10.5110    226.1841     28.4011   4.2368971908e+01   2.5284869408e+01    0.5204225    0.3627386 -41.57  0.002892483    1.332    0.249
       260  -8.6648    197.9752     37.2286   4.7952980866e+01   3.1000704594e+01    0.2245255    0.1462899  42.35 0.0007843216    1.815    0.449
       261  -9.4493    242.4987     25.5031   4.0144357666e+01   2.1922717105e+01     0.264696    0.2245947  61.88  0.001413958    1.358    0.264
       262  -9.9868    237.5097     26.5008   4.0823121052e+01   2.2916736311e+01    0.3183554    0.2504671  71.99  0.001930063    1.310    0.237
       263  -9.7434    234.4413     34.0656   4.2899423483e+01   2.2660993407e+01    0.3864523    0.1973995  54.38   0.00153596    2.183    0.542
       264  -9.9835    236.3237     30.3334   4.1831213412e+01   2.2708080652e+01    0.3399336    0.2640507 -86.95  0.001329956    1.230    0.187
       265  -9.1420     12.6208    232.0618   1.2787553737e+02   2.4670957851e+01    0.2173011   0.09766967  55.09  0.001355719    1.684    0.406
       266  -8.3372    227.0112    231.5292   8.7622612743e+01  -6.4964252692e+00     0.175545   0.09970961  34.04 0.0004458204    1.513    0.339
       267  -8.8784    219.1964    230.7494   8.8888509902e+01  -5.2221768266e+00     0.187453    0.1356433  41.10 0.0006253489    1.454    0.312
       268  -9.3114    135.9920    229.7482   1.0459942502e+02   8.4101081291e+00    0.2416392    0.1570866 -23.16  0.001190783    2.717    0.632
       269  -9.1749    202.1111    228.9778   9.1725534819e+01  -2.3208236286e+00    0.1851886    0.1522169  23.93 0.0003745706    1.040    0.038
       270  -9.7218    215.2766     25.0364   4.2664650972e+01   2.8284505454e+01    0.2610241     0.189131  62.56 0.0007060314    1.399    0.285
       271  -8.3596    137.3022    224.3506   1.0361798294e+02   9.1278576378e+00    0.1230288   0.09816518   2.94 0.0007039364    1.697    0.411
       272 -10.0770    135.6829     33.5797   5.7420703260e+01   4.7234088935e+01    0.5657545    0.2989791  26.84  0.001887362    2.845    0.649
       273  -9.1856      6.9005     46.8926   1.0785463103e+02   6.5908582379e+01    0.1735106    0.1291763 -48.35 0.0003763722    1.037    0.035
       274  -8.7657      3.9489     33.6762   1.0534069142e+02   6.8695029818e+01    0.2753039   0.09882937 -38.78  0.001368722    2.225    0.550
       275 -10.1325    245.5054     33.4353   4.1682762182e+01   2.0265138726e+01    0.5216842    0.2227006  66.35   0.00238004    2.383    0.580
       276  -9.4190    185.9174     25.3129   4.6230075536e+01   3.5524947114e+01    0.4416308    0.1912384 -46.07  0.001279792    2.366    0.577
       277  -9.3637     40.9827    221.6862   1.2223690828e+02   2.3585532027e+01    0.1852824    0.1444635 -63.44  0.000863228    1.580    0.367
       278  -9.4887    159.7612     24.2134   4.9753393318e+01   4.2320099329e+01    0.3084841    0.2439141 -69.98  0.001087162    1.382    0.277
       279  -8.0551    219.7143    215.3229   8.6169450377e+01  -3.2179878296e+00    0.1077323    0.1021386  71.59 0.0002803241    1.599    0.375
       280  -9.2139     26.9743    212.7453   1.2422992831e+02   2.6933317222e+01    0.1405142   0.08595019  42.60 0.0008951818    1.591    0.372
       281 -10.9115    181.7544     31.9932   4.8737538761e+01   3.5770529496e+01    0.7478178    0.4321995 -78.19   0.00310926    2.332    0.571
       282 -10.3386    180.4318     25.5119   4.7033968862e+01   3.6894463838e+01    0.5406358    0.3057386 -87.39  0.001409023    2.223    0.550
       283  -8.8283     13.5589    212.5207   1.2668707775e+02   2.8349396798e+01    0.1127234   0.08068743  75.74 0.0001083633    1.013    0.013
       284  -9.4313    233.8557    200.0853   8.0836720869e+01  -3.3249296648e+00    0.2320386    0.1586961 -22.75  0.001345045    1.388    0.280
       285  -9.3025     27.7323    193.4299   1.2270489195e+02   3.0872926740e+01    0.2313691    0.1698861 -72.90  0.001354748    1.328    0.247
       286  -9.7175    158.0342     19.7202   4.8596180393e+01   4.3259964418e+01    0.2991076    0.2550407 -35.92   0.00101882    1.249    0.200
       287  -9.6152     11.6235    192.6319   1.2585891770e+02   3.2623254909e+01    0.2384724     0.134004  55.06  0.001497213    1.544    0.352
       288  -9.1943     32.9846    192.0715   1.2152362883e+02   3.0607879910e+01    0.1725414    0.1303198 -53.29 0.0006082055    1.680    0.405
       289  -9.9546     10.5281    185.0527   1.2558254916e+02   3.4340808885e+01    0.3043881     0.212468   6.36  0.001888577    2.518    0.603
       290  -9.2129    198.9820     32.3452   4.6485877250e+01   3.1378980644e+01    0.2660975    0.1902505 -43.66 0.0007302532    1.354    0.261
       291  -9.8302    173.5236     30.2352   4.9444837355e+01   3.8089442599e+01    0.3450746    0.2745423  12.05  0.001066662    1.567    0.362
       292  -9.4711    203.1198     28.8416   4.5027984057e+01   3.0788378898e+01     0.351134    0.2216556 -16.33  0.001062786    2.008    0.502
       293  -9.4907    204.5207     23.5294   4.3455363382e+01   3.1082709096e+01    0.4020067    0.1719825 -30.18  0.001449604    2.350    0.574
       294 -10.2012    167.4900     28.5711   4.9877368480e+01   3.9834752183e+01    0.3720091    0.3276022  -6.93  0.001088987    1.291    0.225
       295  -9.7735    146.8784     29.2612   5.3675659855e+01   4.4990233092e+01    0.4310751     0.313536  64.92  0.001638355    1.321    0.243
       296  -9.6378    147.3775     23.9227   5.1786260323e+01   4.5492393221e+01    0.2692961    0.1890595  57.11 0.0006312057    1.304    0.233
       297  -9.4631    247.0191     27.7398   4.0254958930e+01   2.0651822605e+01    0.2015061    0.1453245 -64.52 0.0002950074    1.227    0.185
       298  -9.6067    249.9711     25.2764   3.9452483856e+01   2.0314217127e+01     0.226576    0.1615019 -44.62 0.0003272063    1.231    0.187
       299  -9.4746    153.1952     24.9651   5.1101413665e+01   4.3903057344e+01    0.3478136    0.2611762 -30.53  0.001835545    1.410    0.291
       300 -10.0634      2.5758    178.4019   1.2676197428e+02   3.6456824250e+01     0.351098    0.2373694 -64.59  0.002379346    1.523    0.344
       301  -9.4219    129.8465     14.3907   5.1750180153e+01   5.0856677672e+01    0.5117527   0.08286335  59.37  0.001482137    4.271    0.766
       302  -8.5571     36.8153    179.6128   1.1961170806e+02   3.2937517782e+01    0.1781696   0.09338912  49.12 0.0009536852    1.783    0.439
       303 -10.6368    128.8775     23.4007   5.5231218869e+01   5.0131591000e+01    0.4449318     0.222332  54.42  0.001079659    1.787    0.440
       304  -8.3690     80.0138    176.2450   1.0938329443e+02   2.8166058219e+01    0.1736037    0.1098264  40.28 0.0008807904    1.582    0.368
       305  -9.2044    140.5445     23.4659   5.2902040512e+01   4.7255394534e+01    0.2515766     0.214248  17.36 3.638031e-05    1.263    0.208
       306  -8.3036     65.5823    173.1885   1.1236016069e+02   3.0903723969e+01    0.1822124    0.1116311 -58.41 0.0006409984    1.615    0.381
       307  -9.3395      1.3926    169.8729   1.2645523145e+02   3.8414016642e+01    0.2958352   0.07967626 -74.14  0.001237939    2.782    0.641
       308  -8.8201     74.8544     18.8425   6.7997954159e+01   6.2419076708e+01     0.183009    0.1738023   1.75  0.000602708    1.234    0.190
       309 -10.3224    247.4622     19.1047   3.8290114474e+01   2.1600665586e+01    0.5875624    0.2655837  80.62  0.002761516    2.348    0.574
       310  -9.2124    222.2040     12.8970   3.8989285392e+01   2.8036946050e+01    0.2826616    0.1671576  69.25  0.001490596    1.615    0.381
       311  -8.6003     16.6253    169.1981   1.2312563720e+02   3.7291093861e+01    0.1652029   0.08839492 -69.24 0.0003685739    1.585    0.369
       312 -10.7781     32.2983    166.2707   1.1932860967e+02   3.6453339397e+01    0.2286262    0.1912621  74.05 0.0002694603    1.113    0.102
       313  -9.4894     19.0304    165.7028   1.2229638544e+02   3.7865558516e+01    0.1676077    0.1382585  78.58 0.0008115837    1.105    0.095
       314  -9.9975     13.3864    165.2877   1.2352232574e+02   3.8457799446e+01    0.2050886    0.1599561 -57.89 0.0007449781    1.458    0.314
       315  -8.5711    228.4868     11.4658   3.8104918067e+01   2.6732399598e+01     0.212608    0.1126726  73.31 0.0001336505    1.792    0.442
       316  -9.9734    230.0163     20.0040   3.9983189828e+01   2.5408067390e+01    0.5850343    0.3072553 -75.05  0.002719396    2.147    0.534
       317 -10.4696      2.2394    159.2254   1.2552806185e+02   4.0719463189e+01    0.4822802    0.1866558 -76.41  0.001826845    1.996    0.499
       318 -10.2256    188.9009     19.3609   4.4166976359e+01   3.5453974847e+01    0.2398236    0.2041622  38.36 0.0004080964    1.351    0.260
       319  -8.3999     60.5021    162.4836   1.1217352640e+02   3.4073579922e+01    0.1351051    0.1148901  87.58 0.0001339928    1.019    0.018
       320  -9.8743     28.6836    158.2792   1.1936088358e+02   3.8668601753e+01    0.2077628    0.1737915 -83.13 0.0002752727    1.088    0.081
       321 -10.2134     18.3291    158.8969   1.2185073298e+02   3.9486124693e+01    0.1914218    0.1856738 -11.24 0.0007839503    1.443    0.307
       322  -9.3511    243.4491     13.0654   3.7266262124e+01   2.3178613147e+01    0.2476389    0.1718824  77.59  0.001328037    1.406    0.289
       323  -9.6987     67.3011     12.9012   6.7873427368e+01   6.4507133131e+01    0.2786559    0.1753818  51.85  0.001000406    1.809    0.447
       324 -12.8305     11.5091    145.8135   1.2225659316e+02   4.3081189510e+01     1.527484     1.129754 -51.56   0.01000644    1.509    0.337
       325 -12.1406     37.1946     92.4047   1.0708727884e+02   5.3593500369e+01    0.9212204    0.8079571  -1.80  0.002048871    1.343    0.256
       326  -9.9478    236.3065    249.4064   8.8881363986e+01  -9.9391057331e+00    0.2956616    0.1132729  41.63   0.00146407    2.554    0.608
       327  -9.1884    182.0026    250.0000   9.8596775950e+01  -2.0472501237e+00    0.2058562   0.05525303  39.71 0.0008083443    2.984    0.665
       328 -11.7763     41.4138     51.1199   9.4312221401e+01   6.2181794453e+01    0.8582153    0.5553587  27.66  0.004878484    1.721    0.419
       329 -12.8459     12.6030    126.5950   1.1998316808e+02   4.7507976559e+01     0.901881     0.643301 -76.04 0.0006234163    1.100    0.091
       330 -12.7307     11.9317    107.4128   1.1776428426e+02   5.2085481961e+01     1.972891    0.9438018 -48.09  0.008921071    1.963    0.491
       331 -12.3511     21.0799     81.1271   1.1031688614e+02   5.7571638882e+01     1.499791     1.419513 -46.61  0.009704097    1.180    0.152
       332 -10.0061    106.9116    248.0961   1.1228008275e+02   9.8404458722e+00    0.3364695    0.1390551  55.08   0.00158206    2.433    0.589
       333 -12.4275     27.7367     60.0875   1.0270590934e+02   6.1690308432e+01     1.413233    0.8691986   6.90  0.007902474    1.981    0.495
       334 -10.8072      6.5622     58.1883   1.1083304782e+02   6.3565293917e+01      1.11877    0.6181712  88.38  0.005312003    3.098    0.677
       335  -9.2624     86.9562    250.0000   1.1609353287e+02   1.2397114611e+01    0.1929996   0.05345958  39.59 0.0008064564    2.970    0.663
       336 -11.5608     30.1602     72.6745   1.0507896008e+02   5.8748347605e+01    0.7550847    0.5019475 -44.70  0.003068213    1.261    0.207
       337 -11.5812     41.2741     65.5075   9.8904891832e+01   5.9239298509e+01     1.404936     0.519407 -47.63  0.006017284    2.189    0.543
       338  -9.7329     58.9717    247.7020   1.2086797084e+02   1.6534256824e+01    0.2410516    0.1068629  75.23  0.001193599    2.758    0.637
       339  -8.8806     30.5685    248.2229   1.2572005675e+02   1.9830914216e+01    0.1332764   0.08544441 -73.40 0.0009496557    1.661    0.398
       340  -8.5231      3.4608    246.5348   1.2999219645e+02   2.2955058367e+01    0.1652389   0.06938075 -69.65  0.001024071    2.428    0.588
       341  -9.5385     91.5859    245.7853   1.1487334641e+02   1.2463088346e+01     0.153559    0.1011762  89.93 0.0009529695    1.690    0.408
       342  -9.8984    141.8481    243.9888   1.0528371614e+02   5.1368788446e+00    0.2965525    0.2243144  13.55  0.001588282    1.682    0.405
       343  -8.5695    188.6588    243.7006   9.6479386134e+01  -2.2284159049e+00    0.1236686   0.08129407  14.29 0.0003650339    1.669    0.401
