#   1 NUMBER                 Running object number                                     
#   2 MAG_AUTO               Kron-like elliptical aperture magnitude                    [mag]
#   3 X_IMAGE                Object position along x                                    [pixel]
#   4 Y_IMAGE                Object position along y                                    [pixel]
#   5 X_WORLD                Barycenter position along world x axis                     [deg]
#   6 Y_WORLD                Barycenter position along world y axis                     [deg]
#   7 A_WORLD                Profile RMS along major axis (world units)                 [deg]
#   8 B_WORLD                Profile RMS along minor axis (world units)                 [deg]
#   9 THETA_WORLD            Position angle (CCW/world-x)                               [deg]
#  10 FWHM_WORLD             FWHM assuming a gaussian core                              [deg]
#  11 ELONGATION             A_IMAGE/B_IMAGE                                           
#  12 ELLIPTICITY            1 - B_IMAGE/A_IMAGE                                       
         1  -9.5592    190.3329     10.5087   2.8960881983e+02   6.5614714821e+00   0.05744947   0.02784868  35.19  0.005192763    1.998    0.499
         2  -9.3794    199.5335     15.5672   2.8953210962e+02   6.4493155443e+00   0.01797849     0.015027 -56.16   0.00146816    1.177    0.150
         3  -9.0101    197.8697     10.5968   2.8952157163e+02   6.5165955503e+00   0.03019831   0.01022255 -53.22  0.002318506    2.702    0.630
         4  -9.7853    205.2837      5.7398   2.8940600466e+02   6.5297146364e+00   0.03498854   0.02940623  85.03  0.004062339    1.328    0.247
         5  -9.9952    238.5463      8.8745   2.8903777237e+02   6.2996230358e+00   0.02967218   0.01640753  60.92  0.002111257    2.615    0.618
         6  -9.6169    231.5245      2.8379   2.8908310781e+02   6.4104674215e+00   0.02148366   0.01137712  41.12  0.001564014    1.920    0.479
         7  -9.3007    229.1560     16.3418   2.8919197452e+02   6.2678465369e+00    0.0303843   0.01916212  -7.57  0.002822696    2.197    0.545
         8  -9.1314    233.0092     11.0863   2.8911550469e+02   6.3062767737e+00   0.01470926   0.01159937 -16.96  0.001063333    1.433    0.302
         9 -10.2725    220.5484     15.2850   2.8928577363e+02   6.3302336930e+00   0.03006466   0.02442948 -24.56  0.003434951    1.338    0.252
        10  -9.9186    221.7904      5.6752   2.8921346430e+02   6.4343268584e+00   0.02443405   0.02175485 -69.28  0.002949167    1.139    0.122
        11  -9.9549    250.1376     19.0167   2.8896404093e+02   6.1145714403e+00   0.04355743   0.01067324 -64.22  0.002641751    4.469    0.776
        12 -10.1168    244.7957     15.9725   2.8900782924e+02   6.1809770547e+00   0.04634443   0.01916602 -64.25  0.003774167    2.485    0.598
        13 -10.2675    239.0487     17.6330   2.8908466495e+02   6.1952411184e+00   0.03553195   0.02300282 -88.79  0.003057201    2.040    0.510
        14  -9.3554    147.3005     19.3872   2.9016370506e+02   6.7086506886e+00   0.02181819   0.01226983  80.21  0.001710928    3.169    0.684
        15  -8.8520    185.6252     18.5923   2.8971229414e+02   6.4951692724e+00   0.02640655     0.014435 -26.28  0.002194133    2.689    0.628
        16  -9.6513    112.1493      9.8046   2.9051611250e+02   7.0236606706e+00   0.02175853   0.01360764  86.84  0.001990475    2.274    0.560
        17  -9.9650    212.9241      8.9150   2.8933616882e+02   6.4484407571e+00   0.03026111   0.01857987 -69.62   0.00298423    1.743    0.426
        18  -8.9407    214.4998      2.4733   2.8927904362e+02   6.5138861236e+00   0.01503365  0.009354811 -40.08 0.0009056184    1.725    0.420
        19  -9.6835    172.0631      6.2540   2.8979607445e+02   6.7170307119e+00   0.03380566   0.02114286  59.23  0.003231754    2.009    0.502
        20  -9.7113    155.7798      9.5582   2.9000574567e+02   6.7733591668e+00   0.02457284   0.01411719 -49.14  0.002386061    1.714    0.417
        21 -10.1754    118.3248     10.8599   2.9045039786e+02   6.9756285704e+00   0.01409892    0.0136982 -24.06  0.001388959    1.027    0.026
        22  -9.6863    116.9406      5.8468   2.9043641772e+02   7.0417756907e+00   0.03316955  0.007403532 -49.72  0.002056936    4.182    0.761
        23  -8.6013     84.6078     10.4851   2.9084165954e+02   7.1752670294e+00   0.01244073   0.01026682 -66.84 0.0009996025    1.226    0.185
        24  -8.6180    139.8261      8.7452   2.9018687831e+02   6.8754180455e+00   0.01320706  0.008430749  45.31  0.001327059    1.649    0.393
        25  -9.1273    249.3204      6.6807   2.8889925612e+02   6.2622108466e+00    0.0148533   0.01420868 -88.29  0.001435493    1.078    0.073
        26  -9.4969    249.6630      3.6425   2.8887697203e+02   6.2953945430e+00   0.01967878    0.0141456 -85.65  0.002061211    1.651    0.394
        27  -8.5340    132.3368      6.2202   2.9025904642e+02   6.9481514031e+00   0.01737707  0.009125454 -50.94  0.001614275    1.846    0.458
        28  -8.8986    165.0190      3.6761   2.8986266223e+02   6.7878509346e+00   0.01941727  0.009507118 -67.61  0.001686944    2.207    0.547
        29  -9.1752    143.7135      4.3377   2.9011503883e+02   6.9039432746e+00   0.01181906    0.0102479  66.16  0.001341173    1.254    0.203
        30  -9.2683     62.9299      3.0360   2.9105007445e+02   7.3870111071e+00   0.02272374   0.01342902 -30.91  0.001859334    2.107    0.525
        31  -8.0889    151.5201      1.5225   2.9000707425e+02   6.8912391617e+00   0.01124281  0.006449003 -61.90 0.0002842453    1.724    0.420
        32  -9.3750    240.2949      2.3896   2.8897837799e+02   6.3645318507e+00   0.01930119   0.01178348  32.62   0.00134377    1.611    0.379
        33  -8.5375    194.5180      2.0533   2.8950918303e+02   6.6350907688e+00   0.01523355   0.01012007  69.87  0.001474763    1.993    0.498
        34  -7.6958    189.9954      2.5023   2.8956456509e+02   6.6562077177e+00   0.01662271    0.0119638   6.95  0.001755933    1.583    0.368
        35  -8.1066    159.5253      3.4797   2.8992551842e+02   6.8220512043e+00  0.006599408  0.006381049 -30.49   7.8974e-06    1.030    0.029
        36  -8.0855    148.4016      2.1876   2.9004743825e+02   6.9016424915e+00  0.009016882  0.006393519 -80.59  0.000420944    1.622    0.383
        37  -7.9322     97.6655      2.3368   2.9064027808e+02   7.1941577548e+00  0.007116337  0.004943007  62.51 0.0007051936    1.744    0.427
        38  -7.6135     89.3020      2.6885   2.9074002664e+02   7.2385051437e+00  0.006826742   0.00500013  63.18 0.0004591848    1.608    0.378
        39  -8.3642     11.2663      1.9945   2.9164749224e+02   7.6971665723e+00  0.009197763  0.008885447 -34.44 0.0007944758    1.026    0.026
        40  -8.2137    137.4629      1.4636   2.9017065214e+02   6.9735406081e+00   0.01233158  0.005217027  39.02  0.001018231    2.335    0.572
        41  -8.3717    224.6080    146.1922   2.9002508799e+02   4.7881651375e+00   0.01376108  0.009290469 -33.25  0.001398416    1.665    0.399
        42  -8.4348    231.2847    141.8436   2.8992139907e+02   4.7998537255e+00   0.01255047  0.008741013  38.70  0.001329801    1.441    0.306
        43  -8.4304    218.5239    139.3180   2.9005459394e+02   4.9033105217e+00   0.01177091  0.006089776  26.22 0.0009268168    1.951    0.488
        44  -8.4286    210.0829    138.3268   2.9014680071e+02   4.9638466768e+00  0.009560413    0.0084222  29.71  0.001006686    1.139    0.122
        45  -8.8813    249.1285    135.9885   2.8967891250e+02   4.7640919967e+00   0.01472694   0.01004843  45.31   0.00129501    1.532    0.347
        46  -9.9050    242.8094    134.6410   2.8974425066e+02   4.8164682533e+00   0.01780172   0.01416114  47.19  0.001451927    1.308    0.236
        47  -9.4221    170.0422    134.8692   2.9059191720e+02   5.2363976348e+00   0.01311883   0.01130765 -23.87 0.0005327804    1.225    0.184
        48  -8.5128    214.7644    135.0358   2.9007262428e+02   4.9748625867e+00   0.01484347  0.006846385  49.54  0.001186541    2.682    0.627
        49  -8.0138    140.4870    135.4008   2.9093919196e+02   5.4015559552e+00  0.006490849  0.006385255  28.30 0.0001066714    1.026    0.026
        50  -8.7942    249.5343    130.8928   2.8964361509e+02   4.8208643954e+00   0.01369951  0.009205391  34.22  0.001103522    1.474    0.322
        51  -7.8335    233.9843    129.4910   2.8981591134e+02   4.9275388286e+00  0.009454682  0.004890651  49.92 0.0005148284    2.289    0.563
        52  -8.2368    222.0346    130.0000   2.8995788253e+02   4.9910807074e+00   0.01096532    0.0037687  26.56 0.0006618829    2.931    0.659
        53  -8.7602    206.6339    126.9437   2.9011864333e+02   5.1160308737e+00   0.01110899  0.009221448   6.88 0.0006132126    1.285    0.222
        54  -9.1969    190.6426    125.2572   2.9029456138e+02   5.2284731028e+00   0.02452699   0.01306049  54.08   0.00211693    2.406    0.584
        55  -9.9140    241.3449    125.0200   2.8970352805e+02   4.9366344283e+00   0.02058224   0.01404035  51.93  0.002128712    1.626    0.385
        56  -9.1946    229.1517    126.1611   2.8985210404e+02   4.9942769957e+00   0.01434853  0.009691601   6.08  0.001442558    1.759    0.432
        57  -8.2044    213.2101    123.9737   2.9002434120e+02   5.1123068878e+00   0.01015895  0.007035598  52.42 0.0007103082    1.601    0.376
        58  -7.7988    161.5293    124.5414   2.9062912153e+02   5.4057175527e+00  0.006581872  0.006389874  63.90 0.0002899137    1.060    0.056
        59  -8.4964    221.4930    121.4853   2.8991308864e+02   5.0930595699e+00  0.006524566  0.006478491 -41.39 3.801369e-06    1.008    0.008
        60  -8.0299    243.9630    119.7670   2.8964156799e+02   4.9823658688e+00   0.01146921  0.006720708  53.26 0.0006940094    2.037    0.509
        61  -9.4333    231.9461    116.5270   2.8976179526e+02   5.0898400015e+00   0.01623151   0.01036682  27.56  0.001147534    1.566    0.361
        62  -8.8233    249.5036     98.8470   2.8945154150e+02   5.1928416881e+00   0.01194324  0.009891383 -70.15 0.0006549277    1.238    0.192
        63  -9.8638    248.4405    113.3934   2.8955126576e+02   5.0302735975e+00    0.0236231   0.01265614 -47.01  0.002199532    1.878    0.467
        64  -9.8167    248.8550    106.7076   2.8950629669e+02   5.1054279598e+00   0.02206871   0.01462257 -34.70  0.002236685    1.686    0.407
        65  -8.3024    248.0000    103.0090   2.8949401708e+02   5.1533112225e+00   0.01455892  0.009201465 -54.10  0.001197298    1.532    0.347
        66  -8.8808    218.9310    115.6367   2.8990778094e+02   5.1758314949e+00   0.01752086  0.008349905  23.41  0.001515052    2.213    0.548
        67  -7.8594    204.2108    116.3856   2.9008348867e+02   5.2526715265e+00  0.009371739  0.005852026  38.43 0.0004442945    1.600    0.375
        68  -8.3366    182.9740    116.4509   2.9033098822e+02   5.3752384300e+00   0.01046492  0.006459785  27.35  0.001037494    1.621    0.383
        69  -8.5442    213.7247    115.5711   2.8996793633e+02   5.2068487953e+00    0.0122826  0.006673478  19.47 0.0009257878    2.027    0.507
        70  -9.3747    104.6065    111.9523   2.9121680998e+02   5.8817098466e+00   0.01315502   0.01113401 -10.17 0.0004401353    1.282    0.220
        71  -8.6732     15.3462    112.3496   2.9226012697e+02   6.3923821293e+00   0.01120042   0.01021381   4.01 0.0004757676    1.130    0.115
        72  -7.7791    123.6807    110.3012   2.9098463276e+02   5.7904695962e+00  0.006891626  0.004970191  61.05 0.0003681642    1.623    0.384
        73  -8.4870    236.1705    108.2301   2.8966287307e+02   5.1615511715e+00  0.009489676  0.007671103  60.68 0.0008064538    1.367    0.268
        74  -8.1754    215.5095    108.0141   2.8990182032e+02   5.2841855184e+00  0.009358809  0.005736849  81.74 0.0006123333    2.453    0.592
        75 -10.4390    241.3882    105.4196   2.8958534292e+02   5.1638108523e+00   0.02382154   0.01416218 -45.27  0.002331701    1.713    0.416
        76  -7.6827    221.6845    101.6858   2.8979200924e+02   5.3217268616e+00  0.006999081  0.004915691 -27.98 0.0007035368    1.643    0.392
        77  -7.6109    167.3255    101.6710   2.9042450673e+02   5.6376620220e+00  0.007043458  0.004969066  62.69 0.0007050299    1.701    0.412
        78  -8.7903    244.2269     99.1480   2.8951467682e+02   5.2200545426e+00   0.01946275  0.009315553  20.89  0.001661561    2.314    0.568
        79  -8.6518    130.0653     98.3199   2.9083843870e+02   5.8926344818e+00   0.01080524   0.00950182 -60.60 0.0005225631    1.128    0.114
        80  -8.1984    196.8067     98.2426   2.9006075333e+02   5.5062768766e+00   0.01185133  0.006379239  61.05 0.0009553235    2.787    0.641
        81  -9.2302    231.1343     94.5667   2.8963936535e+02   5.3493721075e+00   0.01893701   0.01220951 -67.16  0.001924018    1.602    0.376
        82  -8.5833    216.2422     93.7552   2.8980768536e+02   5.4453940917e+00   0.01454859  0.004039858 -49.41 0.0009760137    3.467    0.712
        83  -9.4251    217.9204     89.8710   2.8976483597e+02   5.4807035777e+00   0.02449308  0.008237712  45.00  0.001685377    3.561    0.719
        84  -9.1103    243.3587     93.1319   2.8948862646e+02   5.2948948375e+00   0.01365847  0.009419883  34.19  0.001445906    1.438    0.305
        85  -8.9790    237.4285     90.0125   2.8953882469e+02   5.3655870838e+00   0.02169954   0.01049663  45.57  0.001871823    2.273    0.560
        86  -8.1116    172.1622     91.6309   2.9030794855e+02   5.7261448560e+00  0.009524274  0.006331953   9.39 0.0009432648    1.748    0.428
        87  -8.8791    231.9259     83.6756   2.8956472920e+02   5.4711113860e+00    0.0207763   0.01333902 -85.68   0.00199051    2.006    0.502
        88  -9.0441    236.9376     82.8770   2.8950165574e+02   5.4512119776e+00    0.0203278   0.01483095 -84.36  0.001764574    1.597    0.374
        89  -9.0688    242.2651     81.5760   2.8943189894e+02   5.4352966298e+00   0.03326778   0.01162463  44.28  0.002390419    3.271    0.694
        90  -9.4573    248.5004     85.6214   2.8938373132e+02   5.3520825598e+00   0.03344433   0.01566512 -65.94   0.00287523    2.244    0.554
        91  -9.5822    243.6558     77.8389   2.8939327013e+02   5.4705427454e+00   0.03345298   0.01847944  73.95  0.002576445    3.305    0.697
        92  -8.2168    235.7979     76.2882   2.8947531024e+02   5.5342654448e+00   0.01635821   0.01220873  27.32 0.0009939527    1.344    0.256
        93  -8.6815    235.1210     70.8243   2.8945033835e+02   5.6015727194e+00    0.0282678   0.01048171 -61.32  0.002197006    2.607    0.616
        94  -8.2580    242.9654     88.2335   2.8946376578e+02   5.3540032562e+00   0.01279955  0.007798948 -47.40  0.001264462    1.637    0.389
        95  -8.6880    226.2327     86.0882   2.8964543261e+02   5.4762456668e+00    0.0174783  0.007358522 -52.10   0.00126317    2.250    0.556
        96  -8.1411    117.0636     85.0485   2.9091041846e+02   6.1220652867e+00   0.01110279   0.00771107  60.40  0.001128535    1.713    0.416
        97  -7.6583    135.0388     83.5194   2.9069173833e+02   6.0356669167e+00  0.009810478  0.004774053  48.87 0.0008085999    2.434    0.589
        98  -7.8594    193.9774     84.0000   2.9000817180e+02   5.6880074297e+00   0.01079445  0.003767685  26.56 0.0005285417    2.886    0.653
        99  -8.2548    195.9881     78.9926   2.8995469631e+02   5.7344275399e+00    0.0171394  0.008702382  89.11  0.001153034    4.205    0.762
       100  -8.5595     43.3802     79.1998   2.9173484703e+02   6.6159412400e+00  0.009520104  0.006386183 -77.90 0.0008881048    1.709    0.415
       101  -8.4264    175.8092     77.9695   2.9018347900e+02   5.8635314173e+00   0.01121794  0.007513311  75.01  0.001077821    2.003    0.501
       102  -7.7929    148.5108     77.9463   2.9050131876e+02   6.0222432997e+00  0.009897801  0.006471892 -62.16 0.0005847616    1.516    0.341
       103  -9.0229    213.8819     76.3502   2.8973059347e+02   5.6610530781e+00   0.01340626   0.01077549  36.85  0.001524356    1.248    0.199
       104  -8.7096    126.4603     76.7527   2.9075113658e+02   6.1639458523e+00   0.01092319  0.009609623 -79.34 0.0007511466    1.192    0.161
       105  -8.0405     97.0855     74.6279   2.9108089880e+02   6.3587205395e+00   0.01919228  0.001831162  37.33 0.0009519602    6.374    0.843
       106  -8.2866    202.1277     72.4331   2.8984383611e+02   5.7748439398e+00   0.01594063  0.009522795  23.50  0.001558485    1.726    0.421
       107  -7.8346    157.6823     71.3051   2.9035460294e+02   6.0461116921e+00  0.006897592  0.004975889  61.52 0.0003484485    1.628    0.386
       108  -8.8725      6.9784     69.9861   2.9210466719e+02   6.9327325857e+00   0.01288724  0.008838384  26.13  0.001356253    1.467    0.318
       109  -8.7134    221.0292     61.0750   2.8955563500e+02   5.7966478361e+00   0.02223348   0.01175294  71.42  0.001594528    3.779    0.735
       110  -9.5186    224.3302     66.6807   2.8955093338e+02   5.7124279127e+00   0.01616365   0.01163494  48.35  0.001732138    1.476    0.322
       111  -8.8946    250.0462     65.9407   2.8924745254e+02   5.5713012876e+00   0.01393637  0.009923334 -76.58 0.0008585138    1.556    0.357
       112  -7.9455    238.3483     64.8579   2.8937694139e+02   5.6519734947e+00  0.009922608  0.005595414 -51.74  0.000941377    1.718    0.418
       113  -7.5360    198.4647     64.5017   2.8983881428e+02   5.8881508066e+00  0.006526452  0.006460167 -44.52  0.000173902    1.007    0.007
       114  -7.3172    214.6587     63.3037   2.8964315100e+02   5.8078655804e+00  0.007018053   0.00493023  60.09 0.0003224961    1.679    0.404
       115  -7.9725    158.5078     62.5029   2.9029213594e+02   6.1434674788e+00   0.01223235  0.006637713 -78.86  0.001036646    2.450    0.592
       116  -7.6723    136.4107     63.2018   2.9055384522e+02   6.2635589534e+00  0.009377988  0.006446403 -79.30  0.000947734    1.676    0.403
       117  -7.5632     43.5419     62.4896   2.9163293560e+02   6.8090653264e+00  0.006510789  0.006461006 -56.32 0.0001201237    1.015    0.014
       118  -8.1091    234.8907     60.1354   2.8938875363e+02   5.7268618064e+00  0.009557057  0.007715237 -26.28  0.000669067    1.342    0.255
       119  -9.5863    171.3847     59.2821   2.9012278075e+02   6.1060692196e+00   0.01515595   0.01380922 -11.29  0.001114902    1.141    0.124
       120  -8.6451    126.8171     58.8360   2.9063948111e+02   6.3698483628e+00   0.01012629  0.008855824 -27.96 0.0005256292    1.187    0.158
       121  -9.0445    214.3532     57.7399   2.8961325994e+02   5.8741700515e+00    0.0203732   0.01201948  17.29   0.00186956    1.886    0.470
       122  -9.2109    131.8514     55.2961   2.9055954054e+02   6.3817445051e+00   0.01307059  0.008829325  82.88  0.001271869    1.965    0.491
       123  -7.8856    109.6732     56.6804   2.9082646097e+02   6.4941997731e+00  0.007078537  0.004902264 -27.67 0.0005012872    1.682    0.405
       124 -10.0236    199.6563     53.8400   2.8976086722e+02   6.0048881737e+00   0.02245098   0.01814694  50.09  0.002455838    1.302    0.232
       125  -8.3769    148.8976     60.3458   2.9039116563e+02   6.2242721398e+00   0.01353956  0.005156159  35.31  0.001080433    2.479    0.597
       126  -8.6524    249.5774     44.4157   2.8912342796e+02   5.8235487955e+00   0.01734119   0.01031359  64.64  0.001376188    2.382    0.580
       127  -9.5535    244.1995     42.1832   2.8917252249e+02   5.8807567116e+00   0.02100861   0.01594669 -52.97  0.001590579    1.290    0.225
       128  -8.1564    249.1901     48.4391   2.8915213768e+02   5.7791727634e+00   0.01635399   0.01019878   2.00  0.001177903    2.110    0.526
       129  -8.1200    241.4912     54.4752   2.8927795969e+02   5.7540505128e+00   0.01244745  0.006339198  29.95 0.0007409503    1.923    0.480
       130  -9.7452    244.6617     51.6497   2.8922409912e+02   5.7683387288e+00   0.02330387   0.01535151  55.46   0.00207134    1.768    0.434
       131  -8.8009    236.8056     54.0558   2.8932992401e+02   5.7861992964e+00   0.01192314   0.01113795  50.39 0.0007360997    1.099    0.090
       132  -9.7470    229.8524     52.1102   2.8939909316e+02   5.8492416538e+00   0.02548709   0.02034966  14.79  0.002899498    1.314    0.239
       133  -7.9375    206.9569     54.5908   2.8968040297e+02   5.9537177513e+00   0.01296913  0.006664508  14.51  0.001095294    2.420    0.587
       134  -8.4003    163.5326     53.6400   2.9018036129e+02   6.2171295190e+00   0.01356454  0.006501011 -63.13  0.001185634    2.087    0.521
       135  -8.0976    220.5327     53.5083   2.8951591834e+02   5.8872813370e+00   0.01408477  0.006635327  24.77  0.001214215    2.192    0.544
       136  -7.5137     87.6710     49.3517   2.9103916815e+02   6.7066207271e+00  0.007150814   0.00494822  63.61 0.0007047602    1.769    0.435
       137  -7.9086    145.5015     48.5305   2.9035979507e+02   6.3810730101e+00  0.006606564   0.00638207 -28.91 2.748196e-05    1.032    0.031
       138  -8.1526    233.1207     45.3074   2.8932016075e+02   5.9090761320e+00   0.01464677  0.009799308 -63.92  0.001521378    1.500    0.333
       139  -8.1149    238.6839     45.0729   2.8925404738e+02   5.8793939421e+00  0.009178637   0.00835257 -60.39   0.00075843    1.091    0.084
       140  -9.0746    215.2287     42.5533   2.8951175428e+02   6.0451681193e+00   0.02382111    0.0148749 -48.04  0.002065937    1.590    0.371
       141  -9.1909    196.6580     42.8437   2.8972966573e+02   6.1498465050e+00   0.01969206   0.01076362 -65.92  0.001836745    1.892    0.471
       142  -9.4884    189.8783     43.8511   2.8981466343e+02   6.1775899880e+00   0.02521713   0.01268631 -51.42   0.00220309    1.917    0.478
       143 -10.2599    185.5646     37.0409   2.8982395535e+02   6.2816412416e+00    0.0276564   0.01978086  86.18  0.002860246    1.742    0.426
       144  -7.7245    222.6245     43.7564   2.8943293350e+02   5.9881711918e+00  0.009292422  0.006386126 -75.33 0.0009473822    1.613    0.380
       145  -9.4538    175.5120     41.2790   2.8996652428e+02   6.2909243030e+00   0.02491055   0.01215811  44.71  0.002175646    2.212    0.548
       146  -7.7264     76.5602     44.4835   2.9113963280e+02   6.8273826595e+00   0.00650398  0.006442459 -69.14 0.0001271129    1.021    0.020
       147  -8.4298    134.9366     43.1702   2.9045076421e+02   6.5045523408e+00   0.01033259  0.008852046  57.20 0.0007291806    1.246    0.197
       148  -8.3892    115.8003     43.0552   2.9067322934e+02   6.6168244673e+00   0.01057897  0.008948245  64.74  0.001221199    1.297    0.229
       149  -8.4439    142.4104     41.5611   2.9035396571e+02   6.4798636112e+00   0.01182179   0.00656128   9.88  0.000762689    2.336    0.572
       150  -9.0053    238.2182     38.7808   2.8922160760e+02   5.9550349752e+00   0.01450827   0.01386156 -73.05  0.001108944    1.061    0.057
       151  -9.6871    201.9173     36.0897   2.8962781975e+02   6.1975642814e+00   0.04095842   0.01641723 -50.69  0.003361786    2.390    0.582
       152  -9.7841    197.8034     29.7769   2.8963774625e+02   6.2946825804e+00   0.02711755   0.02299289 -32.95  0.003185455    1.222    0.181
       153  -9.0082    184.1565    245.1804   2.9108768775e+02   3.8731591197e+00   0.01075055  0.009241075 -27.87  0.001257101    1.217    0.178
       154  -9.1280    199.9650     20.5554   2.8955710057e+02   6.3889946174e+00   0.01795996   0.01117976 -42.39  0.001173237    1.679    0.404
       155  -9.1824    201.3148     26.4433   2.8957680891e+02   6.3128958700e+00   0.02290934   0.01107993 -68.71  0.001436569    2.294    0.564
       156  -8.4197    207.5571     24.9061   2.8949488736e+02   6.2943840367e+00   0.03273042   0.01351958  32.30  0.002747455    2.302    0.566
       157  -8.1528    245.9997    238.5409   2.9032971141e+02   3.5918520477e+00  0.009801304  0.004757855  48.84 0.0004592914    2.442    0.591
       158  -8.4991    165.2499    228.6318   2.9120861233e+02   4.1748909561e+00   0.01239819  0.008885381  11.15  0.001307153    1.544    0.352
       159  -7.9264     99.4492    226.2561   2.9195980282e+02   4.5830674786e+00  0.008850816  0.006438272 -83.59 0.0009210866    1.591    0.372
       160  -8.7942    165.8502     40.1782   2.9007247274e+02   6.3598246383e+00   0.01240758  0.008834452  52.72  0.001050958    1.549    0.354
       161  -8.6030    162.5948     37.9027   2.9009672990e+02   6.4051248922e+00   0.02007344  0.009953783 -39.73  0.001439901    2.339    0.572
       162  -7.6202     86.0000     38.9935   2.9099653180e+02   6.8364978050e+00   0.01110122  0.003738438 -62.74 0.0008032604    2.948    0.661
       163  -8.4258    250.6556     36.3019   2.8906206844e+02   5.9112932401e+00  0.009938638  0.008579184  87.03 0.0008691243    1.268    0.211
       164  -9.8563    247.7443     32.3131   2.8907191053e+02   5.9744805823e+00   0.02950919   0.02098189  62.68  0.003077921    1.680    0.405
       165  -7.8138     61.2525     37.4404   2.9127608517e+02   6.9975930262e+00  0.009147085  0.005933723  40.09 0.0009249173    1.557    0.358
       166  -9.6971    227.9792     33.3416   2.8930798031e+02   6.0777142620e+00   0.02723684   0.02365692 -60.57  0.003251252    1.142    0.124
       167  -9.8271    225.0376     23.3395   2.8928201487e+02   6.2107589564e+00   0.02907202   0.01877848  51.52  0.002854472    1.737    0.424
       168  -8.3898    242.5391     34.5126   2.8914567325e+02   5.9793262624e+00   0.01457498  0.008584738 -74.49  0.001362808    1.973    0.493
       169  -8.9018    221.5567     31.1483   2.8936950883e+02   6.1405349308e+00   0.01666053   0.01515279  14.50   0.00165088    1.119    0.107
       170  -9.2494    213.7750     31.6383   2.8946301548e+02   6.1801602217e+00   0.03073668   0.02247531 -18.79  0.003258069    1.619    0.382
       171  -8.2935    209.4551     31.5573   2.8951280860e+02   6.2062440291e+00   0.01005281  0.008762554   0.57 0.0006737395    1.215    0.177
       172  -7.7498    104.2659     34.2705   2.9075504640e+02   6.7855671746e+00   0.01115515  0.004536353  39.31 0.0008976524    2.436    0.590
       173  -7.9215    169.4938     33.4796   2.8998975421e+02   6.4163434736e+00  0.006575276  0.006418114 -30.51 0.0003356522    1.017    0.017
       174  -8.1218    170.5830     30.2228   2.8995748354e+02   6.4477794082e+00   0.01278647  0.006195871 -56.46 0.0007351343    1.958    0.489
       175  -7.9546    140.9519     33.2527   2.9032105595e+02   6.5847017335e+00   0.01404935   0.00624957  46.08  0.001136302    2.553    0.608
       176  -8.2948    110.0250     33.1684   2.9068123942e+02   6.7649939355e+00   0.01172796  0.006847678  53.01 0.0007615132    2.041    0.510
       177  -9.2751    237.2902     30.3536   2.8918168921e+02   6.0581032808e+00    0.0244517   0.01761637  -9.35  0.002161974    1.689    0.408
       178  -8.0833    175.3295     30.3192   2.8990276178e+02   6.4190785547e+00     0.019147   0.01056048  69.76  0.001498244    3.139    0.681
       179  -8.5063    144.4038     30.7654   2.9026586526e+02   6.5935188545e+00   0.01264875  0.006618113 -69.54 0.0008891965    2.113    0.527
       180  -7.8946     71.4802     30.9766   2.9111791391e+02   7.0134928540e+00  0.009882439  0.006486486 -63.00 0.0005499544    1.519    0.342
       181  -8.6304    190.2260     35.0008   2.8975740036e+02   6.2781919321e+00   0.01061615   0.01006134  -2.07  0.001310623    1.073    0.068
       182  -7.7836    153.5286     30.4751   2.9015775018e+02   6.5439158057e+00   0.00651222  0.006467952 -42.43 0.0003457985    1.009    0.009
       183  -8.3300    145.9760     25.9695   2.9021871383e+02   6.6400130376e+00   0.01112399  0.007792574  63.54  0.001131221    1.733    0.423
       184  -8.6330    132.4575     24.1600   2.9036546975e+02   6.7394410900e+00   0.02299485    0.0114982 -77.12    0.0018399    2.734    0.634
       185  -8.9887    118.7919     25.5901   2.9053345332e+02   6.8020981104e+00   0.01355099   0.01023413  76.43 0.0009755886    1.599    0.375
       186  -8.1838    116.7003     22.6763   2.9054035051e+02   6.8480173739e+00   0.01115882  0.009063425 -28.38 0.0007874748    1.317    0.241
       187  -8.7405    110.3167     26.2330   2.9063618917e+02   6.8437567420e+00   0.01447031  0.008580315  36.19  0.001423795    1.664    0.399
       188  -8.8172    173.4395     24.9073   2.8989223913e+02   6.4928113224e+00   0.01344565  0.008932423  -1.29  0.001118625    1.912    0.477
       189  -8.5435    127.0784     25.4848   2.9043616548e+02   6.7552759105e+00   0.01825697  0.006651841  25.44  0.001386071    2.835    0.647
       190  -7.4926     25.6705     25.3343   2.9161906896e+02   7.3434183605e+00  0.007077157  0.004951937  62.60 0.0007052037    1.725    0.420
       191  -8.2919    194.2473    221.4281   2.9082849022e+02   4.0906091998e+00  0.009183194   0.00594928  39.50  0.000495837    1.553    0.356
       192  -7.5951    131.3642    220.3134   2.9155303056e+02   4.4676536956e+00  0.007197236  0.004897592 -25.50 0.0002915157    1.761    0.432
       193  -8.1685     48.6097    219.4911   2.9251123395e+02   4.9551125483e+00   0.01086099  0.006275017 -61.66 0.0007687851    1.703    0.413
       194  -8.1765    212.9130    219.7925   2.9060181006e+02   4.0014071401e+00  0.008838172  0.005351122  23.83 0.0008556699    1.695    0.410
       195  -8.2946    160.2250    218.6101   2.9120717718e+02   4.3204280596e+00   0.00924983  0.006416485  10.72 0.0009452723    1.621    0.383
       196  -8.3448    248.0591    216.3755   2.9017316050e+02   3.8372172216e+00   0.01951233  0.006389407  26.11  0.001411052    3.115    0.679
       197  -7.5639    154.6912    212.3077   2.9123388257e+02   4.4256990290e+00   0.00686175  0.004992045  62.34 0.0003138187    1.615    0.381
       198  -8.9352    234.5375     20.1312   2.8915217953e+02   6.1925887235e+00    0.0168535   0.01212719 -29.40  0.001254048    1.568    0.362
       199  -8.9732    124.0359    205.9901   2.9155278905e+02   4.6765142764e+00  0.009117305  0.009032982 -61.70  0.001146763    1.016    0.016
       200  -8.1540     65.1755    203.1988   2.9222131039e+02   5.0490081463e+00  0.009245022  0.007775431  69.32 0.0008941568    1.320    0.242
       201  -9.1075    175.9499     20.8572   2.8983863320e+02   6.5251730031e+00   0.01750138   0.01147931  89.22  0.001483936    2.020    0.505
       202  -8.5932     16.1337    201.8978   2.9278470520e+02   5.3467672786e+00   0.01029592  0.008956864  56.46 0.0008289047    1.217    0.178
       203  -8.1300    149.5053     16.4761   2.9012049754e+02   6.7296022791e+00  0.009788691  0.006559746 -78.34 0.0008423142    1.724    0.420
       204  -7.7285    102.2765     21.6642   2.9070256439e+02   6.9433266998e+00    0.0067794  0.005035445  67.56 0.0004271751    1.608    0.378
       205  -7.8626    181.3236    198.6957   2.9084279099e+02   4.4295774467e+00  0.006930485  0.004965871  61.04 0.0002403215    1.640    0.390
       206  -9.1166    171.1812     20.6410   2.8989289653e+02   6.5553968515e+00  0.009478135  0.006327409  11.84 0.0009476255    1.698    0.411
       207  -8.3028    141.4534     17.6937   2.9022170129e+02   6.7622269973e+00   0.01181424  0.009458059  81.63 0.0009824253    1.445    0.308
       208  -7.8926     57.5191     17.4793   2.9119995347e+02   7.2507621498e+00  0.006534936  0.006444938  67.80 9.013346e-05    1.038    0.037
       209  -8.2617    206.7117     15.2785   2.8944679427e+02   6.4108801474e+00    0.0147369  0.007336364 -54.28  0.001336212    1.912    0.477
       210  -9.1300    162.9484     15.9633   2.8996070727e+02   6.6574660035e+00   0.01546808   0.00727777  47.88  0.001279363    2.486    0.598
       211  -8.6735    238.2184    193.0802   2.9014794714e+02   4.1647754070e+00   0.01129875  0.009671302  18.77 0.0007886788    1.192    0.161
       212  -8.0429    105.1265     14.8591   2.9062843140e+02   7.0057424247e+00   0.01006371  0.008881097  66.16 0.0006730187    1.222    0.181
       213  -8.3943     67.8304     13.6033   2.9105627709e+02   7.2361356515e+00   0.00963082  0.005826529  38.32 0.0007980192    1.649    0.394
       214  -7.4924    250.4600    185.5306   2.8996053904e+02   4.1813410813e+00  0.006579543  0.006393288 -32.73  0.000211997    1.022    0.021
       215  -7.9559    106.4764    184.4955   2.9162882487e+02   5.0278907852e+00  0.006530707   0.00646916  76.57 -2.520516e-05    1.030    0.029
       216  -8.8355    158.1486    178.9507   2.9099425008e+02   4.7932651290e+00   0.01499059  0.007481744 -46.18  0.001330902    2.046    0.511
       217  -8.0157     58.4868     12.4710   2.9115860057e+02   7.3032640176e+00  0.006550326  0.006427368 -30.26 0.0001392792    1.009    0.009
       218  -7.8256     61.9896    179.2448   2.9211558799e+02   5.3458905892e+00  0.008622888  0.005603584  26.40 0.0005041562    1.547    0.354
       219  -7.5819    219.3594    178.6709   2.9028075493e+02   4.4415493346e+00  0.007222475  0.004892555  60.93 0.0007042328    1.792    0.442
       220  -8.0571    152.8461    178.4771   2.9105311599e+02   4.8294856593e+00  0.009892655  0.006469702  27.97  0.001008699    1.526    0.345
       221  -7.8069    233.5170    175.5211   2.9009736694e+02   4.3959296030e+00  0.006548347  0.006448096  68.41 0.0001394374    1.039    0.038
       222  -7.7637      8.9980    172.4914   2.9269279637e+02   5.7297841723e+00  0.009543592  0.005664884  -9.29 0.0008099553    2.520    0.603
       223  -7.4241    144.3407    171.6380   2.9111119408e+02   4.9582139676e+00  0.007263166  0.004913636  63.40 0.0007033222    1.834    0.455
       224  -7.7182    242.7612    169.6662   2.8995487769e+02   4.4102122174e+00  0.009293404  0.005749844  36.50 0.0004343689    1.601    0.375
       225  -8.3205    147.3965    168.3365   2.9105587879e+02   4.9788774040e+00    0.0107304  0.007278022  47.91 0.0005384518    1.577    0.366
       226  -7.2767     97.3279     22.6479   2.9076622106e+02   6.9605729794e+00  0.007144769  0.004949681  63.71 0.0007047519    1.768    0.434
       227  -9.3718    124.0015    165.9736   2.9131409393e+02   5.1417852827e+00   0.02440966   0.01183001 -77.78  0.001902076    2.961    0.662
       228  -7.7935     51.7731    159.9885   2.9211973973e+02   5.6287002007e+00   0.00892262  0.005414535 -62.24 0.0008374105    1.631    0.387
       229  -8.2785    246.9353    159.0604   2.8984280028e+02   4.5090696286e+00   0.01092792  0.007694649 -26.65 0.0008190758    1.652    0.395
       230  -7.8368     80.4579    155.7988   2.9176046473e+02   5.5118155450e+00  0.009445627  0.005862055 -49.38 0.0005596387    1.584    0.369
       231  -8.3140    118.1992    154.2162   2.9131135257e+02   5.3119940988e+00    0.0164418  0.008333791 -74.88   0.00137377    2.490    0.598
       232  -8.6972    222.1255    153.2274   2.9009612905e+02   4.7209112306e+00   0.01321616  0.008592868  79.12  0.001216894    2.145    0.534
       233  -8.1063    229.8315    152.8652   2.9000438853e+02   4.6803556014e+00  0.009638868  0.007735438  56.80  0.001078394    1.357    0.263
       234  -8.0303    250.3634    152.1935   2.8976179223e+02   4.5688478793e+00  0.009356085  0.006347014 -75.77 0.0009447091    1.647    0.393
       235  -7.7677    244.4724    149.4962   2.8981405118e+02   4.6343922740e+00  0.006604324  0.006391335 -32.24  4.05629e-05    1.028    0.027
       236  -7.8048    229.8247    148.6126   2.8997896675e+02   4.7297620269e+00   0.00956927  0.005791476  38.82 0.0006402823    1.653    0.395
       237  -7.5681    174.6655    148.6868   2.9062089813e+02   5.0490967687e+00  0.007076491  0.004917884 -26.80  0.000704566    1.685    0.406
       238  -7.6616    112.0319    147.9694   2.9134582444e+02   5.4202708416e+00  0.008005099  0.007768897 -54.52  0.000739924    1.022    0.022
