#   1 NUMBER                 Running object number                                     
#   2 MAG_AUTO               Kron-like elliptical aperture magnitude                    [mag]
#   3 X_IMAGE                Object position along x                                    [pixel]
#   4 Y_IMAGE                Object position along y                                    [pixel]
#   5 X_WORLD                Barycenter position along world x axis                     [deg]
#   6 Y_WORLD                Barycenter position along world y axis                     [deg]
#   7 A_WORLD                Profile RMS along major axis (world units)                 [deg]
#   8 B_WORLD                Profile RMS along minor axis (world units)                 [deg]
#   9 THETA_WORLD            Position angle (CCW/world-x)                               [deg]
#  10 FWHM_WORLD             FWHM assuming a gaussian core                              [deg]
#  11 ELONGATION             A_IMAGE/B_IMAGE                                           
#  12 ELLIPTICITY            1 - B_IMAGE/A_IMAGE                                       
         1 -14.3877     68.3615    144.3569   1.0680920468e+02   3.7404997767e+01     3.463847     1.612111 -86.45  0.003219086    4.696    0.787
         2 -13.9887    224.1913     16.5731   3.8833405533e+01   2.7349497328e+01     1.146216    0.9695195  31.68  0.002652705    1.599    0.375
         3 -13.8529    199.3622     39.1216   4.7317950882e+01   3.0543115609e+01       1.5008     1.197121  -6.90  0.004438633    1.600    0.375
         4 -13.7165    207.1581     33.1443   4.4742717802e+01   2.9407122548e+01     1.386004     0.911144 -32.72  0.005405603    1.554    0.356
         5 -12.4698    215.1446     25.8954   4.1990720045e+01   2.8382337956e+01    0.4996912    0.4293505  23.29  0.001128385    1.545    0.353
         6 -11.1059      2.3463      3.8420   9.4277158493e+01   7.4090900990e+01    0.4395445    0.1029854 -48.67   0.00185298    3.702    0.730
         7 -10.3982     49.1278      2.8930   6.9281013763e+01   6.8805341856e+01    0.1882266    0.1723008  48.66 0.0009332193    1.600    0.375
         8 -10.2586     44.6910      1.4129   7.0393794353e+01   6.9654383562e+01    0.2491243    0.1118253  48.62  0.001157313    2.707    0.631
         9  -9.3732     61.5148      1.4383   6.3672687869e+01   6.6867411432e+01    0.1242768   0.09862549  17.71 -6.189474e-05    1.014    0.014
        10 -11.3740    193.2497    193.4789   8.6082353704e+01   4.5348842391e+00    0.8432112    0.4539509 -55.54  0.003502613    2.853    0.650
        11 -15.4441     82.8367    246.8442   1.1592764938e+02   1.3208915107e+01     8.557549     2.765724  30.45   0.02662299    6.369    0.843
        12 -13.9731     86.5056    226.9336   1.1333785944e+02   1.6356343605e+01     1.762917    0.8128966  49.53  0.002676368    1.836    0.455
        13 -14.0727      4.8071    183.1532   1.2627947706e+02   3.5114829873e+01     1.838594    0.5848906 -81.48  0.004292522    2.659    0.624
        14 -13.2719     24.3110    224.7818   1.2505765902e+02   2.4606967726e+01    0.9511532    0.4110525  51.47  0.005236003    1.830    0.454
        15 -13.4052     31.4392    248.0338   1.2513372069e+02   1.9465042010e+01     0.865772    0.8230147 -12.15  0.007055009    1.852    0.460
        16 -15.4536      8.5853    239.4174   1.2852587480e+02   2.3438406364e+01     2.104032     1.398266 -79.23   0.01587935    1.484    0.326
        17 -14.6538      9.6200    207.2702   1.2675688937e+02   2.9587231313e+01     1.161783     1.022614 -17.75  0.004033256    1.934    0.483
        18 -15.7571     38.9468    191.8148   1.1979200840e+02   2.9876778520e+01     5.729131     2.174467  71.40   0.02066809    4.130    0.758
        19  -9.4269     99.3529    180.8784   1.0476542191e+02   2.4037224583e+01    0.1883363    0.1711271 -77.10 0.0005520083    1.107    0.097
        20 -11.5693     39.6071    176.5670   1.1821836094e+02   3.3237320683e+01    0.4047491    0.2304658 -44.14  0.002015843    2.468    0.595
        21 -13.5718     64.6458    160.5351   1.1026605044e+02   3.3975076435e+01    0.5681338    0.3759388 -47.53  0.001908163    1.698    0.411
        22 -11.5980     77.2466    164.4528   1.0766464114e+02   3.1278891249e+01    0.3119032    0.2701467 -80.51 0.0003499903    1.065    0.061
        23 -14.1310     81.1605    157.6435   1.0560643350e+02   3.2329350198e+01     3.302951      1.22983  54.33  0.002160385    3.924    0.745
        24 -10.6126    230.5656    167.2726   7.3624280622e+01   2.2243350621e+00     0.272191    0.1217429 -40.77  0.001149316    2.197    0.545
        25  -8.7360    162.4026    167.4433   8.7545418928e+01   1.5344365331e+01    0.1450849    0.1408223  23.16 6.864308e-05    1.015    0.015
        26 -11.1740     32.4132    155.7451   1.1774541046e+02   3.8868910829e+01    0.2244623    0.2014063 -55.29 0.0008934111    1.306    0.234
        27  -9.5498    174.9070    149.1439   8.0790430186e+01   1.6534026971e+01    0.2311751     0.212626  84.65 0.0006097823    1.260    0.206
        28 -10.6723    134.1278    146.8004   8.9896611709e+01   2.5516833114e+01     0.720165    0.1718336 -52.34  0.001812742    4.870    0.795
        29 -10.0413    174.2426    249.1170   9.8878676184e+01  -1.0400584448e+00    0.2164786    0.1508988  43.78 0.0008412387    1.295    0.228
        30 -10.5043     47.8573    145.8481   1.1255105774e+02   3.9611400237e+01    0.2063618    0.1684612 -54.15 0.0006661971    1.272    0.214
        31 -11.5885     32.1722    144.0381   1.1645182589e+02   4.1698346965e+01    0.3602069    0.2156499  64.42  0.001529819    1.792    0.442
        32 -10.5558     98.4833    143.4925   9.8485188719e+01   3.2964386626e+01    0.2867127      0.27165 -68.18 0.0008321627    1.045    0.043
        33  -9.9423    101.2235    140.1586   9.7072737453e+01   3.3294343481e+01    0.3589848    0.2476227 -27.10  0.001574333    2.008    0.502
        34 -12.3282     86.5785    142.0549   1.0143365173e+02   3.5276102085e+01    0.2949505    0.2623731 -48.46 0.0004637745    1.173    0.147
        35 -10.3566     81.1309    141.2644   1.0277770385e+02   3.6315654747e+01    0.3230176    0.2035795  58.53 0.0009789666    1.814    0.449
        36  -9.6196     38.2529    133.5772   1.1343194728e+02   4.3639892911e+01    0.1511368    0.1318523   3.60 0.0003779093    1.484    0.326
        37 -10.8351    107.8298    131.2017   9.3343480675e+01   3.4257617041e+01    0.6174608    0.3284291  43.33  0.002520634    1.921    0.480
        38 -12.1803     62.5283    179.8600   1.1329531285e+02   2.9706057005e+01    0.4491226       0.3576 -26.26  0.002551766    1.879    0.468
        39 -11.6824     46.0516    129.4373   1.1060515318e+02   4.3833724051e+01    0.4306649    0.1929431  32.63   0.00192694    2.444    0.591
        40 -10.4515     96.8773    128.0028   9.5687389481e+01   3.6988409380e+01    0.3184153    0.2501006 -28.34  0.001558611    1.509    0.337
        41 -10.4433    137.3410    171.2116   9.4083246677e+01   1.9445537430e+01    0.2687473    0.2108616  45.38   0.00109246    1.220    0.180
        42  -9.6179    160.3272    127.3220   7.8930766439e+01   2.4272434885e+01    0.1622548    0.1258327   2.17  0.000704827    1.688    0.408
        43  -9.8802    116.2813    126.0212   8.9828430475e+01   3.3880478909e+01    0.3223817    0.2407587  87.85  0.001427309    1.795    0.443
        44 -10.0769    135.5319    124.0048   8.4216597296e+01   3.0414712045e+01    0.2488006    0.1535715 -47.33 0.0007269769    1.602    0.376
        45 -11.2976     45.4923    123.6650   1.0982725387e+02   4.5312211568e+01    0.3246114    0.2210331 -27.21  0.001663842    1.952    0.488
        46  -9.9919    106.8518    120.0091   9.1008835518e+01   3.7103726368e+01    0.2196055    0.2098706 -45.67 0.0003778702    1.040    0.039
        47 -11.8668     23.4135    118.6988   1.1556545232e+02   4.8603891540e+01    0.3911733    0.2104303 -65.76  0.002057872    1.485    0.326
        48  -9.8588    168.2524    113.0658   7.3453576873e+01   2.5460777151e+01    0.3449224    0.2420978 -69.82  0.001366797    1.962    0.490
        49  -9.6163    135.0000    112.9464   8.1514179862e+01   3.3007760386e+01     0.265433   0.08906234 -45.12 0.0008009903    2.932    0.659
        50 -10.1250    205.3089    110.5215   6.5206643171e+01   1.7426883669e+01    0.3468504    0.2635012  30.09  0.001153968    1.518    0.341
        51  -9.9965    245.3230    108.6813   5.8134826596e+01   9.2289993031e+00     0.141251    0.1014441 -62.19 0.0007044336    1.671    0.401
        52 -10.2013    134.6471    103.9416   7.9168102350e+01   3.5061489828e+01    0.4805264    0.1865337 -43.76  0.001593654    2.534    0.605
        53 -13.3113     35.9192    207.8277   1.2172133305e+02   2.6775201195e+01    0.6177593    0.4109541  37.69  0.001739192    1.608    0.378
        54 -10.0834    244.6672     98.3352   5.5839056407e+01   1.1056752006e+01    0.1456297   0.09942631 -62.44 0.0007052192    1.735    0.424
        55 -10.6883    249.7322     87.6329   5.2676016603e+01   1.1741471139e+01    0.2535972    0.1390723 -50.08 0.0005095188    1.767    0.434
        56 -10.0548     72.0190     83.0649   9.2142912233e+01   5.1600195684e+01     0.377111     0.221771  63.01  0.001339365    3.249    0.692
        57  -9.3297    159.7863     81.3862   6.6521802400e+01   3.3729220292e+01    0.2230181     0.142149  42.58 0.0005184074    1.645    0.392
        58  -9.3446     61.8663     71.3652   9.2283262670e+01   5.5616869244e+01    0.1881184    0.1655925 -12.76 0.0005981426    1.122    0.109
        59  -9.0060     48.4540     62.5608   9.4656348688e+01   5.9193405025e+01    0.1317669    0.1146156 -35.18 0.0006035328    1.046    0.044
        60 -10.3129     13.5084     60.0619   1.0816071647e+02   6.2858358095e+01    0.2027215    0.1764535 -41.90 0.0004000245    1.120    0.107
        61 -13.0905     40.4036    234.6590   1.2276468968e+02   2.0906710899e+01     0.776139    0.3895012  74.91   0.00446455    1.880    0.468
        62 -10.6808     73.9967    231.2821   1.1621277368e+02   1.7285266367e+01    0.4425893     0.146868  48.12  0.001985834    2.447    0.591
        63 -15.1433      5.5286    142.0972   1.2305320851e+02   4.4363016382e+01     4.567186        1.003 -75.99   0.01279895    3.717    0.731
        64 -11.8341    184.1873    214.7262   9.1698507836e+01   2.5683513965e+00    0.3382714    0.2774587  22.12  0.002058832    1.086    0.079
        65 -10.7663    138.1724     44.1993   5.9592692686e+01   4.5267146336e+01    0.4972013    0.3114421 -82.71  0.001789942    2.855    0.650
        66  -9.8411    142.2959     39.9596   5.7258360031e+01   4.4846813893e+01    0.1933762    0.1899239   4.41 0.0004465904    1.059    0.056
        67  -9.1740     28.4961     35.5068   9.3917623351e+01   6.6615645033e+01    0.1246317   0.09722429 -26.37 0.0008105827    1.017    0.017
        68 -10.5626    189.9234     15.2117   4.2022842641e+01   3.5783322291e+01    0.2240808    0.1955329 -44.05 0.0006652052    1.201    0.167
        69 -12.0083     67.5691    174.3784   1.1142317010e+02   3.0301702780e+01    0.3129703     0.256702 -49.95  0.001792706    1.414    0.293
        70  -9.6059     63.1287    201.3987   1.1554329753e+02   2.4826131011e+01    0.2086066    0.1505125  83.54 0.0003645113    1.262    0.207
        71  -9.7953     63.9899    197.7779   1.1498166337e+02   2.5496396032e+01    0.2829835    0.1744258 -74.44  0.001025424    1.554    0.356
        72  -9.9606     66.7579    196.0083   1.1418832527e+02   2.5512518682e+01    0.2646952    0.1997685  87.64  0.001596347    1.209    0.173
