#   1 NUMBER                 Running object number                                     
#   2 MAG_AUTO               Kron-like elliptical aperture magnitude                    [mag]
#   3 X_IMAGE                Object position along x                                    [pixel]
#   4 Y_IMAGE                Object position along y                                    [pixel]
#   5 X_WORLD                Barycenter position along world x axis                     [deg]
#   6 Y_WORLD                Barycenter position along world y axis                     [deg]
#   7 A_WORLD                Profile RMS along major axis (world units)                 [deg]
#   8 B_WORLD                Profile RMS along minor axis (world units)                 [deg]
#   9 THETA_WORLD            Position angle (CCW/world-x)                               [deg]
#  10 FWHM_WORLD             FWHM assuming a gaussian core                              [deg]
#  11 ELONGATION             A_IMAGE/B_IMAGE                                           
#  12 ELLIPTICITY            1 - B_IMAGE/A_IMAGE                                       
         1 -13.0533    201.4562     30.6504   5.9112677256e+01   3.0852319121e+01     1.215559    0.7765446  -4.05  0.005366822    1.863    0.463
         2 -13.3781    218.4117     13.5180   5.1908905464e+01   2.8312169635e+01     1.043187     0.853678  31.25  0.003266435    1.339    0.253
         3 -11.0396      3.2488      2.8142   1.0899834330e+02   7.3677671186e+01    0.3403086    0.1477866 -46.00  0.001993692    1.635    0.388
         4 -11.8491    126.9934    249.7596   1.1779697105e+02   1.2169691122e+01    0.2608672    0.2144605  71.25  0.002246917    1.298    0.230
         5 -12.4508    239.4918    248.6611   1.0042652482e+02  -3.8888745210e+00    0.5561166    0.1994653  39.77  0.003230307    1.971    0.493
         6 -12.7166     82.5688    248.5276   1.2455742300e+02   1.8167034004e+01    0.6613381    0.1759413  42.03  0.003455996    2.772    0.639
         7 -13.0255    108.8833    247.8104   1.2045211812e+02   1.4879388176e+01    0.4841675    0.3391404  44.97  0.003871936    1.210    0.174
         8 -12.4781    100.3017    248.3308   1.2182256284e+02   1.5942897306e+01    0.4881629    0.2459758  64.15  0.003205973    1.974    0.493
         9 -15.3686      8.0024    136.5380   1.3037690982e+02   4.5477614871e+01     8.838204      2.31797 -89.31   0.03144858    5.206    0.808
        10 -11.4697    163.7046    249.4903   1.1204765833e+02   6.9767238338e+00    0.3218138    0.1232287  49.70  0.001770222    2.177    0.541
        11 -11.1419     55.5865    240.8589   1.2820059152e+02   2.2432572641e+01    0.1941483   0.09606124  51.65 0.0006692777    1.415    0.294
        12 -12.7104    139.4631    250.0000   1.1587648525e+02   1.0396714005e+01    0.8330577    0.1334105  45.45  0.003187703    4.345    0.770
        13 -13.0272    108.4615    230.3197   1.1904828758e+02   1.7306813249e+01    0.9321107    0.1187216  45.22  0.003302315    4.932    0.797
        14 -12.0090     88.1658    226.0018   1.2203441284e+02   2.0661015542e+01    0.5619743   0.09127125  48.57  0.002164879    4.397    0.773
        15 -12.1342     58.5620    213.0023   1.2601760510e+02   2.6352384544e+01    0.6149151    0.1694131  53.77  0.002981653    3.012    0.668
        16  -8.8638    152.6935    212.9938   1.0969571993e+02   1.3140737320e+01    0.1490405    0.1246648  50.28 0.0003465942    1.083    0.077
        17 -11.3988    173.0968    247.4550   1.1036572919e+02   5.8260655567e+00    0.2722925    0.1516586  58.97  0.001676293    2.197    0.545
        18 -11.3231     55.1942    195.1826   1.2532699500e+02   2.9736357623e+01    0.2099436     0.181723 -83.11 0.0005335698    1.350    0.259
        19 -12.4826      4.4049    185.1922   1.3373419120e+02   3.6533734680e+01    0.5479234    0.2985726  73.45  0.003100076    1.366    0.268
        20 -11.5369     62.0541    187.0725   1.2341568530e+02   3.0358057758e+01    0.2113825    0.1830161  75.96 0.0004437483    1.192    0.161
        21 -10.4590     73.2707    174.7163   1.2008620615e+02   3.1214897460e+01    0.1892469    0.1643327  76.18 0.0003549926    1.124    0.110
        22 -12.8640     59.4627    172.4485   1.2260882225e+02   3.3358233443e+01    0.4009655    0.2402339 -50.72  0.002185147    2.230    0.552
        23 -11.3406     80.9907    166.3664   1.1760164238e+02   3.1763869959e+01    0.4009747    0.3523438 -31.53  0.002755564    1.671    0.401
        24  -9.6197     94.9970    150.8009   1.1257252536e+02   3.2782275745e+01    0.2083465    0.1740117 -78.99 0.0006692188    1.161    0.138
        25 -11.5001     83.2548    149.5497   1.1498960207e+02   3.4742590152e+01    0.2447167    0.2065548 -63.19 0.0005301099    1.270    0.213
        26  -8.7744     98.1986    146.8000   1.1126489818e+02   3.3087485413e+01    0.1544668    0.1504683 -27.83 0.0003794147    1.299    0.230
        27 -11.8167     67.3718    143.3829   1.1773663977e+02   3.8123738362e+01    0.6069949    0.3143452  59.12  0.003149944    2.017    0.504
        28  -9.1522    108.1063    135.9000   1.0721958438e+02   3.3684170509e+01    0.1949629    0.1631688 -13.55 0.0009710029    1.695    0.410
        29 -10.1133     94.7046    133.2699   1.0989380224e+02   3.6370844845e+01    0.2095091    0.1983743 -61.92 0.0003977476    1.183    0.154
        30  -9.7281     50.3240    129.8864   1.2000529906e+02   4.2974036128e+01    0.1962997     0.140445  59.09 0.0006045987    1.342    0.255
        31  -8.7390    105.5881    123.2145   1.0547228100e+02   3.6695648462e+01    0.1602066    0.1242711 -48.21 0.0001980132    1.351    0.260
        32  -9.3524    167.6398    112.6526   8.8888140520e+01   2.6562132005e+01    0.2714401    0.2045293 -83.15 0.0007955813    1.945    0.486
        33 -13.1479      9.3252    207.2159   1.3382072608e+02   3.2356363401e+01    0.6836655    0.4625458  47.83  0.003500663    1.414    0.293
        34 -10.6480    244.2452     96.9984   7.1209638676e+01   1.1912991890e+01    0.1905698    0.1097659 -25.75 0.0007134902    1.621    0.383
        35 -14.9155     13.9185    240.8247   1.3434758341e+02   2.6728497688e+01     2.422226     1.155555  49.79   0.01941137    1.479    0.324
        36 -11.1212    189.7538    249.7663   1.0804642507e+02   3.1464678200e+00    0.3286183   0.06192695  41.86   0.00131018    3.810    0.738
        37 -13.8058     31.8785    220.8513   1.3083540527e+02   2.8006409353e+01    0.6366617    0.4073921  62.10  0.002568341    1.095    0.087
        38 -12.5101     26.3110    227.5874   1.3201013081e+02   2.7516863899e+01    0.2199682    0.1751106  73.27 0.0007551793    1.269    0.212
        39 -11.3572     62.5350    245.1970   1.2739111767e+02   2.1021642590e+01    0.1832871    0.1317264  42.57 0.0009743721    1.476    0.322
