#   1 NUMBER                 Running object number                                     
#   2 MAG_AUTO               Kron-like elliptical aperture magnitude                    [mag]
#   3 X_IMAGE                Object position along x                                    [pixel]
#   4 Y_IMAGE                Object position along y                                    [pixel]
#   5 X_WORLD                Barycenter position along world x axis                     [deg]
#   6 Y_WORLD                Barycenter position along world y axis                     [deg]
#   7 A_WORLD                Profile RMS along major axis (world units)                 [deg]
#   8 B_WORLD                Profile RMS along minor axis (world units)                 [deg]
#   9 THETA_WORLD            Position angle (CCW/world-x)                               [deg]
#  10 FWHM_WORLD             FWHM assuming a gaussian core                              [deg]
#  11 ELONGATION             A_IMAGE/B_IMAGE                                           
#  12 ELLIPTICITY            1 - B_IMAGE/A_IMAGE                                       
         1 -12.8384    243.0016    105.4934   4.7800186113e+01   1.1906913177e+01     3.770339    0.7541845 -40.89   0.01187792    3.963    0.748
         2 -12.7501    237.6945     45.3120   3.5811498858e+01   2.2116302876e+01     2.206058     1.363024  68.77   0.01300444    1.684    0.406
         3  -9.3335    230.2364     26.3745   3.2589066435e+01   2.6042187120e+01     0.490337    0.2032158 -38.85   0.00246466    2.153    0.536
         4  -9.2653    250.3822     20.5370   2.9905114382e+01   2.2761279896e+01       0.4551    0.1742009 -27.55  0.001904584    4.107    0.757
         5  -8.0792    250.6271     14.8012   2.8819435223e+01   2.3377685366e+01    0.1895743   0.09824782 -33.85 0.0006112992    2.041    0.510
         6  -9.9293    119.3246      9.9108   4.2144200336e+01   5.3118019257e+01    0.6355911    0.2786968  45.91  0.002925851    2.108    0.526
         7  -8.2153    165.0094      7.8656   3.4754632741e+01   4.2544771964e+01    0.1796391    0.1528404  89.33 0.0003290228    1.034    0.033
         8  -8.7766    249.5056      2.8925   2.6706419951e+01   2.4897010449e+01    0.2180651    0.1863012 -35.86  0.001468477    1.538    0.350
         9  -7.2167    243.4445      2.5058   2.6989111737e+01   2.6096242572e+01    0.1122819   0.08339242 -69.81 0.0001536278    1.006    0.006
        10 -12.3950    241.4417     87.1786   4.4144677529e+01   1.5192352515e+01     2.375678    0.5404243 -44.93  0.008006322    3.621    0.724
        11  -7.1256    229.2448      1.3176   2.7643750669e+01   2.9026875489e+01   0.09245773   0.08548594  57.62 0.0001573126    1.519    0.342
        12  -7.5658    228.0000      8.7181   2.9188951298e+01   2.8508081126e+01    0.2326801   0.05948278 -32.47 0.0009314618    3.908    0.744
        13  -8.2524     99.9359    210.5531   9.9449521159e+01   1.6509806079e+01     0.201897    0.1857181 -49.29  0.001187219    1.187    0.157
        14  -8.7864    170.8911    201.1341   8.1292821800e+01   6.7964670513e+00    0.2132552    0.1903928 -28.56 0.0002734688    1.128    0.114
        15  -7.5181    156.3942    198.2079   8.4022654238e+01   9.8586637513e+00    0.1894544    0.1395352 -59.93 0.0004707842    1.632    0.387
        16  -9.2791     32.1610    197.3046   1.1418422795e+02   2.8529210508e+01    0.2189826    0.1920142 -76.73 0.0003007949    1.158    0.136
        17  -7.5669     98.2774    187.1012   9.6340252230e+01   2.2221043544e+01    0.1967132    0.1758942 -71.84  0.000376305    1.131    0.116
        18  -7.1975     79.2677    187.3860   1.0129739528e+02   2.5051031647e+01    0.1463214    0.1057799 -35.55  0.000698726    1.701    0.412
        19  -7.1952    103.5649    183.5513   9.4386685535e+01   2.2220581202e+01    0.1442394    0.1425618  62.06 0.0002090662    1.028    0.027
        20  -8.9247     34.5006    181.8453   1.1211380614e+02   3.2036409486e+01    0.2203993    0.2034076  84.37 0.0002970549    1.095    0.087
        21  -8.2287    101.0211    176.0174   9.3757149717e+01   2.4471307892e+01    0.2041577    0.2019777 -51.00  0.001140502    1.046    0.044
        22  -7.2670    130.3461    170.2322   8.4987139835e+01   2.0730567117e+01    0.1508228    0.1183563   2.49 0.0002580684    1.555    0.357
        23 -11.2531     26.1770    161.3656   1.1208096240e+02   3.7993030950e+01    0.6402887    0.5771564 -74.54  0.001965297    1.088    0.081
        24 -10.8956     38.7404    155.4741   1.0784785406e+02   3.8267098539e+01    0.7990105    0.6797063 -75.00  0.002956028    1.040    0.038
        25  -9.7847    177.9165    148.2782   6.8833585858e+01   1.6425306333e+01    0.2619032    0.2551103   2.92 0.0002841459    1.060    0.057
        26  -8.0832    183.0961    145.2029   6.7021965595e+01   1.6037259149e+01    0.2278248    0.1979401  -3.18 0.0005537003    1.232    0.188
        27  -7.9413     66.0279    143.9937   9.7945652652e+01   3.7961220854e+01    0.2349421    0.1720129  72.12 0.0006332663    1.640    0.390
        28  -8.6165    121.1387    145.1152   8.2089737187e+01   2.8477914973e+01    0.2230665    0.2165679 -16.66 0.0003573584    1.036    0.034
        29  -7.2903     84.4499    135.6134   9.0638372570e+01   3.7372677331e+01    0.1490204    0.1450972 -49.46 0.0001001006    1.022    0.021
        30  -8.0869    230.8677    249.1712   7.7601630538e+01  -9.7951509597e+00    0.1671538    0.1371115   2.06 0.0004897414    1.194    0.163
        31  -9.4933    226.0354     36.6344   3.5107074036e+01   2.5632874646e+01    0.3454528    0.2255142  67.81 0.0006199346    1.556    0.357
        32  -8.2910    218.9888    245.5176   7.9201023975e+01  -7.8247691870e+00    0.1777301    0.1025814  28.86 0.0004495034    1.579    0.367
        33  -9.9510    184.8300    101.8115   5.6270784473e+01   2.4353621223e+01    0.4382988    0.3954657 -59.27  0.001282779    1.076    0.071
        34  -7.6978    104.4010    103.2918   7.6461464769e+01   4.1631770645e+01    0.3389906    0.1978086  23.82  0.001295505    2.271    0.560
        35  -7.3839    137.0322     98.2216   6.5884382431e+01   3.5830884290e+01    0.2023561    0.1268728  46.34 0.0008548464    1.605    0.377
        36  -8.0972    161.7620     97.3983   5.9826699614e+01   3.0392267496e+01    0.2180938    0.1408037  39.83 0.0006752761    1.702    0.413
        37 -10.2393     88.4203     95.4932   7.9339774679e+01   4.6388055396e+01     0.268701    0.2541365 -20.69 0.0003170628    1.007    0.007
        38  -8.2248    145.5741     92.4160   6.2153706152e+01   3.5066610678e+01    0.2738723    0.2627733 -56.88 0.0009967461    1.045    0.043
        39 -10.3781    225.6485     87.5733   4.6278199803e+01   1.8204223721e+01    0.9040215    0.2922084 -53.47  0.002711877    4.624    0.784
        40  -9.8177    220.0084     77.5121   4.4788837809e+01   2.0991805705e+01     0.669434    0.2775257 -59.72  0.002257655    3.883    0.742
        41  -9.8765    183.2229     87.0245   5.2839301212e+01   2.7423539111e+01    0.3628905    0.3355421 -33.28  0.001119004    1.134    0.118
        42  -8.7531    190.3170     83.7610   5.0769450374e+01   2.6392760183e+01    0.2432592    0.2282674 -43.53 0.0003023442    1.096    0.087
        43 -10.7937    182.7872     74.6523   4.9746164943e+01   2.9649966368e+01    0.5121767    0.4119155 -19.00  0.002696318    1.502    0.334
        44  -9.0593    201.3458     78.6299   4.7727214222e+01   2.4805799836e+01     0.310823    0.2396603  44.10  0.001341476    1.515    0.340
        45  -9.2889    207.9318     75.7534   4.6062156026e+01   2.3837853796e+01    0.3251218    0.3004723 -89.80  0.001643723    1.100    0.091
        46  -8.3349    136.9756     74.3084   5.8978244613e+01   4.0433901669e+01    0.2540648    0.2101603 -38.41  0.001307152    1.236    0.191
        47  -7.4020    127.1943    119.8135   7.4308179729e+01   3.3252004861e+01    0.2082703    0.1786664 -18.95 0.0003048346    1.267    0.211
        48  -9.6196    162.3667     87.2043   5.6956191146e+01   3.2185096989e+01    0.4015264    0.2980322 -13.74  0.001854955    1.772    0.436
        49  -9.2706    169.2978     59.0083   4.7938796781e+01   3.5298056697e+01    0.2020871    0.1843282 -53.74 0.0008425458    1.099    0.090
        50  -9.6828    195.8537     54.7187   4.2717923031e+01   2.9752006942e+01    0.3735157    0.1726867  65.25  0.001636627    2.173    0.540
        51 -12.1163    226.2109     67.5925   4.1788336380e+01   2.1255827562e+01      1.09477    0.8013994 -81.07  0.004530183    1.417    0.294
        52  -7.4701    120.8414     51.6022   5.5806650156e+01   4.7876684200e+01    0.1859214    0.1320229  65.14 0.0003473831    1.513    0.339
        53  -7.9659    104.9350     51.0616   5.9848278561e+01   5.1518415058e+01    0.1882176    0.1803085  78.16  0.001105935    1.195    0.163
        54  -8.9653    189.3838     48.9312   4.2182092237e+01   3.2054939885e+01    0.3826886   0.04745665 -43.57 0.0009554322    6.368    0.843
        55  -9.3302    152.0396     46.4217   4.7487504897e+01   4.1243314580e+01    0.2782415    0.2410068  87.96 0.0006209711    1.153    0.132
        56  -8.8118    159.8326     48.3180   4.6630113673e+01   3.9112542397e+01    0.2278929    0.1782373 -50.52  0.000469615    1.309    0.236
        57  -9.1425    121.0513     39.3112   5.1680825902e+01   4.9541668955e+01    0.2283093    0.2200565 -28.28 0.0001867909    1.132    0.116
        58  -9.4641    190.9156    236.7025   8.3233358158e+01  -2.6940079140e+00    0.2857949     0.256822  78.96  0.001564224    1.824    0.452
        59  -9.1047    250.6039     27.1986   3.1146853604e+01   2.1922130932e+01    0.3814509   0.09397534 -36.17  0.001550652    3.559    0.719
        60 -10.2588    211.1338    230.9806   7.8275530252e+01  -4.6244214746e+00     0.224031    0.1900506 -13.99 0.0003401031    1.163    0.140
        61 -11.6999    238.4510     61.7829   3.9151846528e+01   1.9657676431e+01     1.099824     0.554894  52.85  0.005218957    2.392    0.582
        62  -7.6460    114.9664     24.2881   4.7950216209e+01   5.2732612322e+01    0.1856355     0.148873  51.10 0.0003311639    1.092    0.084
        63  -7.3349    188.0001     21.0198   3.5466824506e+01   3.5865243130e+01     0.147463    0.1239997 -87.07 0.0009416075    1.013    0.013
        64  -7.5826    223.5368     19.0507   3.1635131113e+01   2.8287185475e+01    0.2951678    0.1056854 -34.36  0.001358139    2.724    0.633
        65 -11.1709    248.1920     83.0850   4.2489137264e+01   1.4579409613e+01     2.019534    0.4866097 -48.55  0.006635453    4.094    0.756
        66  -9.0259    181.0587    221.8171   8.2778077597e+01   1.2876801642e+00    0.2624269    0.1867939 -40.20 0.0004044499    1.475    0.322
        67  -8.9324    178.8813    230.9442   8.4763901124e+01   2.8088805354e-02    0.2302822    0.2034783 -10.46 0.0004178966    1.120    0.107
        68  -9.0134    180.1844    226.2971   8.3720752808e+01   6.3449903206e-01    0.2468481    0.2032944   3.37 0.0003195012    1.095    0.087
        69  -8.0542     70.0272    113.5583   9.0276279009e+01   4.5134441933e+01    0.2156667    0.1864931 -48.02 0.0001544722    1.076    0.071
        70  -7.1277     70.6245    226.2769   1.0817562716e+02   1.7250202989e+01    0.1418249   0.08330808  58.77 0.0001448697    1.698    0.411
        71  -6.8594    101.2114    223.9733   1.0095559558e+02   1.3394404992e+01    0.1592274    0.1097447 -63.16            0    1.586    0.369
        72  -7.6149    208.2098    219.2244   7.6799723587e+01  -2.3306247107e+00    0.1566708    0.1466783  -0.56 0.0002582042    1.281    0.219
        73 -10.1498    147.8998    215.4042   8.8953854686e+01   7.7850328371e+00    0.2470237    0.2305326 -24.62 0.0002148959    1.123    0.110
