#   1 NUMBER                 Running object number                                     
#   2 MAG_AUTO               Kron-like elliptical aperture magnitude                    [mag]
#   3 X_IMAGE                Object position along x                                    [pixel]
#   4 Y_IMAGE                Object position along y                                    [pixel]
#   5 X_WORLD                Barycenter position along world x axis                     [deg]
#   6 Y_WORLD                Barycenter position along world y axis                     [deg]
#   7 A_WORLD                Profile RMS along major axis (world units)                 [deg]
#   8 B_WORLD                Profile RMS along minor axis (world units)                 [deg]
#   9 THETA_WORLD            Position angle (CCW/world-x)                               [deg]
#  10 FWHM_WORLD             FWHM assuming a gaussian core                              [deg]
#  11 ELONGATION             A_IMAGE/B_IMAGE                                           
#  12 ELLIPTICITY            1 - B_IMAGE/A_IMAGE                                       
         1 -13.5293     68.2380    144.7083   1.3204571431e+02   3.7171928104e+01     4.041355     1.695148  60.07   0.01433723    4.125    0.758
         2 -12.4014    179.2557     28.8555   7.4352521132e+01   3.6548757500e+01    0.7355138    0.5340781 -12.36  0.001756591    1.533    0.347
         3 -13.6646    187.1056     22.5864   7.1292539460e+01   3.5264803607e+01     2.104433     1.366319   8.85  0.008408867    2.064    0.515
         4 -11.7329    194.0685     12.1766   6.7340620413e+01   3.4595447485e+01    0.4983937    0.3943125  30.26  0.001103856    1.421    0.296
         5 -12.8909    198.9826      4.4883   6.4607987173e+01   3.4102477616e+01     1.002875    0.7493569  70.87  0.003240055    1.244    0.196
         6 -11.5660     41.7976     16.1226   1.0637079088e+02   6.6826403083e+01    0.3572716    0.2091174 -12.90  0.001962154    1.812    0.448
         7  -9.8458     49.8230      2.3695   9.6425401642e+01   6.7587082445e+01    0.1720271   0.09508643  27.96 0.0009525043    1.762    0.432
         8 -10.2954    114.0174    240.6927   1.3460755664e+02   1.2313559308e+01    0.1680615    0.1217505  48.56  0.001171274    1.102    0.092
         9 -11.0219    247.4281    248.7552   1.1291800742e+02  -8.8888325295e+00    0.4382511    0.2187246  28.17   0.00269435    1.580    0.367
        10 -10.4454    177.7679    249.9969   1.2467606093e+02   1.3305388570e+00    0.3028226    0.1110628  35.11  0.001417688    2.481    0.597
        11 -11.8045    140.8880    248.7505   1.3083749211e+02   7.1413875247e+00    0.4862665    0.2771835  45.23  0.003054671    1.356    0.263
        12 -10.2350    120.1895    237.6569   1.3321346392e+02   1.1868988499e+01    0.1860497    0.1374324 -45.31  0.001263004    1.805    0.446
        13 -10.3939     88.0434    235.2652   1.3857703427e+02   1.6835268294e+01     0.199299     0.156271 -73.39  0.001484859    1.424    0.298
        14 -10.7298    173.4408    220.6620   1.2140785049e+02   5.9339296301e+00    0.2608762    0.1363847  39.14  0.001379228    1.594    0.373
        15 -10.2266    183.9783    216.7025   1.1887063964e+02   4.7287708512e+00    0.1834676    0.1425937  35.36 0.0009877459    1.067    0.062
        16  -9.0302    169.6414    216.2167   1.2144970330e+02   7.2229248071e+00    0.1531244    0.1156725 -27.63 0.0004837918    1.606    0.377
        17  -8.1949    124.4398    209.4933   1.2909119593e+02   1.5800129273e+01    0.1244026    0.1034526  58.69 6.112328e-05    1.073    0.068
        18  -9.6218    226.5976    201.5732   1.0861400801e+02  -4.3751024139e-01    0.2397282     0.206701 -52.39  0.001100188    1.738    0.425
        19 -10.5530    193.0973    194.9780   1.1355302478e+02   6.3175907780e+00    0.7712606     0.383472 -58.76  0.002595155    5.427    0.816
        20  -8.8554     82.4678    194.9205   1.3552718373e+02   2.4784750302e+01     0.187409    0.1656959  13.86  0.001210055    1.585    0.369
        21 -11.1875     79.6031    189.9900   1.3553509710e+02   2.6139488521e+01    0.3886785    0.2460825 -45.53  0.002181427    2.089    0.521
        22 -11.1441     83.2023    183.8477   1.3406419247e+02   2.6857469725e+01    0.3118342    0.2368346 -48.13 0.0008978146    1.592    0.372
        23  -8.6109    167.3255    239.6685   1.2514839805e+02   4.2860559992e+00    0.1141373    0.0819398  63.06 0.0007050897    1.707    0.414
        24  -9.9880    125.2878    174.1272   1.2371312032e+02   2.2187983434e+01    0.3311731    0.2308389  26.05  0.001713496    1.725    0.420
        25 -13.7684     45.5276    131.9342   1.3573876371e+02   4.2694457924e+01     1.386557    0.8590153 -85.20  0.007664428    1.644    0.392
        26 -10.7705     90.3899    172.7262   1.3107113904e+02   2.8080327141e+01    0.2481466    0.2399478  68.24 0.0004828339    1.169    0.144
        27 -12.7696     78.8156    169.3571   1.3313225753e+02   3.0436705403e+01    0.5926146    0.3651536 -35.84  0.001542276    2.588    0.614
        28 -13.4070     58.3366    130.5865   1.3230046104e+02   4.1554938514e+01     2.427306    0.8092003 -72.96  0.007129395    5.397    0.815
        29 -11.7318     95.4039    165.2215   1.2886624400e+02   2.8884360917e+01     1.237961    0.7682847  60.03 0.0009239266    1.728    0.421
        30  -9.6923    149.0704    250.3327   1.2961732332e+02   5.6867410511e+00    0.1702562    0.1157299  45.30  0.001154465    1.139    0.122
        31  -9.2935    134.0000    147.5035   1.1688079628e+02   2.5967779669e+01    0.4056698    0.1745887 -55.37  0.001510401    2.726    0.633
        32 -10.1022    107.3155    146.3595   1.2292403189e+02   3.0980360504e+01    0.6118757    0.2982878 -37.80   0.00237909    2.899    0.655
        33 -11.5813     95.5900    147.6785   1.2596097592e+02   3.2598379940e+01    0.2707828    0.2542645  17.22 0.0006100619    1.252    0.202
        34  -9.5821    114.6794    134.6455   1.1883556129e+02   3.2227377961e+01     0.291436    0.2239051 -19.55  0.001041527    1.715    0.417
        35 -10.2112    103.0343    131.5360   1.2108966169e+02   3.4918203533e+01     0.338796    0.2566157  26.72  0.000933637    1.540    0.351
        36  -9.2110    160.5007    127.4921   1.0638121495e+02   2.4647495117e+01    0.1481337    0.1450778  17.13 0.0001572049    1.022    0.021
        37  -9.1418    119.5718    127.2858   1.1604367999e+02   3.2919579425e+01    0.2004798    0.1340647 -39.38  0.000698756    1.574    0.365
        38 -10.9664    135.9373    171.8307   1.2102758333e+02   2.0758794152e+01    0.6590053    0.2770043  30.78  0.002274134    3.578    0.721
        39  -9.7148    135.0000    121.4565   1.1089750571e+02   3.1168060500e+01    0.5041639   0.08355226 -45.49  0.001162627    5.998    0.833
        40  -9.1701    110.1931    122.3293   1.1730571669e+02   3.5693378075e+01    0.2263685    0.1826786 -42.55 0.0003395012    1.237    0.192
        41 -13.4422     51.8995    149.4717   1.3658015541e+02   3.8113346610e+01     1.289732      1.06737 -56.40  0.007872722    1.286    0.223
        42  -9.8568    168.5101    113.3514   1.0109165093e+02   2.5620335727e+01    0.3432357     0.270858 -63.50 0.0009053798    1.555    0.357
        43  -8.7599    206.0277    109.7811   9.2562530420e+01   1.7768251924e+01      0.19788    0.1216369  50.54 0.0005339591    1.673    0.402
        44 -10.6724     64.7980    104.8481   1.2583060112e+02   4.6561460981e+01    0.3199864    0.1922516  17.16  0.001525963    2.378    0.579
        45 -10.2914     73.8524    162.7869   1.3334248207e+02   3.2501835673e+01    0.2852031     0.161212 -66.11  0.001500318    1.679    0.405
        46 -19.3756     10.6543    131.4062   1.4416824946e+02   4.5907942689e+01     16.81586     2.445397 -73.65   0.04854587    6.484    0.846
        47 -10.5125    161.6850    249.1072   1.2731473115e+02   3.9198676976e+00    0.2724882    0.1290432  50.78   0.00147117    1.979    0.495
        48 -11.1008    125.3860    244.5293   1.3304190850e+02   1.0065701727e+01    0.3433837    0.1843228 -60.65  0.002061145    2.365    0.577
        49  -9.3646    115.0000    247.9781   1.3516735959e+02   1.1077265525e+01    0.1511035   0.06279129 -58.54 0.0008071989    2.976    0.664
        50 -10.3536    216.1357    246.6750   1.1773160765e+02  -4.1439950294e+00      0.31082   0.07038607  35.68  0.001101825    4.280    0.766
        51 -10.8424    198.4771    245.5109   1.2054582078e+02  -1.3258684087e+00    0.2194438    0.1849844  17.16  0.001396911    1.157    0.136
