#   1 NUMBER                 Running object number                                     
#   2 MAG_AUTO               Kron-like elliptical aperture magnitude                    [mag]
#   3 X_IMAGE                Object position along x                                    [pixel]
#   4 Y_IMAGE                Object position along y                                    [pixel]
#   5 X_WORLD                Barycenter position along world x axis                     [deg]
#   6 Y_WORLD                Barycenter position along world y axis                     [deg]
#   7 A_WORLD                Profile RMS along major axis (world units)                 [deg]
#   8 B_WORLD                Profile RMS along minor axis (world units)                 [deg]
#   9 THETA_WORLD            Position angle (CCW/world-x)                               [deg]
#  10 FWHM_WORLD             FWHM assuming a gaussian core                              [deg]
#  11 ELONGATION             A_IMAGE/B_IMAGE                                           
#  12 ELLIPTICITY            1 - B_IMAGE/A_IMAGE                                       
         1 -16.5885    135.1033     32.8843   6.8085835271e+01   4.6985563747e+01     19.28189     11.52221  77.63   0.08704362    2.533    0.605
         2 -15.6647    218.5769     69.5748   6.2490940116e+01   2.2440847651e+01     4.067436    0.8604105 -45.43   0.01189964    4.475    0.777
         3 -15.9384    224.5306     27.3999   5.2497148939e+01   2.7243655278e+01     2.391688     1.764933  -7.08   0.01311029    2.391    0.582
         4 -16.2357    247.0811     70.9746   5.8809953001e+01   1.5929532783e+01     2.257674     1.315517 -61.50   0.01119599    1.724    0.420
         5 -15.1218    248.1613     19.2453   4.8435887783e+01   2.3147164243e+01     1.286024    0.5427532  69.52  0.006451811    2.131    0.531
         6 -16.0047    244.4614     50.5507   5.4950956946e+01   1.9660541835e+01     1.534937    0.7874892 -52.43  0.007644338    1.793    0.442
         7 -15.6431    245.4930     41.8648   5.3089017163e+01   2.0698137907e+01     1.638268    0.7912357 -71.20  0.007078754    2.700    0.630
         8 -16.2123    248.8438     32.7209   5.0939682613e+01   2.1250990683e+01     2.629179    0.5651903 -41.85  0.009710373    3.813    0.738
         9 -14.8879    207.0159     76.9588   6.6028132917e+01   2.3864731241e+01     4.360576     1.631853 -54.40    0.0139708    3.683    0.728
        10  99.0000    173.9222     19.8941   5.7466907992e+01   3.9735624983e+01    0.4133671    0.2427899 -34.63   0.00220745    1.920    0.479
        11 -10.9485    205.5654     19.8141   5.3114735161e+01   3.2462351407e+01    0.2873676     0.178324 -48.58 0.0009037098    1.648    0.393
        12 -11.6546    184.5414     10.1283   5.3583331683e+01   3.8341419878e+01    0.2141625    0.1761499  73.59 0.0003350543    1.028    0.027
        13  -9.4012    188.7033     11.3036   5.3313424409e+01   3.7267519488e+01    0.2558295    0.1487814  38.90  0.001046717    2.305    0.566
        14 -11.7765    191.3618     16.2910   5.4123726908e+01   3.6118887185e+01      0.21514    0.1999054 -73.47 0.0003378685    1.177    0.150
        15  -9.8460    192.4947     10.9714   5.2752635161e+01   3.6436487926e+01    0.2291465    0.1977668  12.89  0.001255714    1.619    0.382
        16 -13.9876    200.3921     59.6608   6.3025672024e+01   2.8234299331e+01     2.017068      1.29093  -0.50  0.007563765    3.869    0.742
        17  -8.3158    171.0800      9.5211   5.5300285439e+01   4.1474456515e+01    0.1905128    0.1551672  32.36 0.0007734785    1.463    0.316
        18  -8.2242    190.0314      6.8885   5.2127165739e+01   3.7421473931e+01      0.11755    0.1049569 -69.24 0.0003479724    1.194    0.163
        19  -9.3057    178.7901      6.8841   5.3579576312e+01   3.9980176329e+01    0.1926519    0.1491238 -49.77 0.0008882075    1.428    0.300
        20 -10.3982    166.2348      3.6553   5.4534175392e+01   4.3132263044e+01    0.3689077    0.2556215 -10.45  0.001312613    1.988    0.497
        21  -8.3808    175.2847      1.7020   5.2803789599e+01   4.1269836069e+01    0.1308643    0.1129202 -11.57 0.0002285556    1.517    0.341
        22  -7.3020    242.4731    178.0035   8.1950197002e+01  -2.5251127350e+00    0.1940651    0.1254241 -38.77 0.0003575494    1.440    0.305
        23  -9.8386    240.2990    249.5555   9.5610390452e+01  -1.3684296967e+01    0.2942163    0.2078573  20.82  0.001587775    1.245    0.197
        24  -9.1925    176.9616    130.4919   8.4680236644e+01   2.0388627068e+01    0.3042012    0.2106165 -60.76 0.0009456257    1.603    0.376
        25  -8.9263    172.6487    128.1900   8.5090069979e+01   2.1839007212e+01    0.3343466    0.2076655  39.58  0.001408046    1.744    0.426
        26  -8.9443    165.5628    126.7527   8.6342445166e+01   2.3719345012e+01    0.5226394    0.1497316 -42.97  0.001456783    3.566    0.720
        27  -7.6821     79.5101    127.9466   1.0853382730e+02   3.9780746656e+01    0.2109711    0.1259205 -53.97 0.0006879598    1.510    0.338
        28 -15.0236    226.2052     88.9626   6.5664317062e+01   1.7413641173e+01     1.688921     1.282383  83.53   0.00891109    1.399    0.285
        29  -9.0541    150.5951    117.6129   8.7625228679e+01   2.8970387549e+01    0.3175095    0.2633001  89.67 0.0007191093    1.410    0.291
        30 -15.7198    242.8177     92.7183   6.3962887683e+01   1.3156193346e+01     2.272943     1.040684 -44.98   0.00983671    1.974    0.493
        31  -9.6077    168.3383    113.3081   8.2465096066e+01   2.5940818697e+01    0.4272522    0.3283938  15.94  0.001941212    1.779    0.438
        32  -7.5062    158.8338    108.1660   8.3342342526e+01   2.9138505519e+01    0.2037725    0.1803394  22.43 0.0004833966    1.278    0.218
        33 -15.1365    233.7581     73.1879   6.1074572641e+01   1.8443663809e+01      1.31659    0.8166391 -56.82  0.006608368    1.551    0.355
        34 -10.6992    144.9857    103.9574   8.5550196993e+01   3.3053869662e+01    0.5681209    0.4018568  37.41  0.001610831    1.502    0.334
        35  -9.4816    160.7308    102.2481   8.1414575079e+01   2.9913155540e+01    0.2963118    0.2579804  85.60 0.0005587909    1.249    0.199
        36  -7.9782    250.4038    173.9154   7.9717065353e+01  -3.1787946668e+00    0.2039951    0.1506313 -50.01 0.0004418753    1.409    0.290
        37 -15.1599    226.1382     35.8228   5.4076581578e+01   2.5775729182e+01     1.202245     0.624431  61.38  0.006076165    1.803    0.445
        38  -8.6721    227.9774    169.9512   8.2988844516e+01   1.6239771928e+00    0.3759032    0.2549815  37.51  0.001595687    1.563    0.360
        39  -7.7030     44.0811     95.4844   1.1176926944e+02   5.1304759570e+01    0.1624515    0.1239466  19.94 0.0004040357    1.505    0.336
        40 -10.7288    176.9913     89.1709   7.4582231693e+01   2.8700575085e+01    0.5804433    0.4444776 -30.85  0.002775433    1.460    0.315
        41  -8.7472    171.1155     89.1474   7.5796992442e+01   3.0069723165e+01    0.3192184    0.2758649 -44.89 0.0007877527    1.178    0.151
        42  -9.1201    163.1727     86.9900   7.6945476224e+01   3.2302680382e+01    0.3142069    0.2385601  58.31 0.0004638786    1.308    0.235
        43  -9.9027    106.0525     87.2337   9.1267190471e+01   4.4224149614e+01    0.3418881    0.3299813 -40.12  0.001019332    1.080    0.074
        44  -8.0592     62.4948     78.5152   1.0191459586e+02   5.2644466728e+01    0.2458677    0.1245227  31.21  0.001177501    2.136    0.532
        45  -8.4130    207.1122    168.5318   8.6766495702e+01   5.9837967466e+00    0.3841038    0.2408399  67.20  0.001563781    2.427    0.588
        46 -10.2156    103.8170     71.7463   8.7534764942e+01   4.7508679062e+01    0.4471372    0.4123886 -54.71  0.002691728    1.237    0.192
        47  -9.7056    199.2509    166.1434   8.7867991365e+01   8.0643164069e+00    0.4243191    0.2013043  35.11  0.001560644    2.558    0.609
        48  -8.2241    177.1291     65.4544   6.8518630768e+01   3.2789505439e+01    0.2182615    0.1943118 -48.16 0.0004569071    1.171    0.146
        49  -7.9600    239.6562    162.9454   7.9390204145e+01   7.5146605502e-01      0.19675    0.1628645 -40.39 0.0004400147    1.123    0.109
        50  -9.1731    182.6898     63.6739   6.7035038948e+01   3.1766692290e+01    0.4009897    0.2311568 -29.76   0.00125532    2.094    0.522
        51  -7.7363    215.5325    162.9454   8.3916553207e+01   5.4124130941e+00     0.223076    0.1390196 -43.14   0.00101616    1.547    0.354
        52  -9.4891    202.7848    161.7665   8.6213256055e+01   8.2374093490e+00    0.4151441    0.2719738  53.77  0.001891291    1.655    0.396
        53  -8.2268     44.4917    159.0590   1.2280953302e+02   3.6946358082e+01    0.1824346    0.1683511  68.72 0.0005093941    1.199    0.166
        54  -8.1183    213.9346    156.7722   8.2914880586e+01   6.9660170943e+00    0.2233411    0.1967625  -4.75 0.0006185213    1.268    0.212
        55  -9.5756    189.7071     38.0805   5.9527714039e+01   3.3851829388e+01    0.1745832    0.1638031 -73.21 0.0004186847    1.129    0.114
        56  -9.8180    179.2336    151.2036   8.8894941351e+01   1.5430501394e+01    0.6499467     0.527809 -76.41  0.002588333    1.427    0.299
        57  -9.8430    186.0698     34.0266   5.9101017241e+01   3.5230090547e+01    0.1907133    0.1708833 -79.60 0.0003984588    1.100    0.091
        58  -9.7661    177.7612     32.0560   5.9915297259e+01   3.7416431613e+01    0.1980857    0.1682554  67.31 0.0002991723    1.045    0.043
        59  -9.2559    170.1411     30.2101   6.0691575696e+01   3.9412672397e+01    0.2077755    0.1938823  39.58 0.0005999536    1.192    0.161
        60  -9.2380    189.2070     25.4733   5.6577124108e+01   3.5558338366e+01    0.1640707    0.1595968  54.11 0.0003607524    1.231    0.188
        61  -9.0395    185.2399     26.0200   5.7281458776e+01   3.6413259657e+01    0.1680732    0.1468488 -62.38 0.0004236014    1.198    0.166
        62  -7.9467    176.9883     26.3148   5.8600288976e+01   3.8292606284e+01    0.2110021    0.1251527  65.03 0.0002277686    1.478    0.323
        63  -7.4255    243.9578    161.6715   7.8362279133e+01   1.9414559783e-01    0.1833309    0.1704829 -33.59 0.0005031705    1.027    0.026
        64  -8.0783    227.3150    160.3346   8.1109156448e+01   3.5970346245e+00    0.1465659    0.1116282  -4.38 0.0004194919    1.690    0.408
        65  99.0000    185.6004     20.5255   5.5907890516e+01   3.6970377496e+01    0.1285343    0.1085227  87.18 0.0002818839    1.076    0.071
        66  -8.6034    181.3140     19.5591   5.6287075069e+01   3.8068951627e+01    0.1636532    0.1386014 -20.42 0.0005085952    1.489    0.329
        67  -9.0373    199.9728     17.0078   5.3182184015e+01   3.4064337101e+01    0.1647862      0.13392 -89.51   0.00104344    1.074    0.069
        68  -8.1180    196.0327     12.7327   5.2710099053e+01   3.5439785187e+01    0.1532115    0.1048158  70.02  0.000172713    1.233    0.189
        69  -7.9512     70.3033    160.3344   1.1683071245e+02   3.3458593791e+01    0.1363172   0.09978492 -37.61 0.0004528126    1.662    0.398
        70  -8.5100    222.4919    249.4883   9.8889668130e+01  -1.0993733523e+01    0.1797189    0.1108302 -24.29 0.0009894397    1.832    0.454
        71  -9.3716     52.9626    155.0450   1.2020910502e+02   3.6916235077e+01    0.2099934    0.1461596 -39.55  0.001141486    1.700    0.412
        72  -9.3338     60.6145    152.1917   1.1789303291e+02   3.6654420022e+01     0.444343    0.1230552 -64.11   0.00146387    3.538    0.717
        73  -8.2602    184.2551     16.1610   5.5052845902e+01   3.7766861066e+01    0.1131835   0.07581735  56.31 0.0006269087    1.369    0.269
        74  -9.5455    204.0538     14.0056   5.2017643845e+01   3.3472497463e+01     0.171421    0.1403949  86.64  0.001109231    1.015    0.015
        75  -8.2215    104.0642    146.3194   1.0584184420e+02   3.1573839517e+01    0.2882915    0.2114294 -65.12  0.001009142    1.351    0.260
        76  -7.5772    199.2446     13.4702   5.2479459822e+01   3.4626379865e+01    0.1152107   0.09870334 -70.20 0.0002050989    1.168    0.144
        77  -9.2333     68.0194    145.6393   1.1493408111e+02   3.7241745578e+01    0.3518573    0.2043622  61.22  0.001596992    2.253    0.556
        78  -8.2942    133.3425    141.7043   9.7491226522e+01   2.7194034281e+01    0.4351632    0.1423064 -51.46  0.001353894    3.082    0.676
        79  -9.0559     56.0399    142.2709   1.1741418461e+02   3.9541573148e+01    0.2499608    0.1571139 -45.78 0.0006589068    1.596    0.374
        80  -7.3706    150.7116    142.7387   9.3512619524e+01   2.3394736720e+01    0.1459228    0.1238665  -0.20 0.0001861935    1.491    0.329
