#   1 NUMBER                 Running object number                                     
#   2 MAG_AUTO               Kron-like elliptical aperture magnitude                    [mag]
#   3 X_IMAGE                Object position along x                                    [pixel]
#   4 Y_IMAGE                Object position along y                                    [pixel]
#   5 X_WORLD                Barycenter position along world x axis                     [deg]
#   6 Y_WORLD                Barycenter position along world y axis                     [deg]
#   7 A_WORLD                Profile RMS along major axis (world units)                 [deg]
#   8 B_WORLD                Profile RMS along minor axis (world units)                 [deg]
#   9 THETA_WORLD            Position angle (CCW/world-x)                               [deg]
#  10 FWHM_WORLD             FWHM assuming a gaussian core                              [deg]
#  11 ELONGATION             A_IMAGE/B_IMAGE                                           
#  12 ELLIPTICITY            1 - B_IMAGE/A_IMAGE                                       
         1 -14.1309    194.9213     12.9124   6.9294679761e+01   3.4048268707e+01     2.293156     1.399174 -12.00    0.0083942    1.807    0.447
         2 -14.1287    201.0283      6.4112   6.6719242160e+01   3.3109707415e+01     3.993928     1.719699  30.74  0.002314702    4.112    0.757
         3 -11.0581    152.9825    248.4471   1.2803492844e+02   8.4232446119e+00    0.2407559    0.1009901  38.15  0.001425551    1.699    0.411
         4 -11.0311    248.6262    248.9162   1.1288658949e+02  -3.9740496376e+00    0.2823815    0.1614323  18.90  0.002152379    1.259    0.206
         5 -11.7844    140.6904    249.5233   1.3022705192e+02   9.9305487864e+00     0.387681    0.1570692  39.73  0.002287688    1.743    0.426
         6 -11.1988    123.8726    249.9090   1.3313224478e+02   1.2082988671e+01    0.3900262    0.0910155  38.20  0.001757404    3.020    0.669
         7 -10.9262    110.3255    249.8205   1.3544570030e+02   1.3826395564e+01    0.2750897    0.1452912  60.94  0.001725285    2.217    0.549
         8 -11.1556     98.7978    249.4995   1.3739810135e+02   1.5307242132e+01    0.2673797    0.1737011  55.13  0.001549324    1.315    0.240
         9 -11.0980    102.4064    248.1808   1.3667759680e+02   1.5035339881e+01    0.2250022    0.1735949  75.61  0.001361008    1.490    0.329
        10 -10.2265     89.1307    249.5421   1.3905724551e+02   1.6478281948e+01    0.2141701    0.1133265  52.25 0.0006674337    1.495    0.331
        11 -11.0441     81.4825    248.5398   1.4029839150e+02   1.7525653954e+01    0.4077514    0.1500178  53.86  0.002284885    2.424    0.588
        12 -10.6230     84.0493    244.8431   1.3960919834e+02   1.7734925640e+01    0.4196937    0.1677442  62.34  0.002113029    3.393    0.705
        13 -11.1978     68.9994    244.0165   1.4215997683e+02   1.9610556550e+01    0.3008187    0.2062986  36.41  0.002345954    1.333    0.250
        14 -10.3608     67.5193    250.5218   1.4279097744e+02   1.8856689284e+01    0.2414977    0.1471619  78.32  0.001777006    1.785    0.440
        15  -9.5444     64.4686    250.5497   1.4330608092e+02   1.9193351887e+01    0.1997064   0.07385115  36.16 0.0006659622    2.080    0.519
        16 -14.4281     32.8788    245.5563   1.4835095729e+02   2.3224227702e+01     11.43007     2.798323  27.70   0.02478519   20.103    0.950
        17 -15.0658      4.5664     18.2790   1.3342610494e+02   7.2543024704e+01     22.45152     1.334365 -66.67   0.03443658   21.367    0.953
        18 -15.3558      9.6920    239.3923   1.5196946493e+02   2.6303461449e+01     7.060755     0.783862 -73.51   0.02969149    7.075    0.859
        19 -10.2902    198.9831    246.4881   1.2020376563e+02   2.4872952961e+00    0.1642277   0.07557956  36.91  0.001027662    1.582    0.368
        20 -11.2019     95.9202    239.9899   1.3717562160e+02   1.6963372758e+01    0.2747453    0.2133118  -9.91  0.001589045    2.220    0.549
        21  -9.9305    234.1575    237.9784   1.1357703658e+02  -1.3027891138e+00    0.1258646    0.1175788 -30.34 0.0008441664    1.963    0.491
        22  -9.6886    185.4970    237.5061   1.2131673012e+02   5.2196561477e+00    0.1092961   0.07904504  29.95 -0.0001434381    1.026    0.025
        23 -11.2864    174.1273    222.2903   1.2134928906e+02   8.5579839578e+00    0.3463679    0.2658235  67.93  0.002310571    2.083    0.520
        24 -10.9446    228.5311    228.0640   1.1307018386e+02   3.1737828286e-01    0.2942871    0.2264403 -47.73  0.001676545    2.501    0.600
        25  -9.0386    152.5419    212.9285   1.2405600270e+02   1.2943966816e+01     0.135445    0.1165473 -41.24 0.0003799949    1.477    0.323
        26 -10.4430     33.4485    205.8675   1.4649612703e+02   2.9527330978e+01    0.2922283    0.1310088  44.50  0.001073842    1.658    0.397
        27 -11.6090     72.2481    197.7076   1.3822222862e+02   2.6623619868e+01    0.3206388    0.2299273 -40.97  0.001764423    2.089    0.521
        28 -11.7269     76.9066    190.3211   1.3658747079e+02   2.7356335629e+01    0.2250931    0.2134461 -51.87 0.0006016969    1.378    0.274
        29 -10.5355    192.6815    194.0333   1.1397933130e+02   9.2431670125e+00    0.4606394    0.2765273 -64.38  0.001686342    6.565    0.848
        30  -8.3368     66.3093    195.3069   1.3923961218e+02   2.7778401621e+01   0.09776501   0.08850121 -10.55 0.0004160922    1.614    0.381
        31 -11.0788     85.1703    177.9173   1.3352291910e+02   2.8553650300e+01    0.2167809    0.1969376  77.92 0.0004002834    1.133    0.117
        32 -13.2956     72.9703    175.6104   1.3598839757e+02   3.0613990440e+01    0.4089225    0.2657741 -40.91  0.001599168    2.259    0.557
        33 -12.3768     91.7769    168.8150   1.3095485957e+02   2.9363218469e+01      1.42135    0.4635229  49.19  0.004750052    3.089    0.676
        34 -12.8432     57.8367    130.4491   1.3443261950e+02   4.1972029875e+01     1.617482    0.5853295 -81.12  0.004944897    5.292    0.811
        35 -10.1743    102.6114    151.8752   1.2603515151e+02   3.1065575033e+01    0.2843788    0.2595906  36.20 0.0008880296    1.138    0.121
        36  -9.3884    105.3133    147.6066   1.2470285919e+02   3.1491791754e+01    0.2715987    0.1942917 -16.11   0.00118006    2.272    0.560
        37 -12.1435     91.8608    151.4949   1.2858431123e+02   3.2795994553e+01    0.2565273    0.2401822  -0.27 0.0006605865    1.313    0.238
        38 -14.4119     12.8611    206.2471   1.5040582878e+02   3.1389544397e+01     2.238009     1.578735  25.00   0.01181147    1.754    0.430
        39 -10.8222     46.6810    146.8440   1.3928724217e+02   3.9653984011e+01    0.1969987    0.1686753  25.79  0.001123148    1.397    0.284
        40  -8.5131    192.2364    144.0047   1.0497320470e+02   1.6270933048e+01    0.1581315    0.1097432 -30.44 0.0003725854    1.491    0.329
        41 -12.7744     49.0586    232.5159   1.4499755433e+02   2.3531352776e+01    0.3000742    0.2553134  67.47   0.00073332    1.246    0.198
        42  -9.9672    112.6127    136.9417   1.2105853177e+02   3.2436212599e+01    0.3146139    0.2298062 -20.86  0.001102541    1.968    0.492
        43 -13.2392     67.1003    143.8734   1.3374044327e+02   3.7860920643e+01     1.314836    0.6594115  75.84  0.003678433    3.058    0.673
        44  -9.2041    242.3420    138.7072   9.5307374566e+01   7.8874034156e+00    0.1106827    0.1003258 -56.91 0.0003473915    1.655    0.396
        45 -14.8593     55.7245    222.3404   1.4322292935e+02   2.4408589005e+01     3.099491       1.1596  36.28   0.01742175    2.132    0.531
        46 -10.5849    100.3359    134.3479   1.2369479787e+02   3.5035312274e+01    0.2555458    0.2259059 -31.87 0.0006854777    1.331    0.249
        47  -9.3452    108.9596    123.9698   1.1949272220e+02   3.5759671477e+01    0.2013412    0.1867624  59.15 0.0003233793    1.032    0.031
        48 -10.9766    168.3141    113.3151   1.0290982760e+02   2.6055270262e+01    0.3769224    0.3200695 -82.55  0.001173316    1.560    0.359
        49  -9.1310    203.5027    111.4861   9.5631635975e+01   1.8907801052e+01    0.1433959     0.124635   8.49 0.0008092269    1.081    0.075
        50  -9.3982    154.3883     74.8609   9.5566020864e+01   3.5927419765e+01    0.2175724    0.1447555 -21.38 0.0009449373    1.706    0.414
        51  -8.5623     73.9929     38.4962   1.0621229806e+02   6.0154100546e+01    0.1847906    0.1386716  39.79 -6.622933e-05    1.403    0.287
        52 -10.1335    162.6261    249.3517   1.2650724421e+02   7.0333326054e+00    0.1535595    0.1029094  51.87 0.0008161124    1.639    0.390
