#   1 NUMBER                 Running object number                                     
#   2 MAG_AUTO               Kron-like elliptical aperture magnitude                    [mag]
#   3 X_IMAGE                Object position along x                                    [pixel]
#   4 Y_IMAGE                Object position along y                                    [pixel]
#   5 X_WORLD                Barycenter position along world x axis                     [deg]
#   6 Y_WORLD                Barycenter position along world y axis                     [deg]
#   7 A_WORLD                Profile RMS along major axis (world units)                 [deg]
#   8 B_WORLD                Profile RMS along minor axis (world units)                 [deg]
#   9 THETA_WORLD            Position angle (CCW/world-x)                               [deg]
#  10 FWHM_WORLD             FWHM assuming a gaussian core                              [deg]
#  11 ELONGATION             A_IMAGE/B_IMAGE                                           
#  12 ELLIPTICITY            1 - B_IMAGE/A_IMAGE                                       
         1 -12.0069     17.7645     45.3443   1.2800127534e+02   6.3720882061e+01     1.076758    0.5219514 -10.06  0.005228602    3.174    0.685
         2 -10.3907    138.6735     26.9755   7.8866132453e+01   4.7497262233e+01    0.5743351    0.2076069  55.54  0.001480397    2.652    0.623
         3 -12.0793     76.6141     24.3853   9.6338474808e+01   6.1269195464e+01    0.5072775    0.3457441 -41.92  0.001116933    1.490    0.329
         4 -11.3945     90.1382     16.0165   8.7636293566e+01   6.0056284690e+01    0.3477549     0.215973 -20.80 0.0003676193    1.515    0.340
         5  -9.7095     87.4716     12.4835   8.6834107203e+01   6.1084905239e+01    0.2394119    0.2067474  29.65  0.001006164    1.194    0.162
         6 -10.1014     87.9866      8.3256   8.4600223101e+01   6.1536218966e+01    0.4276282    0.2074417  -5.54  0.001382465    3.046    0.672
         7 -10.5361     12.7803     16.0297   1.2208752051e+02   7.0272912336e+01      0.31015     0.204144  24.74  0.001526829    1.908    0.476
         8 -10.4372     26.4990     16.1367   1.1502272245e+02   6.9261076879e+01    0.2705366    0.2188377 -39.29 0.0009900311    1.082    0.076
         9 -11.4258     42.5521     17.9014   1.0787587175e+02   6.7318939217e+01    0.6709284    0.3909412   8.36  0.003424367    2.234    0.552
        10 -11.7845     30.1031      7.1788   1.0915093164e+02   7.0625308760e+01    0.3639661    0.2959256 -33.30  0.001390809    1.128    0.114
        11 -12.0336     39.7451     10.6163   1.0585794442e+02   6.8971510410e+01    0.5223698    0.2370977 -36.40 0.0002707483    1.842    0.457
        12  -9.6205    109.5391     12.5419   8.0086141761e+01   5.6335980541e+01     0.295342    0.1366352 -23.27    0.0011883    2.094    0.522
        13 -10.6858    212.1557     12.0518   6.1524613033e+01   2.9784060366e+01    0.3157162    0.2473876 -55.88 0.0008462651    1.376    0.273
        14 -10.0505    210.3941      7.7820   6.0422107881e+01   3.0628364775e+01    0.2962942    0.1401835 -13.81  0.001191813    2.228    0.551
        15 -10.0392     76.4638      8.3753   8.8683441109e+01   6.3769449199e+01    0.3375817    0.2163211 -29.31 0.0006102729    1.438    0.305
        16 -10.7205     67.9064     11.2051   9.3451905765e+01   6.4869092193e+01    0.4501894    0.3388843 -82.61  0.002036675    3.309    0.698
        17 -11.1719     71.0075      7.1735   9.0136980839e+01   6.4926323623e+01    0.3291551    0.2458212   5.74  0.000439669    1.249    0.199
        18 -11.0775     66.2693      6.4394   9.1638632966e+01   6.5852708763e+01    0.4762526    0.2630913  23.46  0.002245695    2.085    0.520
        19  -9.7409    119.0039     11.7776   7.7245807127e+01   5.4202562203e+01    0.2050617    0.1787239  30.68 0.0003821122    1.075    0.070
        20 -11.8969    150.7702      8.0082   6.8868682838e+01   4.6516824493e+01    0.5313013    0.3534713  28.51  0.002463726    1.510    0.338
        21 -11.4422     92.7084      8.1070   8.2955698493e+01   6.0587255522e+01    0.6438549    0.2515213 -33.25 0.0008607757    2.454    0.593
        22 -11.1118     22.1991      9.3697   1.1442768712e+02   7.0931420325e+01     0.323385    0.1946536 -23.81  0.001343062    1.605    0.377
        23 -11.4381      3.7879      8.4878   1.2433981500e+02   7.2281729859e+01     0.385278    0.3169396  65.15  0.002750935    1.802    0.445
        24 -10.5910      1.9676      2.9364   1.2335603468e+02   7.3475968118e+01    0.1972236     0.137404 -48.53 0.0005843309    1.049    0.047
        25 -10.3329     10.0321      1.4817   1.1788926283e+02   7.3319247134e+01     0.209839    0.1526225  -8.27 0.0008374869    1.441    0.306
        26 -10.1026      7.8218      4.8317   1.2063093510e+02   7.2802849681e+01    0.2055715    0.1690526 -37.50  0.001248932    1.141    0.124
        27 -10.1256     15.5400      8.4445   1.1770140511e+02   7.1611937093e+01    0.2626738    0.1399971 -33.19 0.0008298239    1.617    0.382
        28 -10.5977     11.8979      7.3793   1.1931388003e+02   7.2060349564e+01    0.3810126    0.2268551 -50.43  0.002023201    1.272    0.214
        29 -10.3117     55.1756      7.7989   9.7110484771e+01   6.7410704119e+01    0.2329336    0.1902562  -6.49 0.0003823371    1.068    0.063
        30 -11.3402     58.2383      4.4292   9.3947329197e+01   6.7459028344e+01    0.4555466    0.2986069  17.67  0.002367564    1.589    0.371
        31 -11.0583     53.3241      3.8472   9.5827742514e+01   6.8297749290e+01    0.4046158    0.2514908 -41.06  0.002185624    1.679    0.405
        32 -10.2090    218.4231      7.2225   5.9414201158e+01   2.8617105564e+01    0.2615601    0.1544084  55.28  0.000631527    1.658    0.397
        33 -10.3797    190.4830      5.4882   6.2001781151e+01   3.6080073063e+01    0.1442421    0.1386488  36.45 0.0001403848    1.003    0.003
        34 -11.2022    119.7622      4.5561   7.3818449843e+01   5.4798020203e+01    0.4784146    0.1997808  49.06  0.001394412    2.115    0.527
        35 -10.1606    174.5316      4.4984   6.3768129643e+01   4.0457964783e+01    0.1462472     0.139892  36.56 0.0002205386    1.025    0.025
        36  -9.4499    160.3253      4.3080   6.5823501997e+01   4.4305532626e+01    0.1634043   0.09920198  34.14 0.0005871503    1.652    0.395
        37 -11.3038    130.2673      3.6055   7.1052442583e+01   5.2268220639e+01    0.2865315    0.2580985  50.05  0.001385243    1.139    0.122
        38 -11.8518     80.2597      1.8239   8.3866253657e+01   6.3896382552e+01     0.437802    0.2038939  41.11    0.0017428    2.074    0.518
        39 -10.8067     38.5601      2.4010   1.0222841722e+02   7.0521168969e+01    0.3306636    0.1889876 -16.40  0.001725006    1.869    0.465
        40 -10.2900    199.2637      3.0045   6.0163357188e+01   3.3957314662e+01    0.2008927     0.187651 -10.75 0.0005301976    1.079    0.073
        41 -10.9998     18.8460      2.6936   1.1323926563e+02   7.2458947313e+01    0.3459691    0.2041412   4.02  0.002045587    1.980    0.495
        42 -10.0750    146.9783      2.4932   6.7358408439e+01   4.8027523670e+01    0.2231553    0.1399457  62.18 0.0004382263    1.535    0.348
        43 -11.6086     35.1086     13.2020   1.0939284811e+02   6.9009271554e+01    0.4525877     0.280491 -51.54  0.001709118    1.590    0.371
        44  -9.8458     29.1434    128.8536   1.3657845665e+02   4.4456366251e+01    0.2252285    0.1283309  77.38  0.001031435    1.728    0.421
        45 -12.4613     10.9565    245.3491   1.4608427621e+02   2.5733238696e+01    0.3387219    0.1650796  63.72  0.002844828    1.431    0.301
        46 -12.1732      5.1859    240.7939   1.4677411483e+02   2.6854138839e+01    0.3843714    0.1359884  49.87  0.002878237    1.785    0.440
        47 -10.8811      1.8283    248.7781   1.4743853901e+02   2.6028534925e+01    0.2812902    0.1258859  85.22  0.002300994    1.947    0.486
        48 -11.2911      6.1983    247.8537   1.4681528189e+02   2.5792318032e+01    0.3089472    0.1333545  83.64  0.002134014    2.038    0.509
        49  -9.5416     21.1600    126.1721   1.3824836032e+02   4.5657355747e+01    0.1504348    0.1052435  70.69  0.000440538    1.291    0.225
        50 -11.0846     24.0822    122.3223   1.3719336461e+02   4.6245040281e+01    0.3288828    0.1824811  74.74 0.0003648346    1.800    0.445
        51 -11.0681     22.0000    118.0170   1.3730431278e+02   4.7321699803e+01    0.2699413      0.17715  75.48  0.001763133    1.416    0.294
        52  -9.2352     75.5711    119.8351   1.2370185307e+02   4.1471296036e+01    0.1700923    0.1149359 -77.67 0.0005217489    1.559    0.359
        53 -10.6055      3.2473    118.9989   1.4197931690e+02   4.8372094307e+01    0.1665342    0.1413192  70.81 0.0005486557    1.188    0.158
        54 -10.6459     34.6023    114.6399   1.3371918825e+02   4.7033341193e+01    0.2657782   0.09173337  33.70  0.001257889    2.920    0.658
        55 -10.8770      3.5217    113.9344   1.4155656028e+02   4.9417263876e+01    0.2609374    0.1430094   4.11  0.001551473    2.929    0.659
        56 -10.0821    249.1834    111.8080   8.3786426705e+01   9.4567303554e+00    0.2002645    0.1410769  11.89   0.00107071    1.323    0.244
        57 -11.8396      5.1102    108.8885   1.4077751599e+02   5.0394391587e+01    0.2879257    0.2103077  31.34  0.001927178    1.652    0.395
        58 -10.5985     58.2170    107.5794   1.2636090724e+02   4.6254283654e+01    0.2847896    0.1914438 -23.76  0.001482335    2.214    0.548
        59  -9.6135     65.8753    110.8303   1.2478938389e+02   4.4647945005e+01    0.1797097    0.1397973  82.67  0.000841046    1.350    0.259
        60 -10.1606     66.8190    101.8908   1.2294853877e+02   4.6509094724e+01    0.1797986    0.1422682  89.84 0.0007382456    1.334    0.251
        61  -9.0067    101.3209     97.2812   1.1215320697e+02   4.2528252977e+01    0.1375309    0.1085497 -10.92 0.0006993717    1.586    0.370
        62 -10.4146     36.6989     96.3822   1.3074722143e+02   5.0885274511e+01    0.4389729    0.1990942  30.76   0.00225239    2.461    0.594
        63 -11.4649     18.0059     94.6015   1.3591661210e+02   5.2705018084e+01    0.2745157    0.2050179  77.82  0.001094521    1.288    0.223
        64 -10.4914     20.4854     91.4727   1.3482131369e+02   5.3233072761e+01    0.2065766    0.1672587 -72.96 0.0007061728    1.041    0.039
        65 -10.5170     78.8213     94.8294   1.1804864520e+02   4.6504874688e+01    0.1986375     0.169589 -36.55 0.0003619585    1.218    0.179
        66  -9.7262      3.4576     95.5055   1.4009287925e+02   5.3365487566e+01    0.1121487   0.08538879 -84.55 0.0001690083    1.027    0.026
        67 -10.4089     84.4723     93.6785   1.1613713584e+02   4.5950070545e+01    0.2798818    0.2285858 -17.62  0.001571909    1.461    0.316
        68 -11.2702     27.2665     90.7261   1.3271785002e+02   5.2914434730e+01    0.4841933    0.2461807  55.63  0.002458071    2.361    0.577
        69  -9.9144     25.4534     84.9263   1.3244251926e+02   5.4348570963e+01    0.2166813    0.1415704 -74.87 0.0007109435    1.276    0.216
        70 -11.5546     11.1196     87.9976   1.3716011459e+02   5.4591354551e+01    0.5399398    0.2066896 -73.83  0.002367837    2.033    0.508
        71  -9.7515     15.9854     89.4724   1.3589893382e+02   5.3971896478e+01    0.1807476    0.1433344  39.53 0.0008104245    1.486    0.327
        72 -10.0955     44.4148     89.6781   1.2737603364e+02   5.1689985070e+01    0.2793575    0.1485128  41.76  0.001468254    2.088    0.521
        73 -10.3684      1.7367     89.6734   1.4004517379e+02   5.4721803665e+01    0.2023533    0.1148517 -76.92  0.000259691    1.340    0.254
        74 -10.3737     76.4799     89.0732   1.1746870786e+02   4.8100023217e+01    0.2279935    0.2024742  34.73 0.0006199987    1.233    0.189
        75 -10.8368    104.0770     87.8404   1.0901154870e+02   4.4057331068e+01    0.2140281    0.1925964 -86.08 0.0006025848    1.282    0.220
        76  -9.7194    124.1114     86.9050   1.0318012295e+02   4.0508559058e+01    0.2193824    0.2053465 -81.12 0.0007478727    1.237    0.192
        77  -9.6434     19.2732     86.9835   1.3460968744e+02   5.4314545480e+01    0.1765364    0.1198962 -72.89  0.001137246    1.173    0.147
        78 -10.8222     54.5781     84.0853   1.2316753289e+02   5.1913765629e+01    0.2684787    0.1989315 -66.55 0.0008006816    1.211    0.174
        79 -10.4431      3.8333     82.8040   1.3875787298e+02   5.6125207584e+01    0.2525524    0.1322993 -74.72  0.001056649    1.449    0.310
        80  -9.1860     78.4537     83.4150   1.1553516897e+02   4.9072252041e+01    0.1333535    0.1235473 -56.27 7.015689e-05    1.031    0.030
        81 -11.7062     63.9953     80.7299   1.1945027149e+02   5.1578528086e+01    0.4695078    0.3451185 -64.14  0.002172939    1.271    0.213
        82  -9.6426    250.2411     80.9947   7.5982136075e+01   1.2982378492e+01    0.1876302    0.1062965 -22.42 0.0006600033    1.578    0.366
        83 -10.1092     89.3015     80.3645   1.1141802887e+02   4.8108719974e+01    0.2753266    0.1794757 -59.44 0.0007524148    1.608    0.378
        84 -10.0948     65.9592     75.2333   1.1751196943e+02   5.2558005647e+01     0.201717    0.1943606  26.34 -0.000430966    1.168    0.144
        85  -8.6692    124.4801     79.4548   1.0094442663e+02   4.1907245674e+01     0.146362    0.1431038 -36.57 0.0002784561    1.094    0.086
        86  -9.3347     38.4172     92.3904   1.2963470612e+02   5.1630175031e+01    0.1196853    0.1009516 -68.82 9.145529e-05    1.031    0.030
        87  -9.4753     19.3369     79.6632   1.3359523763e+02   5.5948431809e+01    0.1210538   0.07749446  72.04 0.0007051601    1.751    0.429
        88  -9.9053    176.7075     77.1345   8.7631823573e+01   3.0540721033e+01    0.2670257    0.2193671  58.95  0.001313525    1.361    0.265
        89 -10.9914     55.5260     75.6189   1.2104356695e+02   5.3712490223e+01    0.2711046    0.2486389 -15.54 0.0006917389    1.224    0.183
        90 -10.6291     15.6858     75.9039   1.3422818705e+02   5.7017911594e+01    0.1763211    0.1519288 -36.43 0.0006801109    1.338    0.252
        91  -9.5285     74.9557     75.5410   1.1466187459e+02   5.1293479096e+01    0.1752958    0.1356649  31.60 4.295674e-06    1.433    0.302
        92  -9.2401     70.3038     75.3258   1.1611480505e+02   5.1974249239e+01    0.1383577   0.09619317 -28.85 0.0003194021    1.643    0.391
        93 -10.8005     32.1666     72.9455   1.2830868662e+02   5.6540509567e+01    0.4052851    0.2035667  51.49 0.0002414446    2.612    0.617
        94 -10.9667     35.6715     72.6383   1.2706876145e+02   5.6322936206e+01    0.4404964     0.286089 -59.20  0.001852454    1.254    0.202
        95  -9.4911    224.1933     74.2387   7.8078549353e+01   1.9616434793e+01    0.1834194    0.1676313 -44.00 0.0003423345    1.268    0.211
        96  -9.7092    136.3717     74.1434   9.6172158424e+01   4.0408743175e+01    0.2137719    0.1855462 -28.06 0.0006285589    1.121    0.108
        97 -11.0057      3.9577     73.7312   1.3770919550e+02   5.8124282969e+01    0.2910121    0.1989276  19.46  0.001471061    1.894    0.472
        98  -9.6246    216.9398     72.4778   7.8760484311e+01   2.1549003974e+01     0.232134    0.1854871 -14.63  0.000475437    1.169    0.145
        99  -9.3962     92.4764     72.4483   1.0823914631e+02   4.9279374348e+01    0.2017112    0.1883133 -39.48 0.0008848527    1.037    0.035
       100  -9.1885     90.7412     69.3555   1.0787735600e+02   5.0216776500e+01    0.2166177    0.1654513 -62.04 0.0002887249    1.470    0.320
       101 -10.2805     80.8781     72.0837   1.1182104014e+02   5.1189290681e+01    0.2931975    0.1948223 -71.15  0.001380289    1.989    0.497
       102  -9.4135     48.9672     74.0000   1.2286947860e+02   5.4776925493e+01     0.182431   0.07428937  27.85 0.0006809519    2.884    0.653
       103 -10.3393    105.9361     71.3870   1.0381257053e+02   4.7129543983e+01    0.2536117    0.1995123 -34.26 0.0004560195    1.211    0.174
       104 -10.7991     10.5116     68.5859   1.3489163315e+02   5.8945721770e+01    0.3315719    0.1528883 -72.41  0.001800692    1.693    0.409
       105 -10.1313     47.2601     68.9636   1.2232738992e+02   5.6081465039e+01    0.4487551    0.2333174  18.02   0.00160398    2.581    0.613
       106 -10.7478     41.0127     59.0362   1.2221470734e+02   5.8904214519e+01    0.2771181    0.2144271 -30.94 0.0009660315    1.337    0.252
       107 -11.2552     34.4682     65.0271   1.2594966442e+02   5.8138370853e+01     0.282267    0.2472524 -32.27 0.0006989936    1.232    0.188
       108 -11.1302     39.1873     62.8227   1.2377621035e+02   5.8225975947e+01     0.350666    0.2120754 -44.95  0.001134609    1.486    0.327
       109 -11.5038     17.0348     64.2009   1.3196494804e+02   5.9562385853e+01    0.2861981    0.2645326 -83.32  0.002147058    1.191    0.161
       110 -10.6390    130.7654     63.7763   9.4333213321e+01   4.3542534803e+01    0.5786164    0.3848088  71.71  0.002337587    2.445    0.591
       111  -9.3303    101.4897     65.4830   1.0332490845e+02   4.9141280433e+01    0.1457633    0.1344551 -24.21 0.0008103589    1.004    0.004
       112  -9.6183     75.9866     65.0000   1.1141927748e+02   5.3432655542e+01    0.2019805   0.07942187  35.52            0    2.820    0.645
       113 -10.2204     72.7756     63.7396   1.1214166783e+02   5.4162085143e+01    0.2892492    0.1573052 -70.38 0.0008207252    3.197    0.687
       114 -12.1443      2.2597     59.6819   1.3647568864e+02   6.1315596202e+01    0.8916755     0.651392  81.88  0.005270432    1.394    0.283
       115 -12.9879     20.7912     57.7051   1.2942503316e+02   6.0785765719e+01    0.3953725    0.3322493  53.75 0.0007362591    1.450    0.310
       116 -10.6335     20.2898     51.4345   1.2833340237e+02   6.2216282420e+01    0.3665499    0.1709111 -47.42 0.0009409406    1.787    0.440
       117 -12.5202     21.7904    245.4050   1.4454568432e+02   2.4772511175e+01    0.3015172    0.1618197  61.72  0.002579014    1.294    0.227
       118 -11.0849     54.5437     58.7776   1.1717513094e+02   5.7562138319e+01    0.5943148    0.3541665 -60.47  0.003068695    1.577    0.366
       119  -9.2257    177.9618     59.0079   8.1778963225e+01   3.3029679981e+01     0.185781    0.1708721   3.74 0.0003042569    1.016    0.016
       120 -10.1804     71.2860     57.6819   1.1084009967e+02   5.5663979290e+01    0.2127216    0.1601953 -50.60 0.0004246587    1.222    0.182
       121 -10.2503     60.4914     57.8959   1.1476378982e+02   5.7047373756e+01     0.207694    0.1931828   7.50 0.0006021587    1.198    0.166
       122  -9.0043    158.2898     57.3377   8.5400531820e+01   3.8186432352e+01    0.1644344    0.1158837  14.26 0.0007022326    1.639    0.390
       123 -10.6476      8.4090     56.0263   1.3370252889e+02   6.1853703984e+01    0.3436965    0.1909447  33.22  0.002071093    2.220    0.549
       124 -10.1084     99.9421     56.0911   1.0070580825e+02   5.1285921887e+01    0.2195489    0.1934804 -21.34 0.0004495701    1.045    0.043
       125 -11.5909     87.2423     54.0591   1.0415141466e+02   5.3941059557e+01    0.4478014    0.3330669  21.62  0.002338599    1.497    0.332
       126 -10.9457    114.9961     53.9350   9.5373117170e+01   4.8717373955e+01    0.3436676    0.2867292  26.76  0.001049032    1.208    0.172
       127 -11.1693    106.1027     53.8434   9.8004498475e+01   5.0535867645e+01    0.3957292    0.3404364 -25.38  0.002038046    1.076    0.071
       128  -9.3862     76.7938     54.6538   1.0793955073e+02   5.5491767706e+01    0.1701472    0.1287329  45.51  0.000261202    1.553    0.356
       129 -11.9050     66.3394     52.5205   1.1099243383e+02   5.7436972934e+01    0.5730018    0.2688595  30.11   0.00202396    2.499    0.600
       130  -9.8860     34.6387     53.2928   1.2320413125e+02   6.0744158578e+01    0.2578731    0.1292727 -38.45  0.001056123    2.011    0.503
       131  -9.8264    169.7903     52.8569   8.1432640376e+01   3.5996284759e+01    0.2256524     0.195603  14.69 0.0002909208    1.114    0.102
       132  -9.8246     81.8072     52.6874   1.0553777499e+02   5.5111230319e+01    0.2099368    0.1672752   7.80 0.0007936102    1.394    0.283
       133  -9.1696    176.3183     52.2794   7.9930459147e+01   3.4422056829e+01    0.1627818    0.1122859  24.32  0.000161218    1.578    0.366
       134  -9.4003     45.6225     51.2282   1.1841360537e+02   6.0174512280e+01    0.1930306   0.09585807 -48.49 0.0009451034    1.645    0.392
       135  -8.9522    146.9973     48.9973   8.5144741156e+01   4.2263859727e+01    0.3156835    0.1855267 -67.31 0.0009615186    4.154    0.759
       136  -9.1194     59.6225     49.2709   1.1245285079e+02   5.8999248581e+01     0.124752    0.1036775  77.21 0.0002449423    1.689    0.408
       137  -9.9663     38.1764     49.0018   1.2070616141e+02   6.1378588522e+01    0.1997389    0.1357008 -39.74  0.001091554    1.324    0.245
       138  -8.9978    211.9810     48.7848   7.2666798772e+01   2.5824374043e+01    0.1841065    0.1206021  57.86            0    1.572    0.364
       139  -8.9220    162.3189     54.3305   8.3503830042e+01   3.7654370343e+01    0.1680113    0.1147521  18.60 0.0007047899    1.689    0.408
       140 -10.3906     77.8859     46.0074   1.0457958048e+02   5.7072112395e+01    0.3182894    0.2270098  24.90 0.0009415978    1.551    0.355
       141 -10.6597     68.1489     46.7776   1.0841463042e+02   5.8376998644e+01    0.3331352    0.2053843  33.21  0.001692992    1.814    0.449
       142  -8.7813     47.3328     47.2978   1.1659428658e+02   6.0846033304e+01    0.1342736   0.08583564 -29.34 0.0005028787    1.646    0.392
       143 -10.0884     31.3141     46.5838   1.2280208422e+02   6.2495856750e+01    0.2581859    0.1869943 -79.03  0.001548156    1.551    0.355
       144 -10.9249     20.7128     31.3155   1.2310253796e+02   6.6579563263e+01    0.5712574    0.2825924  -9.02  0.002672453    3.004    0.667
       145 -10.8769     25.6943     43.7166   1.2435310204e+02   6.3553294663e+01    0.3203163    0.2510675  75.05  0.002041931    1.667    0.400
       146 -10.2069     22.3382     38.8114   1.2448310270e+02   6.4857788333e+01    0.2668942    0.1871804 -71.86 0.0009292864    1.411    0.291
       147 -11.1122     26.6327     35.0456   1.2154989168e+02   6.5359328358e+01    0.3644533     0.179876 -44.10  0.001106038    1.647    0.393
       148  -9.3547     91.4259     44.5368   9.9328561972e+01   5.5056795958e+01    0.1450673    0.1275242 -18.94 0.0001099414    1.013    0.013
       149 -10.2995     70.2997     41.3668   1.0567446579e+02   5.9152410757e+01    0.3569812     0.195611 -34.46   0.00166599    1.727    0.421
       150 -10.3709      3.1046     41.8436   1.3327299690e+02   6.5223432355e+01    0.3397334    0.1359362 -36.99  0.001728823    2.552    0.608
       151  -9.2351    183.3028     41.6775   7.5136908569e+01   3.4063131934e+01    0.1558912    0.1176593 -57.25 0.0006291385    1.634    0.388
       152 -10.9667    139.7071     40.6086   8.3851953747e+01   4.5325190018e+01    0.2962676    0.2435827 -37.58 0.0009174633    1.286    0.223
       153 -10.3784     36.0129     40.6987   1.1920648131e+02   6.3371626644e+01    0.3123047    0.1581292 -44.82  0.001552718    1.619    0.382
       154  -9.1338     51.2653     39.9976   1.1266039256e+02   6.1949263638e+01    0.1722199   0.09820051 -49.34 0.0008753752    1.484    0.326
       155  -8.9343     43.2684     40.6801   1.1617459070e+02   6.2679323784e+01    0.1176176   0.09608388 -80.59 0.0002591709    1.561    0.359
       156  -9.3260    101.6639     39.6684   9.4105455681e+01   5.3984847271e+01    0.1559876     0.108398   4.33 0.0005632961    1.735    0.424
       157 -10.7470     13.0330     38.2321   1.2833879153e+02   6.5550896328e+01    0.2987407    0.1087315 -57.70  0.001478315    1.900    0.474
       158 -10.0318    130.7074     37.7766   8.5031827805e+01   4.7914830168e+01    0.2683196    0.1976759  35.58 0.0007689534    1.331    0.249
       159 -11.5969    121.3767     36.3805   8.6970371853e+01   5.0299012133e+01    0.5128902    0.4651847  84.30  0.002730936    1.429    0.300
       160  -9.8083    163.7340     37.2107   7.7299879800e+01   3.9740895877e+01    0.2114441    0.1657842  16.94 0.0003286849    1.300    0.231
       161 -11.3432    145.0059     33.0014   7.9746364918e+01   4.5102118067e+01    0.3446302    0.2238063 -35.87            0    1.582    0.368
       162 -10.2488    141.0744     30.2897   7.9606449362e+01   4.6456602100e+01    0.2923685    0.2707061   6.85 0.0007555796    1.032    0.031
       163 -11.2283     33.3340    247.5532   1.4295460222e+02   2.3405894771e+01    0.2074542    0.1168951  28.80  0.001542321    2.335    0.572
       164 -10.5502      1.5850     35.7433   1.3272882137e+02   6.6616072291e+01     0.228539    0.1143902 -70.27 0.0007377326    1.559    0.359
       165 -10.2313      3.2274     32.4097   1.3130587673e+02   6.7276451569e+01    0.1839743    0.1485364  42.74   0.00126451    1.640    0.390
       166 -10.9718    134.4269     33.9781   8.2624513713e+01   4.7583163471e+01    0.2574314    0.1966899  34.40  0.000336378    1.267    0.211
       167  -9.8923    166.6556     31.3699   7.4658363497e+01   3.9728911859e+01    0.4387135    0.1342936 -26.13  0.001365008    3.102    0.678
       168 -10.4310     62.7665     62.2113   1.1518108468e+02   5.5826550066e+01    0.2703665    0.1544471 -45.56 0.0007950326    1.533    0.348
       169  -9.5797     91.9546     33.0000   9.4583951926e+01   5.7028055019e+01    0.2192725   0.08116051  45.13 0.0007916385    2.868    0.651
       170 -11.2298     43.4937     30.1875   1.1244388073e+02   6.4824526553e+01     0.315186    0.2508576   7.03  0.001281605    1.389    0.280
       171 -10.3742     43.5144     26.5141   1.1102736825e+02   6.5555001424e+01    0.3250295    0.2337678  19.21  0.001757842    1.578    0.366
       172  -9.3507    187.1841     29.8131   7.0551973545e+01   3.4494947974e+01    0.2243774    0.1690267  27.92  0.001072492    1.352    0.260
       173 -10.3529    150.4398     29.5994   7.7266550583e+01   4.4171148356e+01    0.3716676    0.1973228  63.66  0.001456735    2.095    0.523
       174 -11.5675     50.5606     33.8107   1.1074483914e+02   6.3295199000e+01    0.2952268    0.2204858  36.34 0.0005177073    1.615    0.381
       175  -9.8448    104.3587     29.3117   8.9028196766e+01   5.5140445565e+01     0.245953    0.1653349  10.72  0.001122199    1.737    0.424
       176  -9.8971     69.7997     28.3559   1.0069467241e+02   6.1693422011e+01    0.2365984    0.1667677 -42.33 0.0008205855    1.365    0.267
       177 -10.0536      7.5462     28.2651   1.2834758491e+02   6.7982554837e+01    0.2247531    0.1466433  29.44  0.001453668    1.983    0.496
       178  -9.6611    217.4388    245.0000   1.1367408258e+02   3.5339079179e-01    0.2390495   0.04342789  41.23 0.0009350172    3.937    0.746
       179 -10.0783    200.9854     25.9759   6.7247175237e+01   3.1292518203e+01    0.2175877    0.2056803  12.27  0.001205127    1.011    0.011
       180  -9.9421    153.3240     25.6548   7.5179288399e+01   4.3920200054e+01    0.2656564    0.1868178  71.63 0.0007743236    1.664    0.399
       181 -10.0483    113.9467     25.1977   8.4453578830e+01   5.3654911465e+01    0.2600708    0.2028803 -21.49 0.0007009057    1.217    0.179
       182  -9.4124    218.5977     25.2947   6.4745890349e+01   2.6832767146e+01    0.1549705     0.103285 -60.02 0.0002458988    1.814    0.449
       183 -10.1787     58.9304     24.4796   1.0344607610e+02   6.4012960256e+01    0.2715061    0.1931975 -29.53  0.001065904    1.197    0.165
       184 -10.1576     51.8438     23.2037   1.0595013821e+02   6.5199865243e+01    0.3694263     0.181771 -37.28  0.001776443    1.742    0.426
       185 -10.5910     89.1292     21.9048   9.0716255376e+01   5.9379397978e+01    0.4579799     0.161841 -40.25  0.001638133    2.909    0.656
       186  -9.5917     84.7821     21.3570   9.1978809445e+01   6.0294866925e+01    0.3146149    0.1629328  22.41  0.001222559    2.759    0.638
       187  -9.7815    146.6703    244.3264   1.2498961900e+02   1.0394844709e+01    0.1036167   0.06496388  57.55 0.0007050798    1.705    0.414
       188 -10.8656     37.6337    241.6369   1.4208056293e+02   2.3811413477e+01     0.304123   0.06900993  54.22  0.001638436    3.126    0.680
       189  -9.5895    202.4972    240.1008   1.1542134702e+02   2.9199938214e+00    0.1271823    0.1004475 -12.05 0.0007502913    1.526    0.345
       190 -11.1523     13.4586     20.5655   1.2325992428e+02   6.9298392429e+01     0.285651    0.2686741 -82.71   0.00105815    1.366    0.268
       191  -9.3902     60.4803    241.0000   1.3856789636e+02   2.1558088530e+01    0.2000201   0.04079627  37.53  0.000922532    3.837    0.739
       192 -10.6444     31.0074     19.7367   1.1421725867e+02   6.8154052879e+01    0.2589304    0.1936622 -61.97  0.001522196    1.516    0.340
       193 -11.2117     14.8445    239.0612   1.4534208381e+02   2.6277109331e+01    0.1455761   0.07648599  61.84 0.0007049792    1.315    0.239
       194  -9.1586     22.7299     21.5830   1.1898767774e+02   6.8469725989e+01    0.1357357   0.06576969 -37.65 0.0006958579    1.785    0.440
       195  -9.7252    175.5126     20.4769   6.9250208904e+01   3.8640005538e+01    0.1541272    0.1404033  26.47 5.591633e-05    1.037    0.035
       196 -10.1237     70.1163     35.0484   1.0332391919e+02   6.0403862115e+01    0.3849196    0.1430027 -34.89  0.001405837    2.826    0.646
       197 -10.3484    100.3933     19.3152   8.5865859122e+01   5.7468242965e+01    0.3079346    0.2020395 -51.40  0.001387606    2.135    0.532
       198 -12.0729     26.3535    235.8360   1.4353508426e+02   2.5705605015e+01     0.274023    0.1763328 -87.60   0.00171326    1.519    0.342
       199 -12.2710      2.2996    220.0914   1.4662986821e+02   3.0114789028e+01      0.60157    0.1567285 -87.13  0.003331158    3.688    0.729
       200 -12.7041      8.8227    227.8615   1.4588040860e+02   2.8414653196e+01    0.4517085    0.2048017  53.07  0.002697412    1.505    0.335
       201  -9.7348    148.2336     18.8248   7.3592038698e+01   4.6049967618e+01    0.2171973    0.2099551 -55.27 0.0008504029    1.193    0.162
       202  -9.4400    142.6533     19.2900   7.4934412295e+01   4.7439097362e+01    0.1501051    0.1182523 -63.65 0.0003311114    1.660    0.398
       203 -10.1091    199.9211     17.3260   6.4641959199e+01   3.2467773097e+01    0.2438339    0.1901808 -32.71 0.0004360314    1.284    0.221
       204 -10.8984    107.8280     16.5892   8.2412568023e+01   5.6212391256e+01    0.3670291    0.2533309  59.40  0.001326744    1.690    0.408
       205  -9.1839    210.6445    235.7142   1.1353773189e+02   2.1625756978e+00    0.1140915   0.06249015  22.29 0.0004025059    1.671    0.402
       206 -10.6345     20.1006     16.7888   1.1855836538e+02   6.9635733886e+01    0.1989782    0.1586444   2.70 0.0004114429    1.430    0.301
       207  -9.1622    110.7456     21.9681   8.3968919970e+01   5.4831200443e+01    0.1796251    0.1198452 -22.16 0.0003508303    1.428    0.300
       208  -9.6539    240.3319     15.2946   5.9563093814e+01   2.2477632316e+01    0.1409782   0.09657624  31.34 0.0007025634    1.637    0.389
       209 -10.3872    156.0119     14.1106   7.0279001311e+01   4.4517204460e+01    0.3073363    0.1904648  40.07  0.001361661    1.549    0.354
       210  -9.7559    144.1003     14.4975   7.2720755253e+01   4.7604916960e+01     0.221544    0.1445262  58.58 0.0004857497    1.507    0.337
       211  -8.9828    155.5621    235.4963   1.2259732807e+02   1.0180150070e+01    0.1082278   0.07959372  39.48 5.646719e-05    1.010    0.010
       212  -9.7432    249.1637    234.1470   1.0725012206e+02  -3.1553484493e+00    0.1662306   0.09939576  22.12 0.0005664388    1.181    0.153
       213  -8.9160     80.3151    231.6668   1.3481880400e+02   2.0635222596e+01    0.1053349   0.05624927  61.28 0.0007046515    1.686    0.407
       214  -9.6025    140.0734    227.0489   1.2430925638e+02   1.3434809773e+01    0.1700972    0.1080256  59.38 0.0007002102    1.720    0.419
       215 -10.1740     32.8713    225.0844   1.4209064865e+02   2.6676605519e+01    0.2461306   0.07609394  45.44  0.001529068    2.176    0.540
       216 -10.1002     25.5157    225.0082   1.4323830373e+02   2.7376026480e+01    0.1262614    0.0748192 -88.24 0.0007811083    1.575    0.365
       217 -11.6763      7.7167    217.6276   1.4572792803e+02   3.0050953171e+01    0.2155786    0.1503313  74.61  0.001395732    1.123    0.109
       218  -9.7077    246.5022    216.5210   1.0499701055e+02  -1.3115355773e+00    0.1162645   0.07838187  20.32 0.0001277381    1.043    0.041
       219 -12.2801      4.2054    232.6179   1.4669629425e+02   2.8101246885e+01    0.4761631    0.1431518  54.04 0.0009395999    2.099    0.524
       220  -9.6977    209.3085    212.0213   1.1040397518e+02   4.7419475139e+00    0.1592129    0.1241348  16.97  0.001070723    1.122    0.109
       221 -11.2307     15.4578    211.6415   1.4430030858e+02   3.0333043553e+01    0.2265341   0.09675753  52.35  0.001609943    1.682    0.405
       222  -9.7176    246.8459    206.9047   1.0339519636e+02  -5.0204513888e-01    0.1789311    0.1162464  12.77  0.001195217    1.241    0.194
       223 -11.8836      9.5115    231.9753   1.4590297067e+02   2.7752888021e+01    0.2157673    0.1571092 -76.32  0.001769998    1.649    0.394
       224  -9.4191    197.0416    204.0087   1.1130899786e+02   7.5782840082e+00    0.1477706    0.1112174  28.85 0.0006522043    1.010    0.010
       225 -10.9986      9.4676    203.3300   1.4495912662e+02   3.2169040972e+01    0.1834938    0.1167024  66.22 0.0007459493    1.127    0.113
       226  -8.9947    181.5176    199.4990   1.1339944193e+02   1.0642105140e+01     0.121448   0.09592216  33.45 -6.257032e-05    1.045    0.043
       227  -9.6629     23.0640    197.5008   1.4243260593e+02   3.1971363643e+01    0.1369134   0.08052514  40.71 0.0004567569    1.566    0.361
       228 -10.0983      6.5092    191.8591   1.4502479905e+02   3.4309968984e+01    0.1358592   0.07390887 -89.80  0.001012956    1.534    0.348
       229 -10.0103     15.4138    185.6080   1.4321209036e+02   3.4663180232e+01    0.1762253   0.07667951 -88.82  0.001110046    2.045    0.511
       230  -9.2275     46.5197    183.5273   1.3736025935e+02   3.2147976853e+01    0.1063308   0.08163526  68.05 -2.929702e-05    1.028    0.027
       231  -9.2515      1.1994    183.0706   1.4561118545e+02   3.6222789793e+01    0.1190585   0.05942779 -85.06 0.0004670836    1.677    0.404
       232  -9.1051    250.3200    183.3430   9.8739837649e+01   1.2152825981e+00     0.131168   0.07230298  14.48 0.0007049792    1.723    0.419
       233 -10.8721      4.5653    167.3036   1.4436357991e+02   3.8788807411e+01    0.2667661    0.1464947  53.43  0.001452298    1.507    0.337
       234  -9.2424     41.7164    158.3616   1.3637173034e+02   3.7325214551e+01    0.1174291   0.06678107  69.51 0.0007018566    1.680    0.405
       235  -9.1710    247.4821    155.5441   9.3802348869e+01   4.6313341595e+00    0.1319909    0.1014774  12.16   9.7394e-05    1.007    0.007
       236 -10.5132      2.7024    153.4399   1.4408058958e+02   4.1517219926e+01    0.1773973   0.07949756  37.11  0.001142046    2.140    0.533
       237 -10.0940      8.7129    148.6694   1.4260714688e+02   4.2016118411e+01   0.09686033   0.06795229 -59.16 0.0002521646    1.618    0.382
       238 -10.3753     22.0645    143.2409   1.3940500989e+02   4.2077523643e+01    0.1934924    0.1305277 -84.98  0.000893909    1.226    0.185
       239 -10.8604     12.9571    130.6986   1.4052958705e+02   4.5317335106e+01    0.3414494    0.1370694  62.70  0.001195626    2.591    0.614
       240  -9.3505      2.3171    132.3444   1.4303767903e+02   4.5689552546e+01    0.1028325   0.06599452 -56.30  0.000704869    1.719    0.418
