#   1 NUMBER                 Running object number                                     
#   2 MAG_AUTO               Kron-like elliptical aperture magnitude                    [mag]
#   3 X_IMAGE                Object position along x                                    [pixel]
#   4 Y_IMAGE                Object position along y                                    [pixel]
#   5 X_WORLD                Barycenter position along world x axis                     [deg]
#   6 Y_WORLD                Barycenter position along world y axis                     [deg]
#   7 A_WORLD                Profile RMS along major axis (world units)                 [deg]
#   8 B_WORLD                Profile RMS along minor axis (world units)                 [deg]
#   9 THETA_WORLD            Position angle (CCW/world-x)                               [deg]
#  10 FWHM_WORLD             FWHM assuming a gaussian core                              [deg]
#  11 ELONGATION             A_IMAGE/B_IMAGE                                           
#  12 ELLIPTICITY            1 - B_IMAGE/A_IMAGE                                       
         1 -11.2551      2.1313     36.9313   8.6025679176e+01   6.6628658335e+01     0.152285    0.1212866 -63.39 0.0003080115    1.222    0.181
         2 -13.2360     85.5889     24.9606   4.9299116167e+01   5.9293948808e+01    0.3928517    0.3129971 -76.18  0.002093677    2.199    0.545
         3 -12.0316    211.7569     11.8418   1.9111936839e+01   3.0072433819e+01    0.4971786    0.2436971 -58.65  0.001608241    2.413    0.586
         4 -11.2560    209.9636      7.4852   1.8122442548e+01   3.1000029676e+01    0.2082804    0.1683033  79.76  0.001155912    1.130    0.115
         5 -12.3795     85.0581     10.5926   4.3286106108e+01   6.1255140458e+01    0.2476444    0.1999892 -24.17 0.0003408949    1.271    0.213
         6 -10.7366    144.2941      7.3379   2.7490104458e+01   4.8274085842e+01    0.1506611   0.09546106  32.27 0.0007028185    1.649    0.394
         7 -10.6895     40.5805      4.5343   5.7055888854e+01   6.8968644436e+01    0.1169858    0.0900471 -12.72 7.690145e-05    1.018    0.018
         8 -10.7576    145.7392      3.3511   2.5801478826e+01   4.8277493345e+01    0.1371553     0.102837 -57.62  0.000697428    1.610    0.379
         9 -11.1837     68.1458      1.9403   4.4886809844e+01   6.5259388036e+01    0.2217679    0.1671575  76.66  0.001201062    2.668    0.625
        10 -10.7612    174.8276    243.7619   7.8491065030e+01   1.9481450050e+00    0.1522517    0.1153638  56.94 0.0004864405    1.303    0.233
        11 -11.7472    237.5421    248.9910   6.8690578232e+01  -8.8096974297e+00    0.2299549    0.1678949  19.45  0.001676463    1.139    0.122
        12 -11.1100    231.3684    250.1569   6.9866720016e+01  -7.9740213056e+00    0.1241727    0.1039615 -33.39  0.000521378    1.692    0.409
        13 -11.0835    177.8832    249.9015   7.8747554736e+01   6.7238569894e-01    0.1823662    0.1205196  62.77  0.001127029    1.799    0.444
        14 -15.7551     70.1125     97.8141   7.7319835189e+01   4.7746468802e+01      2.96546     1.231295  37.03   0.01274903    2.651    0.623
        15 -12.2715    132.5253    232.1297   8.4456424390e+01   1.0662010654e+01    0.3395391    0.1683243  41.26  0.001128735    1.742    0.426
        16 -13.6454    125.4887    222.7277   8.4627657160e+01   1.3312074255e+01    0.5198739    0.3534814 -75.27  0.002967038    1.760    0.432
        17 -11.0072    157.3733    234.1353   8.0305764107e+01   6.1985610560e+00    0.1587218    0.1364948  54.76  0.001124399    1.130    0.115
        18 -11.0457    217.2304    231.9928   6.9527089212e+01  -3.7610856555e+00    0.1296775   0.09795383 -25.05  0.000292005    1.587    0.370
        19 -11.4221    194.1105    230.7627   7.3359135228e+01   3.2538868665e-01    0.2462815    0.1591411 -56.51  0.001408516    2.416    0.586
        20 -12.0923    178.1191    229.2201   7.5968346141e+01   3.3056428975e+00    0.2115568     0.179548  76.80  0.001429964    1.479    0.324
        21 -13.1836    150.3429    226.2690   8.0558796703e+01   8.5559222632e+00    0.4744741    0.3360702 -74.89  0.002462566    1.901    0.474
        22 -12.0880    104.5598    228.0792   8.8950828817e+01   1.5765582724e+01    0.4460792    0.2264117  45.06  0.002543694    1.632    0.387
        23 -12.0542    186.6277    226.4424   7.4054151232e+01   2.1923667332e+00    0.3457373    0.2267161 -20.91  0.001974843    2.193    0.544
        24 -16.7539     92.4494    199.8583   8.8166292573e+01   2.2614167374e+01     2.240083     1.277698 -47.91   0.01190279    2.451    0.592
        25 -12.2859    137.8558    225.9533   8.2774538979e+01   1.0732604851e+01    0.2906265    0.2189889  42.02  0.001157383    1.229    0.186
        26 -10.5168    222.3162    226.2945   6.7764219368e+01  -3.9552942162e+00    0.1234564   0.07713463  20.60  0.000219595    1.603    0.376
        27 -10.4589    215.4600    226.4888   6.8980180760e+01  -2.8161650100e+00    0.1223116   0.09623837  33.35 5.982716e-05    1.047    0.045
        28 -11.6051    144.4822    224.2452   8.1362032545e+01   9.8722312783e+00    0.1868309    0.1211225 -45.83 0.0005668363    2.003    0.501
        29 -12.1606    248.0294    223.5204   6.2960089796e+01  -7.8693038143e+00    0.2169286    0.1463178 -46.86  0.001279909    2.475    0.596
        30 -12.4239    159.3722    222.5870   7.8431931970e+01   7.5395486310e+00    0.3100292    0.2097378  65.48  0.001304072    1.658    0.397
        31 -16.4764     68.3924    205.5529   9.3260672234e+01   2.4981027650e+01     4.912066     0.814863  44.63   0.01827988    4.159    0.760
        32 -13.2025    172.6936    220.0473   7.5641453481e+01   5.5533852275e+00    0.3558734     0.259608  35.84  0.001560135    1.222    0.182
        33 -12.3384    139.4229    218.4025   8.1542836390e+01   1.1665384587e+01    0.2257996    0.1726824  75.62  0.001205041    1.396    0.284
        34 -11.9373    243.9556    219.6903   6.2996778597e+01  -6.7996097715e+00    0.1701979    0.1242747  29.74  0.000370713    1.097    0.088
        35 -11.7972    193.0449    218.5910   7.1721262160e+01   2.1143915872e+00    0.2102496    0.1748722 -62.39 0.0008923504    1.679    0.404
        36 -11.7057    188.2304    216.9792   7.2345934941e+01   3.2008146654e+00    0.1681518    0.1482985  35.73  0.000594453    1.100    0.091
        37 -12.4134    144.9695    216.6938   8.0291114809e+01   1.0978713162e+01    0.3598464     0.215531  74.29  0.001335276    2.490    0.598
        38 -15.1774    147.1010    202.8660   7.7958534255e+01   1.2881033501e+01    0.9658571    0.6148759 -35.68  0.005070398    2.227    0.551
        39 -13.9800    140.0673    196.4253   7.8389252988e+01   1.5273245987e+01    0.4967192    0.3303505  36.55  0.001913681    1.527    0.345
        40 -13.4499    133.6840    192.5973   7.9095258241e+01   1.7113765156e+01    0.5145839     0.287657  57.40  0.002531991    1.749    0.428
        41 -13.0920    134.4799    198.0628   7.9730004913e+01   1.5985635262e+01    0.3829331    0.2778129  23.50 0.0003684397    1.886    0.470
        42 -13.4708    139.4187    207.9122   8.0150534540e+01   1.3399700730e+01    0.4888048    0.4451329 -38.74   0.00201499    1.422    0.297
        43 -12.7310    134.8148    204.6353   8.0584644547e+01   1.4770901695e+01    0.4203928    0.2251105  61.75  0.001107194    2.084    0.520
        44 -11.1151    232.7949    215.3917   6.4167098700e+01  -4.4531749998e+00    0.1790318   0.09200732  33.88 0.0003627524    1.636    0.389
        45 -12.4457    153.3504    220.4165   7.9240606291e+01   8.9262791137e+00    0.1972386    0.1826845  47.45 0.0003377976    1.177    0.151
        46 -13.0525    184.1115    213.8671   7.2619460324e+01   4.3873253747e+00    0.3124321    0.2245703  44.05  0.001883886    1.141    0.123
        47 -13.2121    156.1801    213.4514   7.7752558204e+01   9.5106964900e+00    0.4055203    0.2416074  40.96  0.001635169    1.443    0.307
        48 -12.9975    153.9327    210.0714   7.7693508062e+01   1.0453810884e+01    0.4991775    0.2757863  29.26  0.001963718    2.389    0.581
        49 -11.1017    248.3197    242.2998   6.5931104100e+01  -9.8066096353e+00    0.1172345    0.0666674  19.60 0.0002277626    1.621    0.383
        50 -11.1184    217.5192    242.5514   7.1055298391e+01  -4.9914464467e+00    0.1177486   0.08788604  33.78 0.0002259822    1.035    0.033
        51 -12.4114    229.5796    206.9397   6.3267808768e+01  -2.8757583851e+00    0.2591385    0.2254761 -19.23  0.001035672    1.321    0.243
        52 -12.6764     33.6323    204.7596   9.9374507246e+01   2.9359062906e+01     0.402462    0.2395798 -59.57  0.002663228    2.074    0.518
        53 -11.6148    247.9661    206.0051   5.9938589324e+01  -5.9170406577e+00     0.258286    0.1485415  39.40  0.001459577    1.503    0.335
        54 -10.9686    219.8238    206.1742   6.4858764346e+01  -1.0470740481e+00    0.1774963     0.125766  23.84 0.0003863304    1.285    0.222
        55 -12.8581    169.2858    205.2305   7.4053527510e+01   8.4152149663e+00    0.3168744    0.2015919  49.85  0.001205959    1.357    0.263
        56 -11.4926     18.4806    205.0655   1.0195933573e+02   3.0884584681e+01    0.1535441   0.07895625 -86.35  0.001019286    1.577    0.366
        57 -10.5838     14.7914    202.2551   1.0241397440e+02   3.1762640975e+01    0.2347671   0.08407997  68.85  0.001219046    2.673    0.626
        58  -9.8965     11.6893    201.3320   1.0287926132e+02   3.2228780031e+01    0.1408957   0.07030182  59.40 0.0009455239    1.576    0.366
        59 -12.0460    212.6640    201.6275   6.5354988970e+01   8.5987443334e-01    0.3954872    0.2179813  40.67  0.001559844    1.524    0.344
        60 -13.2359    225.2504    198.7524   6.2575560917e+01  -1.0568129864e+00    0.3952485    0.3179236 -60.79  0.002325648    1.964    0.491
        61 -13.2416    121.9079    165.2889   7.7270157100e+01   2.4534756732e+01    0.4836713    0.2390069  48.92  0.001722743    1.881    0.468
        62 -13.1964    136.2430    186.3005   7.7625495412e+01   1.7808887041e+01    0.4251329    0.2929735 -78.67  0.001523177    1.829    0.453
        63 -14.3753    126.9947    185.4197   7.9384845465e+01   1.9648649912e+01    0.6957189    0.5398745 -10.70  0.003586287    2.237    0.553
        64 -16.4968    134.8942    171.3432   7.5479201184e+01   2.0916704216e+01     1.549181       1.1071  50.58  0.008315071    1.262    0.208
        65 -13.4911    118.5035    170.9892   7.8942336723e+01   2.3988918228e+01    0.3291131    0.2824365 -23.20  0.001644588    1.637    0.389
        66 -13.8626    115.7821    165.8406   7.8705850389e+01   2.5519394014e+01    0.4883898    0.2937753 -66.61  0.002068733    1.827    0.453
        67 -12.3284    121.4884    200.5230   8.2616215214e+01   1.7806284910e+01    0.2407519    0.1960129  67.53 2.236515e-05    1.083    0.076
        68 -13.5176    123.6963    196.9903   8.1707337588e+01   1.8070595310e+01    0.4452148    0.2940247  57.16  0.001860048    1.334    0.250
        69 -11.1269     57.5781    249.3873   9.8405771754e+01   1.8845674403e+01    0.2373074    0.1050545  70.46  0.001413781    2.130    0.531
        70 -12.2979    192.6668    197.7355   6.8384525292e+01   5.1653929070e+00    0.2188054    0.1812921  41.63 0.0004399848    1.060    0.056
        71 -13.2486    189.4953    195.3804   6.8579238099e+01   6.1279138213e+00    0.4091765    0.2619082  45.52  0.001276233    1.348    0.258
        72 -11.3483     17.0257    198.1932   1.0180235382e+02   3.2300010401e+01    0.1185147    0.1125171  36.23   0.00100817    1.720    0.418
        73 -11.9665    141.4658    202.0982   7.8940714599e+01   1.4028929013e+01    0.2114903    0.1885734 -30.55 0.0009735606    1.473    0.321
        74 -10.0309     26.5317    194.3990   9.9910557947e+01   3.2064778036e+01    0.3761761    0.2437516  63.14  0.002722657    1.243    0.196
        75 -11.0615    245.1612    196.1473   5.8616070578e+01  -4.2638531026e+00     0.153868    0.1461683  16.85 0.0003688179    1.336    0.252
        76 -10.4800    238.3205    196.6931   5.9897173523e+01  -3.1336403162e+00    0.1120697    0.1017747  70.33 0.0003298977    1.638    0.390
        77 -11.7094    213.0061    194.4616   6.4014421368e+01   1.7892232832e+00     0.259596    0.1883698 -53.32   0.00080937    1.941    0.485
        78 -13.7950    165.8804    193.7973   7.2883355854e+01   1.0910830052e+01    0.6294712    0.3626468  67.32  0.001290846    2.672    0.626
        79 -12.2150    136.7774    243.3528   8.4973106092e+01   8.2968884297e+00    0.2233105    0.1499151 -69.39 0.0009062704    1.926    0.481
        80 -11.7264    118.2320    191.1909   8.1998333157e+01   2.0087859220e+01    0.2452594    0.1708162 -73.81 0.0008205555    1.581    0.367
        81 -11.5624      1.9993    191.9402   1.0400110435e+02   3.4846686551e+01     0.172003   0.07978196  69.55  0.001107552    1.723    0.420
        82 -12.6345    173.4106    188.7481   7.0549907886e+01   1.0300578380e+01    0.2957484    0.2137237  72.57  0.001524595    1.817    0.450
        83 -11.5822    248.3855    186.3523   5.6208520362e+01  -3.6082374895e+00      0.24547    0.1808237  11.25 0.0007691894    1.247    0.198
        84 -12.8623    186.3196    185.7771   6.7491873714e+01   8.2555464123e+00    0.4094462    0.2075655  50.03 0.0008735907    1.845    0.458
        85 -11.5513     18.7975    184.8385   1.0064867078e+02   3.4675892576e+01    0.2583235    0.1018656  88.49  0.001338583    2.447    0.591
        86 -11.9981    148.9180    184.5349   7.4755242375e+01   1.5764047219e+01    0.1912346    0.1808618  84.44 0.0003933831    1.131    0.116
        87 -10.5548     37.3896    185.4571   9.7267088679e+01   3.2646800856e+01    0.1108113   0.08487978  84.49 0.0001730523    1.063    0.059
        88 -12.1993     31.0322    184.8719   9.8408409840e+01   3.3443534112e+01    0.2603596    0.1532738  33.99  0.001384355    2.090    0.521
        89 -13.2096    178.0192    182.1475   6.8469301539e+01   1.0497907043e+01    0.4199088     0.260399  20.75  0.001861185    2.319    0.569
        90 -17.6705     69.5785    186.9924   9.1210009777e+01   2.8401646404e+01     2.787051     2.263504  58.96   0.01924006    1.187    0.157
        91 -11.5837    119.5204    183.5349   8.0644311858e+01   2.1328883920e+01     0.263577    0.1621274  76.05   0.00108348    2.099    0.524
        92 -13.7800    117.4366    179.0066   8.0406805146e+01   2.2576770625e+01    0.5535575    0.3738318  25.86  0.002757298    2.091    0.522
        93 -13.6382    155.0367    177.3122   7.2271195486e+01   1.5900601407e+01    0.4091121    0.3062531  27.17    0.0021614    1.537    0.349
        94 -12.8621    144.6508    180.6321   7.4986966985e+01   1.7293007804e+01    0.3081215    0.2423661 -55.40  0.001242891    1.418    0.295
        95 -11.9434     23.8980    181.0511   9.9448859115e+01   3.4922405581e+01    0.1784354    0.1446673  77.43  0.001392007    1.166    0.142
        96 -10.6636    197.0298    180.7653   6.4485560222e+01   6.9316964273e+00    0.1780418    0.1036386  44.87 0.0002679281    1.522    0.343
        97 -10.7172    232.5496    178.4148   5.7419596670e+01   3.4302092077e-01    0.1364494     0.111299  18.93            0    1.077    0.072
        98 -12.3474    190.8704    177.3187   6.5030663004e+01   8.7221808825e+00    0.2217845    0.1985925 -55.04 0.0009875336    1.329    0.248
        99 -11.2399     29.9036    177.7146   9.8062399189e+01   3.4982271660e+01    0.3295539    0.1615292  50.41  0.001993682    1.831    0.454
       100 -11.5205     26.8525    171.7481   9.8171672504e+01   3.6492704822e+01    0.2326718    0.1558947  49.99  0.001367331    1.471    0.320
       101 -11.0642     14.6069    176.4370   1.0084915731e+02   3.6714264063e+01    0.1867692    0.1117013  73.64  0.001279797    1.341    0.254
       102 -10.5425     20.4915    175.5123   9.9682160347e+01   3.6351713375e+01    0.1084206   0.08286006  88.52 -9.147331e-05    1.097    0.089
       103 -13.4338    175.4622    173.1633   6.7320608788e+01   1.2554719636e+01    0.4334237    0.2797585 -72.75  0.001842265    2.724    0.633
       104 -11.8069     32.2743    172.6117   9.7182938375e+01   3.5768787328e+01     0.194832    0.1438067  63.87  0.001019892    1.208    0.172
       105 -13.0951    159.9323    169.3294   6.9808000806e+01   1.6399804112e+01     0.335289    0.2314677 -56.40 0.0009930414    1.666    0.400
       106 -13.9537    153.0250    168.3196   7.1078131368e+01   1.7976376348e+01    0.5247601    0.2685145 -51.04  0.002295666    2.179    0.541
       107 -16.7872     55.8180    118.9443   8.5334900443e+01   4.4803550056e+01     3.996844     1.658134  33.61   0.01823187    2.751    0.636
       108 -11.8490    197.5766    170.1836   6.2324921628e+01   8.5250350236e+00    0.1874846     0.133777 -20.10 0.0007858473    1.660    0.398
       109 -12.2227    204.8809    164.8665   5.9826329879e+01   7.8841455180e+00    0.2636715    0.1737725  36.28 0.0006237639    1.421    0.296
       110 -10.7486      6.1178    166.4032   1.0176786588e+02   3.9442938259e+01    0.2303611     0.112523  19.39  0.001258392    3.724    0.731
       111 -11.6486      3.7509    162.5792   1.0196587838e+02   4.0399554084e+01    0.3083423    0.2400614  59.42  0.002475294    1.324    0.245
       112 -13.4551    170.5979    160.7567   6.5910114613e+01   1.5791565898e+01    0.3570999    0.2916538  60.55  0.001220757    1.249    0.199
       113 -13.3142     80.8062    155.4995   8.4922323074e+01   3.3378572231e+01    0.5191458    0.2356429  37.63  0.002368684    2.359    0.576
       114 -12.7242     77.8147    160.3811   8.6280927339e+01   3.2760596777e+01    0.4109377    0.2285389  89.39   0.00193209    2.255    0.557
       115 -13.4345    158.6869    157.2719   6.7749330079e+01   1.8936145849e+01    0.4141055    0.2965845  51.86  0.001330384    1.313    0.238
       116 -14.5377    126.0356    160.7604   7.5579694459e+01   2.4701707388e+01    0.7361792    0.4474364  28.29  0.002111574    2.268    0.559
       117 -12.6428     86.0293    160.0878   8.4413069136e+01   3.1616066341e+01    0.3990123    0.1568482  44.09  0.001051492    2.406    0.584
       118 -13.6926    111.8156    156.7810   7.8081683862e+01   2.8106738524e+01    0.4831522    0.3556433  48.35  0.001930872    1.297    0.229
       119 -15.0871    109.4815    149.8218   7.7407881986e+01   2.9998752549e+01    0.7371066    0.6605938  53.78  0.004283325    1.129    0.114
       120 -12.8814    105.8565    143.1176   7.7052941336e+01   3.2080883108e+01    0.2880175    0.2448448  76.82 0.0008639728    1.135    0.119
       121 -12.7232    101.0205    141.8048   7.7970163892e+01   3.3193478395e+01    0.3387893    0.2587795 -86.41  0.001144742    1.372    0.271
       122 -16.7627     26.2134    144.5578   9.5848662598e+01   4.2227969826e+01     3.640198      2.25594  81.42   0.02293081    1.455    0.313
       123 -12.3616    121.4103    155.7343   7.5724829080e+01   2.6599651584e+01    0.2561989    0.1341937 -59.56  0.001088159    2.061    0.515
       124 -12.4618    212.1736    153.9424   5.6116319444e+01   8.1314882272e+00    0.2721102    0.2294219  65.70 0.0006088183    1.421    0.296
       125 -12.2187      2.6487    152.9491   1.0152166015e+02   4.2433945117e+01    0.2380223     0.132769 -85.82 0.0007891659    1.352    0.260
       126 -12.6010    120.9298    150.8301   7.4942783272e+01   2.7719049657e+01    0.2554662    0.1923194  41.53 0.0008884987    1.346    0.257
       127 -12.6872    125.1330    152.8659   7.4357050245e+01   2.6505831415e+01    0.2567994    0.2001086  26.47 0.0005163573    1.580    0.367
       128 -12.9338    128.2434    150.9970   7.3297088926e+01   2.6305674208e+01     0.288165    0.1806073 -50.11 0.0004802276    1.673    0.402
       129 -14.0135    147.1579    149.1567   6.8650897050e+01   2.2921732930e+01    0.5882645    0.3527205  48.39  0.001004557    1.572    0.364
       130 -12.6100    179.8514    150.3008   6.1797518972e+01   1.5741207090e+01    0.2438652    0.2098771 -56.96 0.0008524521    1.307    0.235
       131 -13.2870    170.0682    146.4570   6.3044397843e+01   1.8590157845e+01     0.350584    0.3019649 -25.10 0.0006720781    1.294    0.227
       132 -11.9026    224.8114    148.7499   5.2613196272e+01   6.2947280817e+00    0.2519964    0.2290152 -82.18 0.0004535443    1.448    0.309
       133 -13.8903    134.0217    147.3219   7.1261193608e+01   2.5947992486e+01     0.475033    0.3394318 -38.37  0.002343033    1.635    0.388
       134 -12.8563    116.7424    145.9914   7.5013428898e+01   2.9520279684e+01    0.2886877    0.2349538 -83.22 0.0003986433    1.271    0.213
       135 -14.1413    113.3967    140.5081   7.4761728975e+01   3.1312319322e+01    0.5668167    0.3858372 -85.41  0.002670239    1.871    0.466
       136 -12.4908    141.2298    144.6665   6.9073617334e+01   2.5051165808e+01    0.2544451    0.1825527  37.66 0.0006890724    1.442    0.306
       137 -11.1392    202.5280    143.4949   5.5680420757e+01   1.1971936328e+01    0.1487823    0.1371457  23.31 5.776227e-05    1.025    0.024
       138 -10.3107    176.4972    238.5057   7.7518420917e+01   2.3459837610e+00    0.1216479   0.09257701  40.86  0.000200532    1.041    0.039
       139 -11.3634    151.1026    142.1153   6.6293032410e+01   2.3520952159e+01    0.2263323      0.19869  17.37 0.0005267648    1.315    0.239
       140 -12.1878    139.7673    141.0117   6.8650117066e+01   2.6105380633e+01    0.2544995    0.2011385  47.65  0.000584404    1.214    0.176
       141 -11.0006    168.9564    138.4535   6.1518321819e+01   2.0373559785e+01    0.2073477    0.1304514  70.61 0.0005327993    2.346    0.574
       142 -11.1215    210.5465    237.4946   7.1496556803e+01  -3.2793450998e+00    0.1200048   0.09104686  33.71 0.0001587528    1.007    0.007
       143 -12.0203    155.9655    145.2512   6.5872029902e+01   2.1861336440e+01    0.2105867    0.1830386  47.34 0.0002326588    1.088    0.081
       144 -11.8010    160.1364    135.5809   6.2820214280e+01   2.2884887424e+01    0.2994214     0.201153 -26.21  0.001211172    1.915    0.478
       145 -12.1732    138.7134    132.4187   6.7045796673e+01   2.8116695732e+01    0.5246555    0.3281039 -59.80  0.001688429    1.811    0.448
       146 -11.3215    204.4470    134.1950   5.3166262908e+01   1.3154691331e+01    0.1951292    0.1418883 -47.73 0.0003763439    1.525    0.344
       147 -13.2792    119.0408    133.4232   7.1982898011e+01   3.1804976391e+01    0.3243124    0.2914028 -42.00  0.001815501    1.221    0.181
       148 -13.6759    123.6936    129.7718   7.0076663821e+01   3.1702711351e+01    0.5377424    0.3233607  66.32  0.001931687    2.241    0.554
       149 -13.1387    121.2795    124.3948   6.9494094149e+01   3.3336285199e+01    0.3798931    0.3063065  59.41  0.001826349    1.257    0.204
       150 -12.1621    120.0025    120.0078   6.8825916424e+01   3.4537261738e+01     0.277354    0.2024129 -51.05 0.0003557259    1.356    0.262
       151 -13.0972    156.3371    127.9136   6.1914768003e+01   2.5261924673e+01    0.7346157    0.5226643  40.86  0.003449266    1.401    0.286
       152 -11.7704    189.9942    122.5045   5.3270438795e+01   1.8579950262e+01    0.4629785    0.3093075  78.61  0.001836585    2.376    0.579
       153 -11.0023    134.0552    127.4693   6.7052967945e+01   3.0122605079e+01    0.2087534     0.143474  46.43 6.114924e-05    1.428    0.300
       154 -13.7351     93.7664    119.5820   7.5482401953e+01   3.9333432449e+01    0.4370255    0.2464649 -48.48  0.002027284    1.746    0.427
       155 -15.1976     85.3856    237.2984   9.3081876094e+01   1.7078982460e+01     1.277568    0.9067738 -66.07  0.009223009    1.691    0.409
       156 -10.8917    229.6482    120.6944   4.5258912238e+01   9.7340518257e+00    0.1552066    0.1094921  16.95 0.0007041784    1.709    0.415
       157 -10.7023    250.5185    119.4986   4.1476968636e+01   5.3880059307e+00    0.1405192    0.1292755 -11.51 5.461631e-05    1.024    0.023
       158 -13.2655    105.5473    114.7273   7.1343670523e+01   3.8395025939e+01    0.3688749    0.3122942 -36.22 0.0008191447    1.294    0.227
       159 -12.6264    108.4925    111.4905   6.9824811666e+01   3.8574582394e+01    0.2380232    0.2241598 -67.06 0.0008469747    1.016    0.015
       160 -14.4304     83.0480    114.2539   7.7220238232e+01   4.2214698923e+01      0.57882    0.3981584  66.25  0.002952105    1.733    0.423
       161 -11.3865    201.1279    126.5927   5.2014873536e+01   1.5247817737e+01    0.2569858    0.2017266 -47.23 0.0007147925    1.375    0.273
       162 -13.2583    115.1077    111.8394   6.8175127898e+01   3.7259130407e+01     0.597119    0.3100492 -60.26  0.002361546    2.262    0.558
       163 -11.9474     98.9832    114.4715   7.3015669175e+01   3.9600557492e+01     0.211221     0.138865  43.21 0.0007116256    1.585    0.369
       164  99.0000     57.4738    229.7021   9.7105361652e+01   2.2085926618e+01     4.631663     1.534589  48.95   0.02485828    2.254    0.556
       165 -13.0988    165.0938    110.5467   5.5632817773e+01   2.6730800800e+01    0.5220436    0.2582215 -47.10    0.0019649    2.149    0.535
       166 -13.6369     88.9500    109.5051   7.4613443049e+01   4.2364087802e+01    0.3758269    0.2583064 -33.33  0.001470949    1.788    0.441
       167 -10.9901    139.7709    107.6020   6.0857650035e+01   3.3095576729e+01    0.2251815    0.1433727  57.95 0.0009549379    1.728    0.421
       168 -11.2885    217.5850    105.6709   4.3695354001e+01   1.4995271928e+01    0.2758573    0.1477007 -28.03 0.0007236895    1.991    0.498
       169 -10.8853    174.5854    106.5020   5.2469367822e+01   2.5253573632e+01    0.1536766    0.1519231  23.81 9.205695e-05    1.015    0.015
       170 -11.0542    230.1578    104.8475   4.1289108647e+01   1.2178410654e+01    0.2045253    0.1952143 -48.55 0.0002406857    1.108    0.097
       171 -12.1070      2.5031    104.4742   9.7250036030e+01   5.2629161901e+01    0.1947158     0.143055 -76.76 0.0007135062    1.013    0.012
       172 -12.7968      2.0269    100.9379   9.6974713820e+01   5.3411614991e+01    0.2830757    0.1464273 -57.64  0.001227061    1.594    0.373
       173 -10.7334    194.3055    104.3039   4.7767893513e+01   2.0862671720e+01    0.1583864    0.1209047  16.24 0.0002916095    1.600    0.375
       174 -12.5270    107.5395    103.6605   6.8196032893e+01   4.0463473643e+01    0.5469174    0.2422025  36.67  0.001359249    2.608    0.617
       175 -10.4451    117.2833    103.6789   6.5598208006e+01   3.8604499310e+01    0.1477975    0.1157378 -86.45 0.0006181187    1.591    0.371
       176 -11.1327    142.3910    239.3103   8.3553431696e+01   7.9649134793e+00    0.1716663    0.1140621 -48.54 0.0007613354    1.998    0.499
       177 -11.7982     30.1446     99.5135   8.9121839134e+01   5.1736422163e+01    0.3126795    0.2271431 -28.58  0.001978082    1.758    0.431
       178 -11.7490    237.5303     98.9180   3.8593815378e+01   1.1421651124e+01    0.2210436    0.1994339  48.32 0.0005428902    1.151    0.131
       179 -11.0776    208.6025     99.2381   4.3682065001e+01   1.8252043919e+01    0.2193727    0.1476049 -20.89 0.0009496521    1.677    0.404
       180 -11.5029    150.5020     96.4723   5.5271736956e+01   3.2935173770e+01    0.2754397    0.2063029  77.02  0.001220651    1.711    0.416
       181 -10.6153     18.4529     99.4475   9.2365149186e+01   5.2671103928e+01    0.1164806   0.09080149 -74.18 9.050294e-05    1.028    0.027
       182 -11.5084    173.5173     98.4921   5.0558518344e+01   2.7031865228e+01    0.1563289    0.1530421  35.90  0.000810375    1.008    0.008
       183 -17.2912     74.2328    139.4564   8.4029542964e+01   3.7839003900e+01     3.665705     2.104008  52.26   0.01880978    1.786    0.440
       184 -11.5359     38.7594     95.5908   8.5991296377e+01   5.1829527643e+01    0.2240145    0.1614128  26.89  0.001235697    1.711    0.416
       185 -12.5242     35.7414     93.6751   8.6525232580e+01   5.2531713223e+01    0.3275707     0.218978  -1.98  0.001726669    2.261    0.558
       186 -11.5702    214.1987     92.7543   4.0963967607e+01   1.7975917814e+01    0.2132528    0.1779983  15.87 0.0005677087    1.342    0.255
       187 -11.9954    182.9751     91.3257   4.6578152724e+01   2.6012251661e+01    0.2774206      0.21878 -48.96 0.0009004634    1.331    0.249
       188 -11.0424     21.4510     91.0941   9.0254345745e+01   5.4271135049e+01    0.1550136    0.1478025 -82.44 0.0007233638    1.221    0.181
       189 -12.2546      2.7871     90.8837   9.5546856681e+01   5.5513440874e+01    0.1796727    0.1464203 -78.63 0.0003043803    1.106    0.096
       190 -12.4584    101.9931     89.2499   6.6005220998e+01   4.4582147755e+01    0.2674964    0.1865922 -64.73  0.001272672    1.653    0.395
       191 -12.2515     88.1968     90.1585   7.0219145466e+01   4.6750182823e+01    0.2128384    0.1812931 -32.25 0.0005110722    1.214    0.176
       192 -12.5157     25.9456     89.5754   8.8685804199e+01   5.4259237300e+01    0.3080032    0.1981341  79.19  0.001626971    1.902    0.474
       193 -11.9480      7.9790     89.4859   9.3893938644e+01   5.5515305497e+01    0.1390847    0.1125799  27.93   0.00103456    1.604    0.377
       194 -11.6338     11.4449     87.7756   9.2649323654e+01   5.5670799969e+01    0.3230774    0.1087124 -57.11   0.00110066    2.145    0.534
       195 -11.7878    171.1310     87.9372   4.8145334640e+01   2.9589765264e+01    0.2402826    0.2163755 -77.52 0.0004937099    1.231    0.187
       196 -13.0834     53.7608     85.1421   7.9374051517e+01   5.2574225115e+01    0.4904591    0.3315792 -74.33  0.002392383    1.595    0.373
       197 -12.3851    177.9055     86.8609   4.6387792601e+01   2.8091349158e+01    0.2652208    0.2331916 -53.58 0.0003589717    1.196    0.164
       198 -10.6647    125.4684     87.0527   5.8935182313e+01   4.0417786620e+01    0.2228834    0.1461415 -42.63 0.0003997707    1.501    0.334
       199 -11.7584     31.5760     87.3973   8.6618570978e+01   5.4274138227e+01    0.2461213    0.1244778  16.25   0.00125432    2.848    0.649
       200 -10.9818    127.9483    235.3289   8.5618653823e+01   1.0917300374e+01    0.1679794    0.1517887  55.77 0.0004757179    1.244    0.196
       201 -11.0040    137.0063     85.3484   5.5448240735e+01   3.8234560519e+01    0.2083803     0.187736  47.46 0.0002518457    1.114    0.102
       202 -11.9263    114.5140     85.0092   6.1314206887e+01   4.3088542050e+01    0.3128626      0.20976  61.59 0.0009794094    1.857    0.461
       203 -11.0433    164.2918     83.6646   4.8431377105e+01   3.2075360685e+01    0.1603184    0.1240463 -72.64 0.0004242815    1.639    0.390
       204 -12.9031    109.0109     81.9886   6.1982082581e+01   4.4787911173e+01    0.4461778    0.3111741  28.59  0.002122173    1.667    0.400
       205 -11.0308    106.1743     79.3873   6.2031529043e+01   4.5863149477e+01     0.249252    0.2192869 -75.20 9.690992e-05    1.303    0.232
       206 -11.0330    222.4799     82.0444   3.6723367470e+01   1.7683685938e+01    0.2188512    0.1453151 -32.94 0.0003330054    1.473    0.321
       207 -12.2568    206.6355     81.4469   3.9282966216e+01   2.1741132361e+01     0.327984    0.2686517 -41.39  0.001051806    1.220    0.181
       208 -12.8127    152.5296     80.5336   5.0221055701e+01   3.5534009855e+01    0.4348359    0.3123501  29.46  0.001191254    1.607    0.378
       209 -12.4086    182.8561     77.7307   4.2757513163e+01   2.8446830660e+01     0.411934    0.2848196 -10.44  0.001731484    1.884    0.469
       210 -13.5676     66.5363     85.9753   7.5646292170e+01   5.0830163718e+01    0.4603459    0.2218364 -44.30  0.001798036    1.978    0.494
       211 -13.4083     87.4428     79.0334   6.7452717200e+01   4.9243930055e+01    0.3345745    0.3107258  55.84  0.001105852    1.199    0.166
       212 -14.1194     75.4666     75.4937   7.0157991060e+01   5.1837072536e+01    0.5189765    0.3881913 -38.25  0.001306819    1.257    0.205
       213 -11.7489    214.4911     79.0836   3.7270520454e+01   2.0145279731e+01    0.2478396    0.2084763 -77.36 0.0007234189    1.353    0.261
       214 -11.8219    120.4518     78.8163   5.7870917098e+01   4.3128679673e+01      0.25868    0.2086399  45.03 0.0005371516    1.268    0.211
       215 -12.4638    112.0409     76.0245   5.9361540027e+01   4.5400281861e+01    0.3804177    0.2596845 -41.87 0.0006085736    1.414    0.293
       216 -11.9847    115.6782     74.6991   5.7938829280e+01   4.4928743649e+01    0.2882923    0.2312776 -25.77  0.001030856    1.294    0.227
       217 -11.9954      7.3233     78.2783   9.2423627091e+01   5.7942882135e+01    0.1890088     0.162697 -74.62 0.0006469528    1.150    0.130
       218 -11.5368      8.5094     75.4765   9.1605823980e+01   5.8468967862e+01    0.1652053   0.08988926 -76.44 -6.744199e-06    1.632    0.387
       219 -13.1415     61.3308     83.8166   7.6726678303e+01   5.1964211170e+01    0.5063076    0.2868011 -30.95  0.001524758    2.330    0.571
       220 -10.7424    177.9436     74.9624   4.2952228359e+01   3.0184058866e+01    0.1927274    0.1818324  51.32 0.0005779669    1.041    0.039
       221 -11.7273     59.7817     75.4076   7.5127681898e+01   5.3963092839e+01    0.1617393    0.1245538   8.14  0.000417339    1.605    0.377
       222 -11.5109     31.7799     74.7353   8.4047660970e+01   5.6994080487e+01    0.2269604    0.1704287   5.98  0.001472989    1.703    0.413
       223 -10.7563     23.2913     75.6413   8.6964711365e+01   5.7470428864e+01     0.115584   0.08164186  85.06 0.0007028296    1.691    0.409
       224 -12.3890     50.9272     73.6948   7.7565267551e+01   5.5358819102e+01    0.2318573    0.1472775 -47.37 0.0003811403    1.342    0.255
       225 -10.4986    232.4473     73.4901   3.2915039999e+01   1.6572939527e+01    0.1456837    0.1404335 -37.84 7.961436e-05    1.012    0.012
       226 -10.8768    124.5474     73.5296   5.5152565476e+01   4.3290899183e+01    0.1479696     0.144744 -27.70 2.547314e-05    1.029    0.028
       227 -11.2174     94.4728     73.0100   6.3578242079e+01   4.9296228170e+01    0.2524896    0.1665398 -49.88 0.0006754643    1.476    0.322
       228 -11.3758     94.1362     69.1047   6.2491640808e+01   5.0138579693e+01    0.2137709     0.195198 -37.56 0.0003557576    1.039    0.037
       229 -12.9052      4.2286     72.5936   9.2474918478e+01   5.9309236271e+01    0.2141775    0.1547182 -65.45 0.0005376767    1.036    0.035
       230 -13.0342    188.6618     66.5608   3.8377516676e+01   2.8813062493e+01    0.4284456    0.2939888 -38.75 0.0007859107    1.467    0.318
       231 -12.3065    197.5846     66.8885   3.6833783664e+01   2.6434125405e+01    0.3589987    0.2623491   7.12  0.001423969    1.818    0.450
       232 -11.2816     87.2867     68.6688   6.4465816581e+01   5.1396184459e+01    0.1342591    0.1092731 -79.06 0.0003530224    1.619    0.382
       233 -12.6342     60.0303     67.4677   7.2919985522e+01   5.5597724225e+01    0.2939021    0.1818592 -28.13 0.0009321527    1.877    0.467
       234 -11.5962    219.6765     72.0783   3.4526590293e+01   1.9950762081e+01     0.275811    0.2100669 -77.06  0.001020708    1.587    0.370
       235 -10.8257     78.8156     65.7665   6.6260906801e+01   5.3331758238e+01    0.1779991    0.1528493 -64.87 0.0004804801    1.316    0.240
       236 -13.4077    100.3354     65.5390   5.9500100946e+01   4.9713731686e+01    0.6315886    0.3610505 -38.52  0.002873294    1.678    0.404
       237 -10.3027    146.2744    239.3475   8.2883876090e+01   7.3179429908e+00    0.1067902   0.08533968  21.71 0.0003595929    1.629    0.386
       238 -12.6522    114.0198     63.1698   5.4751301235e+01   4.7471269166e+01    0.3598258    0.2713856 -68.98 0.0007628482    1.821    0.451
       239 -12.8100    109.8582     60.4206   5.5030018041e+01   4.8827576804e+01    0.3221706    0.2844849  69.26  0.001368286    1.355    0.262
       240 -11.9860     13.1781     62.1231   8.7620354894e+01   6.0993073707e+01    0.1830602    0.1216097 -47.24 0.0007070095    1.252    0.201
       241 -11.0239      3.1533     59.5431   9.0553295115e+01   6.2072390369e+01    0.2172499    0.1001038  -5.06  0.001143124    3.393    0.705
       242 -12.7320    192.8656     57.7475   3.5025894273e+01   2.9098721481e+01    0.3907176    0.2738439  89.01  0.001334358    1.801    0.445
       243 -12.9801     45.2678     61.3927   7.6276236084e+01   5.8532228418e+01    0.3363287      0.27926 -21.72  0.002224742    1.243    0.195
       244 -12.5896     98.9753     57.0052   5.7101812371e+01   5.1574524849e+01    0.3445308    0.1982266 -32.67  0.001406542    1.742    0.426
       245 -11.0944    225.2435     56.9850   2.9626277488e+01   2.0816258037e+01    0.1994323    0.1222032 -31.88 0.0008855216    1.605    0.377
       246 -10.9307    153.7527     57.2705   4.2716036616e+01   3.9328397039e+01     0.212836    0.1763044  16.26 0.0009011636    1.339    0.253
       247 -11.7775    140.2066     56.9522   4.5789596570e+01   4.2705351577e+01    0.4054835     0.219119  60.48  0.001597231    2.097    0.523
       248 -12.9532     30.1320     56.7044   8.0397862217e+01   6.0898644192e+01    0.2509639    0.2221365  15.98  0.001192839    1.365    0.267
       249 -13.0747     26.2185     54.4180   8.1229496416e+01   6.1675932785e+01     0.252061    0.1861527  35.65   0.00168996    1.705    0.414
       250 -10.7771    159.2871     56.6555   4.1293546006e+01   3.8029447135e+01    0.1579883    0.1196393 -66.60 0.0004868437    1.649    0.393
       251 -12.9874    109.6418     55.0069   5.3261695134e+01   4.9846198723e+01    0.4348225    0.2918921  16.17  0.001727098    1.959    0.489
       252 -11.2472    240.1022     54.6722   2.6984924918e+01   1.7462382248e+01    0.1952145    0.1778985  68.77   0.00043822    1.129    0.114
       253 -12.2989    181.6864     51.8211   3.5277603132e+01   3.2948709963e+01    0.4093304    0.2512771  70.89  0.001703556    1.812    0.448
       254 -12.2331    124.0115     51.7464   4.8152806081e+01   4.7331713889e+01    0.2099268    0.1891389  36.80 0.0005143842    1.093    0.085
       255 -11.5223    173.9961     50.9889   3.6477746895e+01   3.5101243036e+01    0.2574979    0.1867739 -69.22  0.001140153    1.738    0.425
       256 -11.7536    159.0074     50.5340   3.9381392020e+01   3.9065536936e+01    0.4356726    0.1788933  41.45   0.00144117    2.812    0.644
       257 -11.6685     94.3578     51.3871   5.6587240648e+01   5.3445988447e+01    0.2148471    0.1586578  -1.61  0.001090112    1.594    0.372
       258 -13.3184     29.1785     49.9564   7.8949931307e+01   6.2333815867e+01    0.3368049    0.2398781  80.18  0.001952418    2.336    0.572
       259 -11.7448     17.5949     49.7503   8.3234831930e+01   6.3234631667e+01    0.2724918    0.1482177 -60.19  0.001014838    1.494    0.331
       260 -12.4998     20.0218     46.6935   8.1529177504e+01   6.3676731591e+01     0.262908    0.1347954 -55.15 0.0006168769    1.502    0.334
       261 -12.4910     37.8710     50.1101   7.5748374310e+01   6.1533119340e+01    0.1792061    0.1533967 -58.30 0.0007752206    1.229    0.187
       262 -12.0263    133.1586     48.2002   4.4568299749e+01   4.5808172130e+01    0.2450451    0.2263414  15.85 0.0004022087    1.053    0.050
       263 -11.2481    142.9150     46.5273   4.1637966651e+01   4.3722858732e+01    0.2384082    0.1442422  53.73  0.001034985    1.601    0.375
       264 -12.1227     39.0328     46.0437   7.4084708722e+01   6.2213404252e+01    0.1810155    0.1471714 -38.95  0.001222376    1.017    0.016
       265 -10.9781    226.6085     45.1906   2.6287878861e+01   2.2131259329e+01    0.1979356    0.1407358 -15.10 0.0009399781    1.649    0.394
       266 -10.9475    195.4971     44.0165   3.0537458709e+01   3.0411992730e+01    0.2233127    0.1498595 -29.99 0.0006270309    1.539    0.350
       267 -10.6075    186.3388     43.3026   3.1853268139e+01   3.2949165814e+01    0.1603819    0.1120582  31.83 0.0002481748    1.670    0.401
       268 -11.3827     95.4187     42.4847   5.3046703631e+01   5.4778092175e+01    0.1389689    0.1240885  -8.78 8.475494e-05    1.018    0.018
       269 -13.3536     34.7044     39.9358   7.3823412005e+01   6.3789262210e+01    0.3880213    0.2377321  11.88  0.002138034    1.979    0.495
       270 -11.7541    146.0986     39.3616   3.8455445222e+01   4.3994626517e+01    0.2527413    0.2110509 -33.51 0.0002492885    1.244    0.196
       271 -11.8461    104.2265     39.9942   4.9456350817e+01   5.3458835894e+01    0.2371643    0.1967498  32.60 0.0005302884    1.181    0.153
       272 -12.3936     54.0181     38.0036   6.5676762539e+01   6.2044256036e+01    0.3533736    0.2052698 -16.44 0.0008241783    2.216    0.549
       273 -11.2841    243.0126     38.5032   2.2527135858e+01   1.8943150514e+01    0.1997564    0.1350259  71.45 0.0003884535    1.501    0.334
       274 -10.4941    186.7180     38.2938   3.0267194247e+01   3.3535878634e+01    0.1509928    0.1126634 -66.57  0.000207398    1.536    0.349
       275 -11.5373     59.9904     37.2100   6.3147376034e+01   6.1409761135e+01     0.290899    0.1581039 -48.21  0.001473298    1.850    0.460
       276 -11.0447    231.2951     37.6560   2.3699941697e+01   2.1952902020e+01    0.1537694   0.09914202 -60.67 0.0004814799    1.665    0.400
       277 -10.9258    110.2872     37.6591   4.6835673246e+01   5.2565338552e+01    0.1374145    0.1119033 -63.33 0.0002853389    1.641    0.391
       278 -11.2698     92.2889     37.4401   5.2124615796e+01   5.6181762828e+01    0.1755496    0.1327264  52.72 0.0009416941    1.554    0.357
       279 -12.8393     10.3772     35.6204   8.2324774297e+01   6.6443917690e+01    0.4126572    0.2455506 -56.23  0.002705875    1.328    0.247
       280 -11.2653    197.9677    242.9246   7.4418238409e+01  -1.8175599350e+00    0.1766542    0.1304591  39.93 0.0003646468    1.050    0.048
       281 -13.5428     31.0264     33.2093   7.3063544612e+01   6.5370213241e+01    0.4379846    0.2452025 -23.29  0.002454857    1.939    0.484
       282 -12.1562    169.5255     32.2672   3.1363046430e+01   3.8906371288e+01    0.3904307    0.2072038 -10.49   0.00146003    2.670    0.625
       283 -11.4573    223.3258     32.1446   2.3227156571e+01   2.4687251785e+01    0.2802542    0.1400234 -18.05  0.001092849    2.565    0.610
       284 -12.0945    106.7424     31.9985   4.5682778839e+01   5.4147685295e+01    0.2949751    0.2114655 -25.97 0.0008814398    1.368    0.269
       285 -10.8434    174.8059     31.8799   3.0301136664e+01   3.7555465257e+01    0.2005491     0.170146 -66.69 0.0003522515    1.287    0.223
       286 -11.1989    214.6247     31.2811   2.4102148938e+01   2.7049154390e+01    0.1557946     0.103613 -69.81 0.0007011613    1.707    0.414
       287 -11.9684    140.7526     30.0847   3.6388871849e+01   4.6592112676e+01    0.4218402    0.1869536  48.88  0.001655695    2.067    0.516
       288 -13.1455     71.4234     29.2583   5.5887858678e+01   6.1057241060e+01    0.4857039     0.326199  66.77  0.002248714    3.142    0.682
       289 -13.0288     39.2453     29.1057   6.8211846343e+01   6.5301654676e+01    0.2950968    0.2048417 -20.65 0.0008667707    1.331    0.248
       290 -11.0035    155.8342     29.3864   3.2994967897e+01   4.2859170723e+01    0.2144302    0.1239407  49.45 0.0003183191    1.605    0.377
       291 -11.8171    178.9808     27.9941   2.8368532320e+01   3.6930909432e+01    0.2185883    0.2069479  56.92            0    1.028    0.027
       292 -11.7505     24.9147     27.0417   7.3478506238e+01   6.7006812202e+01      0.22198    0.1658593 -72.30  0.001068613    1.995    0.499
       293 -11.2193    123.1834     27.4284   3.9539300671e+01   5.1150434387e+01    0.1898417    0.1376273  64.61 0.0001962744    1.549    0.355
       294 -12.1593     48.3865     27.1301   6.3741785731e+01   6.4606767138e+01    0.1768041    0.1364616 -12.79 0.0007957661    1.167    0.143
       295 -10.5352    111.6712    249.6929   8.9823694444e+01   1.1299373894e+01    0.0993902   0.08039574  31.88  0.000703831    1.657    0.397
       296 -11.2449    172.0083     22.4869   2.7774722219e+01   3.9448632454e+01    0.3156258     0.185748   1.34  0.001271601    2.460    0.593
       297 -12.6111     43.9638     33.7530   6.8027128241e+01   6.3979527927e+01    0.2399211    0.2097241 -19.22 0.0006644324    1.116    0.104
       298 -11.5518    250.0274     22.0811   1.7746908069e+01   1.9299305744e+01    0.2002135    0.1791416 -68.27 0.0003577995    1.014    0.014
       299 -11.0047     35.6337     21.2213   6.6656332100e+01   6.7011319481e+01    0.1621946   0.08635897 -35.39 0.0002381159    1.538    0.350
       300 -10.6235    189.1700     20.1602   2.4391689859e+01   3.5135139500e+01    0.1946933     0.159183 -68.67 0.0002459185    1.287    0.223
       301 -10.9210    134.3325     18.5734   3.3608789681e+01   4.9579331399e+01    0.1989138    0.1211246  47.77 0.0009296101    1.489    0.329
       302 -11.2769     67.6132     16.8046   5.1983096097e+01   6.3495873026e+01    0.3284771    0.1429778  51.99  0.001346828    3.468    0.712
       303 -11.9362    103.6856     15.9608   4.0109261405e+01   5.6895696387e+01    0.2760702    0.1780801  41.00  0.001240651    1.432    0.301
       304 -10.6041     30.4190     16.4929   6.6995088397e+01   6.8304560312e+01    0.1156096   0.08898125 -26.85 9.684863e-05    1.035    0.034
       305 -10.7412     41.3967     13.7456   6.1002827316e+01   6.7555732698e+01    0.1584176   0.09114567 -29.14 0.0004375789    1.464    0.317
       306 -11.1300    125.9611    248.3153   8.7321803236e+01   9.3022939228e+00    0.3274182   0.09556936  49.13  0.001468328    2.608    0.617
       307 -10.6777    122.0006    241.2154   8.7269485646e+01   1.0971980244e+01    0.1909541   0.09756994  60.72 0.0009876132    1.875    0.467
       308 -10.5692    200.2139    247.0682   7.4606527129e+01  -2.6685837104e+00    0.1145152   0.09390031 -22.27            0    1.550    0.355
       309 -12.7508    179.8860    244.3439   7.7698889109e+01   1.0282434981e+00     0.228259    0.2143427 -82.87 0.0006928836    1.423    0.297
       310 -11.4563    140.0072    247.2556   8.4849117883e+01   7.2209858838e+00     0.225461    0.1208527  54.11  0.001331572    1.520    0.342
       311 -11.0676    159.6420    245.8753   8.1353377897e+01   4.2009654610e+00    0.1416868    0.1071961 -74.16 0.0009521595    1.837    0.456
