#   1 NUMBER                 Running object number                                     
#   2 MAG_AUTO               Kron-like elliptical aperture magnitude                    [mag]
#   3 X_IMAGE                Object position along x                                    [pixel]
#   4 Y_IMAGE                Object position along y                                    [pixel]
#   5 X_WORLD                Barycenter position along world x axis                     [deg]
#   6 Y_WORLD                Barycenter position along world y axis                     [deg]
#   7 A_WORLD                Profile RMS along major axis (world units)                 [deg]
#   8 B_WORLD                Profile RMS along minor axis (world units)                 [deg]
#   9 THETA_WORLD            Position angle (CCW/world-x)                               [deg]
#  10 FWHM_WORLD             FWHM assuming a gaussian core                              [deg]
#  11 ELONGATION             A_IMAGE/B_IMAGE                                           
#  12 ELLIPTICITY            1 - B_IMAGE/A_IMAGE                                       
         1 -13.7545    197.4803     52.5955   1.3280397565e+01   2.8806741916e+01     1.232337    0.9583448  38.40  0.004095546    1.576    0.366
         2 -13.8590    226.0741     26.2653   3.7960526004e+00   2.5781892878e+01    0.8897312    0.7993203 -40.47  0.004032332    1.200    0.167
         3 -12.5015     32.5540     14.8536   4.4330196832e+01   7.1596961749e+01    0.3946617    0.2413499 -28.71  0.002172587    1.570    0.363
         4 -12.3961    231.0262      5.7734   3.5880300101e+02   2.6956893713e+01    0.6411278    0.3217767 -29.74  0.003478826    1.918    0.479
         5  -9.9474     93.3221      1.8785   1.3664288424e+01   6.0752401376e+01    0.2320894    0.1719381  75.87 0.0008091356    1.374    0.272
         6 -10.6020     60.7930      2.3969   2.3489758254e+01   6.8112764452e+01    0.1970614   0.09984104  44.71 0.0009587305    1.713    0.416
         7  -9.8052     38.6663      2.3092   3.3324807029e+01   7.2371455360e+01    0.1099319    0.1017351 -79.28 0.0004277892    1.674    0.402
         8  -9.7125     42.2974      1.6527   3.1040580783e+01   7.1807440876e+01    0.1127093   0.09990267 -60.82 0.0007034815    1.678    0.404
         9 -10.0480     69.0584    195.4101   7.4464886145e+01   2.5210486735e+01    0.3033812    0.1892436 -55.48  0.001602414    1.796    0.443
        10 -19.4022     10.3566    154.2099   8.6031629072e+01   4.1137783091e+01     17.79668     4.557828 -82.55   0.06060831    3.932    0.746
        11 -16.3351     65.2200    142.0577   6.8502182678e+01   3.8316857338e+01     9.358952     4.767959  67.58    0.0287875    3.137    0.681
        12  -9.1945     47.0035    193.6573   7.9673173464e+01   2.8330454060e+01    0.3120781    0.1369357 -73.72  0.001440395    2.336    0.572
        13 -11.3728     16.9805    249.2342   8.9393658269e+01   2.0446652096e+01    0.1412997    0.1381155  16.47  0.001169336    1.508    0.337
        14 -10.0024     53.3968    231.8004   8.1198849174e+01   1.9755210842e+01    0.1716925    0.1083857 -73.46 0.0006315051    1.764    0.433
        15 -11.0595     96.4959    179.6181   6.5600854828e+01   2.4742350373e+01    0.4960026    0.2830875 -80.34   0.00143027    2.571    0.611
        16 -10.8483    174.0266    172.0185   4.5994864041e+01   1.3064245364e+01     0.345322    0.2541749  39.02  0.001863357    1.336    0.252
        17 -11.2377    177.5556    170.2352   4.4913574082e+01   1.2767943948e+01     0.404301    0.2467058 -50.57  0.001632728    1.945    0.486
        18 -11.3552    180.8462    168.8520   4.3965764740e+01   1.2439210374e+01    0.6294163    0.3220276 -52.52  0.002632163    2.621    0.618
        19 -10.4645    174.5383    180.0088   4.7398087715e+01   1.1555927204e+01    0.2825491    0.2387335 -17.38 0.0008497227    1.160    0.138
        20 -11.0343    172.3879    176.1054   4.7118418476e+01   1.2614707151e+01    0.3461434    0.3117535  43.00  0.001269335    1.237    0.191
        21  -9.8767     63.3174    181.1403   7.4333290788e+01   2.9149706971e+01    0.2926257    0.1631678  39.41 0.0008836134    1.604    0.376
        22  -9.1079     59.3031    181.3630   7.5392943305e+01   2.9613963883e+01    0.1731879    0.1365085  13.86 0.0009686414    1.543    0.352
        23 -10.6645     46.4952    229.0865   8.2470972281e+01   2.1066319645e+01    0.2850957    0.1382965  35.51  0.001563654    1.699    0.411
        24 -12.3489    113.4424    172.6888   6.0208760337e+01   2.3523962931e+01    0.5113245     0.373927  78.71  0.002376752    1.822    0.451
        25 -11.4924    110.9908    167.1765   5.9897241838e+01   2.5148928689e+01    0.4325878    0.3075446 -81.60  0.001351373    1.848    0.459
        26 -11.6052    104.7157    172.6094   6.2418894405e+01   2.4986466774e+01    0.3601598    0.2844516 -77.80 0.0006417297    1.447    0.309
        27  -9.2110     37.6136    224.5859   8.4068055095e+01   2.2924660071e+01     0.156001    0.1032173 -87.78 0.0009839404    1.531    0.347
        28 -11.2275    234.1415    169.6324   3.4376608752e+01   3.6708815587e+00    0.2194344    0.1504634 -36.18 0.0007853293    1.424    0.298
        29 -10.5538    129.9859    164.2972   5.4578681208e+01   2.2457163606e+01    0.2495963    0.2135957 -54.05 0.0003916817    1.255    0.203
        30 -10.3205     89.2011    250.6607   7.5283740010e+01   1.1994614663e+01    0.1560678   0.08867726  33.14 0.0002276265    1.429    0.300
        31 -11.2749    159.8486    222.6812   5.7477155843e+01   6.7307335030e+00    0.3124687     0.177358  35.54  0.001700007    1.496    0.332
        32  -9.7106    231.2986    160.3103   3.3029716686e+01   5.4629040039e+00    0.1286091   0.08680275  -2.81 0.0002302128    1.599    0.375
        33  -9.6577     71.5319    222.9733   7.6583729788e+01   1.9226902830e+01    0.1463717    0.1183077 -67.87 0.0003662462    1.430    0.301
        34 -10.4107    235.4981    158.4973   3.2000999767e+01   5.0858587772e+00    0.1267015    0.1042193 -13.46 0.0008106869    1.004    0.004
        35 -10.2879    135.9773    158.0070   5.1892515081e+01   2.2700594022e+01    0.2110293    0.2029389  23.83  0.001194325    1.015    0.015
        36 -10.5657     89.0394    221.3061   7.2545867933e+01   1.7231712133e+01    0.2901018    0.2173062  29.16  0.001060623    1.268    0.211
        37  -9.1828     99.2923    218.2975   6.9932900039e+01   1.6377023121e+01    0.1183912   0.09629422  -2.22 0.0002308831    1.561    0.359
        38 -11.3645    133.7414    145.4761   4.9879941671e+01   2.5807908783e+01     1.184899    0.2988531 -53.75  0.002858662    5.898    0.830
        39 -12.5039     92.7226    144.8039   6.0842122688e+01   3.3421875644e+01    0.6823805    0.5742357 -37.31  0.001855358    1.314    0.239
        40  -9.3351    128.4998    138.9695   4.9816152252e+01   2.8249438729e+01    0.2234607    0.1504419 -50.16 0.0004690385    1.529    0.346
        41 -11.4028    109.0466    145.0144   5.6294234011e+01   3.0533613651e+01    0.4245858    0.3121573 -38.53  0.001407986    1.500    0.333
        42 -12.0552    105.4917    131.6393   5.4495743052e+01   3.4317405150e+01    0.6358625    0.4123296 -40.35  0.001849412    1.686    0.407
        43 -11.6201     92.9822    131.4736   5.8127473914e+01   3.6600384985e+01    0.2814431    0.2662286  21.26  0.000391205    1.115    0.103
        44 -11.0749    135.4677    125.5175   4.4932408004e+01   2.9800103762e+01    0.9922025    0.1489518 -49.96  0.001593989   11.997    0.917
        45 -10.8048    113.2691    125.7391   5.0951092072e+01   3.4220431323e+01    0.2897003    0.2627523  -3.65 0.0007217479    1.224    0.183
        46  -8.9466    143.4932    122.4751   4.2187925841e+01   2.8773885747e+01    0.1508968    0.1491856  80.39 0.0001000157    1.052    0.050
        47 -10.3771    100.5362    120.8301   5.3511556956e+01   3.7801640900e+01    0.2909608    0.2421045   1.22 0.0007230577    1.463    0.317
        48 -10.0412    108.9365    115.9762   4.9858611457e+01   3.7330926727e+01    0.2272665    0.2225612 -39.02  0.000305179    1.034    0.033
        49 -11.4972    114.0951    107.2943   4.6145441001e+01   3.8274341613e+01      0.59505    0.4046492  87.82  0.002288757    2.518    0.603
        50 -10.3241     98.0774    105.3158   5.0439601897e+01   4.1934258396e+01    0.3534482    0.3172907 -69.70  0.001212041    1.165    0.142
        51  -8.9286    164.2840    129.6279   3.9069927877e+01   2.2971042355e+01     0.149702    0.1186486 -76.24 0.0007016417    1.706    0.414
        52 -12.1056    117.6967    102.5908   4.3855402630e+01   3.8566827827e+01    0.5588964    0.3534462 -61.08   0.00229685    1.917    0.478
        53  -9.7159     87.9907     97.3287   5.1575394300e+01   4.5712985809e+01    0.3871129    0.2300884  61.49 0.0009442683    2.420    0.587
        54  -8.7084    150.5358    100.5495   3.4857134249e+01   3.1721117863e+01    0.1529189    0.1470711 -76.04 0.0002049504    1.077    0.071
        55 -10.8089    145.9014    205.1252   5.7802372344e+01   1.1787292803e+01     0.203476    0.1844974 -65.05 0.0004140372    1.381    0.276
        56 -10.7058     39.0279     95.8572   6.9148325936e+01   5.3323141665e+01    0.3168597    0.1837244 -58.56 0.0009379411    1.540    0.351
        57 -12.1928     52.9813     94.9271   6.3551520083e+01   5.1882752047e+01    0.7249328    0.3906086  56.97 0.0004300386    2.623    0.619
        58 -11.3868     54.3376     90.1336   6.1876516821e+01   5.2886161203e+01    0.4999179    0.3602266  80.52  0.001377093    1.848    0.459
        59 -11.0099    145.0176    200.9993   5.7357006491e+01   1.2666358340e+01    0.2109176    0.1914266 -33.15 0.0003603543    1.224    0.183
        60 -10.1588     92.9296     99.9765   5.0666103023e+01   4.4167346475e+01    0.4072105    0.3054661 -87.98  0.001822096    1.808    0.447
        61 -11.3899     39.7193     88.7863   6.7371589835e+01   5.5020786145e+01    0.3544649    0.2799963  28.86  0.001426769    1.362    0.266
        62  -9.1807     50.8445    199.5576   7.9260266342e+01   2.6590645357e+01     0.346741    0.1189721 -71.85  0.001427323    3.057    0.673
        63 -10.9015    122.9445     85.1943   3.7401591700e+01   4.1104851597e+01    0.2939845    0.2512875  77.03 0.0005163092    1.326    0.246
        64 -11.4272     57.8704     84.7636   5.9106180170e+01   5.3696632592e+01    0.5455995    0.2663153  45.13  0.002195237    2.320    0.569
        65  -9.1205     92.9985     80.5134   4.5000006730e+01   4.8554358837e+01    0.2216885    0.1493018  44.47 0.0004070854    1.495    0.331
        66 -12.3385     45.7973     76.8219   6.1905323260e+01   5.7228576490e+01    0.6544477    0.3522759  30.37  0.002226723    1.950    0.487
        67  -9.1923     97.2620     73.4279   4.1326891719e+01   4.9174792060e+01     0.203362    0.1448528  56.44 0.0005525829    1.543    0.352
        68  -9.4203     81.1052     73.3441   4.6839040691e+01   5.2432519816e+01    0.2053317     0.183478  41.74 0.0003728294    1.141    0.124
        69  -9.5773     92.2595     70.2500   4.1919866295e+01   5.0873870278e+01    0.2015536    0.1782548  82.54 0.0005188068    1.335    0.251
        70 -12.4594    180.6937     65.0480   1.9074269498e+01   3.0916096406e+01    0.4840208    0.4296827 -49.75 0.0007754723    1.069    0.064
        71  -9.9377     37.1799    199.5026   8.2487446486e+01   2.8149635634e+01    0.2112902    0.1374494  69.33  0.001062787    1.405    0.288
        72 -12.3882    203.2017     47.6047   1.1274960397e+01   2.8175942288e+01    0.4722874    0.4521255  40.26  0.001508083    1.237    0.192
        73  -9.8040    210.9902    198.7491   4.3698496069e+01   2.8457843567e+00    0.1968522    0.1565195 -12.06 0.0004893939    1.119    0.106
        74  -9.4652     44.7454     51.9995   5.4589114574e+01   6.2983229582e+01    0.1884386    0.1634059 -32.19 0.0002384497    1.058    0.055
        75  -9.7842     53.1364     44.6019   4.7784251268e+01   6.3241614864e+01    0.2077385    0.1881422 -46.40 0.0006158815    1.206    0.171
        76 -11.6093     53.2230    243.3202   8.2010565367e+01   1.7654588437e+01     0.229778    0.1387144  30.84  0.001405297    1.524    0.344
        77 -10.6556     60.5888     21.4670   3.3834354657e+01   6.5841823313e+01    0.2400068    0.2125024  15.59 0.0006642357    1.004    0.004
        78 -10.3680     35.3172    244.3777   8.5648150219e+01   1.9449090871e+01    0.1492075    0.1166772 -30.10  0.001007207    2.094    0.522
        79 -11.9239     36.3659    239.8735   8.5202406482e+01   2.0156212680e+01    0.2085052    0.1610602  81.89  0.001365073    1.285    0.222
        80  -9.0036    189.5059     14.5319   4.0462316964e+00   3.5378776281e+01    0.1310723    0.1149904 -75.83 0.0002035899    1.024    0.023
        81  -9.5795    250.2658     10.6373   3.5874911077e+02   2.2592152701e+01    0.1263196   0.06168188 -53.92 0.0003277041    1.644    0.392
        82  -9.0388     97.4886    238.0053   7.2412421138e+01   1.3053689303e+01    0.1447114    0.1209161 -74.84 0.0003854879    1.454    0.312
        83  -9.5664     91.9769    237.8925   7.3559423294e+01   1.3807377557e+01    0.1703343    0.1334564  41.05            0    1.021    0.021
        84 -11.0772    151.5494    236.6263   6.1075649760e+01   5.7683328270e+00     0.261801    0.1808919  45.12  0.001607959    1.480    0.325
