#   1 NUMBER                 Running object number                                     
#   2 MAG_AUTO               Kron-like elliptical aperture magnitude                    [mag]
#   3 X_IMAGE                Object position along x                                    [pixel]
#   4 Y_IMAGE                Object position along y                                    [pixel]
#   5 X_WORLD                Barycenter position along world x axis                     [deg]
#   6 Y_WORLD                Barycenter position along world y axis                     [deg]
#   7 A_WORLD                Profile RMS along major axis (world units)                 [deg]
#   8 B_WORLD                Profile RMS along minor axis (world units)                 [deg]
#   9 THETA_WORLD            Position angle (CCW/world-x)                               [deg]
#  10 FWHM_WORLD             FWHM assuming a gaussian core                              [deg]
#  11 ELONGATION             A_IMAGE/B_IMAGE                                           
#  12 ELLIPTICITY            1 - B_IMAGE/A_IMAGE                                       
         1 -10.3781      9.8657     19.2175   1.0721655670e+02   6.8205523701e+01     1.166392    0.4696776  -9.40  0.003841464    6.815    0.853
         2 -10.2314      4.5848     42.0570   1.1752618728e+02   6.5175236195e+01    0.7651173    0.3000203 -51.47  0.002685836    2.355    0.575
         3 -10.3091     73.6014     17.5203   8.2719255690e+01   5.9797983287e+01     1.071596    0.2923729 -23.51  0.003427692    4.522    0.779
         4  -8.3497     72.0120      8.4795   7.9801240227e+01   6.0905933827e+01    0.1732173     0.137215   8.01 0.0003382428    1.169    0.145
         5 -10.1323     69.5860     40.4564   9.2299042045e+01   5.7831615356e+01     0.882879    0.3799115 -31.42  0.002437165    2.344    0.573
         6 -10.0769     79.4822     24.0152   8.3376439040e+01   5.8086953336e+01    0.6248721    0.2668955  27.08  0.002457617    3.096    0.677
         7  -9.7249     63.0106     20.9977   8.7299136027e+01   6.1242271974e+01    0.4829441     0.236569 -39.04   0.00142999    2.604    0.616
         8 -10.1140     64.5801     13.1232   8.3786802416e+01   6.1774780017e+01    0.3753675    0.2481102 -16.66  0.001790688    1.528    0.345
         9 -11.1424     23.8616     32.2574   1.0615678539e+02   6.5062422875e+01     1.360333    0.4689483 -30.84  0.003309204    2.928    0.658
        10  -9.7425     63.9469      3.1257   8.0097229925e+01   6.2753578297e+01    0.3200926    0.2680537 -17.10  0.001822945    1.414    0.293
        11  -9.1785     47.2048     19.6035   9.2179034610e+01   6.3816503655e+01    0.4899717    0.2374158  -7.74   0.00230443    2.866    0.651
        12 -10.3298     52.6013     13.3980   8.7807958346e+01   6.3674416298e+01    0.9766454    0.4019423  24.58  0.004356356    2.998    0.666
        13  -9.4029    119.0172     21.6080   7.2842819601e+01   5.0449045052e+01    0.4493409    0.2106344 -29.87  0.002177803    2.365    0.577
        14  -8.6142    120.2537     16.1278   7.0907361220e+01   5.0693601379e+01    0.3226445    0.1968892  24.92  0.001736918    1.887    0.470
        15  -8.5789    125.0903     13.0473   6.9048468170e+01   4.9920372149e+01    0.2438024    0.1853384  40.25 0.0005700673    1.193    0.162
        16  -9.1519    115.5526      4.3199   6.8190350019e+01   5.2668408592e+01    0.3023267    0.2500637 -71.49  0.001212322    1.567    0.362
        17  -8.9504    112.4792     15.5277   7.2306853531e+01   5.2399606601e+01    0.2407339    0.2003784 -31.82 0.0006141264    1.420    0.296
        18  -9.4610    114.3560     10.0033   7.0185624634e+01   5.2475226630e+01    0.7027894    0.1763609  42.94  0.002501516    3.839    0.740
        19  -8.6582    126.4471      8.8352   6.7552592635e+01   4.9978829500e+01    0.2414266    0.1376234  47.12 0.0006498976    1.489    0.328
        20  -9.1981    125.8751      5.1193   6.6560260503e+01   5.0397250333e+01    0.4242405    0.1826743  45.31  0.001502341    2.027    0.507
        21  -9.1926    102.9915     21.1875   7.6252367551e+01   5.3839189230e+01    0.2966943    0.1916863 -28.02 0.0007946461    1.729    0.422
        22  -8.5510    104.9330     14.5769   7.3634122470e+01   5.4052054793e+01    0.3022038    0.1540195  15.07   0.00135622    2.936    0.659
        23  -9.3124    131.8817     17.3092   6.9056130770e+01   4.8057279612e+01    0.3640317    0.2293296  71.23  0.001545479    1.625    0.385
        24  -8.9417    133.8431     12.2046   6.7236565116e+01   4.8079457145e+01    0.4042402    0.1630867 -45.76  0.001621375    3.437    0.709
        25  -8.4148    131.5037      6.0296   6.5865070431e+01   4.9102047480e+01    0.2343332    0.1780595   1.00 0.0007224716    1.590    0.371
        26  -8.9072     96.7719     12.8211   7.4921117040e+01   5.5856648555e+01    0.3398671    0.1755191  21.76  0.001657124    2.392    0.582
        27 -10.6512     37.2529      9.6268   9.1821407743e+01   6.6270671165e+01    0.7005136    0.3090109 -35.36  0.002297492    2.582    0.613
        28 -10.0384     31.2815     12.2005   9.5233594188e+01   6.6774131866e+01       0.5893     0.242902  41.91  0.003034024    2.839    0.648
        29  -9.8039      2.3169     14.3461   1.0873268142e+02   6.9489535954e+01    0.5436468    0.1814439 -46.48  0.002585624    3.610    0.723
        30  -9.3852     19.4582      8.7533   9.8688360844e+01   6.8547550056e+01    0.3604196    0.2198597  -4.20  0.001422103    1.380    0.276
        31 -10.3035     18.1776      3.8228   9.7099850713e+01   6.9228040090e+01    0.6704798    0.5807247 -52.91  0.004716904    2.647    0.622
        32 -10.0374      6.2589      5.3701   1.0315293872e+02   7.0270790748e+01    0.3817728    0.2376122  -8.49  0.001705605    1.228    0.186
        33  -9.4352      2.5302      3.4983   1.0409565869e+02   7.0825512556e+01    0.2746821    0.1431426 -23.26  0.001853247    1.543    0.352
        34  -9.4680     85.1704     13.0534   7.7883880342e+01   5.8093414119e+01    0.3294907    0.2432507 -57.94  0.001595778    2.259    0.557
        35  -8.1092     80.5792     12.7759   7.9006060856e+01   5.8977877499e+01    0.1978725    0.1561989 -52.13  0.001251764    1.935    0.483
        36  -8.3730    141.5158     12.5178   6.6044395509e+01   4.6353765743e+01    0.2185115    0.1231114 -25.41 0.0007066898    2.076    0.518
        37  -8.5960    143.9771      5.9829   6.3873620833e+01   4.6357602760e+01    0.4183738    0.2025149 -67.43  0.001601137    4.378    0.772
        38  -8.5100    110.2220      7.9576   7.0373419664e+01   5.3508744218e+01    0.2035728    0.1490384 -40.19 0.0006767593    1.702    0.413
        39  -8.7505    110.0836      3.6048   6.9022013915e+01   5.3871383402e+01    0.2524204    0.1945956 -73.44  0.001582436    1.814    0.449
        40  -8.6055    101.9933      7.9159   7.2094153491e+01   5.5209856889e+01    0.1853698      0.16751   3.50 0.0005923182    1.223    0.182
        41  -8.3432    104.1566      2.3721   6.9820153837e+01   5.5188234885e+01     0.392002    0.1653483  30.68  0.001772373    2.826    0.646
        42  -8.2393     85.1148      6.0112   7.5389483687e+01   5.8691563362e+01    0.2531048     0.155817  20.60  0.001503657    1.620    0.383
        43  -9.1681     78.1461      4.1190   7.6494420071e+01   6.0147688211e+01    0.3792235     0.219476   4.95  0.001709329    1.940    0.484
        44  -8.9686     96.5688      4.5183   7.2159092382e+01   5.6567356448e+01    0.3197568    0.2360144 -49.25  0.002014616    1.904    0.475
        45  -8.5436     89.0797      2.8226   7.3299135036e+01   5.8170928033e+01    0.2440763    0.1652414 -19.43 0.0009152795    1.668    0.400
        46  -8.1961    136.1297      1.5113   6.3846832914e+01   4.8436517961e+01    0.1875617    0.1000469  64.66   0.00102028    1.555    0.357
        47 -10.4196    108.6328     99.8266   9.9028830002e+01   4.0911510713e+01    0.8647238    0.5871499  66.50  0.003739165    2.279    0.561
        48 -10.9316    186.0586    249.2615   1.1217477928e+02  -3.9691407800e+00     0.645478    0.2287522  35.15  0.002666686    2.554    0.608
        49 -10.3179    131.7771    119.7472   9.8143793330e+01   3.2215230049e+01    0.8718465    0.5713934  83.38  0.003017461    3.313    0.698
        50 -10.8925    133.4026    109.5065   9.5088523590e+01   3.3991010670e+01     1.314658    0.4932315 -46.55  0.004466371    2.767    0.639
        51  -9.4761    127.7749    102.4692   9.4643509451e+01   3.6566078573e+01     0.362352    0.3412519  32.94  0.001104385    1.063    0.060
        52  -9.8046     27.2055    123.0413   1.2866422964e+02   4.7212313040e+01    0.5081297    0.3416669  77.42  0.002087411    2.102    0.524
        53  -9.4839     41.3341    122.0652   1.2433928626e+02   4.6075442146e+01    0.4759564    0.2631972 -76.20  0.001793521    2.450    0.592
        54  -8.4531    129.3458    124.0553   9.9847921902e+01   3.1794580401e+01    0.2561712    0.1924378 -25.43 0.0007432356    1.467    0.318
        55  -8.5497    158.3810    122.2567   9.2366953930e+01   2.6074144283e+01    0.2629504    0.1922624  69.28  0.001000769    1.769    0.435
        56 -10.1306     91.9422    113.1478   1.0729243770e+02   4.1145527919e+01    0.5859919    0.4161772 -68.51  0.001815506    1.869    0.465
        57  -8.8940     93.4358    103.2396   1.0428118046e+02   4.2989780185e+01    0.7325538    0.3817823  19.96  0.002664946    3.049    0.672
        58  -8.2521      1.4534    116.4773   1.3501101999e+02   5.0577283233e+01    0.2534961    0.0957467 -66.48  0.001191047    2.116    0.528
        59 -10.1915     78.1225    112.9732   1.1130733581e+02   4.3405303109e+01    0.5229457    0.3556357 -74.24  0.001584672    2.182    0.542
        60  -8.0480     77.8379    105.7658   1.0958528680e+02   4.5008196104e+01    0.3222479    0.2028359 -17.90  0.001420685    2.114    0.527
        61  -8.6330    167.3887    114.2411   8.8369998290e+01   2.5707093550e+01    0.2208853    0.1369587 -51.40 0.0005433873    1.733    0.423
        62  -8.2984    248.4759    113.4565   7.3867570178e+01   9.0110067941e+00    0.1322623    0.1146059 -48.60 4.153667e-05    1.017    0.017
        63 -10.3298     62.8869     95.6790   1.1162031195e+02   4.9289403901e+01    0.5135128    0.3604662 -78.76  0.001570749    2.436    0.590
        64  -9.0547     63.6332     86.9292   1.0902080991e+02   5.0958582724e+01    0.6261824    0.3349725 -10.02  0.002250116    3.750    0.733
        65  -9.9393     65.9311    110.9482   1.1449242562e+02   4.5612512670e+01    0.4683105    0.3670448  78.70  0.001052864    1.869    0.465
        66  -9.2441     59.5975    109.8414   1.1617142293e+02   4.6696543317e+01    0.3908072    0.2822891 -80.40  0.001268628    1.985    0.496
        67  -9.3615     34.5506    110.7064   1.2410821294e+02   4.9315738299e+01    0.4590573    0.3092158  60.93  0.002393923    2.208    0.547
        68  -9.6024     14.1887    111.4262   1.3045526860e+02   5.0862254951e+01    0.4305766    0.2524745 -87.96  0.001731027    2.439    0.590
        69  -8.4248     14.0648    105.0167   1.2933174104e+02   5.2279603971e+01    0.2448944    0.1246719 -45.44 0.0007372815    1.612    0.380
        70  -8.7041    158.7811    111.7495   8.9637825243e+01   2.8084419690e+01    0.2880862    0.1963592 -51.11   0.00046375    1.555    0.357
        71  -9.5868    150.1958    110.2896   9.1227157958e+01   3.0246922579e+01    0.4000494    0.1975762 -49.36   0.00114997    2.207    0.547
        72 -10.8526     20.8799    101.1838   1.2644700840e+02   5.2600187808e+01    0.9930068     0.564776  89.61  0.003793027    3.699    0.730
        73  -9.9353     20.3032     85.1704   1.2316486108e+02   5.6017469508e+01    0.6792629    0.1806027 -51.69  0.002272462    2.689    0.628
        74 -10.5370     25.6390     78.2868   1.1963918127e+02   5.6958956263e+01    0.5763986    0.4548916  82.90  0.001756499    2.110    0.526
        75 -10.8598     44.7980    102.4895   1.1909301359e+02   5.0063747787e+01    0.7606671    0.4920875  74.63  0.002927907    3.297    0.697
        76  -9.1669     40.0797    106.7569   1.2154877880e+02   4.9637000529e+01    0.3281803    0.1624783 -56.96 0.0006167182    1.799    0.444
        77 -10.1800    139.4989    102.9473   9.1847867531e+01   3.3996797929e+01    0.9634018    0.4166199 -40.27  0.001468424    2.322    0.569
        78  -9.4926    138.8945     92.6908   8.9228105739e+01   3.6065356737e+01    0.5098538    0.3638504  69.29  0.001551018    1.830    0.454
        79  -8.4863    139.0098     88.1770   8.7962275090e+01   3.6858574960e+01    0.4127569    0.2470006  28.11  0.001705261    2.159    0.537
        80  -9.5409      5.8628    103.8424   1.3164827697e+02   5.3080484011e+01    0.3636495    0.3073833  44.13  0.001797764    1.514    0.339
        81  -9.6770    149.5191    103.2185   8.9544805149e+01   3.1769302816e+01    0.4413679    0.2925231 -55.45  0.001062838    1.755    0.430
        82  -8.4008    165.9952    104.0001   8.6087464437e+01   2.7974136818e+01    0.2245267    0.2119497 -60.58 0.0004753483    1.090    0.083
        83  -8.0445     73.8664    102.8668   1.1005101138e+02   4.6223853187e+01    0.2576842    0.1758377 -49.77 0.0007550246    1.414    0.293
        84  -8.6976    159.1511    101.3251   8.6880244129e+01   2.9999097930e+01    0.2741739     0.228662 -62.40 0.0006122987    1.337    0.252
        85  -9.6694     81.5400     99.1783   1.0673557514e+02   4.5810831517e+01    0.6924981    0.2820026 -47.15  0.001755857    2.334    0.572
        86  -9.4104     94.3382     97.1854   1.0237568292e+02   4.4066936160e+01    0.3163063    0.2504682 -53.73 0.0005861337    1.397    0.284
        87  -8.9050     96.1734     90.8579   1.0007088639e+02   4.4986519634e+01    0.5094146       0.3116  -9.29  0.002040683    2.616    0.618
        88  -8.9630    149.7034     96.9089   8.7836219128e+01   3.2917562287e+01    0.3495332    0.2029374  33.85  0.001076041    2.027    0.507
        89  -9.8090    239.3001     93.6770   7.1018409940e+01   1.4031108179e+01    0.4268959    0.2222973  65.18  0.001992393    2.298    0.565
        90  -9.9655     34.5230     90.6850   1.1965701764e+02   5.3627608382e+01    0.5847379    0.2749862 -67.33  0.002311637    3.281    0.695
        91 -10.0745     36.8497     81.2329   1.1648420287e+02   5.5314042828e+01    0.7799007    0.3737001  -9.91     0.002863    4.186    0.761
        92  -9.5514    172.7391     92.2934   8.1715741409e+01   2.8586047012e+01    0.3366055    0.2708821 -12.93            0    1.483    0.326
        93  -9.0059    164.4784     94.2199   8.3896375236e+01   3.0107735215e+01    0.3962187    0.2158255 -50.64  0.001034456    2.059    0.514
        94  -9.4018    150.4812     89.8218   8.5766432125e+01   3.4032755904e+01    0.5440764    0.2524356 -29.65  0.001868985    2.687    0.628
        95 -10.1092      4.2723     89.5427   1.2949247860e+02   5.6217905797e+01    0.5299426    0.2915149 -81.26  0.001996694    2.690    0.628
        96  -9.3754      6.1714     78.7190   1.2658464135e+02   5.8317916357e+01    0.6339204      0.19085 -33.27  0.002399721    4.002    0.750
        97  -9.2696    157.8123     91.3661   8.4567276412e+01   3.2116829572e+01    0.3270261    0.2022001 -43.02   0.00106105    1.641    0.390
        98  -8.0588     47.2252     90.6632   1.1541769452e+02   5.2284876859e+01      0.31239    0.1935518  34.57   0.00166063    1.820    0.451
        99 -10.1466     48.0189     84.6194   1.1356658074e+02   5.3415487028e+01    0.4839733    0.3787653 -81.28   0.00165401    2.010    0.503
       100  -9.4035     48.8000     77.4366   1.1131863669e+02   5.4725071246e+01    0.6535673    0.4027308  -7.85  0.003301152    1.977    0.494
       101 -10.2253     85.4121     86.6277   1.0206790871e+02   4.7672807434e+01    0.4577701    0.3704878  87.77 0.0008969015    1.994    0.499
       102  -9.4826     87.1642     78.9315   9.9279570896e+01   4.8808464027e+01    0.5085864    0.3191229   8.37  0.001707011    2.201    0.546
       103  -8.5603    163.5100     86.9245   8.2198512166e+01   3.1609012004e+01      0.26195    0.1448737 -34.18 0.0008245508    1.906    0.475
       104  -9.2681    241.4973     82.4793   6.8392707770e+01   1.5375121642e+01     0.264273    0.1089978 -42.68  0.001165768    2.127    0.530
       105  -7.6987     77.6845     89.3430   1.0522094151e+02   4.8402916593e+01     0.132324    0.1133866 -89.90 0.0007048097    1.711    0.416
       106  -9.7972    228.9176     83.9478   7.0371241911e+01   1.7683850093e+01    0.2496857    0.2371424  81.40  0.000411054    1.126    0.112
       107  -9.6894    233.5932     80.0796   6.8913886670e+01   1.7333615496e+01     0.330528    0.2060287  48.37  0.001332089    1.856    0.461
       108 -10.0573    108.6889    114.5518   1.0292237004e+02   3.7857159891e+01    0.6329734     0.433651 -82.25   0.00158034    2.717    0.632
       109 -10.3818    104.0123     82.6429   9.5452600810e+01   4.5069256020e+01    0.5163417    0.3412384 -52.53  0.001009693    1.819    0.450
       110  -9.3763    105.0228     71.7704   9.1929261170e+01   4.6765612557e+01    0.6001739    0.3624973 -15.44  0.002629589    2.212    0.548
       111  -9.1865    157.6535     82.7908   8.2326171154e+01   3.3641180949e+01    0.4710464    0.2064443 -40.67  0.001305408    2.308    0.567
       112  -9.2756    140.5986     82.0429   8.5891621675e+01   3.7584619782e+01    0.5530213    0.3231636 -31.81   0.00149275    1.837    0.456
       113  -9.1438    140.0405     75.3093   8.4137801528e+01   3.8836503056e+01    0.4476915    0.2461018 -27.26 0.0008055673    2.133    0.531
       114  -8.5513    169.9469     83.1888   7.9934144089e+01   3.0781601696e+01    0.2269789    0.1920241 -79.03  0.001207822    1.335    0.251
       115  -9.1478     74.2317     80.3681   1.0372843552e+02   5.0664192092e+01    0.3418799    0.2266887 -58.05  0.001179584    2.008    0.502
       116  -7.9128     74.9599     74.5334   1.0175429649e+02   5.1619567991e+01    0.2962761    0.1746584   3.22   0.00104983    2.604    0.616
       117  -8.6701     63.5524     81.8092   1.0760392980e+02   5.1967532126e+01    0.2509746    0.1180446 -42.81  0.001015674    1.943    0.485
       118  -9.3836    150.0636     79.5381   8.3073841244e+01   3.5900223825e+01     0.546204    0.2545813 -31.62  0.001459519    2.423    0.587
       119  -8.9142    119.0090     80.5057   9.0764874903e+01   4.2467196721e+01    0.3323333    0.2369119 -52.88 0.0007323421    1.667    0.400
       120  -8.3416    119.5231     76.4690   8.9455215864e+01   4.3054647898e+01    0.2778352    0.1994796  14.42 0.0006866948    1.678    0.404
       121  -9.7690     66.1611    103.3714   1.1256255592e+02   4.7223116592e+01    0.8482898    0.5631859 -12.96  0.004107576    1.889    0.471
       122  -8.1100    174.0153     78.9512   7.8064995622e+01   3.0553682158e+01    0.1694709    0.1652929  88.66 0.0005168275    1.011    0.011
       123  -9.2893    166.2786     78.3962   7.9409754798e+01   3.2409974257e+01    0.2954515    0.1996531 -32.02  0.001297186    1.575    0.365
       124  -8.0359    184.3529     77.9771   7.5940168933e+01   2.8357366514e+01    0.1988798     0.171534 -42.31 0.0006073783    1.170    0.145
       125  -8.9135    157.0503     76.4780   8.0762479802e+01   3.4824416830e+01    0.3077758    0.1885242 -45.09  0.001074925    1.718    0.418
       126  -8.7675    156.4189     70.6739   7.9328544342e+01   3.5891866850e+01    0.3340708    0.2429095 -47.57  0.001258978    1.468    0.319
       127  -8.7674    130.5604     64.7736   8.3310538458e+01   4.2583401848e+01    0.3852164    0.1827361 -35.94  0.001182135    2.200    0.545
       128  -9.6873    127.3456     75.1119   8.7090184156e+01   4.1633797328e+01     0.456304    0.2931219 -49.60 0.0009073034    1.810    0.447
       129  -8.6988    129.5945     68.8010   8.4713212256e+01   4.2169917426e+01    0.4752828    0.2354045  30.91  0.001774375    2.828    0.646
       130  -9.8891     81.5938     72.3903   9.9009368863e+01   5.0919164139e+01    0.3831516     0.299321 -57.59 0.0009653805    1.701    0.412
       131  -9.0418     83.5554     64.4187   9.5911681721e+01   5.1931483719e+01    0.5017396    0.2936207  -5.02  0.002121367    2.646    0.622
       132  -9.7399     15.9823     70.6213   1.2114578284e+02   5.9238887156e+01    0.5728899    0.2364618 -41.71  0.001348574    1.911    0.477
       133  -9.8721     16.9896     60.8644   1.1815012608e+02   6.0988568524e+01    0.6808719    0.3411233 -40.24  0.003838103    1.576    0.365
       134 -12.0126    237.9476    246.0837   1.0173910472e+02  -1.1117410662e+01    0.2489543    0.2080658  -4.08 0.0003661156    1.138    0.121
       135  -9.5694    150.8742    249.5388   1.1927751129e+02   1.5890945055e+00    0.3173177    0.2143177  47.46  0.001771905    1.430    0.301
       136 -10.7952     22.0493     53.7556   1.1411264540e+02   6.1824294500e+01     0.679103    0.4349429 -73.11  0.002743475    3.980    0.749
       137  -9.4930      6.7440     32.5867   1.1350788458e+02   6.6534031824e+01    0.2351644    0.1652258  -4.75 0.0007503743    1.222    0.182
       138 -10.0726      7.2067     28.4413   1.1185134894e+02   6.7123962934e+01    0.3099556    0.2445559  24.71  0.001093508    1.657    0.396
       139  -8.8767    162.8258     73.3314   7.8757551407e+01   3.4012330512e+01    0.2650627     0.185288 -53.31 0.0007639358    1.588    0.370
       140  -9.4044    115.2958     72.3667   8.9341886407e+01   4.4611591579e+01    0.5007498    0.2985188 -31.92  0.001500781    1.747    0.428
       141 -10.6378     55.1551     70.9349   1.0723234960e+02   5.5137741488e+01    0.6879447    0.5435752  87.13  0.001255661    2.506    0.601
       142  -9.1396     55.1949     63.3902   1.0489339558e+02   5.6465646889e+01    0.5023528    0.3148237  21.86  0.002171352    1.615    0.381
       143 -10.0795     62.0773     60.8056   1.0170222196e+02   5.5941190156e+01    0.5814348    0.2672511  31.38  0.002628642    2.211    0.548
       144  -8.6779    126.2008     83.8278   8.9876896257e+01   4.0383632071e+01    0.4708218     0.275608  12.96  0.001646151    3.398    0.706
       145  -9.1206    169.4455     71.2190   7.6931731825e+01   3.2828036462e+01    0.3499065    0.1453657 -29.49 0.0009546658    2.979    0.664
       146  -8.0332     94.8492     53.8793   8.9174467166e+01   5.1508224983e+01    0.4031331    0.1657468 -45.57  0.001553539    3.246    0.692
       147  -9.8527     94.8679     68.3024   9.3747746474e+01   4.9271281669e+01     0.414957    0.2556018 -47.37 0.0008559471    1.896    0.473
       148  -9.4326     96.8892     59.0932   9.0270293451e+01   5.0349523549e+01    0.6624699    0.3461699 -11.97    0.0024599    3.438    0.709
       149  -7.7730     23.3718     69.1490   1.1805542466e+02   5.8922758013e+01    0.1588315    0.1424336 -87.97  0.000348831    1.674    0.403
       150 -10.4303     32.5992     63.9388   1.1318283608e+02   5.9024780489e+01      1.04161    0.4842768 -13.79  0.004019376    3.890    0.743
       151  -9.0797    138.0760     66.3522   8.2043878994e+01   4.0690402205e+01    0.3843601    0.2910209  51.49  0.001166751    1.261    0.207
       152  -8.3162    138.6788     61.8514   8.0622712978e+01   4.1232236797e+01    0.2959021    0.2561777  64.07  0.001685948    1.198    0.165
       153  -9.7384    141.5515     48.6095   7.6226711935e+01   4.2427818935e+01    0.3920177     0.250713  41.05  0.001066673    1.532    0.347
       154  -9.1484    138.9118     56.7606   7.9112346856e+01   4.1913723964e+01    0.3802056     0.271358 -54.03  0.001140066    1.694    0.410
       155  -8.1082    139.2914     52.3536   7.7765985020e+01   4.2437309301e+01    0.2279189    0.1549484  41.35 0.0005226512    1.414    0.293
       156  -9.1869    121.3749     66.2517   8.5965270391e+01   4.4326976194e+01    0.3376958    0.2616736 -55.36  0.001140405    1.593    0.372
       157  -8.2013    122.1823     61.5521   8.4360878455e+01   4.4872234594e+01    0.2624587    0.2000178   7.33 0.0008685178    1.509    0.337
       158  -7.8875     75.6071     66.7554   9.9143059459e+01   5.2871541246e+01     0.177938    0.1218169 -44.88 0.0003962044    1.597    0.374
       159  -8.7366    157.9000     64.1193   7.7264619892e+01   3.6550894247e+01    0.3924719    0.1913279 -35.76  0.001687322    2.142    0.533
       160  -9.5757    109.8244     63.8770   8.8216393346e+01   4.7081871438e+01    0.3471101    0.2552369 -42.82 0.0006027529    1.505    0.335
       161  -9.1528    110.6974     58.2495   8.6249678394e+01   4.7754099266e+01    0.4067367     0.250268  25.29  0.001348248    1.884    0.469
       162  -9.6256    146.9592     68.2706   8.0639735589e+01   3.8408934914e+01    0.6218961    0.2856191 -39.06  0.001575364    2.252    0.556
       163  -8.5959    164.5097     60.4632   7.5034820390e+01   3.5569683352e+01    0.3435558    0.1432093 -29.96  0.001214041    2.805    0.643
       164  -8.8383     79.9664     46.9432   9.1270226458e+01   5.5196270577e+01    0.3898305    0.2169434 -24.04  0.001063617    1.895    0.472
       165  -9.9585     72.9729     59.2142   9.7572390504e+01   5.4534135839e+01    0.4309246    0.2529911 -46.48 0.0009773695    2.002    0.501
       166  -9.4496     74.5548     51.3047   9.4441450173e+01   5.5490254639e+01    0.5422755    0.2848912  15.75  0.002268142    2.844    0.648
       167  -8.3844    152.4196     60.2755   7.7301753353e+01   3.8364006925e+01    0.1911031    0.1276714 -46.37 0.0009461118    1.634    0.388
       168  -9.4420    149.7575     48.2226   7.4498032068e+01   4.0621902749e+01    0.2851171    0.1820646 -35.12 0.0007382789    1.684    0.406
       169  -8.7133    146.5889     58.8013   7.8074969533e+01   3.9898958255e+01    0.2624831    0.1843264 -50.62 0.0008371518    1.628    0.386
       170  -9.2945    147.5085     53.9863   7.6541874321e+01   4.0364053781e+01    0.4324257    0.2586939 -17.50  0.001720549    2.204    0.546
       171  -8.6535    129.9185     58.0862   8.1496880868e+01   4.3711780970e+01    0.2997217    0.1972715 -38.17 0.0005181592    1.624    0.384
       172  -9.1848    128.3018     52.5585   8.0228483750e+01   4.4838192952e+01    0.3773988    0.3051635  78.89  0.001150319    1.526    0.345
       173  -9.6971    130.1628     47.4261   7.8287530273e+01   4.5113543408e+01    0.7000527    0.2827233 -22.96  0.002393271    3.481    0.713
       174  -9.0450    132.8175     35.8235   7.4297667511e+01   4.5943266487e+01    0.4615334     0.215654 -42.04  0.001973704    2.503    0.600
       175 -10.6890    133.9980     31.0523   7.2664734054e+01   4.6213791545e+01    0.3429988    0.2468143   8.65  0.001908641    1.719    0.418
       176  -8.4461     87.6137     58.6208   9.2821693574e+01   5.2135094505e+01    0.2622562    0.2189052 -48.91  0.000648824    1.501    0.334
       177  -8.4722     88.8711     53.1547   9.0667182362e+01   5.2724541379e+01    0.4025204    0.2327786  17.22  0.001824696    2.260    0.558
       178 -10.2130     85.0992     48.0972   9.0106082222e+01   5.4127564419e+01    0.3502121    0.2850321 -55.74 0.0009383094    1.759    0.431
       179 -10.2552     89.6800     38.3918   8.5494349951e+01   5.4560464230e+01    0.8222256    0.2649878  37.01  0.002965909    3.436    0.709
       180 -10.2060     13.8193     45.1978   1.1471255981e+02   6.3968331940e+01    0.6873746    0.3463646  -8.35  0.002857783    2.328    0.571
       181  -9.4821    118.2538     54.7519   8.3262394384e+01   4.6689896512e+01    0.4481629    0.2843884 -40.55 0.0009822255    1.736    0.424
       182  -7.3587    157.6136     56.2684   7.5202428199e+01   3.7745361976e+01    0.1401985    0.1041522 -85.57  0.000557684    1.704    0.413
       183  -8.9703     53.7972     37.7086   9.6672360175e+01   6.0623867036e+01    0.3807001    0.1847806 -28.32  0.001951638    2.012    0.503
       184 -10.0866     50.1000     54.3475   1.0377210970e+02   5.8647627783e+01    0.5558871    0.3414885 -55.50  0.001866788    2.517    0.603
       185  -9.7549     55.9923     43.5721   9.7992793405e+01   5.9487996024e+01    0.7478672    0.3777975   1.75  0.002836729    3.958    0.747
       186  -9.1115    162.9488     53.1063   7.3375382567e+01   3.6956098143e+01    0.3934086    0.2057352 -27.96  0.001470265    2.219    0.549
       187  -7.6947    152.6028     53.8090   7.5490691542e+01   3.9229762637e+01    0.1833433    0.1244681 -46.20 0.0003843996    1.617    0.381
       188  -9.0290    105.4928     51.8844   8.5615274006e+01   4.9716770139e+01    0.5127004    0.2705597 -28.37  0.001700386    2.037    0.509
       189  -9.2587     43.9442     53.4566   1.0571284045e+02   5.9568060865e+01    0.3231646    0.2321139 -52.38 0.0008444334    1.839    0.456
       190  -8.6473    157.7517     49.1390   7.3255661452e+01   3.8677104851e+01    0.1995189    0.1746013 -75.33 0.0005471184    1.246    0.198
       191  -9.0198    121.2205     46.9854   8.0176322603e+01   4.7109957214e+01     0.265047    0.2118443 -36.21 0.0004671299    1.379    0.275
       192  -8.7847    111.8765     46.8687   8.2390193813e+01   4.9093106649e+01    0.2543992    0.2260407 -10.77 0.0004847114    1.162    0.140
       193  -8.6316    113.1774     42.2463   8.0615079539e+01   4.9412633691e+01    0.2607946    0.1642206  21.86  0.001288594    1.876    0.467
       194  -7.6524    162.4924     46.4902   7.1707467143e+01   3.7933188435e+01    0.1335958    0.1222596  72.52 -4.693945e-05    1.039    0.038
       195  -9.9691     37.7892     41.9675   1.0411397092e+02   6.2104965649e+01    0.3552358    0.2942029 -63.87  0.001523633    2.183    0.542
       196 -10.4829     35.9135     37.9604   1.0341269594e+02   6.2917724033e+01    0.5170347    0.2808259  -5.80 0.0003670451    2.241    0.554
       197  -9.2405    104.9294     40.9514   8.2251183612e+01   5.1268074165e+01    0.4106636    0.2329472 -37.44  0.001731323    1.963    0.491
       198  -8.3799    105.8801     36.3742   8.0527575509e+01   5.1626951410e+01    0.2641362    0.1894558  43.85   0.00108615    1.231    0.187
       199 -10.7518    200.5904    248.9948   1.0927970212e+02  -6.1642890012e+00    0.4948193     0.299018  26.59  0.002725416    1.493    0.330
       200  -9.8923    167.6478    247.5192   1.1557990723e+02  -7.6675036163e-01    0.2919751    0.1913464   6.93  0.001475274    2.008    0.502
       201  -8.2928    219.3189    249.6577   1.0580310298e+02  -9.0254951552e+00    0.1082006   0.09989007  61.69 0.0005966458    1.718    0.418
       202 -10.1452     76.1941     31.9977   8.7214444113e+01   5.7778764961e+01    0.4661666    0.3441325  71.55  0.001122277    2.473    0.596
       203  -9.8879    187.8367    242.9430   1.1078965159e+02  -3.2387526145e+00    0.2215692     0.193931 -67.43  0.001367289    1.634    0.388
       204  -9.1016     84.8167     21.8415   8.1100141142e+01   5.7329228636e+01    0.2520584     0.195635   4.96 0.0007161285    1.240    0.194
       205  -8.2058    123.1925     40.7397   7.7819301117e+01   4.7469807684e+01    0.3526654    0.1950492  18.18  0.001449867    2.940    0.660
       206  -9.1465    153.2520     40.4531   7.1716615905e+01   4.0799090882e+01    0.3151246    0.2053003 -43.18  0.001504162    1.688    0.408
       207  -8.5274    153.4464     35.1820   7.0250980180e+01   4.1375104306e+01    0.2508609    0.1629757 -38.59 0.0004969767    1.685    0.406
       208  -9.2418    139.5236     39.8072   7.4114502315e+01   4.3983294895e+01    0.3904637    0.1985164 -41.29  0.001421593    2.210    0.548
       209  -8.1397    160.1154     38.8988   7.0107180581e+01   3.9417503134e+01    0.2356211    0.1662366 -21.60  0.001289045    1.681    0.405
       210  -9.6990    144.8537     37.0783   7.2317839678e+01   4.3105564188e+01    0.4366655    0.2750178 -78.08  0.001527827    2.591    0.614
       211  -9.4000    223.8101     35.5551   6.0762349794e+01   2.5603826240e+01     0.304858    0.2327955 -28.62 0.0008559375    1.594    0.373
       212  -8.6774    118.9297     34.5118   7.6857641310e+01   4.9115615242e+01    0.2812303    0.1786772 -28.13 0.0007316574    1.729    0.422
       213  -9.3019    101.0815     32.3116   8.0400588049e+01   5.3062527068e+01    0.4187725     0.210976 -27.93  0.001283242    2.144    0.534
       214  -8.4042    111.9264     21.7860   7.4412584716e+01   5.1935073078e+01    0.3090036    0.1846839 -40.64  0.001440025    2.047    0.511
       215  -9.1454    110.3306     33.1242   7.8399319010e+01   5.1084090993e+01    0.3480003    0.2068513 -40.11  0.001156803    1.986    0.497
       216  -7.9589    110.0485     26.2564   7.6263232384e+01   5.1881125023e+01    0.2131581      0.18259  -5.98  0.001252362    1.247    0.198
       217  -9.4948     60.1899     33.6967   9.2986234618e+01   6.0202714937e+01     0.361089    0.2436495 -43.99  0.001516059    1.992    0.498
       218  -8.9084     62.8214     26.8604   8.9571503636e+01   6.0620202750e+01    0.4404295    0.1832021  28.41  0.001941622    2.715    0.632
       219  -8.7763      1.9068    237.6271   1.4671526917e+02   2.4075754472e+01    0.1956796    0.1272528 -84.46 0.0009491773    1.256    0.204
       220  -9.6113    187.9624    233.9647   1.0924994810e+02  -1.7778483090e+00    0.2851216    0.1938441 -49.57  0.001035736    1.772    0.436
       221  -7.5246    115.2475    231.3349   1.2403276523e+02   1.0740926837e+01    0.1233441    0.1021179 -19.14 0.0002727437    1.555    0.357
       222 -10.1364    150.0920    223.2101   1.1532593419e+02   6.5274368636e+00    0.2306335    0.2113987 -44.20 0.0002262435    1.181    0.154
       223  -7.3301    110.4728    224.4986   1.2407914391e+02   1.2888871546e+01    0.1337081    0.1221938  57.91 8.602586e-05    1.015    0.015
       224  -7.2621     56.0011    217.2008   1.3474587775e+02   2.2356474431e+01    0.1536335   0.09413678  38.68 0.0008352866    1.648    0.393
       225  -8.4087     42.0584     28.2379   9.7445819671e+01   6.3485461810e+01     0.210471    0.1399665 -12.14 0.0004113751    1.327    0.246
       226  -8.5776    151.6286     30.4975   6.9292594265e+01   4.2312395396e+01    0.2842865    0.1578373  44.53   0.00084038    1.764    0.433
       227  -7.4857    197.3424     28.2201   6.2175415278e+01   3.2213789884e+01    0.1604034    0.1055617 -47.04 0.0005774027    1.539    0.350
       228  -9.0503     91.4476     26.4198   8.0909947835e+01   5.5597482792e+01    0.2747402    0.2165788 -47.93 0.0007754429    1.729    0.422
       229  -8.8577     91.5340     21.2788   7.9113936199e+01   5.6106208494e+01     0.279011     0.174985  20.88   0.00101263    1.653    0.395
       230  -9.3051    155.2518     26.7756   6.7691275656e+01   4.1888835454e+01    0.3825977    0.1572925  66.50  0.001629871    2.361    0.576
       231  -7.6729    155.0000     23.0402   6.6739250390e+01   4.2331700661e+01    0.2085851    0.1335992 -27.64 0.0009410073    1.799    0.444
       232  -8.8784    144.2101     26.0431   6.9346903446e+01   4.4461591433e+01    0.2575129    0.1640497 -38.28 0.0008317609    1.763    0.433
       233  -7.5145     23.2606    216.6442   1.4128758087e+02   2.6261399925e+01    0.1358966    0.1115264  25.30 0.0003721387    1.609    0.379
       234 -10.1549     10.1601    207.3810   1.4305691062e+02   2.9528186094e+01    0.4129837    0.3217461  13.33   0.00195793    1.888    0.470
       235  -7.7635    151.9508    208.4963   1.1238500398e+02   9.1045135506e+00    0.2073606    0.1335911  37.80 0.0009936646    1.475    0.322
       236  -9.2793    191.9787    194.4209   1.0109355270e+02   4.6490638904e+00    0.8765979    0.4319115 -61.94  0.002454537    5.874    0.830
       237  -7.5623     27.0575    175.4550   1.3631071547e+02   3.5058913618e+01    0.1525253    0.1015871 -24.37 0.0006018138    2.265    0.559
       238  -9.1477    243.4656    168.6957   8.6060692514e+01   3.4724215595e-01    0.2445866    0.2339408  31.21   0.00100561    1.240    0.194
       239  -9.1108     99.4492    164.1493   1.1658376085e+02   2.8188293389e+01    0.2380028    0.2212356  27.37 0.0003820241    1.135    0.119
       240  -9.3213    244.2485    163.8458   8.4940056083e+01   1.0579233013e+00    0.2317832    0.2011305 -20.43 0.0002443612    1.041    0.039
       241  -8.6307    128.7050     25.0291   7.1926272636e+01   4.8011729634e+01    0.3883066    0.2508746  -5.57   0.00150006    1.980    0.495
       242  -8.5664    165.7991    161.0245   9.9765607732e+01   1.6403815255e+01    0.2330715    0.2105476  31.01 0.0003507725    1.113    0.101
       243  -8.8359    244.3707    158.9813   8.3923723934e+01   1.8836108513e+00    0.2182643    0.1940143  26.78 0.0001799311    1.241    0.194
       244  -8.3129    140.2283     22.8024   6.9137168193e+01   4.5681913468e+01    0.2024274    0.1223121 -70.83 0.0005229319    2.671    0.626
       245  -9.0522     41.0012     20.6057   9.4873700336e+01   6.4561280508e+01    0.2108449    0.1427013 -15.82 0.0002945758    1.305    0.234
       246  -8.2295    139.8250     18.0539   6.7869544537e+01   4.6229048860e+01    0.1828921     0.159638 -84.99  0.000371082    1.273    0.214
       247 -10.1754    212.4805    156.8657   8.9143632411e+01   8.0154131954e+00    0.2587229    0.2439395 -24.95 0.0003246905    1.047    0.044
       248  -7.4279    134.2776    149.6485   1.0468632136e+02   2.5182824326e+01     0.153224    0.1226751 -86.07  0.000508539    1.644    0.392
       249  -7.6580     98.1275    149.1088   1.1388947992e+02   3.1938399918e+01    0.1832789     0.166373  83.85 0.0009858212    1.218    0.179
       250  -8.4782     95.8397     16.8330   7.6506922883e+01   5.5685241870e+01    0.2106448    0.1713044 -18.57 0.0003693096    1.368    0.269
       251  -8.6360    238.4845    146.9796   8.2410128002e+01   5.0204090397e+00    0.2652299    0.1743109 -84.43  0.001047298    3.528    0.717
       252  -9.3530     66.5793    144.2999   1.2146218333e+02   3.7866296655e+01    0.4837407     0.327563  69.63  0.002276657    2.066    0.516
       253  -8.2279    133.4443    143.6759   1.0352908987e+02   2.6679506945e+01    0.4064001    0.1482175 -52.82     0.001262    3.176    0.685
       254  -8.8673    231.5984    139.0769   8.1883742141e+01   7.6919467709e+00    0.2219436    0.2008788  44.33 0.0003244141    1.231    0.188
       255  -7.3948    217.3852    138.1797   8.4152520494e+01   1.0578607580e+01     0.195977    0.1241121 -49.09 0.0004139995    1.573    0.364
       256  -7.6789    159.9894    138.2938   9.5889779252e+01   2.2409886407e+01    0.2018691    0.1958639   7.96 0.0003823391    1.029    0.029
       257  -8.5470    112.2240    133.8958   1.0672674948e+02   3.2947546446e+01    0.2759595    0.2442186  66.73 0.0008158238    1.296    0.228
       258  -9.5563    134.1523    131.5372   1.0047251547e+02   2.9208132415e+01    0.5116076     0.488869  -0.99  0.002764546    1.046    0.044
       259  -8.2336     81.8351    130.1787   1.1425919257e+02   3.8966570511e+01     0.409125    0.1978997 -69.51  0.001072265    3.998    0.750
       260  -9.6169     98.6193    128.6662   1.0919485751e+02   3.6566096289e+01    0.6403213    0.4104415  72.14  0.002003561    2.957    0.662
       261  -8.2261    160.5862    128.4557   9.3388790166e+01   2.4332249149e+01    0.4011952    0.1868474 -49.63   0.00146665    2.309    0.567
       262 -10.1189     46.3383     29.8474   9.6459840121e+01   6.2706154237e+01    0.3774027    0.2481577 -44.28 0.0009984031    2.089    0.521
       263 -10.0761     58.2482    124.5460   1.1985572463e+02   4.3560718917e+01    0.6207989    0.4028245  83.55  0.002603483    2.751    0.636
       264  -9.8432     67.1389    128.9036   1.1819106570e+02   4.1393307902e+01    0.3706535    0.3420652  72.88  0.002009597    1.245    0.197
       265 -10.0501     71.0722    125.7049   1.1635672173e+02   4.1582695776e+01    0.6035429    0.3604777 -69.10  0.001542351    2.139    0.533
       266 -10.3867    140.7763    117.5827   9.5350236479e+01   3.0794209447e+01    0.8792025    0.4542699 -38.27  0.001332993    1.980    0.495
       267 -10.1204    117.6591    124.2216   1.0293772381e+02   3.4065984581e+01     1.054784    0.5751478 -48.94  0.002996912    1.831    0.454
       268 -10.7220    123.5106     92.3290   9.2960359550e+01   3.9397812232e+01    0.8181978    0.7453084 -62.55  0.002242668    1.258    0.205
       269  -9.6024    110.6966     90.0435   9.5729956294e+01   4.2409323201e+01    0.8516107    0.3496538  33.47  0.002929703    3.065    0.674
       270  -8.9571    109.6287    107.3107   1.0077156856e+02   3.9201161639e+01    0.7931734     0.405722  27.26  0.002963037    2.610    0.617
       271 -11.0231    121.1577    109.5845   9.8262851571e+01   3.6482420079e+01      1.15674    0.6230222 -47.88  0.002345031    1.905    0.475
