#   1 NUMBER                 Running object number                                     
#   2 MAG_AUTO               Kron-like elliptical aperture magnitude                    [mag]
#   3 X_IMAGE                Object position along x                                    [pixel]
#   4 Y_IMAGE                Object position along y                                    [pixel]
#   5 X_WORLD                Barycenter position along world x axis                     [deg]
#   6 Y_WORLD                Barycenter position along world y axis                     [deg]
#   7 A_WORLD                Profile RMS along major axis (world units)                 [deg]
#   8 B_WORLD                Profile RMS along minor axis (world units)                 [deg]
#   9 THETA_WORLD            Position angle (CCW/world-x)                               [deg]
#  10 FWHM_WORLD             FWHM assuming a gaussian core                              [deg]
#  11 ELONGATION             A_IMAGE/B_IMAGE                                           
#  12 ELLIPTICITY            1 - B_IMAGE/A_IMAGE                                       
         1 -14.7494    232.0497    164.3625   8.7188279100e+01   3.7620096787e+00     5.202596     2.873259 -13.39   0.02343595    2.325    0.570
         2 -14.9068    172.4599     82.7621   7.8975167214e+01   3.0375558370e+01     3.866659     3.462758 -57.58   0.01836171    1.195    0.163
         3 -16.2200    209.4971    109.0218   7.8728762694e+01   1.7068165597e+01      14.5627     10.68239  84.75   0.06646892    2.034    0.508
         4 -15.6532    217.5996     30.0992   5.6577205926e+01   2.6778085062e+01     3.501216     1.505214 -33.28   0.01457483    2.169    0.539
         5 -14.9948    240.8756     21.7171   5.1975718424e+01   2.2154147821e+01     1.067106    0.6407647 -56.82  0.002861348    1.640    0.390
         6 -16.8321    246.6787     37.9313   5.5347846951e+01   1.8895800178e+01     2.341457     1.710528  19.33   0.01134453    1.890    0.471
         7 -15.8803    248.5471     17.7489   5.0337525926e+01   2.0838063889e+01     2.473091    0.8692594 -53.02  0.009442634    3.103    0.678
         8 -14.1793    216.8858     72.4332   6.8018617658e+01   2.1177386517e+01      3.98365     1.250981 -46.96   0.01156507    4.154    0.759
         9 -14.1050    203.9394     36.6311   6.0119932818e+01   2.9405981625e+01     1.992381    0.4038629 -31.79  0.005874667    4.073    0.754
        10 -10.9693    148.1531     23.8130   6.5184926104e+01   4.5403795366e+01     1.161768     0.606038  17.83  0.004089928    3.316    0.698
        11 -11.4665    144.1610     19.5894   6.4465906858e+01   4.6902226885e+01    0.5213653    0.3967828 -17.32  0.001461428    1.404    0.288
        12 -10.6710    142.0000     13.9658   6.2860449663e+01   4.8056632364e+01    0.3707255    0.2032399 -20.82  0.001136972    1.971    0.493
        13 -11.9193    143.0427      9.7733   6.1154917813e+01   4.8216094904e+01    0.9925126    0.4000611 -11.52  0.002910024    3.448    0.710
        14 -10.1174    157.9791      5.5365   5.7203510828e+01   4.4787252532e+01    0.6685711    0.3108334   3.02  0.002356524    3.681    0.728
        15  -8.9255    187.5668      9.7822   5.4494991883e+01   3.6684616993e+01    0.1887593    0.1388135 -20.91 0.0009871556    1.493    0.330
        16  -9.4596    164.6274      8.0178   5.7034023623e+01   4.2829851227e+01    0.2619495    0.2065576  10.95  0.001172969    1.458    0.314
        17 -14.8767    232.6783     30.4507   5.4968944824e+01   2.3066216816e+01     1.009701    0.6470656 -18.61  0.003916466    1.765    0.433
        18  -9.2860    182.2999      4.5017   5.3563761051e+01   3.8560377631e+01    0.2938053     0.217293  50.18  0.001577238    1.333    0.250
        19  -9.1271    172.0250      3.1428   5.4443493238e+01   4.1356549064e+01    0.3226023    0.1451788 -42.02  0.001207679    2.356    0.576
        20 -10.1781     42.6365    246.6851   1.3377242996e+02   2.0881584587e+01    0.1230708     0.121856 -80.51 0.0005934905    1.726    0.421
        21 -10.9215    190.9385    143.7831   9.0546753933e+01   1.5167349785e+01    0.4242912    0.2464133  57.14 0.0009550544    2.046    0.511
        22 -12.4868    189.4007    138.8320   8.9751868553e+01   1.6362161118e+01    0.7656292    0.4837617  43.11  0.003288503    1.517    0.341
        23 -11.9583    193.2139    194.8385   1.0013870848e+02   6.4037093346e+00     0.926299    0.5520149 -67.64   0.00337755    5.036    0.801
        24 -10.6398    159.6732    137.6933   9.5854396839e+01   2.2899366283e+01    0.3582631    0.2372337 -68.19   0.00151764    2.234    0.552
        25 -11.4163    159.9516    128.9337   9.3797581294e+01   2.4552142552e+01    0.4841217    0.3700941 -13.44  0.002307881    1.637    0.389
        26 -12.1166      5.3741    185.4481   1.3687013123e+02   3.5539449801e+01    0.6326966    0.3052991 -88.47  0.003995452    1.688    0.408
        27  -8.6402     97.0945    130.4962   1.0956753297e+02   3.6407385729e+01    0.1982444    0.1361496  40.29 0.0005391116    1.491    0.329
        28 -11.8163      3.8873    169.8673   1.3628593041e+02   3.8742643678e+01    0.4733154    0.2478623  76.66  0.003008342    1.594    0.373
        29  -9.5131     97.6867    113.0218   1.0575143622e+02   4.0212665249e+01    0.4951991    0.2396033 -67.65   0.00165115    3.144    0.682
        30  -8.4176      1.3812    237.2029   1.3976731348e+02   2.6622461357e+01    0.1259074   0.06343029  79.32 0.0002443984    1.523    0.343
        31  -9.9882    191.1404    181.3120   9.8115646624e+01   8.8581477823e+00    0.2706726    0.1902692 -45.82 0.0007400983    1.676    0.403
        32 -13.4295     20.8813    172.8889   1.3306334536e+02   3.6677880496e+01    0.7790372    0.6118156  78.59   0.00386982    1.042    0.041
        33  -8.0796     36.2585    102.6779   1.2148200885e+02   5.0670678801e+01    0.1219812   0.08591881  82.34 0.0001884269    1.548    0.354
        34  -9.9032    245.1418     84.4135   6.6891001279e+01   1.2952864805e+01    0.6093189    0.2743481  66.64  0.002343513    3.063    0.674
        35 -10.0184    250.6709     92.4448   6.8046216290e+01   1.0621707938e+01    0.6355996    0.1376947 -29.24  0.001706769    5.146    0.806
        36  -8.7456    251.0000     86.0471   6.6478210584e+01   1.1468383957e+01    0.2248274   0.07179068 -31.27 0.0007881737    2.844    0.648
        37 -10.8434    195.3449    168.5379   9.4850161572e+01   1.0100548784e+01      0.28994    0.2256948  77.95  0.001478931    1.977    0.494
        38 -12.0397    192.7542    163.2578   9.4304328681e+01   1.1474991815e+01     0.619476    0.3679489  -0.48  0.002348081    3.250    0.692
        39  -9.6442    248.1726     79.2759   6.5232914447e+01   1.3033904736e+01    0.2216501    0.2010091  17.45  0.001131278    1.190    0.160
        40 -10.7715     79.8215     76.8778   1.0195924904e+02   5.1070943953e+01    0.3398621    0.1855284 -50.63  0.001037155    1.712    0.416
        41  -8.1114    246.2564     74.3370   6.4288482773e+01   1.4148627597e+01    0.1351328    0.1039502   5.93 0.0003898987    1.574    0.365
        42  -9.8061     71.1346     53.6107   9.7674238823e+01   5.7139305235e+01    0.2305497    0.1721854 -50.35 0.0005311884    1.358    0.263
        43 -11.5858    204.0312    161.4977   9.1744754267e+01   9.5370715701e+00    0.4231383    0.3066834 -57.52  0.001763851    1.929    0.482
        44 -11.3232    102.8089     42.5575   8.3236540022e+01   5.3411763583e+01    0.6341558    0.1738009 -37.45  0.002036073    3.516    0.716
        45 -10.3179     58.1754     43.8943   9.9069522063e+01   6.0850401847e+01     0.189502    0.1686814 -46.08 0.0005730298    1.218    0.179
        46  -8.9862     98.9884    164.0226   1.1488631206e+02   2.8806484908e+01    0.1871084    0.1702625  73.31  0.001165649    1.026    0.026
        47 -11.6673    110.8956     38.7636   7.9466083048e+01   5.2294643690e+01    0.4317708    0.2639132 -26.77   0.00201187    1.669    0.401
        48  -8.9994    189.9812     35.6022   6.1836305811e+01   3.3121961765e+01    0.1920542    0.1751792  66.43 0.0005610096    1.062    0.058
        49  -8.8695    165.1410    160.9007   9.9516261434e+01   1.7379740818e+01    0.1866372    0.1603615  11.41 0.0003555586    1.269    0.212
        50  -9.7776    162.7690     29.5241   6.4407894824e+01   4.0958667802e+01    0.3902336    0.2005275 -25.82  0.001243711    2.055    0.513
        51 -10.2269    159.5711     25.8057   6.3746270578e+01   4.2237438447e+01    0.5226268    0.2938619  66.46  0.001256339    1.761    0.432
        52  -9.0548    147.4847    158.1044   1.0281725848e+02   2.1379316611e+01    0.1997419    0.1418062 -50.84 0.0007290515    1.523    0.343
        53  -9.6461    186.9040    156.5160   9.4094926759e+01   1.3788176970e+01     0.218024    0.1323725  44.90 0.0008312059    1.550    0.355
        54 -11.7365    200.5186    164.7029   9.3075634982e+01   9.7114098328e+00    0.4988683    0.3541315  74.95  0.002293256    2.467    0.595
        55 -10.2056    149.5178    223.0325   1.1274405422e+02   9.6823366937e+00    0.2189821    0.1745344  41.57 0.0003885922    1.040    0.039
        56 -10.8921    112.4491     29.4687   7.5469256614e+01   5.3294134214e+01    0.2560883    0.2331349  19.56 0.0008798413    1.009    0.009
        57  -9.1333    182.2418     25.1213   5.9839769793e+01   3.6414306587e+01    0.3289466    0.2137956 -60.58  0.001513595    1.788    0.441
        58  -9.3431    177.6341     25.8035   6.0746886791e+01   3.7536603820e+01    0.2328655    0.1824491  60.36 0.0005714337    1.203    0.169
        59  -8.6787    171.3861     25.5225   6.1646003645e+01   3.9200152107e+01     0.142197    0.1353815  45.84 8.948283e-05    1.051    0.048
        60  -9.5308     92.1325     22.2147   7.8363002889e+01   5.8596539006e+01    0.2765114    0.1755535 -31.00 0.0008009167    1.560    0.359
        61 -12.9824     68.3158    144.7114   1.1931566185e+02   3.7491052640e+01       1.1354    0.9310227  64.81  0.003796387    1.166    0.142
        62 -12.9028     55.8900    153.8016   1.2353162971e+02   3.7045409094e+01    0.8878428    0.6666268  55.55  0.004054289    1.274    0.215
        63 -10.6558      5.7938    248.7566   1.3950888199e+02   2.4357691081e+01     0.337021    0.1533419  40.94   0.00241919    1.932    0.482
        64 -12.0806     62.2715    149.6628   1.2148268151e+02   3.7171795803e+01    0.6381624    0.4050635  74.06  0.001759263    1.701    0.412
        65 -11.7194     48.1192    158.2546   1.2585000117e+02   3.6980100248e+01    0.3140879    0.3074823  31.41  0.000887676    1.351    0.260
        66 -10.7895    211.7296    156.6677   8.9278384995e+01   8.7884966882e+00    0.3527804     0.222834  44.17 0.0004374581    1.523    0.343
        67 -11.7998    237.3857    245.9972   1.0054935506e+02  -6.9672491658e+00    0.2159378    0.1687521  21.50 0.0003737626    1.139    0.122
        68 -10.3170    179.2955    147.0046   9.3646141664e+01   1.7032826095e+01    0.2762777    0.2075182  54.00 0.0006366512    1.387    0.279
