#   1 NUMBER                 Running object number                                     
#   2 MAG_AUTO               Kron-like elliptical aperture magnitude                    [mag]
#   3 X_IMAGE                Object position along x                                    [pixel]
#   4 Y_IMAGE                Object position along y                                    [pixel]
#   5 X_WORLD                Barycenter position along world x axis                     [deg]
#   6 Y_WORLD                Barycenter position along world y axis                     [deg]
#   7 A_WORLD                Profile RMS along major axis (world units)                 [deg]
#   8 B_WORLD                Profile RMS along minor axis (world units)                 [deg]
#   9 THETA_WORLD            Position angle (CCW/world-x)                               [deg]
#  10 FWHM_WORLD             FWHM assuming a gaussian core                              [deg]
#  11 ELONGATION             A_IMAGE/B_IMAGE                                           
#  12 ELLIPTICITY            1 - B_IMAGE/A_IMAGE                                       
         1 -14.0854    185.0738     29.9210   6.6346973111e+01   3.5063443771e+01    0.9998938    0.9587148   1.06  0.002915396    1.044    0.042
         2 -14.5171    192.7791     18.3042   6.1527124022e+01   3.4312386856e+01     1.057331    0.7884062  14.95  0.001628909    1.510    0.338
         3 -11.5085     70.4465    235.6969   1.3366635588e+02   2.0298871243e+01    0.5325716     0.184628  56.67  0.002749712    2.824    0.646
         4 -16.4848    105.9287    230.9873   1.2702583043e+02   1.6589951660e+01     7.452189     2.552244  45.64   0.03828345    2.218    0.549
         5 -12.4752    111.0534    204.2303   1.2338364283e+02   2.0037012759e+01      0.25403    0.1777467 -57.66  0.001356588    1.720    0.419
         6 -12.0635    199.1951    199.8004   1.0552471276e+02   6.7677552143e+00    0.3250098    0.2002732  24.79  0.001654971    1.407    0.289
         7 -12.3472    191.2469    190.8316   1.0554585574e+02   9.2670587008e+00     1.031185    0.5227302 -57.14  0.003537031    6.233    0.840
         8 -19.3561     18.0174    130.5113   1.3688368060e+02   4.5123361396e+01     16.51535     2.073681 -76.63   0.04416821    7.882    0.873
         9 -10.4973     43.8383    209.6763   1.3677400654e+02   2.7388831214e+01    0.3750179   0.05939421  44.18  0.001651906    3.480    0.713
        10 -12.1368     82.9397    231.0236   1.3115354941e+02   1.9518409042e+01    0.3258185    0.2140295  65.41  0.002363256    1.417    0.294
        11 -11.2783    209.0621    188.1530   1.0171799363e+02   6.6091053859e+00    0.2093017    0.1446974  16.40  0.001235481    1.290    0.225
        12 -12.3851     81.7986    182.3492   1.2704209159e+02   2.7898959553e+01    0.3943964    0.2347191 -44.42  0.002184964    2.302    0.566
        13 -12.0447     85.1750    176.9462   1.2572147221e+02   2.8475505084e+01    0.2928351    0.2327735 -40.27 0.0007894358    1.635    0.388
        14 -10.0193     90.5768    184.0658   1.2535503536e+02   2.6414771905e+01    0.2418033    0.1066146  60.82  0.001010982    3.179    0.685
        15 -10.6941    199.9108    180.2901   1.0204471374e+02   9.2144084928e+00    0.2468858    0.1896941 -48.91  0.001231073    1.874    0.467
        16 -10.8543     93.5262    178.4664   1.2407330282e+02   2.7051410511e+01     0.248474      0.17428  60.02 0.0008205826    1.366    0.268
        17 -10.4922     72.1559    175.0342   1.2836253749e+02   3.0513216806e+01    0.2860843    0.1176365  50.92  0.001366046    2.300    0.565
        18 -11.4195    125.4053    172.8150   1.1628766238e+02   2.3291439827e+01    0.2230624     0.145518  35.28  0.001212706    1.396    0.284
        19 -11.8480    137.0350    170.7367   1.1339757294e+02   2.1738123468e+01    0.3390936    0.1609901  42.13  0.001550178    1.835    0.455
        20  -9.9300     40.9619    232.5947   1.3849283479e+02   2.3966154461e+01    0.1354909   0.08973213  53.32  0.000500799    1.096    0.088
        21 -11.0278    191.0007    230.8635   1.1162147610e+02   4.3237738228e+00    0.2566706    0.1617474 -54.31   0.00151392    2.946    0.661
        22 -12.5920     97.4859    159.0905   1.2064894175e+02   3.0244884861e+01    0.5793068    0.3475353 -35.32  0.002798296    2.455    0.593
        23 -11.3956     68.8596    157.8505   1.2723710984e+02   3.4348552929e+01    0.1752715    0.1268842  65.70 0.0006316618    1.322    0.244
        24 -12.0202     62.5121    155.3439   1.2844876432e+02   3.5622462903e+01    0.2629981    0.1740761  60.95   0.00085941    1.452    0.311
        25 -11.4401    133.8223    144.7132   1.0957014317e+02   2.7135840172e+01    0.8774593    0.2277901 -55.11  0.002133582    7.353    0.864
        26 -10.2705    173.3369    149.3254   1.0149351718e+02   1.8837921488e+01    0.1489783     0.103089  10.49 0.0007051422    1.721    0.419
        27 -10.7195    179.9616    147.6955   9.9739915082e+01   1.7818159124e+01    0.2060277    0.1665071  33.30 0.0005138876    1.110    0.099
        28 -11.8560    108.5030    142.2809   1.1531839038e+02   3.1966281335e+01    0.5290402    0.2697612 -34.45  0.002082763    3.107    0.678
        29 -12.3970     96.7647    143.4577   1.1845440711e+02   3.3553666892e+01    0.2473744    0.2252298  27.45 0.0004367648    1.172    0.147
        30 -11.2186    115.2789    132.2979   1.1176265296e+02   3.2904167182e+01    0.2739376    0.2179316 -12.83 0.0007337616    1.597    0.374
        31 -11.7136    104.3104    129.4808   1.1406985167e+02   3.5330697707e+01    0.4646919    0.3225217  67.19  0.001107175    1.805    0.446
        32 -10.2208    110.7697    120.6122   1.1058307311e+02   3.6141197703e+01    0.2179325     0.186851 -37.83 0.0006561331    1.222    0.182
        33 -10.8073     67.9448    115.5111   1.2156014062e+02   4.3654605696e+01    0.1868899    0.1287142  32.23 0.0005259457    1.550    0.355
        34 -10.7184     68.1095    226.2217   1.3344655853e+02   2.2024169094e+01    0.2570792    0.1174392  62.45  0.001062733    2.197    0.545
        35 -10.6686    168.5494    113.4392   9.4414045269e+01   2.6096054966e+01    0.3393512    0.2671045 -75.24   0.00123357    1.936    0.483
        36 -10.4094     40.7441    219.9711   1.3789662016e+02   2.5990672331e+01     0.257133    0.1048665  40.33  0.000572141    1.895    0.472
        37 -10.0985    205.2539    110.5479   8.5973583410e+01   1.8534090403e+01    0.2169801    0.1275025  35.81   0.00095367    1.677    0.404
        38 -10.7889     66.0342    104.5132   1.2017646485e+02   4.6393606024e+01    0.1916206     0.130514  32.34 0.0008328049    1.579    0.367
        39  -9.4685    123.6851    101.7163   1.0268019398e+02   3.7754096865e+01    0.1487698    0.1157222   1.30 0.0002506788    1.579    0.367
        40 -10.2871     52.0578     89.6625   1.2177650446e+02   5.1408056623e+01    0.1724233    0.1699104 -15.02 0.0009117216    1.136    0.120
        41 -12.2064     46.9743    216.6614   1.3661393078e+02   2.5893838160e+01    0.4272854    0.2281353  39.24  0.002097334    1.585    0.369
        42 -13.1555    175.3816     38.7424   7.0876489855e+01   3.6524009501e+01    0.5871938    0.4413795  39.71  0.001104556    1.302    0.232
        43 -10.1044     57.0673    239.7915   1.3617991913e+02   2.1185688480e+01    0.1927234   0.09519237  38.40  0.001306001    1.648    0.393
