#   1 NUMBER                 Running object number                                     
#   2 MAG_AUTO               Kron-like elliptical aperture magnitude                    [mag]
#   3 X_IMAGE                Object position along x                                    [pixel]
#   4 Y_IMAGE                Object position along y                                    [pixel]
#   5 X_WORLD                Barycenter position along world x axis                     [deg]
#   6 Y_WORLD                Barycenter position along world y axis                     [deg]
#   7 A_WORLD                Profile RMS along major axis (world units)                 [deg]
#   8 B_WORLD                Profile RMS along minor axis (world units)                 [deg]
#   9 THETA_WORLD            Position angle (CCW/world-x)                               [deg]
#  10 FWHM_WORLD             FWHM assuming a gaussian core                              [deg]
#  11 ELONGATION             A_IMAGE/B_IMAGE                                           
#  12 ELLIPTICITY            1 - B_IMAGE/A_IMAGE                                       
         1 -10.9398    110.3828     40.0023   1.2121860629e+01   5.2305657905e+01     1.408857    0.4136068 -35.41  0.004638722    3.329    0.700
         2 -12.0160    119.8397     37.6609   9.1079766531e+00   5.0313715648e+01    0.7763652    0.3609274 -46.30  0.001879405    2.242    0.554
         3 -12.8567    164.7546     27.2259   3.5854167768e+02   4.0668548929e+01    0.4110283    0.3074906 -56.56 0.0005609434    1.206    0.171
         4 -12.2416    113.0764     24.7652   5.6569406754e+00   5.3705320491e+01    0.8106607    0.3686045  60.45  0.003428488    1.993    0.498
         5 -10.2721     60.3672     23.2465   2.0575678927e+01   6.6412830758e+01    0.5384992    0.1803786 -32.51  0.001913992    3.319    0.699
         6 -11.4186     20.6218     21.6361   4.2637530929e+01   7.3583013033e+01    0.5590791    0.3160058 -36.40  0.001792988    1.737    0.424
         7 -11.9612    246.8052     21.1916   3.5059347085e+02   2.4431792708e+01    0.5017133     0.252257  51.73  0.002797065    3.064    0.674
         8 -11.3378    179.4450     20.4555   3.5510641383e+02   3.8044087214e+01    0.6227838    0.2589348  48.94  0.002545851    3.332    0.700
         9 -10.8221    134.1155     21.6042   8.0582162835e-01   4.8796733213e+01    0.5072202    0.3630668 -26.76  0.002716682    1.519    0.342
        10 -11.7693    127.7085     15.3563   3.5956085066e+02   5.1087640938e+01    0.5091139    0.3712955 -22.63  0.002241628    1.542    0.351
        11 -11.3312    135.1441     14.6209   3.5824452172e+02   4.9300106676e+01    0.6158029    0.2619411  65.72   0.00266178    2.111    0.526
        12 -11.6141     35.3228     17.4772   3.0126479477e+01   7.2131252610e+01    0.6418036    0.4000813 -16.99   0.00273744    1.997    0.499
        13 -11.5746      8.9075     19.6492   5.1030852071e+01   7.5234193341e+01    0.4350162    0.2465502 -15.59 0.0003307017    2.003    0.501
        14 -11.8917     22.7225     10.7889   3.4466707706e+01   7.5227342312e+01    0.5050638    0.3698412  -2.24  0.001951064    1.419    0.296
        15 -11.7457     15.9967     13.8861   4.1815854896e+01   7.5600955576e+01    0.7815654    0.4180031 -35.15  0.003955443    1.855    0.461
        16 -10.7625     13.3886      8.5858   4.0644113062e+01   7.6862725131e+01    0.3297282    0.2630735 -57.86   0.00163237    1.616    0.381
        17 -12.0570    164.7520     18.0590   3.5585465974e+02   4.1713470298e+01    0.5105633    0.2882651  44.78  0.002442674    2.326    0.570
        18 -11.9497    242.3430     15.0168   3.4955426321e+02   2.5875001238e+01    0.2274752    0.2148137 -16.74 0.0001583769    1.470    0.320
        19 -10.9950     85.8541     14.4617   7.5098465775e+00   6.1662316779e+01    0.4853549    0.3120303  -0.04  0.001665653    2.116    0.527
        20 -12.2185    227.9184     14.9066   3.5028504861e+02   2.8536428466e+01     0.420211    0.1918846 -69.25   0.00185379    2.192    0.544
        21 -10.8122     88.1937      7.9643   3.8469426218e+00   6.1758938143e+01    0.4615004    0.3361785  64.34  0.002551108    1.234    0.190
        22 -11.7841    104.5021     11.9478   2.1746589965e+00   5.7293207611e+01    0.4836261     0.323312 -27.00  0.001654195    1.623    0.384
        23 -12.4097     48.6941     12.8236   1.9938134444e+01   7.0296145511e+01    0.7340984    0.2803592  49.53   0.00301759    2.393    0.582
        24 -11.1218    191.1909     10.9747   3.5165052194e+02   3.6440425736e+01    0.4275745    0.2356534  -8.14  0.001992307    3.000    0.667
        25 -10.9037    120.3037     11.3912   3.5922136571e+02   5.3358651607e+01    0.2447657    0.1942763  67.02 0.0006085453    1.171    0.146
        26 -10.0700      5.6668      8.9812   4.8120532962e+01   7.7625527025e+01    0.2405956    0.1818309 -42.65 0.0008178414    1.262    0.208
        27 -11.6535    212.3615      9.4585   3.4993255113e+02   3.2147046911e+01    0.4332005    0.2979057  -9.99  0.001714835    2.042    0.510
        28 -11.7494    206.8430      2.2120   3.4853901460e+02   3.3989574027e+01    0.6733571    0.2376443 -87.44  0.002795941    3.163    0.684
        29 -10.9703    218.5787      3.2643   3.4819069581e+02   3.1525157003e+01    0.2515815    0.1888288 -78.67 0.0008186384    1.225    0.184
        30 -10.6048    223.3816      2.1892   3.4772658370e+02   3.0693618949e+01    0.2329309    0.1763209 -65.88 0.0007034118    1.098    0.089
        31 -11.5926    168.6709      9.5094   3.5301021185e+02   4.1680992010e+01    0.4837543    0.2292516  66.27  0.002141818    2.039    0.509
        32 -10.9508     63.9913      9.9681   1.1882927093e+01   6.7330261313e+01     0.348819    0.2459722  44.21 0.0003688508    1.299    0.230
        33  -9.8487     61.9976      6.7490   1.0751786499e+01   6.8133174676e+01    0.2886488    0.1721936  47.46  0.001017517    1.499    0.333
        34  -9.4606    144.9511      9.9673   3.5547603749e+02   4.7335607900e+01    0.2007926    0.1456529  42.86 0.0006028218    1.654    0.395
        35 -11.7136    243.2811      3.3769   3.4712912811e+02   2.6890028704e+01    0.5251355    0.1372429 -52.84  0.002502905    2.710    0.631
        36  -9.8923      1.2948      7.2851   5.1522048679e+01   7.8326222847e+01    0.2246017   0.09216006 -51.99 0.0008467021    2.173    0.540
        37 -10.1445      1.8573      2.1495   4.7600520091e+01   7.9238331361e+01    0.2754324    0.1351056 -38.71  0.001440034    1.861    0.463
        38 -11.3156    185.0918      6.5752   3.5093777734e+02   3.8224773065e+01    0.3224598    0.1890427 -64.95  0.001580975    1.514    0.339
        39 -11.0813    154.6939      6.7546   3.5345444674e+02   4.5269307666e+01    0.3641227    0.1904287  78.15  0.001194079    1.778    0.437
        40  -9.5491     78.0346      7.4659   6.1511123165e+00   6.4290812319e+01    0.2041668    0.1218288  64.10 0.0005389553    1.528    0.345
        41  -9.7906     30.5624      5.2109   2.5012917848e+01   7.4781208270e+01    0.2465734    0.1212936 -35.12  0.001103312    2.118    0.528
        42  -9.7999     28.8587      1.4447   2.3321175562e+01   7.5579195277e+01    0.1735201    0.1413835  33.16 0.0003531383    1.118    0.105
        43 -10.0813    128.8981      4.8491   3.5561726389e+02   5.1808022974e+01    0.1859008    0.1631833  65.55  0.001143858    1.153    0.132
        44 -11.6992    133.9425      2.5554   3.5421549130e+02   5.0747805317e+01    0.6396779    0.2724117  79.00  0.002747519    2.202    0.546
        45 -10.8130     41.2883      3.8941   1.7838197839e+01   7.2909433598e+01    0.3839476    0.2174896  29.56  0.001885282    1.927    0.481
        46 -11.3018    236.4956      3.4504   3.4742239521e+02   2.8105859526e+01    0.2466542     0.166514 -36.47  0.001720112    1.316    0.240
        47 -10.6483    142.0058      3.4646   3.5365934223e+02   4.8668488502e+01    0.2576474    0.2280157 -71.52  0.001144081    1.050    0.048
        48 -11.2878    113.4372      2.2694   3.5671503972e+02   5.5928026730e+01    0.4852069    0.2415785 -88.09  0.001584032    2.249    0.555
        49  -9.1060     76.3419      3.2994   4.4422820217e+00   6.5091662915e+01    0.1428076   0.08759014  38.82  0.000482079    1.670    0.401
        50 -10.0928    152.6809      1.5582   3.5203391266e+02   4.6230556764e+01    0.2377287    0.1386511  84.24 0.0007922571    1.571    0.364
        51 -10.2286    105.4408      1.8498   3.5776428560e+02   5.7983253882e+01    0.2596162    0.1684928 -83.10  0.001202331    1.607    0.378
        52  -9.8109     12.5037      2.0241   3.6691624896e+01   7.8068135446e+01    0.1890472    0.1485128  17.20 0.0006887575    1.153    0.133
        53  -9.1672    160.3102      1.3559   3.5133138812e+02   4.4420696670e+01    0.1244619   0.09162248  41.73 0.0007043275    1.731    0.422
        54  -9.7248     71.3848      4.4654   6.4363574469e+00   6.6173400358e+01    0.4274818     0.166503  33.32  0.001413924    4.165    0.760
        55  -9.1796     82.0837      1.1476   1.9281074371e+00   6.3877486821e+01    0.1824789   0.08265688  66.26 0.0005446292    1.935    0.483
        56  -9.4497     26.7214    127.0869   6.6827241880e+01   4.6547117001e+01    0.1993031    0.1748113 -81.01 0.0003842069    1.060    0.057
        57 -11.5650    248.3759    249.0344   3.2240341584e+01  -5.1813188011e+00    0.3292564     0.234613  41.28  0.002317992    3.065    0.674
        58 -11.0548    239.5632    250.2158   3.3726038817e+01  -4.5617495435e+00    0.1806931    0.1049687   2.15 0.0008112857    1.354    0.262
        59  -9.0959    226.3276    250.3447   3.5807034299e+01  -3.4068952299e+00    0.1108421   0.05855158  -6.16 0.0007050608    1.747    0.428
        60 -10.0334    201.8479    250.2029   3.9848190039e+01  -1.0705837198e+00    0.1547795     0.096889  -0.55    0.0009153    1.327    0.246
        61 -10.0771     22.9796    126.3779   6.8116238948e+01   4.7065241958e+01     0.190607     0.182176  53.50 0.0003791304    1.092    0.084
        62  -9.3260     33.3339    125.6738   6.4217739306e+01   4.6309208614e+01    0.1591989   0.09981935  60.41 0.0007051432    1.715    0.417
        63  -9.8639      2.0652    124.8673   7.5620608808e+01   4.8914388719e+01    0.2256325    0.1661093  64.19  0.001234439    1.291    0.225
        64 -10.6521    104.7983    122.4686   3.9221559810e+01   3.6606459858e+01    0.3079095    0.3025739 -82.63 0.0008811982    1.025    0.024
        65  -9.6414     49.0647    122.5643   5.7945035270e+01   4.5405699775e+01    0.3138258    0.2064068 -17.69  0.001339561    2.100    0.524
        66 -10.4745     43.5511    117.5110   5.9142142288e+01   4.7437747604e+01    0.5989962    0.2496756 -79.38  0.001969255    3.137    0.681
        67  -9.3679     34.3587    118.3106   6.2781816490e+01   4.8220501698e+01    0.1564658     0.103777 -35.23 0.0007042356    1.739    0.425
        68 -11.5673     16.4730    108.9303   6.8570758214e+01   5.2353545610e+01    0.7705221    0.6204308 -45.03  0.002182753    1.272    0.214
        69 -11.1999     35.3736    102.8650   5.9819105594e+01   5.2332836683e+01    0.5057782    0.2688045   2.74 0.0001148155    2.677    0.626
        70 -11.9721     26.3083    106.5754   6.4209609311e+01   5.2204474254e+01     1.203702    0.4724782 -56.51  0.004635449    2.245    0.554
        71 -12.4121      7.9056    114.8767   7.2622139008e+01   5.1292240111e+01    0.3986866    0.3226371 -34.59 0.0003836678    1.360    0.265
        72 -12.5429      2.8280    111.5904   7.4318071458e+01   5.2467266153e+01     1.118333     0.361829 -72.71  0.004201429    2.559    0.609
        73 -11.6446     22.6077    113.9405   6.6744880212e+01   5.0503253121e+01    0.5499027     0.315818  -0.78  0.002387988    2.244    0.554
        74 -11.2809     27.5147    112.1680   6.4551640642e+01   5.0563249139e+01    0.4554816    0.2781669  43.35  0.001560095    1.676    0.403
        75  -9.7281     79.4344    114.5314   4.5462299332e+01   4.3085566258e+01    0.2976722     0.218799 -46.69  0.001239716    1.370    0.270
        76  -9.9800     58.5263    115.0450   5.3047331425e+01   4.6183142738e+01    0.2644534    0.1997705  52.07  0.000317702    1.384    0.278
        77  -9.1382     67.3377    114.6614   4.9744207900e+01   4.4994540867e+01    0.1648649    0.1153982  68.29 0.0007051029    1.758    0.431
        78 -10.0098     49.0862    111.7517   5.5974396036e+01   4.8326659150e+01    0.2530662    0.2402564  66.19 0.0006456593    1.060    0.057
        79 -12.1662     79.5436    107.9218   4.3855262961e+01   4.4745955230e+01    0.5322885    0.3972955   5.76  0.000907655    1.747    0.427
        80 -10.0100    105.8556    107.5886   3.5234975558e+01   3.9928857457e+01    0.2652641    0.1863625 -55.67 0.0009509521    1.446    0.309
        81  -8.8537    180.3203    106.3218   1.7473460635e+01   2.5033240976e+01    0.1392129    0.1074184  -1.79 0.0007044728    1.672    0.402
        82 -10.4408     47.6745    102.7098   5.4715503138e+01   5.0937056159e+01    0.5220593    0.2949589 -37.57   0.00191248    2.083    0.520
        83 -11.1350     50.5066    101.0603   5.3211277469e+01   5.1007523758e+01    0.7225537    0.2828515 -49.12  0.002555234    2.503    0.600
        84 -10.4527     91.4020    102.2727   3.8381276420e+01   4.3993197821e+01    0.4692066    0.3730418 -12.80  0.002188377    1.595    0.373
        85  -9.6975     86.0282    103.3033   4.0453631302e+01   4.4743947300e+01    0.2503738    0.2152284 -28.59 0.0006557757    1.269    0.212
        86  -9.7416     57.2175    103.2195   5.1016465687e+01   4.9506836409e+01    0.2151135    0.1763972  76.45 0.0005630043    1.358    0.263
        87 -10.6107     17.2063    100.4503   6.7153486085e+01   5.4619613407e+01    0.3383798    0.1870952 -73.60 0.0007932217    1.652    0.395
        88 -11.2964     22.8088     94.3649   6.3759152035e+01   5.5835676846e+01    0.4245383     0.305603 -25.76  0.001583581    1.558    0.358
        89 -10.6759     18.4431     88.0339   6.4688743031e+01   5.7894800516e+01    0.6526033    0.3408028 -77.94  0.002825987    1.899    0.473
        90 -10.8578      8.4818     96.0219   7.0381489570e+01   5.6394580843e+01    0.6448861    0.3728968  83.37  0.002980745    1.806    0.446
        91 -12.0083    210.4232     98.1313   1.0842464415e+01   2.0762950937e+01    0.2295752    0.1964651 -41.13 0.0002637079    1.027    0.026
        92 -12.0213     67.9598     94.8713   4.4784417725e+01   5.0006483016e+01    0.6713033    0.3817927  31.54  0.002134316    1.841    0.457
        93 -10.3067     81.4383     83.7453   3.6555157316e+01   5.0303354242e+01    0.5676367    0.3256677  27.13  0.002218001    2.191    0.544
        94 -10.9643     75.4371     78.5719   3.7179658255e+01   5.2647291210e+01     1.118109    0.7521152 -82.15   0.00450744    2.334    0.572
        95 -10.0336     77.2137     96.6211   4.1786370504e+01   4.7983009631e+01    0.2842897    0.2607127  -1.88 0.0005047717    1.195    0.163
        96 -11.3581     79.0385     92.2336   3.9915529110e+01   4.8731042301e+01    0.7633243    0.5919101 -77.53  0.003582119    1.520    0.342
        97 -10.6667    248.4814     97.0178   5.9956614035e+00   1.4638587659e+01    0.2226416    0.1358922  11.97   0.00104927    3.609    0.723
        98 -10.3356     42.3976     94.1211   5.5073655476e+01   5.3886860306e+01    0.3744648    0.3179495  37.40  0.001984099    1.222    0.181
        99  -9.7658     43.5275     90.4754   5.3754711943e+01   5.4711854520e+01    0.2066835    0.1604094 -34.29 7.454301e-05    1.365    0.267
       100 -10.0389     16.3132     94.9332   6.6754464718e+01   5.6186453616e+01     0.233527    0.1639899  81.61  0.001047682    1.492    0.330
       101  -9.6743     37.0677     85.5294   5.5501678313e+01   5.6788067905e+01    0.3349459    0.1497386  21.30  0.001116062    2.484    0.597
       102 -11.5137     28.0913     85.0430   5.9580433217e+01   5.7863967969e+01    0.6420906    0.4902078  30.67  0.001223067    1.377    0.274
       103 -10.1925     35.8377     92.5763   5.7609619376e+01   5.5057295116e+01    0.4751254     0.267245 -87.10  0.001442285    2.289    0.563
       104  -9.7390     38.8627     90.1993   5.5752347253e+01   5.5348349461e+01    0.2310422    0.1937693 -25.02 0.0004719738    1.281    0.219
       105 -10.3397     98.2920     90.6535   3.2896069028e+01   4.5359546554e+01    0.2670328    0.2531258  29.56 0.0004615831    1.096    0.088
       106 -10.7532     49.5157     90.0277   5.1050182183e+01   5.4044255830e+01    0.4958756    0.3324592 -85.96  0.002170599    1.887    0.470
       107 -10.0187     52.0652     86.9935   4.9182122762e+01   5.4470969711e+01      0.31384    0.2533311  66.72 0.0003601443    1.422    0.297
       108 -11.3898      6.2497     88.3687   7.0444224079e+01   5.8585310939e+01    0.6997118    0.3672384  17.16  0.003238757    2.067    0.516
       109 -10.6087      2.4409     80.4197   7.1252682192e+01   6.0895093727e+01    0.6188024     0.243077  81.98  0.002176607    3.342    0.701
       110 -11.3109      2.0796     71.1319   7.0158447216e+01   6.3360330835e+01    0.9054906      0.20149 -72.11  0.002940446    3.545    0.718
       111 -11.7775     13.9987     56.9979   6.0614125638e+01   6.6297362824e+01     1.138701    0.6410183 -12.12  0.005226907    2.108    0.526
       112 -12.1094      7.5142     63.4832   6.5856400832e+01   6.5076048793e+01    0.2662668    0.2212188 -32.58 0.0005211672    1.169    0.145
       113 -12.4861      4.2834     61.0464   6.7249912012e+01   6.5866893443e+01    0.3110966    0.2745526 -42.78 0.0003302575    1.060    0.057
       114 -10.0014     66.4922     88.5210   4.3633863735e+01   5.1842091550e+01    0.3607035    0.2566796  -1.30  0.001365265    1.966    0.491
       115  -9.4853    104.3880     86.8123   2.9859677673e+01   4.4945020093e+01    0.2224775    0.1437128 -36.11 0.0009439179    1.682    0.406
       116  -9.9973     91.0123     85.9376   3.3875839366e+01   4.7912164066e+01    0.4223605     0.346764  49.80  0.002071822    1.240    0.193
       117  -9.9288    118.8693     85.7297   2.5387796526e+01   4.2035695569e+01    0.2774086    0.2099624 -33.50  0.001312946    1.404    0.288
       118 -10.7319    113.4526     83.3854   2.6173166105e+01   4.3716508851e+01    0.5748256    0.3890024  82.48  0.002310098    2.306    0.566
       119 -11.2991     44.8004     84.0784   5.1625442176e+01   5.6216787433e+01    0.5053989    0.4171018 -83.67  0.001950582    1.319    0.242
       120  -9.4451    143.4376     84.2645   1.8980566442e+01   3.6846293069e+01    0.2007663    0.1353366 -50.47 0.0006160703    1.463    0.316
       121 -10.3737     67.3063     81.3430   4.1224728065e+01   5.3461712743e+01    0.3840744    0.3070384   1.77  0.001856019    1.519    0.342
       122 -12.5890     60.9002     83.3813   4.4447077790e+01   5.4036183181e+01    0.3274122    0.2982683  41.80 0.0003886546    1.125    0.111
       123 -10.3474     58.0715     77.9783   4.4056266468e+01   5.5819486039e+01    0.2937511     0.218291 -61.54 0.0005322626    1.377    0.274
       124  -8.9783    196.5069     81.4299   8.8836230104e+00   2.6016647239e+01    0.1350201    0.1147537 -50.97 0.0001313433    1.055    0.052
       125  -9.8992    162.2688     81.1738   1.4332895860e+01   3.3230311928e+01    0.1940019      0.17904 -41.01  0.000331482    1.066    0.062
       126 -10.1509    119.3252     78.7209   2.3140571047e+01   4.3359103200e+01    0.4491263    0.2433107 -62.23  0.001462736    2.747    0.636
       127  -9.5956    103.3152     79.4818   2.7927526257e+01   4.6754607898e+01     0.267864    0.1395654 -45.31 0.0007950999    1.905    0.475
       128 -12.4368    247.4342     75.8416   1.7980081541e+00   1.7681172964e+01    0.4552019    0.2509383 -41.93  0.002726481    1.372    0.271
       129 -10.7790     94.5729     75.5737   2.9429227401e+01   4.9466164017e+01    0.4611761    0.3681504 -87.07  0.001707543    1.569    0.363
       130 -10.9054     53.2224     75.9547   4.5577972877e+01   5.7072213424e+01    0.4603987    0.3873172  70.83  0.001912692    1.388    0.279
       131 -10.0953     46.8507     74.8952   4.8175073081e+01   5.8266669718e+01    0.4502114    0.2213674 -32.69  0.001592105    2.902    0.655
       132 -10.0892     64.2347     74.9998   4.0516863936e+01   5.5508410734e+01    0.4849567    0.2856031  37.58  0.002023457    1.714    0.417
       133 -11.3920     27.4472     73.3468   5.7263147258e+01   6.0989215131e+01    0.4680275    0.3034556 -15.32  0.001169936    1.863    0.463
       134 -10.6339     34.9996     71.4215   5.2932551309e+01   6.0664075550e+01    0.4540195    0.2405896  40.81  0.001508805    2.027    0.507
       135 -10.3757     40.7872     72.7135   5.0432120381e+01   5.9627463630e+01    0.3723311    0.2476307  10.95  0.001105761    1.762    0.433
       136 -10.9302     40.5375     68.8352   4.9418926443e+01   6.0622077670e+01     0.369422    0.2912226  30.23  0.001934921    1.307    0.235
       137 -10.7603     14.2841     74.2769   6.4264368365e+01   6.1853977378e+01    0.3332753    0.2830806  86.12  0.001419587    1.234    0.190
       138 -10.8295     89.2597     77.0220   3.1678513473e+01   5.0266405578e+01    0.5285858    0.3036443  48.21  0.001613374    1.779    0.438
       139  -9.9090    102.8607     74.1343   2.6347205621e+01   4.7970686493e+01    0.2501522    0.2113255 -87.99   0.00124051    1.364    0.267
       140 -10.4102     80.5466     71.5206   3.2950039982e+01   5.3246502378e+01    0.3875625    0.3037983 -45.43  0.001275382    1.273    0.214
       141  -9.8661     85.7940     69.7239   3.0446231259e+01   5.2562299496e+01    0.2987056     0.240042  10.23  0.001433815    1.551    0.355
       142  -9.6205    153.6425     72.2625   1.3463359614e+01   3.6704808985e+01    0.2561852    0.1247018  55.91  0.001050165    2.132    0.531
       143 -11.1266    122.7767     68.3736   1.8989669948e+01   4.4556982678e+01    0.4016265    0.2650922  47.50 0.0009354429    1.555    0.357
       144  -9.7051     13.2942     67.8164   6.3503708615e+01   6.3603244678e+01    0.4521756    0.2349126   2.87  0.001833677    2.258    0.557
       145 -10.4321    102.0814     66.7458   2.4108349092e+01   4.9630564136e+01     0.329878     0.247738 -31.13 0.0002784978    1.453    0.312
       146 -10.0568    105.8293     63.7627   2.1978113414e+01   4.9353287427e+01    0.3372944    0.2511303  32.34  0.001396525    1.554    0.357
       147 -10.3007    219.8013     67.0096   2.6377569982e+00   2.3670000440e+01     0.340487    0.1552996  56.56   0.00168181    2.564    0.610
       148 -10.2076    202.1337     63.3550   3.7621229912e+00   2.7608582551e+01    0.2774629    0.1672872 -31.85 0.0008484148    1.560    0.359
       149 -10.8392     50.5171     56.5165   4.0324871861e+01   6.2052368770e+01    0.8715035    0.2613398 -56.68  0.002510842    4.340    0.770
       150 -11.3318     46.4777     59.4623   4.3390819664e+01   6.2018929430e+01    0.5791512    0.3102739  52.60  0.002289461    2.550    0.608
       151 -11.7237     43.1852     60.7319   4.5489955332e+01   6.2207696713e+01    0.4820973    0.2662664 -56.21  0.001141451    1.790    0.441
       152 -11.1084     39.8618     56.5233   4.5751159821e+01   6.3654068918e+01    0.3372297    0.2367217  29.61  0.001138696    1.448    0.309
       153 -10.2329    158.9420     62.5840   9.7221927045e+00   3.7094560809e+01    0.2749869    0.2131781  39.56  0.000805067    1.543    0.352
       154 -10.9295     92.5375     62.5540   2.5632148974e+01   5.2584846414e+01    0.3959312    0.2731302  64.97 0.0008380001    1.702    0.413
       155  -9.9937     58.5047     62.4981   3.8776155577e+01   5.9380260951e+01    0.3104609    0.2704584  78.93  0.001637696    1.375    0.273
       156 -10.0110    113.5989     60.6124   1.8753889841e+01   4.8127134107e+01     0.284209    0.2511463 -66.03 0.0008367978    1.159    0.137
       157 -11.7141     75.5129     55.7923   2.9149034707e+01   5.7566931333e+01     0.708507    0.4007441 -41.07  0.002393898    1.805    0.446
       158 -11.4509     72.6880     46.5756   2.6526991799e+01   5.9926987414e+01    0.8381965    0.3197497 -45.10  0.003015009    2.744    0.636
       159  -9.6360     64.5140     61.0348   3.5608630310e+01   5.8628645203e+01    0.3483903     0.187828  46.03  0.001448269    1.928    0.481
       160  -9.1449    150.7382     60.6553   1.0605909239e+01   3.9310529352e+01    0.1374713     0.114005   7.42 0.0004224842    1.599    0.375
       161 -10.4686    124.3490     56.9442   1.4853491338e+01   4.6208861835e+01    0.9784199    0.4226528  56.06  0.003687872    2.283    0.562
       162 -10.3856    219.1195    248.3153   3.6692556667e+01  -2.5088292160e+00    0.1818334    0.1105447 -16.59  0.000972291    1.354    0.262
       163  -9.6532    188.2483    249.2121   4.2109587445e+01   4.2862372597e-01    0.1476899   0.09036258 -50.55 0.0009037364    2.525    0.604
       164 -11.8286    116.7077     47.7451   1.3457215202e+01   4.9566172174e+01    0.6734983    0.5492741  -3.87  0.001778546    1.553    0.356
       165 -10.8427    116.5079     43.4581   1.1957053823e+01   5.0282642985e+01    0.3433255    0.2737264   0.94  0.001688184    1.638    0.390
       166  -9.8155     29.5888     59.3604   5.2276210395e+01   6.4267762514e+01    0.3721149    0.2191335 -71.63  0.001665799    1.964    0.491
       167  -9.5895     21.3403     57.7015   5.6472253031e+01   6.5514322635e+01    0.3846328    0.2208854  89.62  0.001588254    2.647    0.622
       168 -10.1705     25.9709     59.2408   5.4265487927e+01   6.4685159039e+01    0.3106945    0.1898577  22.53  0.001497533    1.700    0.412
       169 -10.6633     25.5306     55.5807   5.3403521734e+01   6.5619212104e+01    0.4126229    0.2595892 -25.18  0.001038788    1.789    0.441
       170 -10.0921    106.4580     58.2640   1.9871873850e+01   5.0226759790e+01     0.288772     0.232168  75.89 0.0006500637    1.368    0.269
       171  -9.6699     87.7299     49.6468   2.2353100068e+01   5.6088579874e+01    0.3191337    0.2312986 -18.33  0.001317009    1.721    0.419
       172 -10.1356     88.0000     55.9978   2.4722416270e+01   5.4855775201e+01    0.4122692    0.1815013 -35.98  0.001168345    2.532    0.605
       173  -9.6230     88.6889     52.6602   2.3213480007e+01   5.5326198914e+01    0.2486982    0.1992092 -34.32 0.0005589676    1.301    0.231
       174 -10.1588    157.1635     54.3435   7.6169625220e+00   3.8790835855e+01    0.3494932    0.2346078 -48.67  0.001754548    1.399    0.285
       175 -10.3083    155.0578     49.1570   6.4139692473e+00   4.0060329497e+01    0.4371503    0.2063179 -22.76  0.001302583    2.921    0.658
       176  -9.3101     33.9837     57.0000   4.9088051171e+01   6.4314818576e+01    0.2291005   0.07993018  27.36 0.0008043979    2.956    0.662
       177 -10.6905     60.4082     51.7287   3.3819510434e+01   6.1354330334e+01    0.6870587    0.3080842 -55.84  0.002478482    2.877    0.652
       178 -10.3880     61.5696     46.6473   3.1195163380e+01   6.2151947688e+01    0.3925866    0.1997096 -33.40  0.001566981    2.323    0.569
       179 -10.6258     32.0491     52.6889   4.8690827616e+01   6.5563746895e+01    0.4731153    0.2470276  11.95  0.001932887    2.492    0.599
       180 -11.2464    243.5376     51.1144   3.5700196316e+02   2.1517909979e+01    0.2399379    0.1742187 -76.29 0.0002846167    1.467    0.318
       181  -9.2918    201.9972     52.5042   1.1259911518e+00   2.9153353675e+01    0.1610147    0.1017197  39.47 0.0006928872    2.315    0.568
       182 -10.1431    126.7686     50.3643   1.2089127790e+01   4.6701393662e+01    0.4874989     0.185166 -26.18  0.001487118    4.018    0.751
       183  -9.2861     54.5469     51.3000   3.6355536922e+01   6.2500175063e+01    0.3575048    0.2028608 -21.07  0.001309422    3.025    0.669
       184 -10.1279    145.6623     48.8167   7.8898901346e+00   4.2356186522e+01    0.4832312    0.2763343  -6.80  0.001696514    3.753    0.734
       185  -9.8760    145.5186     42.5248   5.9277744127e+00   4.3304162866e+01    0.2471862    0.1133564 -43.81 -2.856183e-05    2.066    0.516
       186 -10.2334    144.8259     39.1807   4.9751782067e+00   4.3937669799e+01     0.215883    0.1758598 -65.00 0.0003288456    1.178    0.151
       187  -9.1914     97.5796     49.8161   1.9320190782e+01   5.3797550547e+01    0.1939763    0.1369071 -51.18 0.0003323861    1.507    0.337
       188 -10.3242     82.7722     47.2520   2.3079229577e+01   5.7625355452e+01    0.4100385    0.2557463 -18.30  0.001695179    2.323    0.569
       189  -9.5736      2.0262     48.7134   6.6125881563e+01   6.9062266160e+01    0.1820128    0.1630032 -32.96 0.0006906148    1.073    0.068
       190 -12.3280     41.7116     44.0989   3.9929144604e+01   6.6126545587e+01    0.9141362    0.3631393  34.37  0.002287671    2.521    0.603
       191 -10.5233     20.5154     45.5889   5.3168143450e+01   6.8488240163e+01     0.269257    0.2243254 -27.62 0.0006523246    1.124    0.110
       192 -11.3393     26.1330     42.6390   4.8512172236e+01   6.8556858374e+01     0.471862    0.3053135  44.64  0.001286697    1.812    0.448
       193 -10.1411     22.8803     37.0028   4.8350673361e+01   7.0168374335e+01    0.4477922    0.1978889  40.67  0.001579622    2.610    0.617
       194 -10.1370     13.8463     45.9183   5.7601913348e+01   6.9003197122e+01    0.3353453    0.1605916 -35.31   0.00135553    2.157    0.536
       195 -10.7510     18.1514     40.6772   5.2965635758e+01   6.9844446799e+01    0.3388069    0.1941863 -43.54  0.000638665    1.598    0.374
       196  -9.9709    138.6194     44.3384   7.7175439330e+00   4.4724619840e+01    0.3196141    0.2053913  26.80  0.001096041    2.451    0.592
       197  -9.5763    199.3659     44.6002   3.5945000555e+02   3.0752177822e+01    0.2450293    0.1104046  89.53 0.0009562024    3.491    0.714
       198  -9.8217    156.0547     42.4300   4.2305712326e+00   4.0781128959e+01    0.2465284    0.1983553 -12.36  0.001285596    1.543    0.352
       199 -10.0330     56.9368     41.7190   3.1152886015e+01   6.3982697832e+01    0.2815439    0.2124572  61.01 0.0009240211    1.615    0.381
       200 -10.5856     78.7055     37.3557   2.0304318668e+01   6.0221133859e+01    0.4922715    0.3398109 -76.67  0.001876189    2.273    0.560
       201 -11.0094     79.0349     33.5031   1.8467327438e+01   6.0756705873e+01    0.6344552    0.4455021  13.09  0.002969363    1.965    0.491
       202 -11.1190      3.7722     36.4581   6.1727738740e+01   7.1910398503e+01    0.5668883    0.3205703 -55.65  0.002717305    1.518    0.341
       203 -10.7077     10.0253     30.5367   5.4940382654e+01   7.2828006275e+01    0.3422784    0.3195709 -46.89  0.002035428    1.144    0.126
       204 -10.4590    249.7215     38.9510   3.5404747845e+02   2.1931323220e+01    0.1927524    0.1372959 -66.89 0.0003630934    1.320    0.243
       205 -10.4852    228.9084     37.2150   3.5512676756e+02   2.5833737491e+01    0.2840635     0.184972  65.81  0.001788626    1.805    0.446
       206  -9.7225     60.6541     36.8013   2.7204478179e+01   6.4161180818e+01    0.2729087    0.2089873 -43.24 0.0006951157    1.365    0.268
       207  -9.8101     62.1479     33.4523   2.4960236301e+01   6.4434856734e+01    0.2654452    0.2067856  39.17 0.0007050641    1.230    0.187
       208 -10.4781    153.2218     35.7934   2.6197726677e+00   4.2353904867e+01     0.236369      0.20939  86.41 0.0005083831    1.085    0.079
       209 -10.5186    220.0114     35.3031   3.5537571620e+02   2.7754391804e+01    0.1962591     0.129456 -57.77 0.0004859283    1.287    0.223
       210 -10.1625    216.6727     32.3425   3.5495419316e+02   2.8760305707e+01    0.2892726    0.2171649  15.86  0.001575301    2.194    0.544
       211 -10.5891    169.4585     23.0036   3.5679863038e+02   4.0056311627e+01     0.260689    0.2217375  85.05 0.0006204189    1.148    0.129
       212 -10.2492    175.4866     34.3404   3.5933557020e+02   3.7302067953e+01    0.3171953    0.1745797 -55.26 0.0008630311    1.731    0.422
       213 -11.8017    171.0353     30.0616   3.5863956899e+02   3.8856635718e+01    0.8042835    0.2248694  67.21  0.002931131    3.386    0.705
       214 -11.2637    157.9263     29.1134   3.5993594485e+02   4.2066253606e+01    0.4339389      0.30036 -88.47  0.001132052    1.446    0.309
       215  -9.8687    229.0000    248.0267   3.5064471423e+01  -3.3863367558e+00    0.1532469   0.04863339 -36.97 0.0008045481    2.957    0.662
       216 -11.7747    107.2789     31.1935   9.4471600833e+00   5.4324289768e+01    0.7687314    0.3955866  39.00   0.00308711    2.463    0.594
       217  -9.5124    197.6021    244.1783   3.9772471669e+01   1.1037538942e-01    0.1541695    0.0820305 -24.30 0.0009456727    1.797    0.443
       218 -12.4899    105.7258     20.0257   5.2838651315e+00   5.6111660418e+01    0.3225907    0.2829698 -65.53 0.0003923028    1.166    0.142
       219 -10.8892    240.1658     32.5177   3.5333213628e+02   2.4335978027e+01    0.2192034    0.2056498  31.36  0.001684767    1.531    0.347
       220  -9.4743     12.6866     36.8430   5.5354425494e+01   7.1202240065e+01    0.1764575    0.1180852 -72.42            0    1.704    0.413
       221 -11.8291     58.2516     29.3478   2.4652221725e+01   6.5908773040e+01    0.3990458    0.2999237  14.08  0.002075836    1.549    0.354
       222 -11.3338     48.9339     30.1138   2.9515832331e+01   6.7590663076e+01    0.6752833    0.2687074  37.70  0.002089307    2.588    0.614
       223 -10.6559    229.1277    243.3153   3.4388299840e+01  -2.8589113335e+00    0.2042657   0.07600917  20.94  0.001104932    2.613    0.617
       224  -8.8583     22.2775     31.3190   4.6276559733e+01   7.1446057183e+01    0.1373974   0.09163716 -23.86 0.0002828605    1.576    0.365
       225 -12.1602    127.4161     28.4293   4.3028562730e+00   4.9656676942e+01    0.8110916    0.3891842  76.05  0.002222617    2.314    0.568
       226 -10.2050     13.5501     22.8517   4.8765525329e+01   7.4140543640e+01    0.2503266    0.1706537  23.18 0.0005086538    1.462    0.316
       227 -11.6785     26.5728     27.7056   4.1567224173e+01   7.1636603945e+01    0.4729533    0.3331002 -56.85  0.001987342    1.622    0.383
       228 -11.0502    244.0581    241.5448   3.1835814668e+01  -3.9994936877e+00    0.2311701    0.1063034  -1.10  0.001310789    2.539    0.606
       229 -11.4013    230.2479     27.0039   3.5279011864e+02   2.6773772131e+01    0.3050185    0.2216999 -81.91  0.001509496    1.375    0.273
       230 -10.5959    189.3442     26.9235   3.5592189947e+02   3.5095675358e+01    0.3245575    0.2313546  44.55  0.001849382    1.856    0.461
       231 -10.8591    183.3110     26.1619   3.5628524499e+02   3.6521984179e+01    0.3971722    0.1470688 -45.11  0.001723518    2.259    0.557
       232 -10.4038    155.3744     23.3697   3.5849984294e+02   4.3361703689e+01    0.4389023    0.2065293 -34.64  0.002006218    1.989    0.497
       233 -11.3337    149.1788     22.3509   3.5895618505e+02   4.4984556516e+01    0.5520507    0.1802322  66.39   0.00157329    2.773    0.639
       234 -10.7453    149.6004     27.5583   5.5347030380e-01   4.4269571297e+01    0.5473768    0.2069157  63.57  0.002003116    2.451    0.592
       235 -10.9375    143.1808     25.2674   7.1090950907e-01   4.6119164738e+01    0.3997687    0.1886276  72.55  0.001729958    2.086    0.521
       236 -10.0113    250.7715     26.9647   3.5155064376e+02   2.3117618921e+01    0.1476618   0.07226568 -34.72 0.0005391322    1.618    0.382
       237 -11.7357    125.6662    240.9807   5.3350694433e+01   8.6325767175e+00    0.2732485    0.2105901  56.53  0.001762987    1.696    0.410
       238  -9.5378     97.0501     25.7388   9.6912453769e+00   5.7569061547e+01    0.2089871    0.1750361  63.14  0.001158585    1.118    0.105
       239 -10.7188     46.3674     24.1919   2.7712994027e+01   6.9066599495e+01     0.328535    0.2501917  12.20 0.0006802977    1.436    0.303
       240  -9.8331     46.7987     19.7887   2.5015358411e+01   6.9679805195e+01    0.2331584    0.1923866  40.54 0.0007383578    1.160    0.138
       241  -9.9797    201.2004     23.5869   3.5407011181e+02   3.2931143755e+01    0.1626625    0.1064228  63.40 0.0007527263    1.713    0.416
       242 -10.9453     72.8673    238.0910   6.4653451177e+01   1.5258485547e+01    0.2752202      0.22394  37.79  0.001617274    1.027    0.026
       243 -11.8277    146.9924    237.7074   4.8525515846e+01   6.6358021995e+00    0.3443631    0.3144922  83.01  0.002452696    1.685    0.407
       244  -9.7003    235.0000    238.9872   3.2854536919e+01  -2.8992177666e+00    0.1578792   0.04825128 -36.70 0.0008056306    2.965    0.663
       245 -10.7984    239.0001    234.5057   3.1592747266e+01  -2.7482802568e+00    0.1456524   0.08332225  19.13   0.00102659    1.571    0.364
       246  -9.6638     86.0930     23.3968   1.1617071827e+01   6.0534138798e+01    0.1931643    0.1576272  57.94 0.0003786505    1.141    0.124
       247 -10.5079     68.5775     20.4785   1.5891042316e+01   6.5002159035e+01    0.3643475    0.2725487 -41.64   0.00159722    1.457    0.314
       248  -9.5268     53.6417     21.6241   2.2691033488e+01   6.8049176402e+01    0.2078367    0.1497239  17.16  0.000913713    1.599    0.375
       249  -9.9070     39.0154     21.4875   3.0273151199e+01   7.0838632949e+01    0.2386863    0.1883585 -23.75 0.0007416694    1.274    0.215
       250 -11.2031    132.1059    240.4205   5.1931963631e+01   7.9637975326e+00    0.2779755    0.1246797  26.26  0.001410493    1.871    0.466
       251  -9.0874     15.5015    233.5154   7.7282644882e+01   2.1871982796e+01    0.1163476   0.09359597  47.90 3.378376e-05    1.044    0.042
       252 -11.1136     67.9390    240.5078   6.5949514785e+01   1.5353495907e+01    0.2646759    0.1802939  -3.84  0.001435596    1.944    0.486
       253  -9.0544    218.5006    231.4779   3.4408889485e+01  -4.0921505549e-01    0.1118075   0.07881307  -4.64 0.0004751406    1.061    0.057
       254 -10.0107    229.3326    232.3300   3.2781181563e+01  -1.5815807353e+00    0.1136739   0.06212083  -6.73 0.0007051995    1.721    0.419
       255  -9.3781    216.6142     19.8408   3.5207172587e+02   3.0197568555e+01     0.174375   0.08154277 -42.88 0.0004957629    1.643    0.391
       256 -10.4820    246.0584    230.4877   2.9940811355e+01  -2.9287711551e+00     0.140476   0.08356372  19.02 0.0007777413    1.555    0.357
       257  -9.7346     74.9229     19.0773   1.2980251688e+01   6.3728760036e+01    0.2246766    0.1537026  27.96  0.001048455    1.685    0.407
       258 -11.1022    248.2026    222.7414   2.8470898615e+01  -2.2257207509e+00    0.2855482    0.2140492 -43.77  0.001873056    2.170    0.539
       259  -9.4421     39.7760    205.9374   7.0085977952e+01   2.5386608965e+01      0.16231    0.1021732 -77.10  0.000879566    1.685    0.407
       260 -11.5720      4.6627    203.0691   7.8706927860e+01   2.9171929446e+01    0.5548684    0.1378025 -64.77  0.002088644    4.099    0.756
       261  -9.1102    135.4856    196.5014   4.5255638398e+01   1.5250513368e+01    0.1327475    0.1184549  12.79 -0.0001181619    1.018    0.017
       262 -10.2549    186.7800     14.9754   3.5301678099e+02   3.6993803638e+01    0.2064638    0.1657616 -83.93 0.0006629853    1.156    0.135
       263  -9.8856    148.6828     15.5755   3.5685709262e+02   4.5849556181e+01    0.2481128    0.1133706  67.39 0.0005743232    2.020    0.505
       264  -8.8701    233.6901    195.6822   2.6380365243e+01   2.6499260425e+00    0.1169474   0.06943234  -9.32 0.0004851904    1.639    0.390
       265 -12.6629      5.1678    183.6525   7.7830708767e+01   3.3618468134e+01    0.6515107    0.4669738  67.37   0.00390407    1.204    0.169
       266  -9.2470    196.1967     14.1784   3.5210613714e+02   3.5024288697e+01    0.1771453    0.1139532 -61.54 0.0004375236    1.329    0.247
       267  -9.8695    218.9153     13.0713   3.5038461801e+02   3.0467715877e+01    0.1660264    0.1405993  30.85  0.001139865    1.759    0.431
       268  -8.6748     86.2970    185.3115   5.5810231532e+01   2.4532431297e+01    0.1376688    0.1053512 -20.19 0.0007010147    1.598    0.374
       269 -10.7261     16.0635    173.7059   7.4315595070e+01   3.5194919280e+01    0.3131245    0.1618887  74.52   0.00146337    1.920    0.479
       270  -9.1485     50.7489    170.3412   6.3942329179e+01   3.2629288218e+01    0.1455121   0.09637754  64.74 0.0002063336    1.573    0.364
       271 -12.1354      8.9744    166.8391   7.5961688797e+01   3.7463846477e+01    0.5537623    0.2749812  35.54  0.002609103    1.803    0.445
       272 -12.5987     13.3505    160.3875   7.4278183154e+01   3.8775963633e+01    0.5763623    0.4120641 -48.59  0.001738142    1.587    0.370
       273 -10.7514     18.3530    165.1227   7.3093020829e+01   3.7165315755e+01    0.3112484    0.1997577 -50.89  0.001591293    1.748    0.428
       274  -9.2378     80.6090    165.1178   5.4533010537e+01   3.0084356334e+01    0.2061546    0.1278167 -49.80 0.0009403126    1.694    0.410
       275  -9.9412    205.1215    163.2567   2.5271998369e+01   1.1046077561e+01    0.2362053    0.1611953 -38.42  0.000797163    1.347    0.257
       276  -9.0819    214.5723    161.4557   2.3353755315e+01   1.0000427097e+01    0.1243167    0.1002582 -20.21 0.0001558594    1.008    0.008
       277 -10.3144     28.3753    160.7814   6.9723820964e+01   3.7399832527e+01    0.2008943    0.1677866  52.93 0.0009133667    1.107    0.096
       278 -10.8353      9.7504    155.3000   7.5056658280e+01   4.0356540115e+01    0.2408959    0.1847406 -87.72   0.00137193    1.194    0.162
       279  -9.8295    104.7235    154.2394   4.5856870236e+01   2.9021503944e+01    0.2595547    0.1895158 -60.22  0.001260643    1.442    0.307
       280 -11.3429      4.4191    153.8369   7.6617897714e+01   4.1101949218e+01    0.3320354    0.1806152  55.87  0.001621788    1.691    0.409
       281 -11.6771     16.7474    147.4094   7.2279461849e+01   4.1900252518e+01     0.452618    0.2033973 -75.74  0.001918794    2.046    0.511
       282 -11.9586     21.4310    150.4783   7.1017235112e+01   4.0708191347e+01    0.5386592    0.3245114 -37.46 0.0005389382    2.067    0.516
       283 -11.4904     24.0071    147.9985   6.9963821163e+01   4.1143938685e+01    0.3273219    0.2927349 -76.42 0.0007243564    1.105    0.095
       284  -9.4061     55.5058    152.5020   6.0311328545e+01   3.6625008355e+01    0.1432297    0.1386961  76.56 0.0001157325    1.040    0.039
       285  -9.7630     44.5960    149.7976   6.3452706158e+01   3.8618417769e+01    0.4041097    0.2849917 -85.58  0.002007704    1.435    0.303
       286 -10.1230     47.6891    148.6498   6.2305441030e+01   3.8570080199e+01    0.2693898    0.1856978 -58.94 0.0006760703    1.445    0.308
       287 -10.3639     47.7689    145.7410   6.1897717789e+01   3.9330816999e+01    0.3989444    0.2620049  36.94  0.001914738    1.468    0.319
       288  -9.4005    104.5222    147.6904   4.4673890168e+01   3.0606580818e+01    0.1961398    0.1468594 -72.53 0.0009248008    1.554    0.356
       289 -12.2749      3.6957    141.8737   7.6161423025e+01   4.4277313944e+01    0.7720026    0.4185862  49.58  0.003742952    1.736    0.424
       290 -11.9872     12.4888    135.2726   7.2725649917e+01   4.5459908687e+01    0.7009918    0.3380619 -53.92  0.003063754    2.081    0.519
       291 -10.7886     32.9608    143.9086   6.6590228186e+01   4.1406719259e+01    0.3089577    0.2798909  80.19 0.0007164887    1.021    0.020
       292 -10.6792     40.7767    138.4489   6.3280931836e+01   4.2066886978e+01    0.4251989    0.3187823 -77.55  0.001362109    1.289    0.224
       293 -12.3341     22.1845    135.9452   6.9422060445e+01   4.4530857272e+01    0.6469162    0.5217282  74.32  0.003574368    1.172    0.147
       294  -9.4386     26.2688    131.3345   6.7488152355e+01   4.5429480758e+01    0.2001907    0.1833005  43.06 0.0004436802    1.123    0.110
       295  -9.6350     73.3803    132.8167   5.1326317997e+01   3.9325396149e+01    0.2261719    0.1325446 -50.85  0.000810431    1.706    0.414
       296 -11.0230     30.3078    132.5853   6.6195767809e+01   4.4718557098e+01    0.3634112    0.2760557 -11.48 0.0007969838    1.610    0.379
       297  -9.0085    103.7393    130.6698   4.1389720240e+01   3.4827493264e+01    0.1531451    0.1175336 -23.25 0.0002030966    1.568    0.362
       298 -11.1162     10.8563    125.7217   7.2492742322e+01   4.8154684733e+01    0.6802073    0.2665228 -49.09  0.002624298    2.678    0.627
