#   1 NUMBER                 Running object number                                     
#   2 MAG_AUTO               Kron-like elliptical aperture magnitude                    [mag]
#   3 X_IMAGE                Object position along x                                    [pixel]
#   4 Y_IMAGE                Object position along y                                    [pixel]
#   5 X_WORLD                Barycenter position along world x axis                     [deg]
#   6 Y_WORLD                Barycenter position along world y axis                     [deg]
#   7 A_WORLD                Profile RMS along major axis (world units)                 [deg]
#   8 B_WORLD                Profile RMS along minor axis (world units)                 [deg]
#   9 THETA_WORLD            Position angle (CCW/world-x)                               [deg]
#  10 FWHM_WORLD             FWHM assuming a gaussian core                              [deg]
#  11 ELONGATION             A_IMAGE/B_IMAGE                                           
#  12 ELLIPTICITY            1 - B_IMAGE/A_IMAGE                                       
         1 -12.2405    158.5862     47.8866   8.2024266757e+01   4.0013115944e+01     1.235184     1.086794   3.87  0.004459032    1.268    0.212
         2 -11.7793    171.1292     17.3339   6.9976844947e+01   4.0686264825e+01    0.9572781    0.8616551 -82.18  0.004813361    1.088    0.081
         3  -9.2567    119.8956      9.6612   7.6123491534e+01   5.4358463648e+01    0.4398718     0.261885  32.83  0.002124381    1.764    0.433
         4  -9.8591    247.0094      3.6261   5.8584384024e+01   2.3259229299e+01    0.3315392    0.2306239  71.54  0.001502584    1.458    0.314
         5  -9.4419    235.6646      3.3541   5.9341203992e+01   2.5911298415e+01    0.3261979     0.228892 -30.39 0.0009995664    1.476    0.323
         6  -9.7447    168.1970    237.3902   1.2297924582e+02   3.5424362923e+00    0.3725355    0.1710753  36.33  0.001755412    1.949    0.487
         7  -9.0258    153.1066    249.3113   1.2713403465e+02   4.2918037745e+00    0.4402481    0.1895843  30.73  0.001929583    3.150    0.683
         8 -18.6077     75.3972    224.5768   1.3847565923e+02   2.0097272217e+01      4.72389      3.61073  69.07   0.01834306    1.026    0.026
         9  -8.3545     13.6247    180.8826   1.4675800506e+02   3.6001811381e+01    0.1602934    0.1368349  71.98    0.0005766    1.264    0.209
        10  -9.7328    222.1033    178.4572   1.0333436003e+02   2.7962321114e+00    0.2825302    0.2342086 -47.45 0.0008178452    1.463    0.317
        11 -10.0644    204.4043    176.4238   1.0618156211e+02   6.4345437341e+00     0.367416    0.3079198  36.49  0.001079642    1.121    0.108
        12  -9.1757    197.1586    177.2316   1.0771640728e+02   7.6945262483e+00    0.3138996    0.2505766  37.04  0.001125519    1.161    0.139
        13  -8.0296      3.3990    175.9066   1.4844846279e+02   3.7935824384e+01    0.1393773    0.1221275  69.13 0.0001126731    1.334    0.251
        14 -10.8033    193.4321    166.1725   1.0623163021e+02   1.0310742785e+01     0.842706    0.3513267 -47.14  0.002563761    2.756    0.637
        15  -9.4564    203.9684    163.7878   1.0370698255e+02   8.6132642148e+00    0.6445341    0.2078654 -38.68  0.002246235    3.192    0.687
        16  -9.9042    143.1787    167.0738   1.1687121040e+02   2.0181024455e+01    0.3829044    0.2792523  85.79  0.000658255    1.784    0.439
        17  -9.3333    154.8516    166.8450   1.1429764813e+02   1.7937392570e+01    0.2873766    0.2392606  88.01 0.0007324356    1.394    0.282
        18  -9.9509    154.4359    157.2737   1.1249865862e+02   1.9928459716e+01    0.3699462    0.1760663  43.73  0.000886481    2.025    0.506
        19  -8.1537     10.6489    218.3686   1.4942653881e+02   2.8895521691e+01    0.1543445   0.07632208  67.69 0.0005618705    1.527    0.345
        20  -8.5091     19.1792    215.2765   1.4781728953e+02   2.8620316968e+01    0.1720051    0.1121119 -81.89 0.0007478265    1.377    0.274
        21 -10.9657    150.0650    161.4702   1.1429262813e+02   1.9961439107e+01    0.9559659    0.6154752  77.98  0.003942649    2.502    0.600
        22  -8.5752    200.6612    168.5943   1.0532616451e+02   8.4575244307e+00    0.2346845    0.1779927 -47.19  0.000735308    1.470    0.320
        23 -10.0066    136.6607    137.9031   1.1245560922e+02   2.7624448691e+01    0.7512994    0.1629394 -46.22   0.00197632    4.724    0.788
        24 -10.5178    134.4217    148.1342   1.1515253166e+02   2.5863677441e+01    0.9236165     0.347202 -57.56  0.003000208    3.395    0.705
        25 -10.9424    133.3753    142.0054   1.1411995875e+02   2.7398169676e+01    0.8275963    0.4113883 -65.84  0.002854208    3.126    0.680
        26  -9.0733    149.7854    153.2896   1.1271168034e+02   2.1686741729e+01    0.3456315    0.2289354  73.46 0.0009467757    2.126    0.530
        27  -8.9361     10.9762    152.5858   1.4522672439e+02   4.2303014943e+01    0.3265529    0.1926175 -21.52  0.001609174    3.991    0.749
        28 -11.4400     11.4831    206.8797   1.4870144822e+02   3.0988833187e+01    0.4981517    0.3634874  56.08   0.00265348    1.302    0.232
        29 -10.7487    142.9603    146.5520   1.1285037382e+02   2.4484904865e+01    0.5561725    0.4801779 -89.45  0.002413045    1.247    0.198
        30  -8.7635     27.4118    146.2340   1.4085555656e+02   4.2265843964e+01    0.2780737    0.1746834 -81.85  0.001036302    1.296    0.228
        31  -8.7650     27.3895    142.4195   1.4045162621e+02   4.3135268986e+01    0.3043135    0.2031024   7.90  0.001730755    2.498    0.600
        32  -8.1342    172.9104    145.9463   1.0610396177e+02   1.8317453754e+01    0.2252481    0.1800292 -89.71 0.0005653684    1.618    0.382
        33 -10.0832    152.7733    200.8894   1.2062816593e+02   1.1970457597e+01    0.4205767    0.2538117 -60.44  0.001202425    2.065    0.516
        34 -10.0477    171.7741    196.7080   1.1620065671e+02   9.2262757575e+00    0.3908507    0.3135408  86.61  0.001170797    1.671    0.402
        35  -9.7531     46.0402    136.8571   1.3512650273e+02   4.2494088482e+01     0.324215    0.2143869   7.77  0.001365818    2.603    0.616
        36  -8.4630    190.9139    135.0199   9.9895687990e+01   1.6487568668e+01    0.2173446    0.2085394   8.15 0.0003791873    1.038    0.037
        37 -10.5823    156.1868    192.1682   1.1854186036e+02   1.2899658727e+01    0.6895798    0.4170038 -74.59  0.002951783    2.920    0.658
        38 -10.4532    123.2622    128.8969   1.1370566368e+02   3.2304994962e+01    0.4700841    0.3426436  33.99 0.0006348488    1.551    0.355
        39  -9.2905    175.7809    232.3628   1.2093394767e+02   3.0046404678e+00     0.213429    0.1615526 -28.80  0.001379201    1.651    0.394
        40  -9.7475    129.8080    191.6724   1.2387242916e+02   1.7776660706e+01    0.3136804     0.213022  64.44  0.001512683    1.538    0.350
        41 -10.2965     91.4072    125.2718   1.2116075798e+02   3.8942155572e+01    0.5632319    0.2235387  43.67     0.002165    2.598    0.615
        42  -9.2086    111.1931    123.6093   1.1558124864e+02   3.5827401958e+01    0.2656161    0.2281633 -38.81 0.0005702209    1.266    0.210
        43  -8.2505    140.0142    121.2578   1.0778632059e+02   3.0525877613e+01    0.2187811    0.1968837  56.07 0.0004760679    1.113    0.102
        44 -10.3183    236.7560    127.1942   8.9747111583e+01   8.0123002181e+00    0.2626913    0.2524478  32.90 0.0005110677    1.130    0.115
        45 -10.7878    177.4703    222.7239   1.1923676517e+02   4.1097912223e+00    0.5722907    0.2852775 -54.00  0.002778397    2.840    0.648
        46 -10.7400     73.3115    117.5435   1.2453075278e+02   4.3556745774e+01    0.4143911    0.2970612 -87.87  0.001027201    1.551    0.355
        47  -9.4228    216.2946    186.8049   1.0599357819e+02   2.6020519442e+00    0.1886531       0.1661 -48.54 0.0004546032    1.407    0.289
        48  -9.1307    180.8663    184.4317   1.1225104817e+02   9.6094075910e+00    0.2772354    0.1781185 -47.62   0.00109161    1.748    0.428
        49 -10.9021    110.8278    107.6675   1.1185359759e+02   3.9504054688e+01    0.5585712    0.3951391 -71.55   0.00257486    1.673    0.402
        50 -10.0572    120.5743    111.4904   1.1023379541e+02   3.6725231901e+01    0.4865152    0.2881373  65.51  0.001697428    2.391    0.582
        51  -9.4773    115.0854    109.4716   1.1116896441e+02   3.8270143897e+01    0.3114548    0.2321313  44.65  0.000704588    1.396    0.283
        52 -10.2476     60.5889    109.3878   1.2653159210e+02   4.7206989542e+01    0.4054947    0.3419726 -77.61  0.001350055    1.095    0.087
        53 -11.4294     65.5985    103.2031   1.2374990301e+02   4.7992859876e+01    0.9147177    0.5846963 -59.75  0.003703678    1.379    0.275
        54  -8.8025     52.4510    111.1737   1.2924835577e+02   4.7787720222e+01    0.2442497    0.1796292   0.82  0.001171072    2.034    0.508
        55  -9.0874    240.2014    108.7560   8.4861415451e+01   1.0249789501e+01    0.2408384    0.1671644 -51.72 0.0006055243    1.551    0.355
        56  -8.8513    145.5626    191.2719   1.2055837230e+02   1.5018868283e+01    0.2832709    0.1667313 -58.94  0.001379414    1.988    0.497
        57  -8.8602     29.1638    105.9139   1.3515359818e+02   5.1412663002e+01    0.1949671    0.1764595 -29.48 0.0004955075    1.360    0.265
        58  -9.4377    195.1105    183.1845   1.0925059206e+02   7.1038776447e+00    0.2739153    0.2570357  33.40 0.0008967792    1.080    0.074
        59  -9.1527    164.7806    180.9114   1.1484012120e+02   1.3322752283e+01    0.3384374    0.2530284  89.46  0.001165407    1.898    0.473
        60  -8.9495      3.5219     85.9778   1.3993939361e+02   5.7791140659e+01    0.1626129    0.1428174 -67.20 0.0005637459    1.163    0.140
        61 -10.4169    153.0959     68.1628   8.9694183189e+01   3.8098222697e+01    0.4279568    0.3970123 -77.63  0.001495853    1.131    0.116
        62 -11.4614    148.3385     62.1366   8.8829161394e+01   4.0313406499e+01     0.782622     0.624543  26.96  0.001412678    1.424    0.298
        63  -8.3069    163.3014    244.6505   1.2478497957e+02   3.3200261121e+00    0.1723544    0.1585807  73.67 0.0005451639    1.291    0.225
        64  -8.3327    191.0198     65.0061   8.1333151530e+01   2.9028429338e+01    0.2096597    0.2060282 -38.47  0.001150292    1.057    0.054
        65 -10.7956    162.9726     39.0312   7.8303594983e+01   4.0152103876e+01    0.4701002    0.4497519  85.58 0.0008379243    1.029    0.028
        66  -8.7436    131.9581     53.6781   8.9822919610e+01   4.5692106576e+01    0.2477082    0.2031956 -34.35 0.0005469786    1.214    0.176
        67  -9.7852    246.3542     51.8406   7.0134235055e+01   1.7494073580e+01    0.2338157    0.2259167 -31.07  0.000173677    1.163    0.140
        68  -8.1677    250.0587     47.7001   6.8731276076e+01   1.7223755558e+01    0.1840639    0.1664144 -82.37 0.0005498762    1.124    0.110
        69  -8.2714    187.7960     38.6276   7.4090161295e+01   3.3753391199e+01    0.2217329    0.1654042  50.12 0.0005727375    1.384    0.277
        70  -7.8338    214.5329     33.5315   6.9073590303e+01   2.7576321178e+01    0.1396986    0.1308025 -74.25 0.0002370514    1.045    0.043
        71 -10.2807    141.6406     29.8871   7.9261652789e+01   4.6793000975e+01    0.2515382     0.228155  40.97 0.0002627614    1.072    0.067
        72  -9.1312    166.1753    248.1741   1.2472343669e+02   2.3823810908e+00    0.2294436    0.1611771  50.96 0.0004158105    1.265    0.210
        73  -7.8953     10.6318     23.7248   1.2213391919e+02   7.0264448583e+01    0.1180082   0.06565422 -27.79 0.0007005589    1.677    0.404
        74  -9.1742    190.0029     15.7505   6.7011999820e+01   3.5952933251e+01     0.199191    0.1749098  82.08 0.0006322259    1.056    0.053
        75  -8.8421    162.6297    247.8056   1.2529478111e+02   2.9941655587e+00    0.1905493    0.1575547 -85.51 0.0006364921    1.630    0.387
        76  -9.6925    170.0357    241.0816   1.2314046179e+02   2.7292938962e+00     0.334726    0.2781664  35.29  0.002100113    1.083    0.077
