#   1 NUMBER                 Running object number                                     
#   2 MAG_AUTO               Kron-like elliptical aperture magnitude                    [mag]
#   3 X_IMAGE                Object position along x                                    [pixel]
#   4 Y_IMAGE                Object position along y                                    [pixel]
#   5 X_WORLD                Barycenter position along world x axis                     [deg]
#   6 Y_WORLD                Barycenter position along world y axis                     [deg]
#   7 A_WORLD                Profile RMS along major axis (world units)                 [deg]
#   8 B_WORLD                Profile RMS along minor axis (world units)                 [deg]
#   9 THETA_WORLD            Position angle (CCW/world-x)                               [deg]
#  10 FWHM_WORLD             FWHM assuming a gaussian core                              [deg]
#  11 ELONGATION             A_IMAGE/B_IMAGE                                           
#  12 ELLIPTICITY            1 - B_IMAGE/A_IMAGE                                       
         1 -12.8647    182.8949     42.2788   5.5451136936e+01   3.3627956382e+01     1.430165     1.027656  11.03  0.004389239    1.626    0.385
         2 -12.3519    207.1514     13.9372   4.3083826657e+01   3.0446836468e+01    0.9492512    0.4849797  41.78  0.003876022    2.223    0.550
         3 -12.5265    204.4385      8.4759   4.1601852017e+01   3.1672334197e+01     1.063244    0.6811989  41.08  0.004951496    1.709    0.415
         4 -10.5075    230.7810      3.7775   3.7976532490e+01   2.5370274974e+01    0.4668052      0.20649  37.43  0.001772956    3.025    0.669
         5 -10.4592    238.6341      3.0700   3.7226762136e+01   2.3531127769e+01    0.3527189    0.2328872 -15.41   0.00182912    1.425    0.298
         6 -11.2508     58.9661    215.5872   1.1468209996e+02   2.6463776835e+01    0.2039476    0.1334421  54.03  0.000563691    1.085    0.078
         7 -11.7507    248.0245    247.4222   8.8041839736e+01  -1.9343047411e+00    0.7233027    0.4199519  38.65  0.005808199    1.446    0.308
         8 -12.2014    249.0659    235.6918   8.6406870663e+01  -1.2810809794e+00    0.7062519    0.3254115 -20.36  0.004942263    2.483    0.597
         9 -10.7344     70.9460    207.8519   1.1208095747e+02   2.6242968806e+01    0.3746105    0.2210164  28.71   0.00203673    2.133    0.531
        10 -10.8533     12.1474    205.8490   1.2229605047e+02   3.2746091773e+01     0.409082    0.1017959  43.89  0.002407814    2.371    0.578
        11  -9.8549     62.1048    205.3329   1.1348812799e+02   2.7684187798e+01    0.1436157    0.1270588  75.57 0.0005022373    1.313    0.238
        12  -8.5216     87.8635    202.6428   1.0862695433e+02   2.4924337412e+01    0.1565535    0.1140381  34.31  0.001126934    1.480    0.324
        13  -9.5329    192.0225    193.0455   8.9040013060e+01   1.0679765510e+01    0.3025715    0.1811966 -64.12  0.001271652    5.585    0.821
        14  -8.3509    223.4153    198.5197   8.4870138600e+01   5.2585655360e+00    0.1097695   0.08259669  24.29   0.00011118    1.024    0.023
        15  -9.5766    147.4797    197.5023   9.7308399279e+01   1.7130220396e+01    0.1142336   0.08961955  43.13 0.0004101938    1.002    0.002
        16  -8.9258     81.7457    195.2733   1.0912352405e+02   2.6877572429e+01    0.3078363     0.158124  55.55  0.001898596    1.619    0.382
        17 -11.1082     98.1596    190.3533   1.0556723300e+02   2.5467149096e+01    0.4997602    0.3615921 -28.49  0.002528396    2.531    0.605
        18 -10.7106     99.2523    180.9973   1.0436988590e+02   2.6837983731e+01    0.2392312    0.2225054  34.06 0.0007530864    1.334    0.250
        19 -10.5424     67.9992    193.1177   1.1152988523e+02   2.8954494522e+01     0.255031    0.2062723 -42.43   0.00134202    1.964    0.491
        20 -10.3511    150.1534    188.1822   9.5615764143e+01   1.7981843916e+01    0.2326039     0.157354  55.91  0.001471882    1.466    0.318
        21  -8.9674     75.1761    250.6428   1.1404918404e+02   1.9789564056e+01    0.1054824   0.06401271  42.87 0.0001783187    1.268    0.211
        22 -10.5799    150.8539    179.8301   9.4325237975e+01   1.9045756179e+01    0.3365007    0.2445069 -72.07  0.002073964    1.999    0.500
        23 -10.7507    127.5576    179.6508   9.8700021978e+01   2.2809671402e+01     0.407209    0.1200409 -54.81  0.001661346    4.304    0.768
        24 -11.2806    141.9507    175.8745   9.5431368595e+01   2.1083766722e+01    0.3468642    0.2872387 -76.55  0.001333354    1.507    0.337
        25  -9.2732    188.2487    176.6403   8.7136395705e+01   1.3233695240e+01    0.2587956    0.1841556  25.62  0.001650575    1.286    0.222
        26 -10.6374    124.0154    171.0319   9.8242010680e+01   2.4741782834e+01    0.2533305    0.1883204  80.33    0.0015771    1.602    0.376
        27 -11.4065    113.9228    174.0664   1.0064823916e+02   2.5819041608e+01    0.4348464    0.2341801  59.66  0.002306764    1.993    0.498
        28 -10.0527    111.4095    168.3788   1.0042256669e+02   2.7161188252e+01    0.3092801    0.1501049  54.99 0.0009679851    2.041    0.510
        29  -8.6274     75.7739    247.5888   1.1378773424e+02   2.0105968344e+01    0.1235692   0.09574153 -68.06 0.0008903823    1.797    0.444
        30  -8.7687      8.0218    160.9586   1.2145635570e+02   4.0935464959e+01    0.1324825    0.1128565 -68.88 0.0006237141    1.539    0.350
        31 -10.0853     95.3954    156.3210   1.0220952047e+02   3.1740368201e+01    0.2293993    0.1992424  40.65 0.0004645714    1.250    0.200
        32 -11.3452     99.9861    150.4042   1.0039911148e+02   3.2148948146e+01    0.4899183    0.3722705 -38.90   0.00161068    1.773    0.436
        33  -8.7314      3.4607    155.6308   1.2219330361e+02   4.2316191883e+01    0.1296657    0.1183922   5.89 0.0005798793    1.722    0.419
        34  -9.1250    113.0570    151.4930   9.7704591875e+01   2.9874952862e+01    0.1814569    0.1632545  89.00 0.0005603444    1.138    0.122
        35  -9.9663    133.9859    146.0229   9.2345664684e+01   2.7288645089e+01    0.7134671    0.1852746 -54.33  0.002126481    5.911    0.831
        36  -7.9593    119.3563    148.3099   9.5850093342e+01   2.9409794603e+01    0.1232416   0.09991319   8.36 0.0007043033    1.731    0.422
        37  -8.4241    128.4720    139.4808   9.2380910847e+01   2.9428661031e+01    0.1301635    0.1183789  52.32 0.0008095521    1.028    0.027
        38 -10.3059    110.4850    136.6942   9.5913089157e+01   3.3065149449e+01    0.3528918    0.2587099 -37.95  0.001975161    1.735    0.424
        39 -10.7853     99.0951    136.1067   9.8449922794e+01   3.5044119033e+01    0.2761903    0.2343226  33.82 0.0004626991    1.330    0.248
        40 -10.1260    105.9252    130.9292   9.5984089037e+01   3.4951795896e+01    0.3299562    0.2710192  76.97  0.001277394    1.212    0.175
        41  -8.9598    161.3401    128.9746   8.3395047370e+01   2.5036409802e+01     0.300826    0.1740639  59.04  0.001368797    2.035    0.509
        42  -9.2924    116.7891    128.0768   9.2927882905e+01   3.3639994729e+01    0.2354822    0.1818618  45.74 0.0008776576    1.229    0.186
        43  -9.5637    104.6496    123.9500   9.5042923210e+01   3.6559298674e+01    0.2245828    0.2033501  29.51 0.0006088027    1.280    0.218
        44  -8.7706    120.6254    123.2045   9.1097362814e+01   3.3893641862e+01    0.1862576    0.1253603 -41.08  0.000907581    1.694    0.410
        45  -8.1538    152.6957    119.6657   8.3187628983e+01   2.8342916945e+01     0.139858    0.1078345   8.95 0.0003203142    1.664    0.399
        46  -8.7906    111.4834    117.8924   9.2221083381e+01   3.6591546919e+01     0.189867    0.1316416 -55.96 0.0003679286    1.478    0.323
        47  -8.8579    231.0089    113.9022   6.7644493566e+01   1.3100520346e+01    0.2052149    0.1739711   9.06 0.0008294016    1.018    0.018
        48  -8.6423    167.6811    112.5526   7.8457210775e+01   2.6441273951e+01    0.2355572    0.1707436 -59.11  0.000860657    1.756    0.431
        49  -9.5863    120.3408    111.3577   8.8702212811e+01   3.6268456028e+01    0.2905419     0.200187  84.61  0.001349481    2.068    0.516
        50  -9.0235    205.3195    110.1888   7.0898930742e+01   1.8805238457e+01    0.2210471     0.165302  -0.25 0.0009673001    1.399    0.285
        51 -11.3167     67.6304    249.1688   1.1512746323e+02   2.0823496817e+01    0.1461974    0.1166451  51.59 0.0004221834    1.282    0.220
        52  -9.1837    189.5668     89.1832   6.8352572861e+01   2.5278080624e+01    0.2589896    0.2233685 -34.94  0.001407177    1.183    0.155
        53 -11.9671    167.9782     57.5643   6.3052161275e+01   3.5312068356e+01    0.8750631    0.5041357 -18.60  0.001377486    1.965    0.491
        54 -11.3751     71.5472    241.2125   1.1408970955e+02   2.1412776044e+01    0.1598651    0.1396209  72.17 0.0006458682    1.380    0.275
        55 -11.4970    187.8693     35.8021   5.2559204705e+01   3.3142101725e+01     0.563751    0.4423863  -2.37  0.001298636    1.338    0.252
        56  -8.9494     83.8029    239.4439   1.1203827662e+02   2.0214825570e+01    0.1384336   0.06816953  43.15 0.0006567046    1.441    0.306
        57 -19.4817     33.9674    148.0330   1.1507540713e+02   4.1087615958e+01      16.3538     3.294095 -76.30   0.05846991    4.994    0.800
        58 -11.3879     63.2924    221.3486   1.1428696263e+02   2.5115296843e+01    0.3651021    0.1530183  66.72  0.001869778    2.528    0.604
