#   1 NUMBER                 Running object number                                     
#   2 MAG_AUTO               Kron-like elliptical aperture magnitude                    [mag]
#   3 X_IMAGE                Object position along x                                    [pixel]
#   4 Y_IMAGE                Object position along y                                    [pixel]
#   5 X_WORLD                Barycenter position along world x axis                     [deg]
#   6 Y_WORLD                Barycenter position along world y axis                     [deg]
#   7 A_WORLD                Profile RMS along major axis (world units)                 [deg]
#   8 B_WORLD                Profile RMS along minor axis (world units)                 [deg]
#   9 THETA_WORLD            Position angle (CCW/world-x)                               [deg]
#  10 FWHM_WORLD             FWHM assuming a gaussian core                              [deg]
#  11 ELONGATION             A_IMAGE/B_IMAGE                                           
#  12 ELLIPTICITY            1 - B_IMAGE/A_IMAGE                                       
         1 -12.0831    125.5849     28.1760   3.7528662725e+01   5.0376342931e+01    0.6702021    0.5533073 -34.99   0.00298775    1.235    0.190
         2 -11.4392    106.1564     20.7176   3.8641752847e+01   5.6481876704e+01    0.5635148     0.433939 -78.22  0.002545808    1.489    0.328
         3 -12.1755     27.1073     27.8101   7.8145899471e+01   7.1754750910e+01    0.5830925    0.4694867 -12.29  0.001661481    1.275    0.216
         4 -12.5416     20.1450     21.7801   8.0557912564e+01   7.3848360086e+01    0.6310002    0.2750421 -52.60  0.002820039    2.017    0.504
         5 -11.9042     35.7941     18.4707   6.7067208676e+01   7.2512804409e+01    0.6765307    0.4603921 -42.85  0.003581785    1.425    0.298
         6 -12.1954     48.3260     12.9221   5.5730482281e+01   7.1275615780e+01     0.757741    0.3194507  49.05  0.003065492    2.425    0.588
         7 -11.3460     14.0749      8.4631   7.8644088018e+01   7.7297798853e+01    0.3797338     0.319374  13.93 0.0006203252    1.215    0.177
         8 -12.6359     16.1563     14.1893   8.0036232655e+01   7.5892785302e+01     1.054446    0.5050491 -24.48  0.003627439    2.886    0.654
         9 -12.5917    136.3418     22.2625   3.3239465217e+01   4.8233596965e+01     1.454125    0.3996238  63.61  0.004682265    3.157    0.683
        10 -11.7080    122.1293      6.0409   2.9005126011e+01   5.3776917860e+01    0.4867219    0.4204047  11.67   0.00217242    1.313    0.239
        11 -11.6887    121.5578     11.6503   3.1483452898e+01   5.3386164802e+01     1.141306    0.2614317  68.40  0.003302516    3.931    0.746
        12 -11.2986    127.8888     16.1762   3.2272296646e+01   5.1195162383e+01    0.4684604     0.256402  42.02  0.001744848    2.063    0.515
        13 -11.4895    134.7332     14.9110   3.0663345124e+01   4.9483906021e+01    0.7272742    0.3522725  69.85  0.003010346    1.955    0.488
        14 -11.0083    178.7731     20.8732   2.7190346306e+01   3.7359593448e+01    0.5299318    0.2569787  37.38  0.002041689    3.131    0.681
        15 -10.2089     88.6935      7.6409   3.6592805459e+01   6.2561594762e+01     0.451975    0.2021265  52.15  0.001838188    2.009    0.502
        16 -10.8985     90.8751     21.7210   4.3238661443e+01   6.0294854817e+01    0.4524817    0.2896938 -29.54   0.00209998    1.622    0.383
        17 -11.4055     85.9642     13.5796   4.0536570258e+01   6.2586580995e+01    0.4297577    0.3321802 -33.38  0.002037549    1.350    0.260
        18 -13.3283    163.8912     19.0015   2.8228608417e+01   4.1327982924e+01    0.4607403    0.3251467  40.25  0.001036623    1.661    0.398
        19 -11.9192     67.9659     18.0607   4.9398283353e+01   6.6321537135e+01    0.4814425    0.4756995  30.15    0.0021367    1.077    0.071
        20 -12.0490     22.7071     11.2788   7.2574156898e+01   7.5757620461e+01    0.4914629    0.3265801   5.09  0.001808158    1.730    0.422
        21 -12.1256    192.4915      8.4818   2.2316953826e+01   3.5263973946e+01     1.001539    0.4637963  -5.32  0.003888651    3.382    0.704
        22 -12.2594    184.6324      6.3432   2.2282289139e+01   3.7359368092e+01    0.5699133    0.4176053 -50.12  0.002164027    1.215    0.177
        23 -11.5268    176.9743      5.9379   2.2763577368e+01   3.9290340911e+01    0.3542651    0.1999137  88.22 0.0007490935    1.782    0.439
        24 -12.3744    227.4377     15.0883   2.1731671082e+01   2.6837543190e+01    0.5693033    0.2437094 -59.39  0.002150215    2.381    0.580
        25 -10.9653    148.1267     16.0446   2.9174295552e+01   4.5775309590e+01    0.4560823    0.2565885  36.55  0.001922799    2.279    0.561
        26 -12.1574    104.6205     13.3624   3.5590582128e+01   5.7758334235e+01    0.4469677    0.3991352  16.85  0.002471736    1.212    0.175
        27 -10.0698      5.3632      9.7316   8.8103455437e+01   7.7727207002e+01    0.3230643    0.1698661 -54.14  0.001147997    1.605    0.377
        28 -11.6641    211.7112      9.8654   2.1383877917e+01   3.0711980612e+01    0.5559792    0.3081305   0.03  0.002553378    2.741    0.635
        29 -11.0596    162.8383      9.5341   2.5204132705e+01   4.2558486597e+01    0.6696784    0.2832272  -3.69  0.002172054    4.312    0.768
        30 -10.8661    169.5379      9.3619   2.4493698292e+01   4.0851035599e+01    0.4366154    0.1889807  56.21  0.001375405    2.361    0.576
        31 -10.8504    145.4715      9.4798   2.7127387400e+01   4.7143686930e+01    0.2662822    0.2264526  37.64 0.0005824658    1.315    0.239
        32 -10.0190     65.4766     10.3485   4.5827175576e+01   6.7966060079e+01    0.2752116    0.1664515  58.88  0.001059019    1.665    0.400
        33 -10.4988    232.9812      7.5095   1.9588766622e+01   2.6419074939e+01    0.1663667    0.1125022  87.12  0.001029487    1.580    0.367
        34 -10.1787    152.4586      1.4464   2.3466347254e+01   4.6007119407e+01    0.2748038    0.1292647  78.75 0.0007134183    2.031    0.508
        35 -11.1741    157.9656      6.9790   2.4837782373e+01   4.4068235854e+01    0.2116435    0.1983154 -78.61 0.0004325338    1.043    0.041
        36 -11.6543    157.1392      2.9155   2.3527065346e+01   4.4648192103e+01    0.3645157    0.3252564 -83.96  0.001598459    1.037    0.035
        37 -10.0412     77.5083      7.4750   3.9748951147e+01   6.5421434924e+01    0.2994389    0.1840686  80.08   0.00131717    2.051    0.512
        38 -10.8085     74.5030      3.4874   3.8333883564e+01   6.6599049349e+01    0.4409974    0.2842219  71.03  0.002128732    1.630    0.386
        39 -10.0008     62.8657      6.6764   4.4566183522e+01   6.9034062417e+01    0.2458816    0.1893271  -1.55  0.001311723    1.407    0.289
        40 -10.9680    246.8090      5.9342   1.8569511584e+01   2.3846088100e+01    0.2351195    0.1500331 -81.64  0.001059522    1.646    0.393
        41 -11.6710     22.7777      5.0091   6.8158226265e+01   7.6935378867e+01    0.2395011    0.2072708 -41.70 0.0003114975    1.226    0.184
        42 -11.3750    233.3115      2.3777   1.8351890180e+01   2.6816679657e+01    0.2768128    0.1645935 -60.54 0.0002333252    1.494    0.331
        43 -11.6652    142.0139      3.4953   2.5317552817e+01   4.8618254110e+01    0.6757541    0.2714182  86.46   0.00244042    2.825    0.646
        44 -10.7510    137.5511      4.4837   2.6226672256e+01   4.9733941974e+01    0.2521264    0.2224714 -52.98  7.05924e-05    1.120    0.107
        45 -11.8088    132.9353      2.7147   2.6112839586e+01   5.1136980028e+01    0.5053378    0.2977841  67.08  0.002380167    1.558    0.358
        46 -10.3830     41.7165      3.7475   5.3121324090e+01   7.3949984546e+01    0.3715796    0.2431678   0.45  0.001811539    1.949    0.487
        47 -10.5605    218.9447      3.4852   1.9325462883e+01   2.9719276117e+01     0.219433     0.169938  -4.95  0.001184637    1.551    0.355
        48 -11.5346    206.5846      2.8438   1.9839470514e+01   3.2505870892e+01    0.4786823    0.2553485 -81.15  0.002430285    1.932    0.482
        49 -11.7176    116.0821      2.5009   2.8417008532e+01   5.5736458794e+01    0.4673333     0.268692  68.69  0.002148524    1.583    0.368
        50 -10.8892    223.7600      2.3601   1.8799804517e+01   2.8793230268e+01    0.2251936    0.1760285 -38.20 0.0006658638    1.116    0.104
        51 -11.3408      2.6840      1.8996   8.6925966088e+01   7.9592924830e+01    0.3519457    0.1959363  -6.47  0.001696028    1.946    0.486
        52  -9.6501     82.0054      1.1576   3.4763078313e+01   6.4930399567e+01    0.1887582   0.09521704  65.50  0.000335794    1.845    0.458
        53  -9.9412     13.6307      1.6071   7.4399766723e+01   7.8708141105e+01    0.2382136    0.1179345  19.74  0.001132344    2.210    0.548
        54 -11.2208    105.3995      1.8850   2.9958238526e+01   5.8683460653e+01    0.4071708    0.2465537 -84.29  0.001098749    1.904    0.475
        55 -11.3887    240.5154    121.2282   4.4976259377e+01   1.1806900473e+01    0.2925913    0.1554711  14.04  0.001310586    3.126    0.680
        56 -10.8006    248.8185    249.8393   6.5475387399e+01  -3.1469183646e+00    0.1837619    0.1045575  27.71  0.001434883    1.616    0.381
        57  -9.9576     50.2188    122.6487   9.0860318186e+01   4.5255414466e+01    0.1943088     0.134557  14.44 0.0007536446    1.690    0.408
        58 -10.4763     43.7070    116.5876   9.2288178277e+01   4.7562024665e+01     0.354765    0.2077909 -87.60 0.0009294285    1.865    0.464
        59 -10.4914      7.1643    114.6616   1.0539711598e+02   5.1160078428e+01    0.3359592    0.2361609 -76.57  0.001045962    1.308    0.235
        60 -11.9666      2.4367    111.8310   1.0694569130e+02   5.2139962812e+01    0.4276592    0.2293094 -85.87 0.0005456669    1.657    0.396
        61 -11.3004      4.0808    105.0860   1.0593875742e+02   5.3782160627e+01    0.4019399    0.3163025  15.11    0.0020649    1.435    0.303
        62  -9.7049     79.1502    114.8166   7.9555721205e+01   4.3123659581e+01    0.2046146    0.1782922 -23.61  0.001066826    1.331    0.249
        63  -9.7343     68.0024    115.1727   8.3421966619e+01   4.4763646762e+01    0.2629407    0.1501301  57.21  0.001085013    2.045    0.511
        64 -11.8001     24.9119    107.3949   9.8119580141e+01   5.1788937234e+01    0.9220918    0.5709203 -80.70  0.004616518    1.517    0.341
        65 -11.4692     21.3254    114.6068   1.0022995072e+02   5.0206092875e+01    0.3932888    0.2580335  -3.39  0.001281252    1.965    0.491
        66 -10.9106     28.0503    113.0866   9.7583205718e+01   5.0038315719e+01    0.3272113    0.2351615  11.12   0.00104089    1.610    0.379
        67 -11.3433    249.4630    111.2576   4.1770054409e+01   1.1655119020e+01    0.3047007   0.09166576 -32.25  0.001309028    2.625    0.619
        68  -9.5344     93.7764    112.5758   7.4301440777e+01   4.1153537555e+01    0.2157376    0.1349859  48.70 0.0008522992    1.620    0.383
        69  -9.8897     48.8341    112.3030   8.9766721170e+01   4.8069567661e+01    0.2363576    0.1629357  49.91  0.001166875    1.431    0.301
        70  -9.6728     66.0098    110.7028   8.3255704588e+01   4.6179172591e+01    0.2061222    0.1876541  40.09 0.0005285461    1.096    0.088
        71  -9.9382    101.8224    109.3797   7.1040161151e+01   4.0404612167e+01    0.2179905    0.1425481  28.23 0.0004992298    1.706    0.414
        72 -11.3021     80.0775    108.0250   7.7779929472e+01   4.4631258366e+01    0.4509338    0.2992366  27.89 0.0005611914    1.617    0.381
        73 -10.1058     15.6760    109.1106   1.0182756588e+02   5.2045812047e+01    0.2813934     0.151887  43.00  0.001362656    1.770    0.435
        74 -10.3797     34.9283    103.5264   9.3704891983e+01   5.1885993005e+01    0.2896346    0.1456292  11.51  0.001174867    2.562    0.610
        75 -11.6839     17.3011    101.0155   1.0041386632e+02   5.4041377016e+01    0.3593585    0.2711586  72.32 0.0009684798    1.260    0.206
        76 -10.6245     51.6022     99.4462   8.6429356444e+01   5.1046320957e+01     0.686974     0.120229 -52.61  0.001807595    4.906    0.796
        77 -10.1130    145.4650    100.2351   5.6827412448e+01   3.3290594989e+01    0.2728213    0.1460465 -34.71 0.0007839791    1.971    0.493
        78 -11.7117      9.7957     97.4122   1.0310664694e+02   5.5462272420e+01    0.5300839    0.4303443  36.39 0.0004443367    1.281    0.219
        79  -9.8183     80.7982     98.1949   7.5214054795e+01   4.6904210497e+01    0.2058462     0.179854 -14.14 0.0006219277    1.336    0.252
        80 -11.3085     69.2023     95.5602   7.8798607311e+01   4.9495000329e+01    0.3641196    0.2578708  34.01 0.0006210015    1.426    0.299
        81 -10.8146     42.7651     94.5551   8.9051659910e+01   5.3395184021e+01    0.3374914    0.3032304 -85.66  0.001138437    1.064    0.060
        82 -10.8879     30.8134     95.7240   9.4207792715e+01   5.4331148343e+01    0.4761984    0.2601526  79.80  0.002028547    2.174    0.540
        83 -10.9618     35.1459     92.1792   9.1814192855e+01   5.4841942984e+01    0.7824529    0.4318025  70.31  0.003268046    2.287    0.563
        84 -11.2196     44.8243     84.9772   8.6248151192e+01   5.5645121243e+01      0.46338    0.3670164 -16.69  0.001931438    1.512    0.339
        85 -10.4296     37.4564     85.7097   8.9630052769e+01   5.6297723801e+01    0.3651811    0.2240466  20.92  0.001209598    1.782    0.439
        86 -10.7556     25.0578     86.0675   9.5209365870e+01   5.7382567601e+01    0.5243152    0.2905247 -82.54  0.002177433    1.801    0.445
        87 -10.1176     28.9551     84.6980   9.3236433582e+01   5.7404658752e+01    0.3051914    0.2151925  82.31 0.0009738893    1.490    0.329
        88 -11.6835     22.5088     94.3050   9.7488388686e+01   5.5417139834e+01    0.3004111    0.2907245 -18.17 0.0004798977    1.159    0.137
        89 -12.3960     18.2806     90.6618   9.8831216463e+01   5.6691641700e+01    0.5080488    0.3028077 -77.69 0.0004945233    1.533    0.348
        90 -10.4899    125.8739     94.5018   6.0181114484e+01   3.8708540588e+01    0.2731129    0.2166318 -33.55 0.0003062521    1.318    0.241
        91 -10.5086     82.9822     93.3063   7.3191267601e+01   4.7695309518e+01    0.2779661    0.2137153  35.02 0.0002581415    1.317    0.241
        92 -10.7756     77.5169     92.4977   7.4947922911e+01   4.8862336812e+01    0.4273689    0.3809308 -16.32  0.002223289    1.277    0.217
        93 -11.8639     89.2292     89.8323   7.0063777295e+01   4.7351482293e+01    0.3728783    0.2823376 -48.28 0.0004119401    1.332    0.250
        94 -11.1942     98.3995     90.9760   6.7315229920e+01   4.5281510839e+01    0.2759517    0.2199165  42.29 0.0001636512    1.240    0.194
        95 -10.5595     49.2487     90.9488   8.5651380460e+01   5.3546455869e+01    0.3208989    0.2301817  53.52  0.001578267    1.465    0.317
        96 -12.1562      7.0432     89.0377   1.0352405499e+02   5.7798562736e+01    0.5180895    0.3823505  10.88  0.001955019    1.542    0.352
        97 -10.0392     65.5070     89.4767   7.8733223776e+01   5.1601337492e+01    0.3466989    0.2159849  -5.59  0.001271669    2.991    0.666
        98  -9.4863    104.3678     87.7389   6.4481610394e+01   4.4775630308e+01    0.2269331    0.1433154 -37.14 0.0009520425    1.733    0.423
        99 -10.5595    143.1721     84.3841   5.2940690757e+01   3.6790462139e+01     0.259422    0.2096999 -41.62 0.0004692128    1.229    0.186
       100 -10.4173    113.4423     83.0329   6.0323014587e+01   4.3826081520e+01    0.4329286    0.2913767 -64.91  0.001823119    1.910    0.476
       101 -10.7752     80.2586     83.8992   7.1589038177e+01   5.0439805996e+01    0.4109891    0.2990218 -50.29   0.00194405    1.371    0.271
       102 -11.3571     74.9847     78.6618   7.2056640569e+01   5.2647829003e+01     0.661069    0.5337009  65.54    0.0023072    1.393    0.282
       103 -10.2714     67.1194     81.5646   7.6008175781e+01   5.3304495229e+01    0.3475609    0.2500914   0.66  0.001540347    1.953    0.488
       104 -13.0016    244.7047     76.5154   3.4796877423e+01   1.6671957797e+01    0.6674424    0.4388104  67.11   0.00401407    1.966    0.491
       105 -11.1226     58.2911     77.9159   7.8674582263e+01   5.5606197164e+01    0.3049764    0.2432734 -51.49 0.0006638449    1.226    0.184
       106 -11.5907     13.9581     74.6440   9.8704766158e+01   6.1190619708e+01    0.6590863    0.2751821 -81.60  0.002677077    2.340    0.573
       107 -10.5800     13.9645     67.3778   9.7610367904e+01   6.3091521600e+01    0.3590769    0.2023313   8.64  0.001720745    2.038    0.509
       108 -11.5255     53.3373     76.5645   8.0467777151e+01   5.6673212874e+01    0.5983764    0.3706613 -64.07  0.002714827    1.613    0.380
       109 -10.4520     95.0473     76.4720   6.4072849182e+01   4.9217162007e+01    0.4151953    0.2430351  56.11  0.001495287    1.963    0.491
       110 -11.4679     86.1262     73.3315   6.6192090738e+01   5.1752946277e+01    0.6716508    0.3845187  38.10  0.002779724    1.798    0.444
       111  -9.8117     92.0024     71.9802   6.3655245183e+01   5.0841847195e+01    0.2273534    0.2076588  79.35 0.0003581103    1.177    0.150
       112 -10.5752     24.6548     73.9113   9.3333126068e+01   6.0611018488e+01    0.2791347    0.2391982 -79.98 0.0009001422    1.099    0.090
       113 -10.3398     29.0469     72.0000   9.0791011886e+01   6.0721841656e+01     0.294906    0.1797284  35.87  0.001012716    1.693    0.409
       114 -11.5873     40.8120     71.5674   8.4946710985e+01   5.9583549324e+01    0.5587624    0.3485774 -75.06  0.002403867    1.714    0.417
       115 -11.3577    187.1663     70.8666   4.0667161992e+01   2.8908263707e+01    0.6038007    0.2958754 -38.40  0.002623575    1.855    0.461
       116  -9.4267    103.8305     74.6371   6.0605515446e+01   4.7717812910e+01    0.2255354     0.143762  55.80 0.0009469572    1.685    0.407
       117 -11.1633      2.0947     71.6331   1.0419593237e+02   6.2559097723e+01    0.3731804    0.2040373 -73.75   0.00130005    1.573    0.364
       118 -11.0328    122.9369     68.8612   5.3142491383e+01   4.4464782537e+01    0.4676894    0.2787177  42.68  0.001412135    1.747    0.428
       119 -11.0098     34.8634     71.7787   8.7880792623e+01   6.0199291688e+01    0.5807279    0.1781629  30.33   0.00204904    3.064    0.674
       120 -10.9611     79.3032     67.9389   6.6961459469e+01   5.4323525653e+01    0.5251196     0.333124  60.53  0.002182365    2.003    0.501
       121 -11.2387    219.9760     66.6554   3.5187600778e+01   2.2522850909e+01     0.426938    0.2463379  63.62  0.002213886    2.016    0.504
       122 -11.0443     59.1212     63.8226   7.4066634058e+01   5.8917927415e+01    0.4348928    0.2630945 -58.74  0.001623207    1.685    0.406
       123 -12.7344      5.9578     62.0557   1.0109096850e+02   6.4892703007e+01    0.6950118    0.4534656 -17.01  0.003049947    1.748    0.428
       124 -10.9263     91.5067     62.6964   6.0612029281e+01   5.2931617507e+01    0.5985898    0.2884206  51.84  0.002234102    2.207    0.547
       125 -11.2113     40.9532     57.0509   8.0784656556e+01   6.3208869592e+01    0.4838658    0.2209253  36.51  0.001504472    2.221    0.550
       126 -10.8698     51.9278     61.7533   7.6757280753e+01   6.0539318639e+01    0.4316325    0.2363692  45.57  0.001293505    1.989    0.497
       127 -11.6835     43.5178     62.4359   8.1114019106e+01   6.1549177097e+01    0.3218547    0.2441941 -61.55  0.000545188    1.271    0.213
       128 -11.1767     46.2094     59.1441   7.8736444405e+01   6.1996612951e+01    0.3277816    0.2949999  84.82  0.001026283    1.219    0.180
       129  -9.2469     25.6134     64.7331   9.0984588444e+01   6.2916058876e+01    0.1464215    0.0958437 -31.66  0.000698573    1.701    0.412
       130 -11.8806    234.9903     60.9625   3.2209840691e+01   2.0306267803e+01     0.310079    0.2609353 -34.87  0.002057692    1.014    0.014
       131 -12.2591     75.3679     53.9510   6.3425557982e+01   5.8168912556e+01    0.8445709    0.3961806 -49.90  0.001539071    2.223    0.550
       132 -11.0410     72.8647     47.6384   6.1904864036e+01   5.9990947129e+01     0.410158    0.2681578 -55.13  0.001161399    1.706    0.414
       133 -11.7819     25.9204     57.5745   8.9128979693e+01   6.4722810296e+01    0.7313909     0.609273  62.51   0.00414888    1.324    0.245
       134 -10.9449     32.1978     53.1753   8.4373998926e+01   6.5201311329e+01    0.5082429    0.2309584  18.66  0.001560025    2.583    0.613
       135 -10.1366     87.6415     56.9111   5.9843940060e+01   5.4969331178e+01    0.4079712     0.214866 -47.25   0.00148256    1.947    0.486
       136 -10.1307     91.6317     57.1484   5.8513991135e+01   5.4041049587e+01    0.3438171    0.2246199  56.45 0.0005996642    1.638    0.389
       137 -10.7126    117.2997     55.3323   4.9942165910e+01   4.8316162597e+01    0.4888312    0.2603079 -54.93   0.00180825    2.411    0.585
       138  -9.9687     50.9603     56.4743   7.5458502356e+01   6.1948734873e+01    0.2597022    0.2201307  22.09  0.001389001    1.239    0.193
       139  -9.8541    159.1645     62.5529   4.2995501054e+01   3.6727927168e+01    0.3555067    0.1114791  49.54    0.0011367    3.252    0.693
       140 -10.3710    156.2639     53.7294   4.0757089874e+01   3.8799063085e+01    0.6387664    0.3455205 -83.09  0.002054295    3.844    0.740
       141  -9.5309     67.0036     55.0541   6.7402982751e+01   5.9556728438e+01     0.184092    0.1684514 -44.88   0.00098685    1.081    0.075
       142 -10.4479      8.1588     54.7094   9.8737535746e+01   6.6688182220e+01    0.2781998      0.21572  63.88  0.001599652    1.391    0.281
       143 -11.4606     60.6867     48.0229   6.7509330609e+01   6.2256108698e+01    0.8390434    0.3385931 -43.35  0.003059734    2.510    0.602
       144  -9.3300     58.0394     42.0000   6.6231071940e+01   6.4021832069e+01    0.3814594   0.08225058  40.18  0.001023961    4.689    0.787
       145 -10.8560     39.1859     44.0148   7.7217078681e+01   6.6558107419e+01    0.3382455    0.2424883  -1.90  0.001113579    1.705    0.414
       146 -11.6381     45.1846     48.6438   7.5623079667e+01   6.4644906431e+01    0.5696545    0.3723667 -50.66  0.002766581    1.453    0.312
       147 -11.1601     44.2546     44.0211   7.4338744054e+01   6.5844843874e+01    0.3719622    0.2389158  44.92 0.0003234993    1.708    0.415
       148 -10.4917    240.2057     50.8293   2.9351642592e+01   2.0504277314e+01     0.164176    0.1369362  -2.57  0.001077155    1.352    0.260
       149 -10.2197     50.3339    249.6649   1.0151211071e+02   1.8807161918e+01    0.1179215   0.05379105  50.14 0.0007052161    1.738    0.425
       150 -11.2469    110.2705     41.3608   4.6469634766e+01   5.2444887366e+01    0.8031055    0.5286755  -7.68  0.003324027    2.175    0.540
       151 -10.8895    113.6683     49.7915   4.8858269529e+01   5.0184839263e+01    0.7339956    0.3559301  38.98  0.002619707    2.554    0.608
       152 -12.0230    118.7065     44.1396   4.5371679086e+01   4.9853204130e+01    0.7761368    0.4105558  62.26  0.002059857    1.952    0.488
       153 -12.4091    119.4758     37.2027   4.2467140471e+01   5.0725667763e+01    0.8465547    0.5435404 -56.53  0.003286942    1.812    0.448
       154 -10.3862     51.8413     48.3279   7.1997538608e+01   6.3699622440e+01    0.2653875    0.2277452 -36.16 0.0006341472    1.145    0.126
       155  -9.9708      2.2728     49.1528   1.0139224224e+02   6.8349500081e+01    0.2533151    0.1717589  27.32   0.00140784    1.638    0.390
       156 -10.4093    174.1530     48.4467   3.6188002546e+01   3.5137312860e+01    0.5013126     0.140492  64.12  0.001587697    3.723    0.731
       157 -10.0493    146.2865     47.1945   4.0452668622e+01   4.2297102605e+01    0.2627029    0.1853509 -27.12  0.001103644    1.471    0.320
       158 -11.5691     20.7668     45.9460   8.9075942909e+01   6.8091836340e+01    0.3775386    0.2480846 -59.92 0.0007390138    1.363    0.267
       159 -10.3030     13.0577     47.3035   9.4291327530e+01   6.8307775776e+01    0.3404091    0.1396311 -55.09  0.001470188    2.027    0.507
       160 -10.1723    138.5512     44.3317   4.0975364514e+01   4.4711379902e+01    0.4082531    0.2192772  31.81  0.001458152    2.878    0.653
       161 -10.0131    133.8260     45.6540   4.2432603178e+01   4.5731598392e+01    0.2646557    0.1774598  58.50  0.000565899    1.462    0.316
       162 -10.1240    198.4155     44.2767   3.1841799065e+01   2.9961091775e+01    0.2462012    0.1588136 -74.96  0.001211131    1.858    0.462
       163 -11.1425     33.5203     41.4866   7.9627630655e+01   6.7871124492e+01     0.279897     0.178198  30.71  0.001383956    1.630    0.386
       164 -10.7079    155.7379     42.3567   3.7140811194e+01   4.0570576159e+01    0.2923214    0.2540088  15.36  0.001152548    1.339    0.253
       165 -10.7850     26.3178     43.0567   8.4678928610e+01   6.8293288013e+01    0.2427959    0.2115277  79.17 0.0008728885    1.316    0.240
       166 -10.9375     22.0417     37.0236   8.5420202666e+01   7.0155111400e+01    0.5782762    0.2055714  39.72  0.002170862    3.207    0.688
       167 -11.2705      4.8374     36.0094   9.7258179790e+01   7.1555623086e+01    0.3556551    0.3395829  30.85  0.001490976    1.190    0.160
       168 -10.3950     92.3951     41.3782   5.1860701753e+01   5.6841852839e+01    0.3896327    0.2523693  53.75  0.001630459    1.524    0.344
       169  -9.8656     17.7955     41.6874   8.9769481401e+01   6.9381684681e+01    0.2154199     0.154936 -26.30  0.001165303    1.445    0.308
       170 -10.4236    231.5403     38.9674   2.7266010426e+01   2.3513998806e+01    0.3103739    0.1462737 -34.80  0.001569876    1.686    0.407
       171 -11.1461     78.3721     37.1718   5.5041100905e+01   6.0828268215e+01    0.6329444    0.4025456 -72.58  0.002339567    2.931    0.659
       172 -11.2283     79.6985     32.7697   5.2454061746e+01   6.1298796782e+01    0.5702958    0.3559781  24.44  0.002350654    2.217    0.549
       173  -9.5455    183.5315     38.0321   3.1815230381e+01   3.4215039853e+01    0.1998578    0.1274675 -32.15 0.0003649033    1.456    0.313
       174 -10.0631    133.2655     37.2983   3.9486169993e+01   4.7107364441e+01    0.3296854    0.2012382 -66.67  0.001337542    2.154    0.536
       175 -11.2327     60.6638     36.5335   6.2445987628e+01   6.4646406642e+01    0.3827935    0.3072648 -39.65  0.001137328    1.237    0.191
       176 -12.2494     57.7033     30.5689   6.0961769558e+01   6.6370674284e+01    0.4659766    0.3974326 -21.63   0.00105583    1.188    0.158
       177 -11.5514     48.5530     30.6525   6.5866162857e+01   6.8029881071e+01    0.7341483    0.3184406  33.22  0.002835566    2.562    0.610
       178 -10.7790    225.9491     37.2332   2.7304812980e+01   2.4835316905e+01    0.3690524    0.1156199  77.26  0.001296631    4.720    0.788
       179  -9.4778    206.4652     37.4420   2.9131715558e+01   2.8971481995e+01    0.1308211    0.1174142 -43.84 0.0004407585    1.032    0.031
       180 -10.1544    176.7344     35.8794   3.2015139871e+01   3.6135327422e+01    0.2658457    0.1658941 -47.45  0.001082342    1.524    0.344
       181  -9.6991     94.0080     35.9220   4.8940645742e+01   5.7378417439e+01    0.2320695    0.1812545 -77.95  0.000714237    1.616    0.381
       182 -10.7348    240.3577     33.2477   2.5229713047e+01   2.2405213386e+01    0.2377314    0.1255753 -36.88  0.001313231    1.482    0.325
       183 -11.1784    242.9928    247.3091   6.5992979049e+01  -2.3708478990e+00    0.2034985   0.08929114  -6.59  0.001184428    2.687    0.628
       184 -11.5526    106.6528     32.2473   4.3632065051e+01   5.4776721846e+01    0.6316763    0.3713588  12.53  0.002214357    3.212    0.689
       185 -12.1621    113.6928     25.0811   3.8805752246e+01   5.3934917083e+01    0.7487987    0.3283235  54.27  0.001866336    2.106    0.525
       186  -9.5557    169.7754     33.4020   3.2147961469e+01   3.8171651665e+01    0.2004077    0.1257259  57.21 0.0009483107    1.628    0.386
       187 -12.1795    160.0228     29.9160   3.2346463305e+01   4.1081190631e+01    0.4650653    0.4480225  71.78 0.0005020808    1.084    0.078
       188 -11.8368    164.2833     27.6766   3.1030387712e+01   4.0253291771e+01    0.3004111    0.2846922 -66.91 0.0004835041    1.026    0.025
       189 -10.2129     67.8305     32.0332   5.6940124956e+01   6.4048515515e+01    0.2559302     0.215237  29.39 0.0007396288    1.201    0.167
       190 -10.5445     11.2538     30.6660   9.1058437385e+01   7.2522493620e+01    0.3199203    0.2023231 -42.29  0.001053078    1.436    0.304
       191 -10.0673      6.6649     30.5755   9.4543475512e+01   7.2803957688e+01    0.3270651     0.160482 -21.49  0.001492852    2.312    0.568
       192  -9.5050    229.3282    248.3156   6.8187246203e+01  -1.1053501320e+00     0.105016   0.05512146   5.40 0.0006464214    1.675    0.403
       193 -11.3856    126.8585    241.7463   8.5536917650e+01   1.1372685610e+01    0.2089798    0.1538273  35.43  0.001078231    1.157    0.136
       194 -11.1066     67.6799    240.8924   9.7502626900e+01   1.8383624053e+01    0.1949038    0.1271714  24.64 0.0009150098    1.375    0.273
       195 -10.9465    146.5347    237.5236   8.1235678180e+01   9.5359078689e+00    0.2405044    0.1496314  54.49  0.001405414    2.456    0.593
       196  -9.9239    234.7667    239.9689   6.6240808199e+01  -8.8636438232e-01     0.120335   0.06847003 -21.35 0.0008825851    1.644    0.392
       197  -9.3715    199.6825    234.7047   7.1189182784e+01   3.4751206658e+00    0.1103391   0.06391522   6.55 0.0002910077    1.607    0.378
       198 -10.5256    198.0217     29.3002   2.7731626503e+01   3.1816015391e+01    0.2900107    0.2343145  70.02  0.001708864    1.319    0.242
       199  -9.4960     99.4917     30.5349   4.4858800669e+01   5.6857394778e+01    0.1488247    0.1435812  78.76  0.000123877    1.047    0.045
       200 -10.9564    188.9987     27.6967   2.8172661106e+01   3.4118607123e+01    0.3228604    0.2784759  26.44  0.001613558    1.394    0.283
       201  -9.5279     43.0355     28.0060   6.7723078643e+01   6.9484902181e+01    0.1642578    0.1507362 -24.40            0    1.034    0.033
       202 -11.5719    183.3942     25.4284   2.8086209621e+01   3.5725538396e+01    0.4389039    0.2794425  52.37  0.002202601    1.724    0.420
       203 -10.5283    150.1165     27.1673   3.2849545171e+01   4.3993621836e+01    0.2457735    0.1867779  59.25 0.0003479039    1.309    0.236
       204  -9.8806    230.4887     26.5044   2.4321275865e+01   2.5062877551e+01    0.1246522    0.1027204 -43.66 -2.130064e-05    1.003    0.003
       205  -9.7973    120.1766     15.8180   3.3500843986e+01   5.3315688404e+01    0.3499871    0.1696544  39.92 0.0008492894    2.489    0.598
       206 -11.8586    143.5257     25.0931   3.3127545235e+01   4.5983621612e+01    0.5213245    0.2578904  56.70  0.002171441    1.936    0.483
       207 -11.0816    247.2073    230.5537   6.3069206514e+01  -1.2803153649e+00    0.2357709   0.07519843  29.84  0.001308664    2.660    0.624
       208  -9.9856    164.4919    211.9934   7.4497273483e+01   1.0694026624e+01    0.1804115    0.1321385  23.57  0.000616336    1.086    0.079
       209 -10.0322    152.2929    206.6857   7.6191396265e+01   1.3126950078e+01    0.1891202    0.1552526 -57.87  0.001249164    1.726    0.421
       210  -9.0101     61.3290    206.6696   9.6517486682e+01   2.5052766563e+01    0.1323379   0.07075937  53.60 0.0007051558    1.713    0.416
       211 -10.1032    139.6559    199.3172   7.7806185017e+01   1.6053418760e+01    0.1236697   0.08916519  54.04 0.0007048753    1.718    0.418
       212  -9.9473     59.6864     23.9026   5.6426234408e+01   6.7178797974e+01    0.1975971    0.1742668 -32.68 0.0004681206    1.144    0.126
       213 -10.5780     13.8559     23.4421   8.6394418765e+01   7.4038506415e+01    0.2320247     0.164341 -51.02 0.0003800081    1.245    0.197
       214  -9.8676    233.6810    196.6443   5.9962761716e+01   3.6579219725e+00    0.1181471   0.06663091   1.27 0.0007045773    1.753    0.430
       215  -9.9263    169.4424     23.5104   2.9043028256e+01   3.9413975548e+01    0.2599455    0.1084012  57.91  0.001036267    2.352    0.575
       216  -9.4227     16.4713    191.5161   1.0639438113e+02   3.2553290789e+01    0.1193473   0.09366526  53.25 2.380389e-05    1.007    0.007
       217  -9.7002    171.5374    190.4855   6.9878305847e+01   1.2795682807e+01    0.1259665    0.1011039  12.14 0.0002591104    1.044    0.042
       218 -11.0009     87.3638     17.2295   4.2029971017e+01   6.1776202215e+01     0.621618    0.1675235  51.29  0.001972098    3.212    0.689
       219 -11.7416      5.0194    185.7808   1.0899995427e+02   3.4655717436e+01    0.3636612    0.2994998  64.18  0.002381406    1.091    0.083
       220  -9.6375    223.9671     22.4495   2.3781166666e+01   2.6825592146e+01    0.1726608    0.1193847  84.04   0.00054564    1.574    0.365
       221  -9.8893    216.5174     20.8704   2.3913989604e+01   2.8573595072e+01    0.1840443    0.1122913 -27.39 0.0004293062    1.488    0.328
       222  -9.7220     86.0833    185.5135   8.8494319087e+01   2.6121378160e+01    0.2041396     0.112687  31.69  0.001023795    1.566    0.361
       223 -11.6355    157.3940     20.3065   2.9460116228e+01   4.2873782628e+01    0.4496891    0.2174691  76.08  0.001856821    2.124    0.529
       224  -9.4184    240.0299    184.7452   5.7024001941e+01   4.2104457324e+00    0.1298683   0.08193073  27.85 0.0004660654    1.498    0.332
       225  -9.9326     74.1839     19.6682   4.7826422274e+01   6.4651706039e+01    0.2067702    0.1712436  47.08 0.0006652207    1.154    0.133
       226 -10.3965     46.8614     19.4393   6.0655701681e+01   7.0454914639e+01    0.2788764    0.2436012 -30.76  0.001616657    1.130    0.115
       227  -9.2943    175.5165    180.4575   6.7431970388e+01   1.3699753004e+01    0.1266883    0.1054651  12.73 0.0008088878    1.012    0.012
       228 -10.8635    245.9726     19.0221   2.1581786577e+01   2.2775212587e+01    0.1504804    0.1104488 -37.29 0.0005811126    1.092    0.084
       229 -10.8326    186.5005     15.0432   2.4704029609e+01   3.6067685422e+01    0.2509837    0.1926602  79.65 0.0005644227    1.309    0.236
       230  -9.3437    113.4526    176.0066   8.0450377360e+01   2.4069932448e+01    0.1775076    0.1071298 -27.89 0.0008053267    2.402    0.584
       231  -9.5440     51.9971    173.7362   9.6148097478e+01   3.2858517271e+01    0.1653678    0.1006067  31.35 0.0004176548    1.474    0.321
       232 -11.2551      9.3313    167.2097   1.0729047305e+02   3.8349822881e+01    0.2619631    0.1939442  40.86 0.0009739186    1.194    0.162
       233  -9.3334    198.3112    167.7060   6.0861640751e+01   1.2099378173e+01    0.1053273    0.1016936  72.74 0.0003183322    1.592    0.372
       234 -10.3157    204.9397    163.1946   5.8849898010e+01   1.1724692190e+01    0.2110162     0.158992 -20.51 0.0006773482    1.215    0.177
       235 -10.0423     13.9917    159.3074   1.0566733694e+02   3.9789953044e+01    0.1757548    0.1429581  46.24  0.000627061    1.111    0.100
       236 -10.2961      5.0146     13.0000   8.9941091138e+01   7.7017062553e+01    0.2965066    0.1640538   8.06   0.00154238    1.928    0.481
       237  -9.4670     53.4950    155.4958   9.3936295999e+01   3.6824449568e+01     0.134779    0.1204596  55.62  0.000224136    1.020    0.019
       238  -9.5751      9.4906    155.5067   1.0677232653e+02   4.1008673438e+01    0.1257265    0.1042722  62.82 4.458142e-05    1.005    0.005
       239 -10.3862    105.0669    153.7985   7.9093382994e+01   2.9904659426e+01    0.2784152    0.2010274  15.14  0.001392787    1.600    0.375
       240  -9.9413      4.0334    153.5266   1.0825386527e+02   4.1849123175e+01     0.195078   0.05450273  43.47 0.0008100523    2.618    0.618
       241  -9.8554    141.2321    152.5707   6.9761659802e+01   2.4023724501e+01    0.2751831    0.1240321  41.93  0.001139354    2.092    0.522
       242 -11.6688     23.1202    148.8792   1.0240463988e+02   4.1498089960e+01    0.4465382    0.2711558 -40.10  0.002018962    2.189    0.543
       243 -11.2028     47.9703    146.7717   9.4643645674e+01   3.9535516772e+01    0.5426479    0.3815098  -5.34  0.002736279    1.978    0.494
       244  -9.5898      3.4811    147.4975   1.0819485695e+02   4.3298318479e+01    0.1253726    0.1045074  66.10 0.0008103665    1.010    0.010
       245  -9.4352     74.3695    145.8231   8.6516083204e+01   3.6385830250e+01    0.1888427    0.1260067 -53.04 0.0005721785    1.616    0.381
       246 -11.1227     33.1087    144.4485   9.9003196038e+01   4.1659551632e+01     0.281994     0.227469  62.77 0.0007228416    1.104    0.095
       247 -11.9745      2.7803    141.8683   1.0819254277e+02   4.4682042360e+01    0.4453261    0.2899404  48.29   0.00261231    1.336    0.251
       248  -9.5446    217.2042    138.6033   5.1967834601e+01   1.3213058326e+01    0.1653352    0.1072894  27.49 0.0005508017    1.584    0.369
       249  -9.4880     79.2469    137.9958   8.3821733964e+01   3.7517780727e+01    0.1845215     0.122351 -63.63 0.0008835911    1.584    0.369
       250  -9.9690     40.4971    138.0078   9.6040772883e+01   4.2494599619e+01    0.2018291    0.1286325 -81.65  0.001015809    1.563    0.360
       251 -10.0927     32.0800    137.7109   9.8720389902e+01   4.3412186733e+01    0.1909007    0.1629423  41.75   0.00105352    1.136    0.120
       252 -11.2975     12.2680    136.2341   1.0496957941e+02   4.5420392249e+01    0.5171799    0.2520234 -62.49  0.002491773    2.066    0.516
       253 -11.3281     22.2349    135.9917   1.0175212586e+02   4.4714246406e+01     0.479284    0.3107721  36.77  0.002613402    1.437    0.304
       254 -10.9539     29.9876    133.0887   9.8971955056e+01   4.4758915495e+01    0.3117584    0.2309413 -33.55 0.0008718433    1.693    0.409
       255 -10.1123     73.4071    133.7903   8.4934582728e+01   3.9387259060e+01    0.2071533    0.1290092 -52.22 0.0009608912    1.696    0.410
       256 -10.4680     15.9382    147.9048   1.0450466580e+02   4.2317445621e+01    0.2614518    0.1634731  32.04  0.001063261    1.499    0.333
       257  -9.8624     39.1238    133.4728   9.5995607720e+01   4.3766270704e+01    0.1943883    0.1299784  28.00 0.0005132937    1.494    0.331
       258  -9.2275    103.7090    130.7211   7.5204732537e+01   3.5200945882e+01    0.1417223    0.1151327  -7.02 0.0001956448    1.525    0.344
       259  -9.8705     93.2663    129.8441   7.8103871812e+01   3.7199737821e+01    0.2359863    0.1887212  89.10  0.001190615    1.463    0.316
       260 -10.7710     22.8917    126.9574   1.0080083270e+02   4.6922111069e+01    0.2011363    0.1840167  41.95 0.0004549378    1.136    0.120
       261 -10.2424     10.8278    126.7901   1.0487680379e+02   4.7863404451e+01    0.1906548    0.1295863  60.80 0.0009122654    1.324    0.245
       262  -9.7211      2.2770    126.0162   1.0769703067e+02   4.8580933274e+01    0.1869406    0.1446346  80.89  0.000570864    1.121    0.108
       263 -12.8165    103.8548    122.5208   7.3441463594e+01   3.7027533392e+01    0.3297547    0.3106261  24.29  0.000543325    1.076    0.070
