#   1 NUMBER                 Running object number                                     
#   2 MAG_AUTO               Kron-like elliptical aperture magnitude                    [mag]
#   3 X_IMAGE                Object position along x                                    [pixel]
#   4 Y_IMAGE                Object position along y                                    [pixel]
#   5 X_WORLD                Barycenter position along world x axis                     [deg]
#   6 Y_WORLD                Barycenter position along world y axis                     [deg]
#   7 A_WORLD                Profile RMS along major axis (world units)                 [deg]
#   8 B_WORLD                Profile RMS along minor axis (world units)                 [deg]
#   9 THETA_WORLD            Position angle (CCW/world-x)                               [deg]
#  10 FWHM_WORLD             FWHM assuming a gaussian core                              [deg]
#  11 ELONGATION             A_IMAGE/B_IMAGE                                           
#  12 ELLIPTICITY            1 - B_IMAGE/A_IMAGE                                       
         1 -13.9486     23.4513     28.2342   8.3544230197e+01   6.8528462514e+01     1.702802    0.7302662 -28.03  0.007944743    2.459    0.593
         2 -13.4600      4.7863     37.7358   9.7050519263e+01   6.8381547224e+01    0.8709046     0.718385 -16.53  0.004551957    1.142    0.125
         3 -13.3505     10.6876     49.9223   9.7819827318e+01   6.5645908174e+01      1.25438    0.4512989 -37.78  0.005695602    2.351    0.575
         4 -13.1795    214.0297     37.1595   3.6653858487e+01   2.7998227983e+01    0.9210697    0.6319505 -65.74  0.005424993    1.347    0.257
         5 -12.3259     76.6385     36.8588   6.3985982687e+01   5.9268605227e+01      0.74941    0.4031309 -41.30   0.00356923    2.148    0.534
         6 -12.9753    234.3424     30.8649   3.3372152941e+01   2.4536288466e+01    0.6974547    0.6044953 -88.00  0.003644584    1.173    0.147
         7 -11.8075     57.5191     21.5029   6.4702485512e+01   6.4744012359e+01    0.5065187    0.2850696   6.32  0.002406482    2.367    0.578
         8 -12.9359     41.1869     21.4666   7.1734306906e+01   6.7329102915e+01    0.7139671    0.4216574 -35.03  0.004078914    1.751    0.429
         9 -13.1812    116.8776     15.2251   4.4872187716e+01   5.3101917715e+01     0.987779    0.7362699  34.41  0.005810257    1.351    0.260
        10 -13.6205    119.0074      4.0703   4.0692856478e+01   5.3572505927e+01     1.611601    0.6056821  68.05  0.006844945    2.421    0.587
        11 -12.5827    178.5266     11.6019   3.4492084027e+01   3.8906588791e+01    0.6262875    0.3849244 -56.60   0.00351347    1.638    0.389
        12 -13.7897    184.5302      7.3661   3.2828116420e+01   3.7939670866e+01     1.252695    0.6966582 -80.82  0.006587299    1.853    0.460
        13 -12.8954    140.4333      4.3759   3.7335761361e+01   4.8522095189e+01    0.7710439    0.4085504  77.17  0.003575824    1.785    0.440
        14 -12.6341    167.5510      9.5283   3.5219129896e+01   4.1665702008e+01    0.6466252    0.3367836 -60.81  0.003164523    2.196    0.545
        15 -12.7725    197.6750     19.5205   3.4358830878e+01   3.3706027583e+01    0.7799431    0.3344794  65.48  0.003768982    2.085    0.520
        16 -11.8163    158.4945     10.6384   3.6641427654e+01   4.3695109748e+01    0.2477259    0.2085747  44.33  0.001584346    1.316    0.240
        17 -13.2683    139.8442     10.5409   3.9266269988e+01   4.8129436547e+01    0.8916892     0.543755  81.85  0.004680794    1.668    0.400
        18 -12.3742     37.6950    146.3366   1.0717946736e+02   4.0701828775e+01    0.5041424    0.4007414  23.74   0.00184521    1.424    0.298
        19 -10.8104    246.9816    249.7232   7.4875511499e+01  -1.1447348045e+01    0.1688665    0.1209795   4.80  0.001184217    1.092    0.084
        20 -12.6308     84.5171    248.5221   1.0762014325e+02   1.1070555540e+01    0.5552382     0.329569  35.83   0.00274732    1.463    0.317
        21 -10.8403     59.6909    246.1545   1.1258283341e+02   1.4774580375e+01    0.2119096    0.1484857  79.11 0.0008231272    1.424    0.298
        22 -14.7773      6.1701    236.4431   1.2257894797e+02   2.2588179790e+01     4.508355     1.013053 -69.89   0.01903299    3.741    0.733
        23 -14.8280     48.4387    207.1826   1.1152841500e+02   2.4519484249e+01     4.716311     1.746287  66.06   0.01337325    5.975    0.833
        24 -14.3996     11.8220    151.5747   1.1525130513e+02   4.1616050314e+01     2.188531    0.8467737 -73.54  0.009515047    2.173    0.540
        25 -14.5766     13.3036    132.1031   1.1264204976e+02   4.6381008799e+01     1.935896     1.042633 -65.77  0.007475777    1.515    0.340
        26 -13.2038      8.4031    207.1129   1.2050444602e+02   2.8649333288e+01     0.416979    0.3672048 -36.74  0.001341586    1.548    0.354
        27 -14.4710     16.0068    202.1886   1.1851738509e+02   2.9080137943e+01    0.9698054     0.736666  83.35  0.003191753    1.103    0.093
        28 -12.0686     67.8971    143.4564   9.7572399406e+01   3.7841476708e+01    0.7274709    0.4299161  58.70  0.002683081    2.206    0.547
        29 -10.5419     88.7899    143.5919   9.1293039271e+01   3.4664497313e+01     0.291984    0.2119283 -54.82 0.0009307538    1.332    0.249
        30 -11.5365     76.3013    141.7496   9.4685824796e+01   3.7073791959e+01    0.3269518     0.264425 -47.54  0.000327631    1.198    0.165
        31 -13.7759      3.8520    125.9769   1.1480896831e+02   4.8498088072e+01     2.951757    0.2799447 -70.20  0.007982446    5.618    0.822
        32 -10.9856     87.6037    138.9184   9.0675001923e+01   3.6032848381e+01    0.4285958    0.2111261  39.25  0.001676733    2.063    0.515
        33 -10.3132     92.3555    140.0742   8.9491998773e+01   3.4959414300e+01    0.2245743    0.1975334 -56.93 0.0009532877    1.114    0.102
        34 -12.3124     90.3008    129.3804   8.7755884035e+01   3.7966678740e+01    0.7473266    0.4860885 -70.53  0.001328139    1.907    0.476
        35 -13.3338     84.0266    122.3853   8.8108339509e+01   4.0733206254e+01    0.8612686     0.665778 -60.38  0.003404909    1.315    0.239
        36 -13.4500     28.6190    113.5257   1.0490076449e+02   4.9862105221e+01     1.106105    0.9817852 -68.07  0.005592418    1.085    0.078
        37 -11.5026     25.0226    104.4745   1.0453632595e+02   5.2390639427e+01    0.3876112    0.2728017  -1.26  0.001508655    1.650    0.394
        38 -12.2772     33.4487    101.5371   1.0089182919e+02   5.2381892506e+01    0.5459319    0.5153871  28.72  0.002200856    1.213    0.176
        39  -9.9753    102.8478    119.8253   8.1620570313e+01   3.8060459691e+01    0.2304128    0.2073995  -9.14 0.0003773728    1.165    0.142
        40 -10.4738    105.1867    131.2312   8.3688650129e+01   3.4886438171e+01     0.383912    0.3138834   9.63  0.001844265    1.396    0.284
        41 -10.1523    244.6691    131.6718   5.3153095567e+01   7.2366083167e+00    0.1320311   0.09647695  -8.53 0.0005705379    1.713    0.416
        42 -11.5056     51.9114     89.6573   9.1159219497e+01   5.3199585428e+01    0.4593393    0.3873609  -7.09  0.001745377    1.190    0.159
        43 -11.8865     48.3215     95.5615   9.4013301488e+01   5.2259401102e+01     0.718623    0.5417832 -58.81  0.003035801    1.297    0.229
        44 -11.9607     48.8850    107.9983   9.6689667092e+01   4.9201419352e+01    0.6957589    0.4970252  80.74  0.003282804    1.973    0.493
        45 -11.1109     47.1155    102.1272   9.6011547700e+01   5.0832051809e+01    0.3841617    0.2667787  25.50  0.001880883    1.556    0.357
        46 -12.4600     66.0057    103.0104   8.9441008894e+01   4.8193459737e+01    0.6809347    0.6254564  21.05  0.003845005    1.142    0.125
        47 -10.1816     87.6983     97.5510   8.0531205894e+01   4.5979460623e+01    0.4600168    0.1502986  35.48  0.001456089    3.234    0.691
        48 -10.9128     31.5899     91.3478   9.9394830165e+01   5.4986642114e+01    0.4550444    0.2862655 -57.16  0.002371307    1.399    0.285
        49 -11.3886     81.1756     87.2903   7.9791857191e+01   4.9376069650e+01    0.5458927    0.3876443 -50.35  0.002656733    1.447    0.309
        50 -11.5173     65.1443     89.0417   8.6034872502e+01   5.1546402676e+01    0.4831304    0.3564438   1.67  0.002423963    1.529    0.346
        51 -11.4858     68.9939     79.3658   8.1775972839e+01   5.3068908919e+01    0.4526091    0.2517584  17.75  0.001872303    2.300    0.565
        52 -11.6779     27.0796     78.2784   9.8111877801e+01   5.8390060269e+01    0.5507945     0.425516  21.95  0.002835186    1.435    0.303
        53 -10.6015      5.8486     75.9305   1.0641154857e+02   6.0360940215e+01    0.3418896    0.2344141  -8.29   0.00206323    1.566    0.361
        54 -12.0154      5.4072     69.3400   1.0521082790e+02   6.1854118591e+01    0.6503855    0.2665241 -46.08  0.002956075    1.856    0.461
        55 -10.1015     26.0400     60.7173   9.3789421078e+01   6.2269475776e+01    0.1855264    0.1526226 -17.05  0.001170716    1.087    0.080
        56 -11.2998    162.2548    248.2844   9.1042607940e+01  -1.3274651166e-01    0.3066068    0.1777994  22.38  0.001595998    1.633    0.388
        57 -10.8496     37.5840    249.4140   1.1726696005e+02   1.6754497681e+01    0.1918324    0.1490231  39.45  0.001316834    1.287    0.223
        58 -12.6927      2.9953     50.3623   1.0171292906e+02   6.6004145491e+01    0.9142354    0.2690451 -57.16  0.004018834    2.572    0.611
        59 -11.1481    132.1532    247.8332   9.7362798645e+01   4.3798295100e+00    0.2006344    0.1610479  46.66 0.0007087557    1.224    0.183
        60 -10.5681     40.9603    231.9031   1.1533346547e+02   1.9933920102e+01    0.3047957    0.2161563 -83.91  0.001363701    1.356    0.263
        61 -11.5128     36.3555     43.4118   8.3174684453e+01   6.4528296300e+01    0.5898126    0.3174234  21.37   0.00303957    1.862    0.463
        62 -12.7022     24.4018    227.2256   1.1844122820e+02   2.2722823660e+01    0.5456254    0.3318806  64.62  0.001975786    1.430    0.301
        63 -15.0371    103.6466    227.3675   1.0101855160e+02   1.2567177315e+01     2.673008    0.8878415  37.09  0.009976003    2.558    0.609
        64 -10.5286     34.9652    210.6107   1.1492799205e+02   2.5260507928e+01    0.2835545    0.2048073  45.89  0.001581719    1.291    0.225
        65 -10.9378     93.9007     46.5690   6.1978112272e+01   5.4433818835e+01    0.3750151    0.2761544 -42.25  0.001994615    1.537    0.349
        66 -13.8284      3.7887    184.6482   1.2006015395e+02   3.4188477512e+01     2.025951    0.6988019 -77.58  0.008061981    2.454    0.592
        67 -11.1230     64.9987    205.4978   1.0742314253e+02   2.2846180770e+01    0.3158793     0.270129  41.68  0.001897638    1.157    0.136
        68 -14.8198     73.1333    226.2579   1.0781338432e+02   1.7137887250e+01     2.246571     1.256562  43.54   0.01154458    1.565    0.361
        69 -11.3019     42.2312    180.2181   1.1021707792e+02   3.1673295425e+01    0.2719561    0.2398681 -50.11 0.0005356717    1.257    0.204
        70 -11.5744     50.1682    173.7110   1.0734815300e+02   3.2386216814e+01    0.2731782    0.2533301 -45.83 0.0004685256    1.198    0.165
        71 -10.4599     63.2974    163.5855   1.0231436190e+02   3.3312756623e+01    0.2440212    0.2234571 -52.97 0.0003813695    1.115    0.103
        72 -12.8770     48.2979    160.0491   1.0603776430e+02   3.6056063703e+01    0.5315275    0.3111829 -36.29  0.001449251    2.165    0.538
        73  -9.0250    133.2291    159.6472   8.2273180402e+01   2.2795204826e+01    0.1498824    0.1219336 -83.47 0.0002776041    1.563    0.360
        74 -11.8804     71.8428    155.8974   9.8616546068e+01   3.4109182231e+01    0.6327577    0.4767537 -58.65  0.003207843    1.262    0.207
