#   1 NUMBER                 Running object number                                     
#   2 MAG_AUTO               Kron-like elliptical aperture magnitude                    [mag]
#   3 X_IMAGE                Object position along x                                    [pixel]
#   4 Y_IMAGE                Object position along y                                    [pixel]
#   5 X_WORLD                Barycenter position along world x axis                     [deg]
#   6 Y_WORLD                Barycenter position along world y axis                     [deg]
#   7 A_WORLD                Profile RMS along major axis (world units)                 [deg]
#   8 B_WORLD                Profile RMS along minor axis (world units)                 [deg]
#   9 THETA_WORLD            Position angle (CCW/world-x)                               [deg]
#  10 FWHM_WORLD             FWHM assuming a gaussian core                              [deg]
#  11 ELONGATION             A_IMAGE/B_IMAGE                                           
#  12 ELLIPTICITY            1 - B_IMAGE/A_IMAGE                                       
         1 -13.6973    188.9868     26.0283   3.6471026854e+01   3.5078626003e+01     1.340057    0.5319307 -58.46  0.005334147    3.101    0.678
         2 -13.7621    187.5997     12.8521   3.3461228337e+01   3.6852733454e+01     1.376679    0.5759051 -56.48  0.006257085    2.535    0.605
         3 -14.3178    166.6616     29.0048   4.0031922888e+01   3.9915619312e+01     1.010205    0.7890025  71.67  0.003694798    1.156    0.135
         4 -13.3211    132.2090     32.8970   4.6882452480e+01   4.7637087727e+01    0.5442297    0.5136101   2.79  0.001927683    1.192    0.161
         5 -13.9886    121.9684     37.2382   5.0423986652e+01   4.9498086717e+01     0.950227    0.4711995  39.32  0.002569468    2.274    0.560
         6 -14.6816    147.0776     29.4527   4.3143902637e+01   4.4514479818e+01      1.46052    0.8075352  57.32  0.006317341    1.618    0.382
         7 -13.5845      9.1322      3.0614   7.7771109897e+01   7.3827917058e+01    0.7732064     0.507314  48.26  0.003574922    3.247    0.692
         8 -16.0519     13.8470     20.6098   8.3669791169e+01   7.0882576406e+01     1.899398    0.9934754 -22.78  0.009907429    1.818    0.450
         9 -14.3360     25.1926     14.0495   7.4395677656e+01   7.0570517802e+01    0.7420821    0.3446385  30.27  0.004031162    1.997    0.499
        10 -13.5205      2.9331     10.4224   8.5378622893e+01   7.3390611862e+01    0.8486814    0.3476584 -44.65  0.004621135    2.292    0.564
        11 -11.9721    232.4185      2.1988   2.7617074161e+01   2.8406196161e+01     0.423366    0.1973633  62.89  0.002253519    2.281    0.562
        12 -12.5254    224.7750      4.6917   2.8604975073e+01   2.9686802686e+01    0.3529133    0.2330541  44.02  0.001415167    2.396    0.583
        13 -14.9851    217.4163     14.5160   3.1158276478e+01   3.0152767349e+01     1.600555    0.8746197 -33.59  0.009075769    1.952    0.488
        14 -12.9207     60.0075     16.8751   6.0311605085e+01   6.4877505829e+01    0.5788817     0.446789  84.06  0.002888598    2.496    0.599
        15 -13.1669    120.5139     25.7695   4.6929083432e+01   5.1196665050e+01    0.6887554    0.4464512  36.11  0.003596529    1.655    0.396
        16 -15.3892     99.1890     11.6960   4.6628245120e+01   5.7439259031e+01     1.477484    0.7530541  58.32  0.004301736    1.675    0.403
        17 -12.8320     70.2890     16.3145   5.6481615799e+01   6.3018363593e+01    0.3603673    0.3110458  56.95  0.001460573    1.345    0.257
        18 -12.2728     46.8882     13.3477   6.3840860843e+01   6.7522144098e+01    0.2728754     0.202038  35.69  0.001239905    1.267    0.210
        19 -14.1485     41.7264      4.7014   6.1772821748e+01   6.9277784618e+01    0.7060735    0.4707943  14.38  0.003547119    1.342    0.255
        20 -12.5861     75.8353     10.7566   5.2371695608e+01   6.2472197912e+01    0.3084407     0.207394  77.90 0.0007799151    2.273    0.560
        21 -10.5862    133.7470      8.6214   3.9027994780e+01   4.9792097039e+01    0.1788994    0.1076774  77.42  0.000940997    1.580    0.367
        22 -11.8166    152.7757      8.6224   3.6330527242e+01   4.5323865078e+01     0.323826    0.1898868  85.59  0.001677114    1.681    0.405
        23 -12.3378    120.2224      3.5981   3.9622298158e+01   5.3355684845e+01       0.3342    0.2037551  81.73  0.001794259    1.712    0.416
        24 -11.3992    117.2315      1.5777   3.9461376415e+01   5.4199902971e+01    0.2721968    0.1589214  62.45  0.001050007    1.405    0.288
        25 -11.1301     67.3140      4.0648   5.2055148015e+01   6.4753551856e+01    0.1681144    0.1419866  25.58 0.0007053204    1.068    0.063
        26 -11.9640     81.3390      1.5783   4.7002997589e+01   6.2116471989e+01    0.4867973   0.09138817  55.51  0.001759528    3.496    0.714
        27 -12.2442     61.1758      1.7696   5.2980744589e+01   6.6123438054e+01    0.3812892    0.1464757  54.57  0.001562017    2.373    0.579
        28 -13.1971     85.2566     14.3381   5.1156544175e+01   6.0196734312e+01    0.4253024    0.3523954  16.30  0.002527429    1.192    0.161
        29 -11.1724     79.7395    192.8731   1.0139695702e+02   2.3449637841e+01    0.3980813    0.1213585  41.72   0.00135511    3.017    0.669
        30 -12.9792    107.7361    246.4450   1.0177280540e+02   7.5930517120e+00    0.7721835    0.5091352 -81.15  0.004138714    2.030    0.507
        31 -14.2429     97.4400    239.2971   1.0316436918e+02   1.0486995057e+01    0.9656236    0.7217598 -79.16  0.005642178    1.530    0.346
        32 -12.2363     51.6608    248.6383   1.1373889321e+02   1.4735926510e+01    0.3956285    0.3050982 -72.33  0.002618781    1.400    0.286
        33 -12.4718     57.6948    246.6223   1.1234774882e+02   1.4393028596e+01    0.5164536    0.1947768  32.36  0.002307678    2.531    0.605
        34 -10.4056     41.3247    250.3220   1.1592543766e+02   1.5636507567e+01     0.104905   0.09198324 -33.55 0.0007047183    1.682    0.406
        35 -13.2500     28.3472    246.1238   1.1818960361e+02   1.7954051680e+01    0.4561367    0.3126135  69.00  0.002996264    1.199    0.166
        36 -12.7008      2.8737    248.8051   1.2312704491e+02   2.0030488676e+01    0.4684342    0.2632958  85.99  0.003000177    1.514    0.340
        37 -13.7012      9.6224    246.0682   1.2175640034e+02   1.9920049528e+01    0.7422023    0.3692996  63.30  0.003443601    1.654    0.395
        38 -12.7833     97.7852    188.0121   9.6057182616e+01   2.1867369216e+01     0.277929    0.2170416  37.20  0.001422519    1.266    0.210
        39 -14.2972     29.8823    169.4522   1.1141402873e+02   3.5542925057e+01     1.111589     1.010442  30.35  0.006964641    1.288    0.223
        40 -12.8668     85.4189    180.1390   9.8019073854e+01   2.5742559246e+01    0.3935656    0.3103493  79.90  0.002001752    1.375    0.273
        41 -12.3120     48.8972    181.9675   1.0788201470e+02   3.0281552499e+01    0.4127484    0.2974839 -49.95  0.002193801    1.497    0.332
        42 -12.6308    197.8566    180.7297   7.1209944618e+01   5.9965015692e+00    0.5335758    0.3873296 -75.06  0.002436934    2.450    0.592
        43 -12.2321     84.5402    172.6829   9.7041604208e+01   2.7752358184e+01    0.4399125    0.2254872 -51.10  0.001808502    1.932    0.482
        44 -13.0207    124.3472    166.7231   8.5304269072e+01   2.2462865097e+01    0.7242631    0.4634775 -68.37  0.003011632    1.944    0.486
        45 -12.2771     23.6447    160.1261   1.1205301466e+02   3.8515716483e+01    0.3792167     0.179503 -45.54  0.001274927    2.399    0.583
        46 -10.7606    101.9936    161.0000   9.0147503526e+01   2.7860759092e+01    0.2543987   0.08783678  35.46 0.0008044994    2.957    0.662
        47 -11.3888      1.8791    159.0237   1.1777389062e+02   4.0531740949e+01    0.3128996    0.1565149 -78.27  0.001223773    1.641    0.391
        48 -12.2710     77.0536    156.8760   9.6404173968e+01   3.2940779481e+01    0.4460807    0.3694436  14.13  0.001397221    1.411    0.291
        49 -13.8465     73.3163    153.4754   9.6876628364e+01   3.4374987613e+01    0.7905738    0.6208586  22.23  0.002822802    1.441    0.306
        50 -12.4120    209.3601    154.6862   6.3561887913e+01   9.0247060265e+00    0.6029078    0.2801635  40.41  0.002519528    2.403    0.584
        51 -12.0129     85.9143    153.0342   9.3137394833e+01   3.2560651356e+01    0.5254647    0.2744366 -46.87  0.002100738    1.931    0.482
        52 -11.7699    103.2077    150.0775   8.7600848986e+01   3.0397821634e+01    0.4201501    0.2795663 -31.43   0.00177264    1.842    0.457
        53 -12.3609      7.2335    146.3273   1.1512349740e+02   4.3348390784e+01    0.6150271    0.2765307 -63.09  0.002930103    1.788    0.441
        54 -12.5433    244.5271    147.3837   5.6077603529e+01   4.4055020263e+00    0.3616987    0.1795108 -42.68  0.001744016    1.689    0.408
        55 -12.9579     59.4966    148.6590   1.0011076986e+02   3.7544425537e+01    0.3273691     0.275593 -17.38  0.001176867    1.419    0.295
        56 -11.5663     12.5487    148.8913   1.1389611803e+02   4.2310257994e+01    0.2105488    0.1106054 -73.76  0.001026964    1.587    0.370
        57 -11.8531     55.5318    156.1939   1.0250830049e+02   3.6086881803e+01    0.3294838    0.2104542  -3.06  0.001402919    2.483    0.597
        58 -10.5540     38.3113    146.2926   1.0606737364e+02   4.0657554436e+01    0.1418382    0.0980828 -39.68 0.0003008496    1.589    0.371
        59 -10.7292     62.9780    138.9576   9.7308315191e+01   3.9609916418e+01    0.1849231    0.1622184 -62.58 0.0006216481    1.051    0.048
        60 -12.6177     45.3098    135.1759   1.0215025069e+02   4.2790151942e+01    0.5079398    0.3561445 -59.11  0.002600759    1.262    0.208
        61 -14.2886    234.5142    127.9126   5.3582294663e+01   9.5140554165e+00    0.7591089    0.4822626 -51.18  0.003948594    1.494    0.331
        62 -11.8429    135.5643    132.5004   7.4761495295e+01   2.8438417420e+01    0.4967705    0.1533146  44.78  0.001459821    3.365    0.703
        63 -13.0617    246.4187    134.4163   5.3160487854e+01   6.3485477506e+00    0.4363627    0.3194202 -64.36  0.002464034    1.666    0.400
        64 -12.3088    121.0372    112.3009   7.3522990514e+01   3.6103909657e+01    0.5262782    0.3228627  44.06  0.001555657    1.667    0.400
        65 -13.8151     85.6772    114.0931   8.4605490620e+01   4.2435288032e+01     1.295227    0.9868854  16.39  0.004437469    1.516    0.341
        66 -14.3265    108.3290    121.8776   7.9630631675e+01   3.6418103326e+01     1.546936     1.165463  23.39  0.007118929    1.513    0.339
        67 -14.7731    106.3651    106.4281   7.6163183564e+01   4.0419253373e+01     1.603047     1.257541 -35.43  0.006712126    1.289    0.224
        68 -13.4746     95.7547    111.1974   8.0676409225e+01   4.1339170871e+01     1.187652    0.5968899 -60.05  0.004309774    2.424    0.587
        69 -12.7751     28.7289    122.2973   1.0532831077e+02   4.7791334173e+01    0.4703884    0.2841925 -53.58  0.002366054    1.427    0.299
        70 -10.4919     58.8107    125.3913   9.5961609997e+01   4.3671186531e+01    0.1825197    0.1435183   8.18 0.0004252988    1.495    0.331
        71 -11.9551      4.0766    119.9014   1.1304174674e+02   5.0209695970e+01    0.4767798     0.195644  14.12  0.002126199    3.038    0.671
        72 -12.1244     42.4359     90.7975   9.3898618721e+01   5.4193955983e+01    0.3014428    0.2311177 -58.36 0.0003978442    1.255    0.203
        73 -11.5145     34.4755     86.8502   9.6008129840e+01   5.5958294679e+01    0.3368728    0.2187398 -34.80  0.001314883    1.458    0.314
        74 -14.1833     18.1256    111.0327   1.0704773472e+02   5.1504118599e+01     1.032964    0.6524379 -45.88  0.005421085    1.429    0.300
        75 -14.0804     11.8081    103.4793   1.0801586982e+02   5.3810109693e+01    0.7736989    0.6484331 -55.39  0.004578437    1.029    0.028
        76 -13.5497      2.2714     97.2606   1.1045186837e+02   5.5869729181e+01      0.86963    0.3998865 -75.02  0.003311214    2.022    0.505
        77 -12.3970     36.9214     93.1738   9.6589513752e+01   5.4226483790e+01    0.5169016    0.3363131  -7.82  0.001663598    1.872    0.466
        78 -14.5161     22.8832     95.4104   1.0243287396e+02   5.4973861687e+01     1.255219    0.9887217  17.64  0.007469703    1.444    0.307
        79 -11.6195     63.3350    111.4403   9.1368792503e+01   4.6572623209e+01    0.4703606    0.2181201  48.56  0.001723322    2.861    0.650
        80 -11.3934    177.1353    110.3588   5.9609471854e+01   2.4284059223e+01    0.3023208    0.2099937 -18.03  0.001313606    1.952    0.488
        81 -13.2186     29.5459     89.3640   9.8546297740e+01   5.5842314497e+01     0.944798    0.4960686  57.16  0.003696876    3.545    0.718
        82 -12.4764    136.2189    103.2731   6.7041182180e+01   3.4827123786e+01     0.735651    0.3115226  48.90  0.002405668    2.443    0.591
        83 -13.6595    120.8640    102.3143   7.0852963461e+01   3.8359904779e+01    0.8064901    0.3454939  40.35  0.002832394    2.463    0.594
        84 -12.2706     52.5127     97.9948   9.1929354434e+01   5.1287866838e+01    0.8724037    0.4466152  -9.20  0.002694382    4.673    0.786
        85 -12.7205     49.3934     94.2709   9.2144119592e+01   5.2560248256e+01    0.7601483     0.440688 -37.60  0.003516331    1.703    0.413
        86 -12.1157    163.6443     98.5779   5.9390806576e+01   2.9619956935e+01     0.285316    0.2697247 -57.15 0.0001572936    1.016    0.016
        87 -12.0654     61.2425     98.0249   8.8770829178e+01   5.0111791097e+01    0.3763085    0.2994438  89.24   0.00119846    1.681    0.405
        88 -12.8014    136.4978     95.3391   6.4775009569e+01   3.6412871561e+01    0.4586366    0.3069206  51.50  0.001273624    1.527    0.345
        89 -10.9594    125.6574     92.3230   6.6717770578e+01   3.9433947381e+01    0.1584125     0.123264 -86.83 0.0007050574    1.729    0.422
        90 -11.4970     90.3112     87.6893   7.5807262309e+01   4.7656987899e+01    0.4432532    0.2341263  51.12  0.001745427    2.288    0.563
        91 -12.7179    188.2794     84.3431   5.1033681599e+01   2.6682845978e+01    0.6615778    0.3024622  43.30  0.002517444    2.799    0.643
        92 -13.3258    238.9559     81.6162   4.3169794689e+01   1.6559590323e+01    0.7053919    0.3841902 -83.91  0.002995691    3.153    0.683
        93 -12.5071    159.8334     67.8445   5.1844084430e+01   3.6066693973e+01    0.7977743     0.262957 -48.30  0.002530923    3.568    0.720
        94 -13.4308    163.8582     72.4181   5.2329485771e+01   3.4356845370e+01     1.345793    0.5411112  44.82  0.004596825    2.923    0.658
        95 -13.3760    161.5507     80.3016   5.4932381247e+01   3.3527010739e+01    0.7738205    0.5187876  21.44  0.003230224    2.411    0.585
        96 -14.3072    169.2718     77.2954   5.2617299183e+01   3.2257597670e+01     1.260084    0.5527253  51.01  0.004113423    2.304    0.566
        97 -13.0363     52.5423     69.6243   8.3871735400e+01   5.7608376128e+01    0.7673315    0.5745908  85.95  0.003678061    2.464    0.594
        98 -12.7190     57.0932     66.7700   8.1130358981e+01   5.7540354722e+01    0.5766515     0.436083  35.49  0.002822504    1.411    0.291
        99 -12.9080     62.2596     57.9087   7.6054193781e+01   5.8441226304e+01    0.9007946    0.4979659 -14.37  0.003555657    2.942    0.660
       100 -13.5171     66.1243     49.5583   7.1509254998e+01   5.9261380943e+01    0.8631863    0.6034968 -49.10   0.00458007    1.719    0.418
       101 -13.7857     88.9398     62.4294   6.8125934174e+01   5.2863079194e+01     1.390183    0.7846369 -12.64   0.00505833    3.271    0.694
       102 -13.2143     54.3256     81.7627   8.6868156852e+01   5.4781262913e+01    0.5868573    0.4156197 -43.15  0.003075204    1.284    0.221
       103 -14.0232     61.0331     75.8260   8.2508454061e+01   5.5107963728e+01    0.7560457     0.467698 -32.31  0.001468415    1.637    0.389
       104 -13.0765     70.8650     75.4060   7.8709465677e+01   5.3654130943e+01    0.6142455    0.4373262  -2.72  0.002334161    1.704    0.413
       105 -12.6518     77.8157     72.3793   7.5242616941e+01   5.3076750920e+01    0.6507947    0.3451292 -25.21  0.001803188    2.627    0.619
       106 -12.1109     47.2560     81.7203   8.9607985201e+01   5.5702748202e+01    0.3874006    0.2494531 -52.37  0.001474074    1.450    0.310
       107 -13.5540    213.1459     78.4155   4.5786777810e+01   2.2265622452e+01    0.9045009    0.5049245  81.64  0.003932404    2.544    0.607
       108 -12.6815    218.0224     74.4828   4.4234483318e+01   2.1878666614e+01    0.2899264    0.2309686 -85.37   0.00151451    1.271    0.213
       109 -12.8175    135.4406     79.8668   6.0594158073e+01   3.9666355376e+01    0.6846918    0.4007888  53.25  0.002322887    1.714    0.416
       110 -11.8670    114.2074     80.2745   6.6272117653e+01   4.4328993254e+01    0.3838085    0.3281463 -65.28  0.001141708    1.338    0.253
       111 -11.9485     42.1884     76.7451   9.0219298790e+01   5.7407219128e+01    0.5328691    0.2200757 -55.90  0.002174767    2.356    0.575
       112 -14.8591      6.5783     71.5458   1.0389039091e+02   6.1619508595e+01     1.026402    0.6402397 -48.49  0.004039868    1.261    0.207
       113 -14.0779      4.7068     63.5452   1.0285052030e+02   6.3476380381e+01    0.6521112    0.5124212 -11.51  0.004112543    1.289    0.224
       114 -11.3426     27.1908     76.0754   9.6226081735e+01   5.9101063973e+01    0.3020443    0.1773531 -84.11  0.001252695    3.167    0.684
       115 -13.8615    199.3790     69.9092   4.5745123216e+01   2.6620974560e+01    0.7593115    0.4997205  54.51  0.002745455    1.629    0.386
       116 -12.4531    199.8757     62.5965   4.3919081473e+01   2.7654418277e+01    0.3496916    0.2750382 -53.57  0.001842497    1.158    0.136
       117 -13.1050    133.7150     66.5624   5.7031673832e+01   4.2420554308e+01    0.7741858    0.6083311  21.99  0.003371663    1.535    0.348
       118 -11.8610    240.4765     70.4951   4.0671724125e+01   1.7998788695e+01    0.2189242    0.1167493  81.23   0.00104161    2.490    0.598
       119 -12.4575     39.8224     68.2471   8.8676068071e+01   5.9499114532e+01    0.6723139     0.199359  30.75  0.002485694    3.417    0.707
       120 -11.5639     31.8091     65.0168   9.1130145556e+01   6.1044388919e+01     0.319253    0.2135737 -40.42  0.001784561    1.282    0.220
       121 -11.8181     30.6149     60.7950   9.0353636961e+01   6.2035292223e+01    0.3318525    0.2026288 -42.14  0.001733041    1.406    0.289
       122 -11.7286     99.9151     65.3548   6.5673350504e+01   5.0127094860e+01    0.2303592    0.2116466 -71.21 0.0009003677    1.289    0.224
       123 -13.6967    177.8204     57.4090   4.5884715914e+01   3.3476567895e+01    0.8798916    0.5467903 -50.85  0.003170736    1.587    0.370
       124 -14.7023    120.0727     54.6416   5.6581178362e+01   4.7487047496e+01    0.8947232    0.6671017  36.93  0.003338393    1.367    0.268
       125 -13.2802     82.3814     54.5172   6.7520233334e+01   5.5492999010e+01    0.7970099    0.5458409   5.39  0.003849474    1.855    0.461
       126 -12.8467     79.3006     61.4300   7.1024198099e+01   5.4873756780e+01    0.6580524    0.2775059  42.77   0.00262959    2.353    0.575
       127 -11.9367     77.4568     56.4772   6.9918532201e+01   5.6083850049e+01     0.281513    0.2600471 -16.67 0.0008224488    1.097    0.088
       128 -11.1948     38.9210     60.2111   8.6502771361e+01   6.1242041774e+01    0.2460457     0.174837 -80.27  0.001181064    2.622    0.619
       129 -12.2151     24.8040     59.5696   9.2592023711e+01   6.2847592945e+01     0.428563    0.2341893 -46.81  0.001539326    1.548    0.354
       130 -13.0950    248.0411     52.1351   3.6182159153e+01   1.9231779008e+01     0.579295    0.3025271 -39.74  0.003178341    1.692    0.409
       131 -11.3267     17.7817     55.3767   9.4561434659e+01   6.4305220909e+01     0.317625    0.1611985 -57.48  0.001603438    1.917    0.478
       132 -14.2187    101.4476     50.2961   6.0082939774e+01   5.2283608364e+01    0.8020627     0.634831  65.11  0.001827755    1.438    0.305
       133 -12.6423     99.8513     44.1429   5.8365855640e+01   5.3533617581e+01     0.368334    0.2784387  65.54   0.00104976    1.515    0.340
       134 -11.7179     37.7103     52.5558   8.4421994650e+01   6.2864980113e+01    0.3495089    0.1923069 -17.01  0.001603954    2.295    0.564
       135 -12.2922    135.6245     50.2109   5.1590688087e+01   4.4534312522e+01    0.5097827    0.2955235  37.95  0.001914952    2.012    0.503
       136 -12.9835      3.8316     43.3884   9.7735214720e+01   6.7660450843e+01    0.6043976    0.4960606 -54.50  0.004204682    1.323    0.244
       137 -12.4454     11.7585     43.6741   9.3772371964e+01   6.7070239391e+01    0.5148874    0.2424113 -28.63  0.002324758    2.041    0.510
       138 -12.7694     17.5109     40.5487   8.9759856624e+01   6.7184069577e+01    0.2271424    0.1816577 -15.73 0.0003165813    1.053    0.050
       139 -10.7031     23.5814     50.2147   9.0151310316e+01   6.4818744722e+01    0.1761176   0.09554886 -39.03 0.0004234478    1.564    0.360
       140 -13.3146    157.7180     43.9409   4.5526221233e+01   4.0154374112e+01    0.8119069    0.5226673  39.95  0.003972182    1.849    0.459
       141 -14.5856    212.7812     41.3680   3.7414457610e+01   2.7861604804e+01     1.972263    0.6702488  74.01  0.007430065    3.566    0.720
       142 -14.2742    170.0347    242.6463   8.8009710851e+01  -9.3645127370e-01     1.084471    0.7619155  16.85  0.006280212    1.334    0.250
       143 -12.8147     24.6447    217.5484   1.1701390446e+02   2.4475224467e+01     0.645864    0.3676213  53.89  0.003617301    1.543    0.352
       144 -12.7452     14.1381    221.9541   1.1952361674e+02   2.4556197806e+01    0.4334174    0.3580325  62.80  0.001765231    1.125    0.111
       145 -13.4386    137.8809     21.8878   4.2423408209e+01   4.7537386708e+01    0.9384626    0.2884163  65.24  0.002477746    2.952    0.661
       146 -12.8970    109.6892     42.2460   5.5051060966e+01   5.1638683503e+01    0.5613386    0.2088231  52.05  0.001757843    2.409    0.585
       147 -14.0233     25.8799    227.2673   1.1744346092e+02   2.2191069526e+01    0.8415375    0.3752974 -56.77  0.004110697    2.560    0.609
       148 -13.1737     20.6447    224.8113   1.1836283879e+02   2.3275826032e+01    0.5027759    0.3992167 -40.66  0.002575872    1.795    0.443
       149 -13.3039    113.5792     38.3209   5.2733444463e+01   5.1285382473e+01    0.3867512    0.3529071  51.05  0.001428432    1.028    0.027
       150 -12.9471    148.1674    239.4775   9.2143506284e+01   2.8671400446e+00    0.3954642    0.2773326  67.47   0.00201229    2.217    0.549
       151 -12.7838     75.5850     37.3626   6.3377502687e+01   5.9423446584e+01    0.4110196    0.2575058  43.19  0.001034315    1.488    0.328
       152 -11.8999     70.4767     36.4968   6.4822234859e+01   6.0500521376e+01    0.2715484    0.2363022  -4.88 0.0007905499    1.101    0.092
       153 -13.6115    242.3284     35.1349   3.3316561705e+01   2.2610591913e+01    0.6531615    0.4399841  77.20  0.002663973    1.488    0.328
       154 -11.9321    104.2152     36.5594   5.4473253478e+01   5.3611388347e+01    0.2397732    0.1897791 -28.46 0.0007843612    1.364    0.267
       155 -13.0996     44.7567     32.8303   7.3575514869e+01   6.5282914814e+01    0.6085118    0.4893748  17.06   0.00392099    1.131    0.116
       156 -12.0025    237.6141    230.4033   7.2920050919e+01  -8.1851440008e+00    0.2127613   0.09735502  44.13 0.0009615012    3.399    0.706
       157 -13.4978     65.7468    223.2732   1.0843998350e+02   1.8303968613e+01     1.007976    0.6396388  42.66  0.005471389    1.417    0.294
       158 -14.3431     64.1326    214.7679   1.0790706291e+02   2.0435314483e+01     1.045364    0.4914287  36.43  0.004803172    1.970    0.492
       159 -11.8008    126.5146    232.9986   9.5941801545e+01   7.3950200343e+00    0.1941376    0.1336534 -53.74  0.001042556    1.621    0.383
       160 -13.2378     94.3832    218.6408   1.0131902956e+02   1.5290131022e+01    0.4284687    0.2984874  37.26  0.001372542    1.336    0.252
       161 -13.1006     59.4824    212.9800   1.0879526811e+02   2.1454078203e+01     0.370047    0.2690127 -54.24  0.001260836    1.528    0.345
       162 -12.1757    185.6833    213.4370   7.9922902383e+01   1.8239966625e+00    0.2213027    0.1762244 -45.85  0.001261082    1.402    0.287
       163 -12.9289    223.3780     20.9245   3.2007469603e+01   2.8175547865e+01    0.3637364    0.2574729  73.73  0.001910577    1.390    0.281
       164 -12.2082      4.3661    211.7337   1.2093352580e+02   2.7744709904e+01    0.4514312    0.2121832 -80.87  0.002391371    1.825    0.452
       165 -13.4808     55.3088     27.2184   6.6701062435e+01   6.4430494007e+01    0.6005291    0.3720245  40.47  0.002418622    1.541    0.351
       166 -12.5943     63.7083     25.1022   6.2557323758e+01   6.3243942244e+01    0.4538207    0.2781282  25.95  0.001808839    1.603    0.376
       167 -10.9163    136.5149    211.0744   9.0359602683e+01   1.0263316480e+01    0.2063146    0.1408254 -52.64  0.001024894    1.570    0.363
       168 -11.0487     98.2107     27.1576   5.2626692803e+01   5.6074257399e+01    0.2522604    0.1671837  58.43  0.001348154    1.445    0.308
       169 -11.5284     88.5256     26.3775   5.4988623172e+01   5.8234576469e+01    0.2528191    0.1282901 -27.42  0.001205349    2.151    0.535
       170 -11.5357     30.6402     25.6803   7.7076146448e+01   6.8259114707e+01    0.2836768    0.1429596  20.83  0.001459887    2.036    0.509
       171 -11.5806     36.1689     23.8672   7.3578285212e+01   6.7798310918e+01    0.2830341    0.1605605 -32.35  0.001597077    1.689    0.408
       172 -11.0380    202.6818     21.8075   3.4050405572e+01   3.2500853460e+01    0.1696445    0.1612902 -29.66  0.001158091    1.375    0.273
       173 -12.5762     46.6060     20.6347   6.7375858173e+01   6.6694857348e+01    0.3953568    0.2290388  26.90  0.001511098    1.601    0.376
       174 -11.9835     51.5127     20.5570   6.5282278793e+01   6.5913488190e+01    0.2598123    0.1564603  33.14   0.00129434    1.473    0.321
       175 -11.9620     72.5882    207.6683   1.0509674954e+02   2.0933924713e+01    0.4841189     0.316535 -72.51  0.002484771    1.551    0.355
       176 -12.6005     41.3655    206.7327   1.1237776754e+02   2.5130403131e+01    0.3104032    0.2075964 -87.88  0.001485338    1.402    0.287
       177 -12.7915     57.6104    202.3850   1.0808424237e+02   2.4183969187e+01    0.7810018    0.2974091 -74.21  0.002941935    2.946    0.661
       178 -13.6395     15.3047    197.4481   1.1758947129e+02   3.0050539544e+01     0.814743    0.4060524 -67.57  0.004203412    1.792    0.442
       179 -13.3902     40.2118    195.1083   1.1151690950e+02   2.8043161763e+01    0.5335059    0.2711657  85.55   0.00228321    2.274    0.560
       180 -12.6367     36.6599    195.1191   1.1237632109e+02   2.8438032710e+01    0.3398731    0.2052315  89.30  0.001552237    1.616    0.381
       181 -12.7145    164.3728    195.0348   8.1160537778e+01   8.8957567407e+00     0.624743    0.3310629 -62.40  0.002327429    3.055    0.673
       182 -13.9354     22.2970    181.2192   1.1456241767e+02   3.3326439066e+01     1.030338    0.4306757 -54.53  0.004524209    2.404    0.584
       183 -15.2816      8.4196    183.5895   1.1813712421e+02   3.3983246438e+01     1.349377     1.031705 -83.40  0.008536434    1.096    0.088
       184 -15.2643     15.8306    175.4195   1.1564549239e+02   3.5355080770e+01      2.22175     1.046531  64.17   0.00998041    2.343    0.573
       185 -11.7380    248.4457    194.7817   6.4675983636e+01  -4.1222126715e+00    0.3193856    0.1013481 -37.56   0.00131385    2.664    0.625
       186 -12.0641    201.0118    192.0029   7.2801780633e+01   3.3390779756e+00    0.3518944    0.2346719 -27.90  0.001621148    1.445    0.308
       187 -10.6425     50.6788     44.0068   7.5561615083e+01   6.2645102227e+01    0.1762644    0.1444745 -19.04 0.0003039901    1.111    0.100
