#   1 NUMBER                 Running object number                                     
#   2 MAG_AUTO               Kron-like elliptical aperture magnitude                    [mag]
#   3 X_IMAGE                Object position along x                                    [pixel]
#   4 Y_IMAGE                Object position along y                                    [pixel]
#   5 X_WORLD                Barycenter position along world x axis                     [deg]
#   6 Y_WORLD                Barycenter position along world y axis                     [deg]
#   7 A_WORLD                Profile RMS along major axis (world units)                 [deg]
#   8 B_WORLD                Profile RMS along minor axis (world units)                 [deg]
#   9 THETA_WORLD            Position angle (CCW/world-x)                               [deg]
#  10 FWHM_WORLD             FWHM assuming a gaussian core                              [deg]
#  11 ELONGATION             A_IMAGE/B_IMAGE                                           
#  12 ELLIPTICITY            1 - B_IMAGE/A_IMAGE                                       
         1 -14.4418    148.0533     59.4043   9.0950442786e+01   4.0315203174e+01      1.35255     1.035782 -24.51 0.0009494791    1.410    0.291
         2 -14.8253    158.6553     44.5972   8.3777026284e+01   3.9777704511e+01     1.462572     1.102386 -26.06  0.003792475    1.389    0.280
         3 -14.7922    170.8719     12.6497   7.0948249585e+01   4.0298932501e+01     1.446151     1.140922  45.80  0.004566691    1.346    0.257
         4 -13.4750    189.4024     14.0907   6.9369497994e+01   3.5112168754e+01    0.6712169    0.4943536 -41.00   0.00276883    1.298    0.230
         5 -10.0863     30.4837    199.4933   1.4810168524e+02   3.1359318731e+01    0.1107304   0.08690646  57.28  0.000808947    1.087    0.080
         6 -19.9048     90.8439    229.0356   1.3754939480e+02   1.9081839679e+01     7.803493     5.190914  44.95   0.05049133    1.086    0.079
         7 -13.5577    145.9915    189.6715   1.2170299856e+02   1.7102863858e+01    0.5639313    0.5536299 -12.63   0.00334514    1.242    0.195
         8 -12.2000    161.3246    239.0861   1.2511703339e+02   7.8894081805e+00    0.3072101    0.1655221  37.57  0.001396893    1.337    0.252
         9 -10.8935    218.3161    179.3157   1.0609841666e+02   6.4831534579e+00    0.1275681   0.07929792  12.19 0.0003344674    1.648    0.393
        10 -11.1065     28.3906    238.2368   1.5006962216e+02   2.4880878771e+01    0.1251992   0.08464181  66.10 0.0003404049    1.228    0.185
        11 -12.1965     21.7168    236.5379   1.5123987196e+02   2.5806874282e+01    0.1753534    0.1219136  67.77  0.001419125    1.222    0.182
        12 -10.5065    218.1521    219.8753   1.1266626230e+02   1.9866968114e+00    0.1567531    0.1275991  22.52 0.0004815014    1.255    0.203
        13 -12.4136    230.3801    167.4152   1.0191931350e+02   5.9683024578e+00    0.3485299    0.1858684 -43.33  0.001754153    2.644    0.622
        14 -10.9239     18.3430    220.5168   1.5138802148e+02   2.8780679221e+01    0.1025337   0.07326978  59.28  3.19488e-05    1.063    0.059
        15 -12.7573    153.5693    152.6248   1.1381860575e+02   2.1993301419e+01    0.3699102    0.2820856  85.67  0.001852786    2.006    0.502
        16 -13.7668    163.7658    157.2415   1.1247223688e+02   1.9257738536e+01    0.4759797    0.4431196 -43.64  0.001223618    1.260    0.206
        17 -13.6144    159.8396    151.0380   1.1212656301e+02   2.1062184822e+01    0.5104269    0.3657734  21.51  0.002630211    1.517    0.341
        18 -13.3685    151.7546    145.0674   1.1274728856e+02   2.3697936439e+01    0.4573251    0.3803059 -39.34  0.002554764    1.333    0.250
        19 -14.9995    134.4559    147.2158   1.1721954415e+02   2.6651711612e+01     1.497455    0.7360507 -55.95  0.006014632    2.535    0.605
        20 -14.7231    143.4855    143.5998   1.1436684787e+02   2.5594687757e+01     1.045522    0.6422651 -59.47  0.004757664    2.132    0.531
        21 -14.3465    135.5829    128.4743   1.1313326402e+02   3.0106217546e+01     1.834942     0.385543 -49.62  0.004623968    5.894    0.830
        22 -12.7200    134.6351    108.9099   1.0880532331e+02   3.4242295509e+01     1.209711    0.1836136 -44.91  0.002642024    6.956    0.856
        23 -11.5362     29.2590    156.9931   1.4599581773e+02   4.0094870680e+01    0.2951741    0.1985582 -79.64  0.001380815    1.434    0.302
        24  -9.9480      4.5104    157.4544   1.5232081675e+02   4.2098746671e+01    0.1125375   0.09122168  71.02 0.0001467566    1.081    0.075
        25  -9.9465     22.9726    156.0708   1.4756746979e+02   4.0883193432e+01    0.1436428    0.1131487  60.55 0.0004349631    1.050    0.047
        26 -11.2730     17.5806    154.2012   1.4885790257e+02   4.1762326318e+01    0.2138224    0.1797373 -70.96 0.0004657429    1.357    0.263
        27 -11.4684     18.5150    149.3599   1.4834388729e+02   4.2744347125e+01    0.3744558     0.206175  52.55  0.002165936    1.510    0.338
        28 -11.0325    192.0944    153.0383   1.0591020546e+02   1.4566439987e+01    0.1930605    0.1699871  86.17 0.0007661033    1.676    0.403
        29 -13.1505    174.1279    149.4124   1.0876286680e+02   1.8562428368e+01    0.4852637    0.3319599 -45.85  0.002518826    1.705    0.413
        30 -11.3225     23.9290    217.0741   1.5017975612e+02   2.8839200318e+01    0.1494572    0.1146838  57.39 0.0005158127    1.112    0.101
        31 -12.1211    174.6527    141.0941   1.0694172193e+02   1.9825151753e+01    0.2393241    0.1840361  49.66 0.0005701048    1.309    0.236
        32 -10.4642      2.2503    135.6881   1.5208700117e+02   4.7004972037e+01    0.1942415    0.1278058 -21.56  0.001136526    2.352    0.575
        33 -19.1588     75.8838     94.0484   1.2286031689e+02   4.9051837455e+01     18.29436    0.9724196 -57.19   0.02550913   17.850    0.944
        34 -11.9639    148.0874    133.8183   1.1126241831e+02   2.6513170844e+01    0.2197698    0.1918545  65.55  0.000419287    1.251    0.201
        35 -13.1388    160.4282    128.1737   1.0719061708e+02   2.4987041994e+01    0.4396623    0.3853119 -64.86  0.001544141    1.364    0.267
        36 -13.1522     38.9985    123.8601   1.4031050915e+02   4.6698786727e+01    0.3250728    0.3085524 -32.23  0.001142092    1.313    0.238
        37 -11.4308     31.0676    205.7197   1.4826677683e+02   3.0150233409e+01    0.1937298    0.1763301 -53.19 0.0009126386    1.616    0.381
        38 -13.0298     11.9129    205.9275   1.5222160030e+02   3.1939193263e+01    0.4974593    0.2296623  24.56  0.002878877    2.405    0.584
        39 -11.9788     12.7419    241.7346   1.5299460275e+02   2.5829873829e+01    0.1614225    0.1190059  61.42  0.001192316    1.167    0.143
        40 -11.0470    167.6463    112.6649   1.0194098142e+02   2.6188468185e+01    0.2965966    0.2212511 -83.64  0.001331703    2.068    0.516
        41 -11.3474    150.8087    239.8866   1.2712119675e+02   9.2729080598e+00    0.1772162    0.1541698  38.39 0.0004581064    1.256    0.204
        42 -10.8695    205.4259    110.1750   9.4015018512e+01   1.8310768492e+01    0.3021386    0.1897487  40.04 0.0008944427    1.586    0.369
        43 -11.9665     26.6470    106.1270   1.4237446256e+02   5.2143757164e+01    0.3324783    0.2493638  -1.81  0.001756561    1.771    0.435
        44 -12.3178     41.0485     94.2225   1.3555136281e+02   5.3697237418e+01     0.463571    0.3873816 -37.98  0.002216788    1.373    0.271
        45 -12.4982     50.3720     91.7320   1.3161170395e+02   5.3249889166e+01    0.4624017    0.2673648  13.65  0.001759218    2.419    0.587
        46 -12.0759    168.0677    239.8661   1.2399497389e+02   6.8498614177e+00    0.1927444    0.1361399  31.81 0.0003709562    1.010    0.010
        47 -11.3973    125.1692     95.4201   1.0779967392e+02   3.9094964156e+01     0.305934    0.1447425  42.90  0.001137705    2.080    0.519
        48 -11.5762      6.2919     89.0006   1.4803317854e+02   5.7705198995e+01    0.5111905    0.2226808 -16.74  0.002119788    3.929    0.746
        49 -10.2153    104.8576     82.1323   1.0998839910e+02   4.6335188342e+01    0.2187227     0.200335  80.64 0.0002671455    1.138    0.122
        50 -11.0537    142.8526     80.7081   9.8942666105e+01   3.7863960748e+01    0.2612254    0.2178574 -22.69 0.0005792837    1.318    0.241
        51 -13.1304    139.3572    200.5936   1.2461636639e+02   1.6461801051e+01    0.5883511    0.2717856  42.31 0.0008424501    1.726    0.421
        52 -11.6281    150.9990     36.4890   8.2381118875e+01   4.3000016219e+01     0.827338    0.4034371  87.33   0.00215583    3.837    0.739
        53 -11.3715    135.4207    196.1780   1.2484801519e+02   1.7789946916e+01    0.2376682    0.2108248  58.68  0.001076282    1.231    0.188
        54 -13.1211    162.5211     35.9271   8.0126409919e+01   3.9914737726e+01    0.4624806    0.4424691 -64.33 0.0008634549    1.042    0.040
        55 -11.0556     13.4024     59.8833   1.4154664629e+02   6.4412036485e+01    0.1891713    0.1649841  55.96 0.0004357994    1.247    0.198
        56 -11.0006     15.5749    246.8008   1.5261476455e+02   2.4783813517e+01    0.1475069   0.06756486  73.35  0.001010836    1.928    0.481
