#   1 NUMBER                 Running object number                                     
#   2 MAG_AUTO               Kron-like elliptical aperture magnitude                    [mag]
#   3 X_IMAGE                Object position along x                                    [pixel]
#   4 Y_IMAGE                Object position along y                                    [pixel]
#   5 X_WORLD                Barycenter position along world x axis                     [deg]
#   6 Y_WORLD                Barycenter position along world y axis                     [deg]
#   7 A_WORLD                Profile RMS along major axis (world units)                 [deg]
#   8 B_WORLD                Profile RMS along minor axis (world units)                 [deg]
#   9 THETA_WORLD            Position angle (CCW/world-x)                               [deg]
#  10 FWHM_WORLD             FWHM assuming a gaussian core                              [deg]
#  11 ELONGATION             A_IMAGE/B_IMAGE                                           
#  12 ELLIPTICITY            1 - B_IMAGE/A_IMAGE                                       
         1 -15.7022      7.3652    107.0079   1.3509937327e+02   5.3081295837e+01     3.854858     1.241528 -69.69   0.01614652    2.730    0.634
         2 -14.4165    206.2266    105.1531   8.1547190473e+01   1.8535667831e+01     2.452112     1.390567 -78.47  0.008007849    3.727    0.732
         3 -16.1653    203.8087     32.9041   6.4457876869e+01   3.0798962611e+01     4.194981     1.878381 -67.76   0.01560548    3.379    0.704
         4 -15.2349    210.2507     12.0459   5.8997507110e+01   3.1783788789e+01     1.729829     0.760442 -55.30  0.008193801    2.291    0.564
         5 -17.0947    240.1775      7.8448   5.5520457562e+01   2.5641196386e+01     1.955963    0.9688874  84.23   0.01043506    1.823    0.451
         6 -14.2716     32.0440     19.4463   1.0144617398e+02   6.7421455271e+01     1.603678    0.6042908 -29.39  0.007889995    2.600    0.615
         7 -14.3022     27.4699      5.4234   9.7241219503e+01   6.9623699658e+01    0.9850705    0.5593467  30.29  0.006562042    1.639    0.390
         8 -14.1143      6.1285     18.8621   1.1285264273e+02   6.9981537836e+01     1.120534    0.4493035 -28.80  0.006131331    2.269    0.559
         9 -15.2057    227.9575     28.8408   6.0870224292e+01   2.5773994268e+01     1.331972    0.9364611 -49.35  0.005848847    1.341    0.254
        10 -15.5984    139.3765      8.8283   6.7230521744e+01   4.8678542264e+01     2.908569     1.145027  64.79   0.01295635    2.167    0.539
        11 -12.2046      4.5686      2.7730   1.0674612769e+02   7.2247609131e+01    0.3130884    0.1468979  18.13   0.00200182    2.054    0.513
        12 -13.6506    212.8079    160.5843   9.3094055249e+01   6.1738109889e+00    0.9248779    0.9217969   0.12   0.00447335    1.077    0.072
        13 -13.4559    176.2921    249.7437   1.1713216046e+02  -3.5098481266e+00     1.959548    0.2536952  39.27  0.004723254    7.331    0.864
        14 -15.3303    123.8500    244.3732   1.2675397708e+02   6.2642885078e+00     3.768014     1.011515  41.87   0.01363073    3.142    0.682
        15 -14.5731      7.0914    148.0588   1.4067003913e+02   4.3642933067e+01     1.682456    0.7849857 -86.60   0.00818472    2.128    0.530
        16 -13.1669      3.3339    246.3462   1.4902042262e+02   2.2498279029e+01    0.6936567    0.2254697 -88.18  0.003282228    2.985    0.665
        17 -11.6567    239.9149    157.1058   8.7413304179e+01   1.6337911341e+00     0.393084    0.2547635 -41.44  0.001984069    1.385    0.278
        18 -15.4318     90.9613    150.6852   1.1936472818e+02   3.2973202981e+01     1.238436    0.9574647  76.30  0.006200075    1.448    0.309
        19 -12.8731    233.6773    147.0985   8.6340040580e+01   4.6669658572e+00    0.6720373    0.6065793 -74.44  0.003419545    1.252    0.201
        20 -14.8256    122.5738    139.6089   1.0867988740e+02   2.9847478930e+01     2.646763     1.125924  56.82  0.007895438    3.713    0.731
        21 -13.9684    151.7003     75.2855   8.4463765454e+01   3.7012830706e+01     1.588282     1.303721  37.26  0.008180337    1.302    0.232
        22 -13.5356    206.9686    136.6658   8.8853896122e+01   1.2162430351e+01      1.77967    0.7870321  47.56  0.006742652    2.398    0.583
        23 -13.7535    175.4806     83.3134   8.1742864905e+01   2.9876788855e+01      2.73515     1.362498 -61.93  0.009117074    3.243    0.692
        24 -15.0590    229.0213    126.5960   8.2604910505e+01   9.4762161906e+00     2.638459     1.636955  71.86   0.01147591    2.301    0.565
        25 -14.4224    218.5638    217.7545   1.0348837091e+02  -5.3330488268e+00     1.526487    0.9978155   4.12  0.007673549    1.928    0.481
        26 -13.0485    204.6452     86.0151   7.7173003722e+01   2.2430962467e+01      1.35758    0.8302432  65.85  0.005863163    1.730    0.422
        27 -12.3629    173.3027    116.6401   9.0849724358e+01   2.3866761134e+01    0.8499804    0.5284789 -70.37  0.003201714    2.403    0.584
        28 -14.0582    246.8597    109.7573   7.6102230852e+01   8.9459514947e+00    0.9297913    0.6517986 -53.71  0.003306681    1.294    0.227
        29 -13.0232    155.9466    112.2244   9.3599813155e+01   2.8812259033e+01    0.5786257     0.492941 -70.99  0.002289867    1.252    0.201
        30 -14.3090    143.1109    102.6690   9.4113322531e+01   3.3751670376e+01     1.884986      1.30809 -70.75   0.00789259    1.917    0.478
        31 -13.7406    114.7208    105.6178   1.0228831275e+02   3.9231308784e+01     1.306841    0.5551718  43.70  0.004769952    2.424    0.588
        32 -12.4669    188.0719    156.8555   9.7253761282e+01   1.2033113372e+01    0.6085172     0.210505  42.64  0.001961701    3.064    0.674
        33 -12.9555    243.8366     94.8085   7.3280563499e+01   1.2191703471e+01    0.7831457    0.4434868 -46.87  0.003792417    1.536    0.349
        34 -14.6781     97.6290     92.4832   1.0351422479e+02   4.5334551132e+01     3.177236    0.8930545  45.33  0.009718958    3.892    0.743
        35 -13.9812     84.2577     88.6852   1.0647794934e+02   4.8474244335e+01     1.068466     0.917073  32.07  0.005462679    1.223    0.182
        36 -14.3092    122.0577     80.7274   9.3218136783e+01   4.2766987207e+01     1.766438     1.253085  76.47  0.007478286    2.032    0.508
        37 -12.6462    250.0129     79.8418   6.9258821462e+01   1.3444358954e+01    0.9573862    0.3274932 -36.35  0.003563575    2.988    0.665
        38 -12.7616    240.0820     78.2037   7.0158599259e+01   1.5799603820e+01     0.844483    0.4524742  78.62  0.003548471    2.422    0.587
        39 -13.6287     55.7976    128.0522   1.2461226943e+02   4.3651995681e+01    0.4941913     0.397243  83.20  0.002780037    1.388    0.280
        40 -12.7642    196.4455     70.0738   7.4575209184e+01   2.7109571005e+01    0.6182166    0.4702469 -72.03  0.002038175    1.350    0.259
        41 -13.4842    196.1135     62.5249   7.2738556732e+01   2.8405738036e+01     1.615818    0.8065876 -65.37  0.005906662    3.011    0.668
        42 -13.8010    236.1599     54.2095   6.5426066289e+01   2.0431874989e+01    0.8430851      0.53812  62.82  0.003489955    1.618    0.382
        43 -14.0242    243.6702     44.8396   6.2631898317e+01   2.0166398786e+01     1.465311    0.5132015  65.59  0.006226359    2.793    0.642
        44 -14.0221    240.3188    215.7388   9.9071338449e+01  -8.4825266678e+00     1.260557    0.5687781 -37.76  0.005973067    2.123    0.529
        45 -13.9111    141.7109    214.6134   1.1870833129e+02   9.0016244544e+00    0.7767053    0.6429012  71.37  0.004316519    1.273    0.215
        46 -12.0686    179.3275    130.1231   9.2889438529e+01   1.9641136285e+01    0.3473854    0.3278419  86.20  0.001731288    1.079    0.074
        47 -11.9501     56.9095     58.6953   1.0637687746e+02   5.8349197514e+01    0.3053706    0.2730755  13.07  0.001967311    1.176    0.150
        48 -13.4786     91.6139    215.6325   1.2966312145e+02   1.7455175142e+01    0.8408256    0.6519146  68.10  0.004851695    1.162    0.140
        49 -11.5464     53.9826     37.7378   1.0005176234e+02   6.2118646382e+01    0.2619783    0.1341074 -15.74  0.001186727    2.682    0.627
        50 -12.3283    143.3638    196.0987   1.1517331269e+02   1.2616722368e+01     0.311587    0.2141971  50.02  0.001495169    1.411    0.291
        51 -13.3011     42.2312    186.8860   1.3690101915e+02   3.1039790292e+01    0.6250361    0.2592329  43.85  0.002885537    2.360    0.576
        52 -12.5838      2.4138    186.6144   1.4531975336e+02   3.5154536569e+01     0.465301   0.08310314 -73.42  0.001626733    4.125    0.758
        53 -14.0712     60.1119    169.9170   1.3053831792e+02   3.2859323603e+01    0.7700834    0.5020071 -58.59  0.004020022    1.424    0.298
        54 -14.1605    140.3591    167.5564   1.1035884796e+02   1.9655068082e+01     1.071988     1.000685 -61.46  0.005715439    1.064    0.060
