#   1 NUMBER                 Running object number                                     
#   2 MAG_AUTO               Kron-like elliptical aperture magnitude                    [mag]
#   3 X_IMAGE                Object position along x                                    [pixel]
#   4 Y_IMAGE                Object position along y                                    [pixel]
#   5 X_WORLD                Barycenter position along world x axis                     [deg]
#   6 Y_WORLD                Barycenter position along world y axis                     [deg]
#   7 A_WORLD                Profile RMS along major axis (world units)                 [deg]
#   8 B_WORLD                Profile RMS along minor axis (world units)                 [deg]
#   9 THETA_WORLD            Position angle (CCW/world-x)                               [deg]
#  10 FWHM_WORLD             FWHM assuming a gaussian core                              [deg]
#  11 ELONGATION             A_IMAGE/B_IMAGE                                           
#  12 ELLIPTICITY            1 - B_IMAGE/A_IMAGE                                       
         1 -11.7761    211.3245     33.3427   4.2711882179e+01   2.7691770670e+01    0.9002619    0.6644086 -57.21  0.004188449    1.263    0.208
         2 -11.7381    230.3922     15.4601   3.6605059545e+01   2.5403327331e+01     0.718889    0.5509254 -50.90  0.002829148    1.088    0.081
         3  -9.6568      1.7842      8.2708   1.0129395900e+02   7.6946301969e+01    0.5243837     0.100263 -64.18  0.001568637    5.827    0.828
         4 -10.6608    114.2698    239.5499   1.0361349452e+02   1.2483621376e+01    0.4817091    0.1663442 -56.78  0.002342101    3.762    0.734
         5 -10.6673     94.6614    245.9767   1.0801480600e+02   1.4050204965e+01    0.4902711    0.1719082  32.59  0.002407251    2.285    0.562
         6 -11.7781     82.3006    243.3035   1.1021365144e+02   1.5996624441e+01    0.9659439    0.4410438  25.96  0.005040553    2.315    0.568
         7 -12.1126     83.3547    248.8160   1.1041886719e+02   1.5016879159e+01     2.645724    0.3056544  32.75  0.007168335    7.729    0.871
         8  -9.5343     72.7234    250.4537   1.1257006397e+02   1.6037441510e+01    0.5773721   0.09569055  40.64  0.002414678    3.231    0.691
         9 -10.4064     60.8735    248.8782   1.1473474733e+02   1.7652883117e+01    0.4127417    0.2799978  38.86   0.00229951    1.158    0.136
        10  -9.6559     57.6123    249.8003   1.1540888126e+02   1.7875719620e+01    0.4406506    0.1604858  31.61   0.00192463    2.256    0.557
        11 -10.8800     30.1572    248.0046   1.2049661090e+02   2.1086145442e+01    0.4626256    0.3156242  35.01  0.003490309    1.327    0.246
        12 -13.7763      5.0607    138.0016   1.2115090104e+02   4.5655746397e+01     6.855947      1.27698 -86.06   0.01915099    6.161    0.838
        13 -13.1025      6.8358    240.2982   1.2458804461e+02   2.4576853333e+01     1.587834    0.9412005  79.26   0.01173131    1.548    0.354
        14 -11.5075     30.3388    207.7716   1.1865265348e+02   2.8214441856e+01    0.5336279    0.3685279 -41.29  0.002796777    2.272    0.560
        15 -13.4078     38.0842    194.8123   1.1615952058e+02   2.9977144028e+01     3.142273     1.089743  63.75   0.01267195    3.404    0.706
        16  -9.6192     37.9423    230.9703   1.1824593182e+02   2.3152809534e+01    0.2044711    0.1387166  71.43 0.0003762551    1.346    0.257
        17  -9.0751    137.2342    235.6089   9.8724367241e+01   9.9655362383e+00    0.1749934   0.08888206  27.93 0.0009602585    1.731    0.422
        18  -8.9198     61.1876    234.7967   1.1380350534e+02   1.9911008005e+01    0.2039964    0.1402467  57.76 0.0006737344    1.226    0.185
        19 -10.9683     83.7207    228.4518   1.0874369938e+02   1.8229223954e+01    0.6444145    0.3856357 -88.93  0.003805637    2.246    0.555
        20 -10.7962     88.0336    226.9926   1.0772761525e+02   1.7919686387e+01    0.4681729    0.2685411  77.81  0.001980938    2.492    0.599
        21  -8.5731     33.8082    237.5165   1.1936735531e+02   2.2455996103e+01    0.2137798    0.1291119  72.96  0.001092053    1.545    0.353
        22  -9.8838    143.5141    230.2411   9.6883741460e+01   9.8624385316e+00    0.2609448    0.1213597  25.51  0.001295507    2.188    0.543
        23  -9.9149     26.8033    230.0891   1.2042385606e+02   2.4450322907e+01    0.2532224    0.1183323  38.37 0.0007694638    1.591    0.371
        24  -8.5554     33.0000    226.9812   1.1904674399e+02   2.4372353602e+01    0.1906045   0.08162872 -80.39  0.001061094    2.548    0.607
        25  -9.1124     35.6772    223.2802   1.1832091559e+02   2.4758385441e+01    0.3118406    0.1375203  34.30  0.001479464    1.820    0.451
        26  -9.9388     30.3340    218.5596   1.1919294446e+02   2.6174312785e+01    0.4126335    0.2170989  76.77  0.002293544    1.850    0.459
        27 -11.1578    125.5400    230.3205   1.0042948865e+02   1.2342867564e+01    0.3858635     0.218903  47.19  0.002265533    1.609    0.378
        28  -8.6902    164.2952    224.3464   9.2146850866e+01   7.7699591069e+00    0.1175892   0.07914563   5.69 0.0007032353    1.671    0.402
        29  -8.7682    168.2940    223.6400   9.1297285458e+01   7.3025075040e+00    0.1075905   0.08575276  55.79 0.0007030849    1.701    0.412
        30  -9.7590     40.3453    234.8144   1.1795890302e+02   2.2232798713e+01     0.203144    0.1430116  54.72 0.0006231287    1.074    0.069
        31  -8.8185     57.0721    238.6882   1.1486634048e+02   1.9733974814e+01    0.1583506    0.1092214  43.49 0.0004956361    1.089    0.082
        32 -11.5685     17.6047    218.5391   1.2181796017e+02   2.7426727059e+01    0.5832999    0.3101513  50.09   0.00216394    1.365    0.267
        33 -12.7875      8.7630    207.4280   1.2325760089e+02   3.0329231496e+01    0.8946586    0.8242506  44.03  0.005258956    1.349    0.259
        34  -8.6409    163.7605    218.0097   9.1390862181e+01   8.7215201772e+00    0.1368794    0.1001831 -38.02 0.0008879981    1.632    0.387
        35 -10.1051     20.0476    194.3567   1.2026258913e+02   3.1890441145e+01    0.3035186    0.1552742  46.92  0.001042243    1.511    0.338
        36  -7.3077    109.7054    194.3220   9.9505729677e+01   2.0675513023e+01    0.1301171    0.0892842  61.27 0.0007017808    1.615    0.381
        37 -10.0501     58.9034    180.0245   1.0997689357e+02   3.0655306071e+01    0.3767847     0.268004 -30.05  0.002042878    2.166    0.538
        38 -10.0246     64.3578    174.3326   1.0802762903e+02   3.1186883968e+01    0.2800384    0.2474498 -36.20 0.0009300055    1.456    0.313
        39  -9.9478     74.3861    164.3168   1.0425622334e+02   3.2029756978e+01     0.355227    0.2498293 -62.48  0.001944627    1.511    0.338
        40 -10.9054     81.7366    158.0574   1.0145618461e+02   3.2360149261e+01    0.6342812    0.5602728 -38.66   0.00201135    1.356    0.262
        41 -10.9064     73.0352    154.6630   1.0333675887e+02   3.4399633095e+01    0.8646391    0.3673649  60.56  0.002955024    3.626    0.724
        42 -10.6342     70.0380    145.5028   1.0287705854e+02   3.6953606716e+01    0.5031646    0.3695382  29.02  0.001602205    1.437    0.304
        43 -10.7285     67.2424    142.4225   1.0323285583e+02   3.8076596363e+01    0.4939468    0.3117144  45.60  0.001641575    1.475    0.322
        44 -11.5845     61.3779    160.8329   1.0729477454e+02   3.4578897550e+01    0.4790219    0.3080376 -41.75  0.001467894    2.073    0.517
        45 -11.6808    113.8545    230.7390   1.0281343606e+02   1.3877904473e+01    0.6968514    0.1918389  39.66  0.002992887    2.653    0.623
        46  -9.2517     97.5156    142.6898   9.4693248446e+01   3.3312153436e+01    0.5685357    0.3607579 -12.39  0.002111435    3.413    0.707
        47 -10.3839     84.7118    142.1614   9.8170905048e+01   3.5530601773e+01    0.2809442    0.2744519 -52.38 0.0004396311    1.146    0.127
        48  -8.4483     31.2442    143.3766   1.1390857503e+02   4.2159797982e+01    0.2368456    0.1257672  21.89  0.001138995    2.148    0.535
        49 -10.6256     58.4606    134.3221   1.0466181849e+02   4.1220750090e+01    0.7728409     0.240055 -71.28  0.002472219    3.865    0.741
        50 -10.1407     74.8295    135.9081   9.9987388356e+01   3.8527022478e+01    0.4869716    0.2836301  65.22  0.001503168    2.131    0.531
        51  -9.2453    107.8494    131.4602   8.9687570583e+01   3.4015012936e+01    0.4531094    0.2922992  44.89  0.001711502    1.482    0.325
        52  -8.8168     95.8775    127.8912   9.2333745305e+01   3.6982324782e+01    0.3095086    0.2451243 -24.78  0.001538216    1.610    0.379
        53  -8.7002     21.4767    132.4563   1.1583677984e+02   4.5715055603e+01    0.1293084    0.1111851  79.82 8.534262e-05    1.016    0.016
        54  -7.7282    105.7915    120.3633   8.7882112440e+01   3.6901757674e+01    0.1939102    0.1395374  31.19 0.0001158998    1.485    0.327
        55  -7.6855    168.2388    113.2230   7.0739521451e+01   2.5422350606e+01    0.2372204    0.1102995 -48.89 0.0008821198    2.475    0.596
        56  -8.3900    205.9580    110.6833   6.3141455933e+01   1.8005930739e+01    0.1864803     0.176754  28.08 0.0007226915    1.121    0.108
        57  -8.2135     61.5157     71.9963   9.0400309869e+01   5.6118234954e+01    0.2053943    0.1126616 -34.74 0.0007287027    2.330    0.571
        58  -9.8045     13.0293     60.3245   1.0963969312e+02   6.4396863552e+01     0.241543    0.2008592 -89.14 0.0006969614    1.202    0.168
        59  -9.4361    195.4456     49.7256   4.8971562055e+01   2.9355199679e+01    0.2881953    0.1181256 -35.03  0.001147664    2.152    0.535
        60 -10.3253      2.1263     38.9964   1.1116722247e+02   7.0117385201e+01    0.6132014    0.1220022 -74.13  0.001813768    5.233    0.809
        61 -11.7577    203.5871     39.2206   4.5095656600e+01   2.8782364716e+01    0.6782969    0.5594394 -42.56   0.00271273    1.100    0.091
        62 -12.0464      4.1219    178.9751   1.2328788363e+02   3.6483230113e+01     2.191418    0.4710689 -87.03  0.007760897    4.767    0.790
        63  -8.9215    134.5240     41.3734   5.6404800019e+01   4.5989501043e+01    0.3153778    0.2383787 -75.48 0.0008525242    1.542    0.352
        64 -10.9568    219.0714     26.8809   4.0320378959e+01   2.6671658124e+01    0.5042698    0.3587252  34.25  0.001244526    1.883    0.469
        65 -10.2197    101.9866    244.0231   1.0642634628e+02   1.3414987640e+01    0.2660429    0.2075317  -4.90  0.001849396    1.806    0.446
