#   1 NUMBER                 Running object number                                     
#   2 MAG_AUTO               Kron-like elliptical aperture magnitude                    [mag]
#   3 X_IMAGE                Object position along x                                    [pixel]
#   4 Y_IMAGE                Object position along y                                    [pixel]
#   5 X_WORLD                Barycenter position along world x axis                     [deg]
#   6 Y_WORLD                Barycenter position along world y axis                     [deg]
#   7 A_WORLD                Profile RMS along major axis (world units)                 [deg]
#   8 B_WORLD                Profile RMS along minor axis (world units)                 [deg]
#   9 THETA_WORLD            Position angle (CCW/world-x)                               [deg]
#  10 FWHM_WORLD             FWHM assuming a gaussian core                              [deg]
#  11 ELONGATION             A_IMAGE/B_IMAGE                                           
#  12 ELLIPTICITY            1 - B_IMAGE/A_IMAGE                                       
         1 -11.7413    218.5228     37.5211   3.6264861195e+01   2.6987423353e+01    0.9134423    0.5968997 -73.33  0.005199563    1.486    0.327
         2 -10.7779      2.2276     11.4344   8.8341465213e+01   7.3067006631e+01    0.6745937    0.1742523 -46.25   0.00301257    3.240    0.691
         3 -11.6300    240.3814     17.5839   3.0263128640e+01   2.4901236320e+01    0.6414593    0.4645123 -64.73  0.002731309    1.096    0.088
         4  -9.6561      9.0005      7.3890   8.2191239050e+01   7.3094674526e+01    0.3267096   0.08083642 -40.15  0.001396595    3.497    0.714
         5  -8.6960     13.3586      3.1777   7.7367702022e+01   7.3222190340e+01    0.1436998   0.09386598 -35.78 0.0003985288    1.676    0.403
         6 -11.5823     11.1199    233.2358   1.2146178563e+02   2.2778753622e+01      1.17365    0.3541739 -85.66   0.00483969    3.589    0.721
         7 -12.6426     69.1499    244.2863   1.1045141163e+02   1.3942355298e+01     2.512428    0.8740783  22.75  0.007045722    6.976    0.857
         8 -12.1985     32.5387    249.3400   1.1824333663e+02   1.7330069208e+01     2.973971    0.4736546  30.48  0.009099499    6.461    0.845
         9 -13.0031      3.1580    241.9313   1.2340298293e+02   2.1765007146e+01     12.24012     0.623868 -78.50   0.01854706   29.473    0.966
        10 -12.8644      8.8870    207.9547   1.2045349253e+02   2.8418657530e+01     1.392063    0.9289746 -83.14  0.004662201    1.297    0.229
        11 -11.3245     22.3152    204.1263   1.1725081830e+02   2.8039065597e+01    0.4690784    0.3353761 -47.65 0.0009097227    1.726    0.421
        12 -13.8256     33.1815    193.7006   1.1385164462e+02   2.9377628251e+01     6.377103     2.546944  75.66   0.02136873    4.291    0.767
        13  -9.4387     48.9299    182.5513   1.0875859443e+02   3.0337100777e+01    0.2894651    0.1958425  82.77 0.0008608418    1.542    0.351
        14 -10.4375     84.1974    219.7654   1.0455498334e+02   1.7012832550e+01    0.5505455    0.3767239 -63.24  0.001826233    1.551    0.355
        15 -10.0600     52.9767    177.6298   1.0709923702e+02   3.1074049496e+01    0.4119321    0.2702089 -34.55   0.00128571    1.995    0.499
        16 -10.1488     59.2827    171.9625   1.0465235462e+02   3.1712000044e+01    0.3508691    0.2680126 -38.92 0.0008129706    1.497    0.332
        17 -10.4507     76.4972    222.7398   1.0667021039e+02   1.7439221759e+01     0.466637    0.3317956  67.19   0.00244767    1.435    0.303
        18  -8.3791     72.9703    172.9793   1.0106910252e+02   2.9628736666e+01    0.2094722    0.1989117 -87.42 0.0003237498    1.012    0.012
        19  -9.9253     70.4698    162.3704   1.0009335428e+02   3.2653466924e+01    0.3289749    0.2703093  29.40  0.000320954    1.292    0.226
        20 -11.6180     56.7492    158.6092   1.0341800647e+02   3.5416123817e+01    0.5522518    0.3325965 -39.78  0.001446332    1.927    0.481
        21 -11.8667     77.6075    155.5748   9.6886276113e+01   3.3359640368e+01     1.491712    0.8871952  57.31  0.002610484    2.075    0.518
        22 -10.7994     69.8496    145.9076   9.7431699553e+01   3.6942827004e+01    0.4871545    0.4297783  -3.59  0.001359792    1.284    0.221
        23 -10.8152     67.5351    142.5113   9.7507895812e+01   3.8133257329e+01    0.4877543     0.323637  44.84  0.001423067    1.604    0.377
        24  -7.8130     22.2922    222.3541   1.1855455776e+02   2.3982652313e+01    0.1127885   0.08584412 -49.97 0.0003275976    1.682    0.406
        25 -10.5887    128.9484    230.8032   9.5752072533e+01   8.0281250981e+00    0.3727093    0.2948519  85.62  0.002078892    1.704    0.413
        26  -9.4198     94.1685    142.5865   8.9486934729e+01   3.4026699073e+01    0.3011144    0.2812717  57.11  0.001030541    1.118    0.106
        27 -10.6610     81.8263    140.6588   9.2787225238e+01   3.6511624199e+01    0.3726268    0.3051409 -54.89 0.0004696023    1.170    0.145
        28 -10.7916     58.0201    132.5430   9.8612528842e+01   4.1938525497e+01    0.6365603    0.2966249 -74.12   0.00226292    2.881    0.653
        29 -11.0924     99.3015    226.7541   1.0193220923e+02   1.3338132702e+01    0.4364858    0.4241126 -64.22  0.002825537    1.154    0.134
        30  -9.2454    106.5209    131.1666   8.3280476440e+01   3.4655900137e+01    0.3790239    0.3163449 -10.07  0.001008133    1.370    0.270
        31  -9.5530     93.4801    127.5944   8.6364590287e+01   3.7864359724e+01    0.3035333    0.2495405 -30.69 0.0005758091    1.266    0.210
        32  -9.5485     12.3574    127.0824   1.1230374551e+02   4.7700724184e+01    0.2180069    0.1884642  41.15 0.0005830877    1.333    0.250
        33  -8.9637    114.4516    125.2266   7.9533845301e+01   3.4567803691e+01    0.3519534    0.2173661 -18.14    0.0012551    2.681    0.627
        34  -9.7494      6.9279    123.9954   1.1361782944e+02   4.8810233935e+01    0.3019598    0.1530295 -68.88   0.00112423    1.594    0.373
        35 -10.5655     58.2944    120.6130   9.6149136936e+01   4.4925162915e+01    0.6530243    0.3649225  63.21  0.001650513    3.084    0.676
        36  -8.4371    104.8829    119.6751   8.0968115690e+01   3.7714877495e+01    0.2607052    0.2045624 -34.04 0.0005311912    1.305    0.234
        37  -7.2642    205.6630    110.3098   5.4732306563e+01   1.8326985058e+01    0.1460586     0.108591 -72.80 0.0004612345    1.683    0.406
        38  -7.7425     70.6176    107.7104   8.9011586305e+01   4.6397703393e+01    0.1572258    0.1099991 -17.13 0.0007015428    1.746    0.427
        39  -9.2130      1.6273     96.5838   1.1167534535e+02   5.5764776689e+01    0.5104398    0.1017424 -70.37  0.001636456    4.179    0.761
        40  -7.5377     41.6920     92.3028   9.5729821525e+01   5.3766784857e+01    0.1304933    0.1075814  71.13 0.0003078628    1.603    0.376
        41  -9.8758      1.8537     85.0854   1.0973274718e+02   5.8457011884e+01    0.7076449    0.1591068 -70.97  0.002257811    4.478    0.777
        42  -9.7760      1.9069     75.4961   1.0795832536e+02   6.0648429784e+01    0.6502317    0.1050147 -65.47  0.002084122    4.409    0.773
        43  -9.1268      1.7524     61.8135   1.0514482344e+02   6.3669060690e+01    0.2890739   0.09393895 -66.05  0.001190918    2.899    0.655
        44  -8.9233     13.2321     60.3049   9.9527071044e+01   6.3347870653e+01    0.2075589    0.1570478 -50.35 0.0006179395    1.183    0.155
        45 -11.7983    210.2307     41.6454   3.8076797846e+01   2.8245412823e+01    0.6118237    0.5799044  55.80  0.004115176    1.298    0.230
        46  -8.4365     21.6472    243.1101   1.1997221228e+02   1.9725275856e+01     0.196644    0.1593199 -56.74  0.001257512    1.599    0.375
        47 -11.3082    224.9374     31.0395   3.4249519319e+01   2.6445180435e+01    0.6071224    0.3780201  61.69  0.001719597    1.695    0.410
        48  -9.2208      2.0000     42.0375   9.9853261273e+01   6.7713545002e+01    0.2842517   0.07436731 -58.87  0.001138743    3.292    0.696
        49  -8.5216      1.6809     37.5138   9.8632855513e+01   6.8600455512e+01      0.20405   0.09064527 -55.39  0.001069542    1.957    0.489
        50  -8.0111     26.9733    240.5365   1.1877897795e+02   1.9687140788e+01    0.1693306    0.1012063  36.99  0.001001921    1.567    0.362
        51  -7.9859    128.4168     28.2070   4.6832147464e+01   4.9057702939e+01    0.1747199    0.1221823 -44.91  0.000508682    1.618    0.382
        52 -10.9242     57.5127    240.7549   1.1258099982e+02   1.6128555967e+01    0.4581929    0.3662264  56.34 0.0005552181    1.041    0.039
        53  -8.1680    189.3181     15.3223   3.4237796005e+01   3.6047614724e+01    0.1207223   0.08911412  44.51 0.0007043511    1.667    0.400
        54 -11.2531    113.3726    231.3756   9.9333594434e+01   1.0295561212e+01    0.4975251    0.3804684 -40.95  0.002847003    1.518    0.341
