#   1 NUMBER                 Running object number                                     
#   2 MAG_AUTO               Kron-like elliptical aperture magnitude                    [mag]
#   3 X_IMAGE                Object position along x                                    [pixel]
#   4 Y_IMAGE                Object position along y                                    [pixel]
#   5 X_WORLD                Barycenter position along world x axis                     [deg]
#   6 Y_WORLD                Barycenter position along world y axis                     [deg]
#   7 A_WORLD                Profile RMS along major axis (world units)                 [deg]
#   8 B_WORLD                Profile RMS along minor axis (world units)                 [deg]
#   9 THETA_WORLD            Position angle (CCW/world-x)                               [deg]
#  10 FWHM_WORLD             FWHM assuming a gaussian core                              [deg]
#  11 ELONGATION             A_IMAGE/B_IMAGE                                           
#  12 ELLIPTICITY            1 - B_IMAGE/A_IMAGE                                       
         1 -12.1103    200.0487     57.0766   3.5244390970e+01   2.7343129244e+01     6.203558     1.750402 -43.38   0.01781341    3.737    0.732
         2 -13.7765    219.1716     31.8070   2.5209210723e+01   2.5945700147e+01     6.311632     2.522673 -25.66   0.02307403    2.711    0.631
         3 -14.5686    230.3164     94.7641   4.0426706364e+01   1.3684181263e+01     6.811624     1.943075 -45.13    0.0176624    4.241    0.764
         4 -14.4905    235.1913     57.5360   2.9993267935e+01   1.8306996047e+01     5.597978     1.529792 -38.99   0.01797136    3.153    0.683
         5 -12.2194    236.7974     28.4644   2.2192909030e+01   2.1896426740e+01    0.9860634    0.5955628  -2.60   0.00106283    2.640    0.621
         6 -13.6006    247.7266     35.8010   2.2842488958e+01   1.8271712768e+01     2.867649    0.5261983 -31.40  0.006569665    4.401    0.773
         7 -10.9954    133.0908     39.5637   4.3179673899e+01   4.7064568564e+01    0.8205178    0.2951746 -28.50  0.002763685    3.037    0.671
         8 -12.9549    175.7622     86.4235   4.8382672496e+01   2.8573649430e+01      2.21754     1.699329 -36.51  0.005568596    1.307    0.235
         9 -10.4288    200.3199     21.8260   2.4875995463e+01   3.2141098093e+01    0.8809911    0.5284196   3.76   0.00328173    2.600    0.615
        10 -11.0224    142.6234     13.1168   3.1490489435e+01   4.8191469424e+01     1.077558    0.4203683 -12.71  0.003537917    3.821    0.738
        11 -13.5234    237.8871     35.9457   2.4004554361e+01   2.0656235688e+01     4.128528      2.10736   4.47  0.009878607    8.264    0.879
        12 -11.5183    118.6901      9.4241   3.5223534249e+01   5.4289458691e+01    0.7118496    0.5786091  41.44  0.002631176    1.129    0.115
        13  -8.7928    247.9900      1.9128   1.4498160750e+01   2.2267733556e+01    0.2034595    0.1715865 -62.47 0.0006471868    1.046    0.044
        14  -7.2400    213.2900      1.2812   1.7520888687e+01   3.1005410226e+01    0.1343336   0.09930979  43.07 0.0002744736    1.527    0.345
        15  -7.3045    138.6811    211.3078   8.1901225307e+01   1.2611376288e+01    0.1275285    0.0842555  69.81 0.0002618807    1.637    0.389
        16  -8.7261    171.4682    250.0418   8.1067562528e+01   1.4546207994e+00    0.2295789      0.14064  60.19 0.0009367869    1.715    0.417
        17  -9.2361    247.1455    206.9513   6.1881163247e+01  -6.0800499067e+00     0.167499    0.1474713  30.00 0.0004022882    1.256    0.204
        18  -8.2565    241.9590    207.0050   6.2757080860e+01  -5.2153284892e+00     0.172323    0.1526127  70.36  0.001127042    1.742    0.426
        19  -9.4602     13.6380    202.7937   1.0312889009e+02   3.1381430273e+01    0.1929033    0.1337856 -77.67  0.001517112    1.421    0.296
        20  -9.3771    248.4722    201.3133   6.0653994486e+01  -5.6453536140e+00    0.3547434    0.2015854  58.75  0.001660474    2.977    0.664
        21  -9.1911    239.9547    199.4489   6.1750196431e+01  -3.9617809540e+00    0.3139688    0.1762874  45.75  0.001089112    1.687    0.407
        22  -9.4057    235.5304    196.9647   6.2055941012e+01  -2.8750592033e+00    0.4757302     0.191103  47.60 0.0008310086    2.401    0.584
        23  -9.3350    230.5564    194.7172   6.2506649305e+01  -1.6964738988e+00    0.2970616    0.2047519  59.61  0.000853019    1.945    0.486
        24  -9.4839    192.1231    193.4451   6.9212831835e+01   5.6593367999e+00    0.7467558    0.4017017 -66.59   0.00237195    6.086    0.836
        25  -7.7344    111.0255    187.9166   8.4057373756e+01   2.1524935374e+01    0.1478327     0.124582  76.24 0.0004087259    1.045    0.043
        26 -10.0170    221.3739    186.3510   6.2578575383e+01   1.1334895303e+00    0.3941332    0.2506539  45.05  0.001117847    1.441    0.306
        27  -9.7398    212.2078    186.4222   6.4247930443e+01   2.8645482072e+00    0.4154015    0.2014155  39.13  0.001913429    1.864    0.463
        28  -8.9241     16.9399    187.0593   1.0163930497e+02   3.4019157285e+01    0.1540233     0.111527  82.82  0.001189708    1.057    0.054
        29  -7.5161    207.3330    182.6598   6.4441238857e+01   4.3642503982e+00    0.1300717    0.1066499  82.87 -0.0001517433    1.749    0.428
        30  -9.5622    237.3388    174.8034   5.7520439520e+01  -2.6152318870e-01    0.3256146    0.2637734  84.74  0.001775956    2.081    0.520
        31 -10.0234    230.7787    167.6360   5.7227561032e+01   2.0159146514e+00    0.5325302    0.2818661 -48.66  0.002314854    2.619    0.618
        32  -9.0187    227.9564    171.6308   5.8539801638e+01   1.9828763497e+00    0.3678455    0.2221733 -39.99  0.001470874    1.834    0.455
        33  -9.8489    223.4778    177.1061   6.0428656308e+01   2.0541359771e+00    0.6133438    0.2099301  33.69  0.001919414    4.274    0.766
        34  -8.8307    220.3962    174.2419   6.0422122082e+01   3.0733601867e+00    0.3786482    0.1898609 -32.93  0.001729019    2.158    0.537
        35  -9.4288    194.1916    172.1179   6.4912289455e+01   8.6448449753e+00    0.3331802    0.2427144 -53.50  0.001745892    1.662    0.398
        36  -7.6603    207.3237    168.6564   6.1727707982e+01   6.5399191244e+00    0.1352317    0.1113759 -89.99 0.0005565815    1.734    0.423
        37 -10.5042    235.4439    162.5493   5.5353125755e+01   1.8466679573e+00    0.3809446    0.3501773  59.13  0.002321679    1.332    0.249
        38  -8.5013    211.2708    165.8884   6.0428066353e+01   6.1774286182e+00    0.2307621    0.1949879  76.13 0.0008545527    1.544    0.352
        39  -9.7034    162.7032    162.7981   6.9405845860e+01   1.6734675828e+01    0.2517845    0.2448669 -51.17 0.0003809617    1.125    0.111
        40  -8.0492    203.7315    160.7610   6.0801964619e+01   8.5612719670e+00    0.1857012    0.1657105  76.73  0.000595925    1.350    0.259
        41  -8.6366    197.4179    151.7192   6.0119514996e+01   1.1431491714e+01    0.3777907     0.244628 -64.50  0.001603659    2.413    0.586
        42 -10.6079    193.9042    157.2889   6.1987808740e+01   1.1214451180e+01    0.4783245    0.3706869  23.10  0.001167549    1.402    0.287
        43  -9.9542    192.4803    151.9952   6.1152996288e+01   1.2444008114e+01    0.5332134    0.3346709 -63.85  0.002221034    2.487    0.598
        44  -8.6260    168.1199    159.9159   6.7725900075e+01   1.6160849245e+01     0.216575    0.1861018  73.10 0.0005418931    1.242    0.195
        45 -12.1291      4.5127    153.1006   1.0160974457e+02   4.1868609082e+01    0.8050784    0.3725886 -78.24  0.004850618    1.617    0.382
        46 -11.7371    158.5936     96.3887   5.4945192602e+01   3.0826132815e+01     1.067011     0.973609  81.73   0.00551444    1.167    0.143
        47  -9.1969    248.6796    249.1779   6.8465412995e+01  -1.0669821777e+01    0.1989194    0.1310734  50.54  0.001318531    1.856    0.461
        48  -8.0804    237.3267    249.6640   7.0327762076e+01  -9.0134432562e+00   0.09828515   0.08050496  56.08 0.0004612064    1.722    0.419
        49 -10.3989    193.6396    245.9371   7.6898536099e+01  -1.6797615320e+00    0.2171017    0.1690414  43.41 0.0004102818    1.082    0.076
        50  -8.2718     42.3007    246.6761   1.0116292527e+02   2.0744297597e+01    0.1070882   0.05058813  67.98  0.000238918    1.632    0.387
        51  -9.5410    159.9489    244.9851   8.2370276723e+01   3.9891281338e+00    0.2621727    0.1606135  49.14            0    1.241    0.194
        52  -9.2415    161.6346    240.8492   8.1594420737e+01   4.2639054362e+00    0.2121105    0.1600762  48.37 0.0006448934    1.009    0.009
        53 -14.3092    244.4777     72.0743   3.2459141214e+01   1.3902239651e+01     4.120337    0.9604261  49.58   0.01183699    4.547    0.780
        54 -13.1004    247.7233     61.6202   2.9364171262e+01   1.4686406402e+01    0.9510073    0.6345937 -22.71  0.003134983    1.574    0.365
        55  -8.2763    106.0531    156.2958   8.0418609106e+01   2.8779191571e+01    0.1778637    0.1538586  71.14 0.0003260375    1.052    0.049
        56  -8.7385    206.7368    154.3678   5.8883060128e+01   8.9931393227e+00    0.2622309     0.169385 -46.42 0.0007744764    1.743    0.426
        57  -9.7220     19.2418    153.2353   9.8690737126e+01   4.0604595227e+01     0.206194    0.1095393 -74.28  0.001277023    1.479    0.324
        58  -8.4336    167.4906    153.4596   6.6560837498e+01   1.7509365751e+01    0.1451965    0.1352278  54.07 9.745223e-05    1.007    0.007
        59  -9.2804    203.1937    147.7157   5.8124704398e+01   1.0878098341e+01    0.4445355    0.3080046  83.93  0.001869336    2.541    0.606
        60  -9.2987    133.6744    145.5049   7.2303607209e+01   2.6018554932e+01    0.9021367    0.2121734 -55.20  0.002209761    6.236    0.840
        61 -11.6938     65.5798    137.6049   8.6710564514e+01   3.8961591212e+01     1.713868     1.085678  82.19   0.00917976    1.722    0.419
        62 -11.4104     50.6420    138.9091   9.0359787095e+01   4.0498868736e+01    0.7576953    0.3837565 -75.73  0.002240418    1.794    0.443
        63 -11.1321     35.1170    142.9405   9.4333324376e+01   4.1287303459e+01     0.357493    0.2964141  35.50  0.001005763    1.564    0.361
        64 -11.9574     43.2099    139.9859   9.2187618997e+01   4.1088277921e+01    0.8003374    0.5596899 -80.48  0.002946031    1.164    0.141
        65  -9.8859    216.3073    142.2057   5.4406227846e+01   8.9705045410e+00    0.5396538    0.3600906 -68.20  0.001780124    2.615    0.618
        66  -9.8769    208.9209    135.8153   5.4342627446e+01   1.1671858111e+01    0.5227039    0.3255406  70.69  0.001117927    2.505    0.601
        67  -8.4297    186.4750    144.0051   6.0626242415e+01   1.5186872276e+01    0.2208867    0.1466335 -41.50 0.0007483429    1.580    0.367
        68 -10.2169     14.7463    141.8865   9.8620139829e+01   4.3378036892e+01     0.199301    0.1667025 -11.79  0.001467916    1.978    0.495
        69  -8.2938    192.3466    143.9037   5.9419387172e+01   1.3915253745e+01    0.2427031     0.199186  59.98 0.0005104308    1.283    0.220
        70  -9.3232    194.5462    137.8738   5.7623142335e+01   1.4514522360e+01    0.3959612    0.2294689 -62.00  0.001475769    2.841    0.648
        71 -10.7013     24.9872    136.5143   9.5874428934e+01   4.3642418779e+01    0.4002267     0.204917 -74.79  0.002329682    1.538    0.350
        72  -9.4968    181.6543    134.6731   5.9516330972e+01   1.7995107259e+01     0.345374    0.2570941 -59.29  0.001323515    1.567    0.362
        73 -10.2177    188.1692    129.0506   5.6860913952e+01   1.7574250686e+01    0.9469447    0.3918605 -51.32  0.003089374    3.238    0.691
        74  -9.9602    184.3116    124.5835   5.6587613683e+01   1.9298573100e+01    0.5342064    0.4216594  -4.68  0.002544579    1.584    0.369
        75  -9.2064    136.0234    129.3029   6.8388517821e+01   2.8973162844e+01    0.4479031    0.1829311 -51.60  0.001629138    2.532    0.605
        76  -9.2937    160.8330    128.3412   6.2520025604e+01   2.3884615064e+01    0.3416389    0.2602974 -47.97  0.001668099    1.345    0.256
        77  -8.4954    169.6868    128.1481   6.0537032525e+01   2.1947057933e+01    0.2380992    0.1848014 -63.10 0.0006559169    1.470    0.320
        78  -7.9914     92.9481    124.4798   7.7813504709e+01   3.7937305520e+01    0.1961632    0.1339012  45.40 0.0005775706    1.535    0.349
        79  -8.6195     56.9868    121.1149   8.6239961239e+01   4.3728372491e+01    0.1855805     0.156857 -76.91  0.001199942    1.026    0.026
        80  -8.5042    135.0408    120.3114   6.6583432919e+01   3.1092235860e+01    0.2099503    0.1912732  65.62 0.0005465844    1.086    0.079
        81  -9.7349    172.0658    116.7546   5.7263753547e+01   2.3643788707e+01    0.4832572    0.4223413  17.78  0.001482549    1.283    0.221
        82 -10.7442    143.1069     97.1066   5.8787190466e+01   3.4237470962e+01    0.6695763    0.5645856 -35.52  0.000989766    1.211    0.174
        83 -10.6198    133.4270    109.3049   6.4322937770e+01   3.3777600008e+01    0.6170754    0.5292712 -15.76  0.001377658    1.406    0.289
        84 -10.5891    135.0065    101.4698   6.1932606165e+01   3.5101865425e+01    0.7821333    0.4929661 -55.59   0.00168918    1.691    0.409
        85 -10.3702    117.6649    106.6938   6.7624088524e+01   3.7516525555e+01      1.03036    0.3382178 -54.05   0.00320952    3.445    0.710
        86 -10.9115    125.2917    110.2432   6.6564936665e+01   3.5243601209e+01    0.6903768    0.4596511  42.42  0.003228775    1.569    0.363
        87 -10.9048    126.8857    104.5515   6.4752020521e+01   3.6145803097e+01    0.6260526    0.3500351 -59.73  0.002518432    2.106    0.525
        88 -10.0105    206.7075    110.0075   4.8510630085e+01   1.6705691373e+01     0.587912    0.3555087  53.59  0.002485965    1.680    0.405
        89  -9.8588    209.4608    107.0479   4.7239748075e+01   1.6570266516e+01     0.380439    0.2301527 -44.17  0.001073283    1.693    0.409
        90  -8.6339    108.9723    109.9932   7.0643180075e+01   3.8425214675e+01    0.1745235    0.1647011 -77.34 0.0007997293    1.018    0.018
        91  -8.4468     87.4006    105.9654   7.5402410450e+01   4.2977885962e+01    0.3553044    0.1522785 -54.30  0.001182762    2.108    0.526
        92  -9.3332    149.1811    105.2114   5.9490763206e+01   3.1212460474e+01    0.3811156    0.2720244 -48.36  0.001342871    1.404    0.288
        93 -10.1284     76.5159    104.5889   7.8044089609e+01   4.4912357159e+01     0.238867    0.2113782 -67.52 0.0002595285    1.009    0.009
        94  -9.9895    112.3701    103.5663   6.8222021596e+01   3.9208520574e+01     0.332509    0.2331882  83.41  0.001488945    2.025    0.506
        95  -7.4876    196.7179    110.6606   5.0610566137e+01   1.8970681540e+01    0.1566402    0.1209257   8.43 0.0007011119    1.627    0.385
        96 -10.5110    122.8572    103.1571   6.5417577232e+01   3.7260125102e+01     0.488657    0.3038177  66.32  0.002027464    2.190    0.543
        97  -7.5999    125.9705     87.2025   6.0337739816e+01   3.9989465327e+01     0.193759    0.1200595  47.51 0.0003812719    1.670    0.401
        98 -13.1776    197.1560     90.5098   4.5209898032e+01   2.2495121389e+01     3.392813     1.108419  44.73   0.01009814    3.418    0.707
        99  -8.4370    154.8857     71.3510   4.8535121976e+01   3.6498383148e+01    0.2505378     0.202124 -46.73 0.0005704975    1.261    0.207
       100  -8.4102    193.2271     69.0704   3.9931250497e+01   2.7189060721e+01    0.6087515    0.1131759 -40.07  0.001491291    4.811    0.792
       101  -8.7994    182.4493     65.8430   4.1030374137e+01   3.0512476848e+01    0.5050519    0.1391639 -35.95  0.001467292    3.415    0.707
       102  -9.1387    163.1579     44.9098   3.8341177280e+01   3.8839618331e+01    0.2674983    0.2050725 -35.88 0.0007069235    1.322    0.243
       103 -11.3580    152.4649     47.5676   4.1472353239e+01   4.1140166866e+01    0.6856865    0.5867266  74.69  0.003521745    1.279    0.218
       104 -11.8476    168.7980     60.0635   4.2011356118e+01   3.4988898947e+01     1.664971    0.7937807 -57.23   0.00512288    3.598    0.722
       105  -9.2268    162.2094     64.4130   4.4760144914e+01   3.5920070382e+01    0.3327285    0.2114756 -45.76   0.00142317    1.635    0.388
       106  -8.4851    158.5152     64.5293   4.5607251082e+01   3.6821902179e+01    0.3083426     0.208974  16.79 0.0008463216    2.114    0.527
       107  -7.4217    111.9590     62.9736   5.6776108359e+01   4.7676888560e+01    0.1671685    0.1612035  -0.81 0.0009512206    1.044    0.043
       108  -7.6414    150.7121     62.3110   4.6671728345e+01   3.9128317851e+01    0.1537789    0.1205633 -70.02 0.0002076194    1.579    0.367
       109  -8.2497    143.3277     60.0258   4.7669879460e+01   4.1304637231e+01    0.2052596     0.192732 -33.19 0.0006077504    1.060    0.057
       110  -8.0445    187.6373     59.1042   3.8037093034e+01   3.0267726041e+01     0.218937    0.1485259 -16.47 0.0009329077    1.752    0.429
       111  -8.3090    181.8603     58.9219   3.9065689620e+01   3.1802949920e+01    0.2298969    0.2059356  16.20 0.0004356002    1.220    0.180
       112 -10.0913    136.6234     53.0048   4.6971898988e+01   4.4089625249e+01    0.5138782    0.2157783 -31.47  0.001841635    2.504    0.601
       113  -9.0771    112.9127     50.6046   5.2347085607e+01   4.9729790560e+01    0.2498952    0.1947386 -39.61  0.000403785    1.259    0.206
       114  -9.0635    188.3398     45.3915   3.3780598470e+01   3.2183144141e+01    0.4572172    0.2028053 -34.73  0.001572057    2.195    0.544
       115  -9.6354    139.3695     35.9762   4.0428323848e+01   4.6099763818e+01    0.2707654    0.2418332   0.01  0.000823219    1.133    0.117
       116  -9.4436    170.5459    236.3157   7.9518900318e+01   3.3797871005e+00    0.3775771    0.1622094  55.49  0.001765512    2.497    0.600
       117  -8.3864    181.7847     42.3554   3.3994114381e+01   3.4354746972e+01     0.314632     0.228074  12.17   0.00141053    1.791    0.442
       118  -8.7289    109.6242     36.7404   4.8249336340e+01   5.2688625877e+01    0.3510564    0.2326269 -79.73  0.001340939    3.502    0.714
       119  -8.5021    162.6934    236.0131   8.0819407379e+01   4.7458545308e+00    0.1509035    0.1311517  51.86 0.0003464855    1.129    0.115
       120 -11.6324    140.0055     41.3106   4.2155188044e+01   4.5158420573e+01    0.7316983    0.4960011  73.70  0.003272839    1.888    0.470
       121  -7.7086    191.4309    234.4505   7.5712397094e+01   8.0506233487e-02    0.1188829   0.09283551  42.40 6.036932e-06    1.039    0.038
       122 -10.9147    128.9331     21.9176   3.7693152678e+01   5.0477336292e+01    0.7544534     0.192066  51.45  0.002444817    3.320    0.699
       123 -10.4625    135.2894     19.6064   3.5399756190e+01   4.9246654665e+01    0.3376329     0.297564 -53.16  0.001429596    1.300    0.231
       124  -8.1310    158.9732     22.5467   3.1686865053e+01   4.2964078123e+01    0.2092096    0.1909805 -16.56  0.001156272    1.147    0.128
       125  -8.3026    164.9364    231.9393   7.9916675705e+01   4.9307876202e+00    0.1903388    0.1274525  67.63  0.001129359    1.757    0.431
       126 -10.1019    129.8367    228.0670   8.5527696684e+01   1.1393259992e+01    0.2065331    0.1802436  88.47  0.000432967    1.252    0.202
       127  -9.5758    126.0711     14.8709   3.5660422560e+01   5.1989001163e+01    0.3338864    0.2016161  69.29  0.001525436    1.976    0.494
       128  -8.3928     81.2043    220.5558   9.3149542415e+01   2.0095361630e+01    0.1543108     0.135047  85.97 0.0004312684    1.317    0.241
       129  -8.8464    153.0291    215.1837   7.9802137159e+01   9.4801931149e+00    0.1787031    0.1601795  58.64 0.0002507909    1.112    0.101
