#   1 NUMBER                 Running object number                                     
#   2 MAG_AUTO               Kron-like elliptical aperture magnitude                    [mag]
#   3 X_IMAGE                Object position along x                                    [pixel]
#   4 Y_IMAGE                Object position along y                                    [pixel]
#   5 X_WORLD                Barycenter position along world x axis                     [deg]
#   6 Y_WORLD                Barycenter position along world y axis                     [deg]
#   7 A_WORLD                Profile RMS along major axis (world units)                 [deg]
#   8 B_WORLD                Profile RMS along minor axis (world units)                 [deg]
#   9 THETA_WORLD            Position angle (CCW/world-x)                               [deg]
#  10 FWHM_WORLD             FWHM assuming a gaussian core                              [deg]
#  11 ELONGATION             A_IMAGE/B_IMAGE                                           
#  12 ELLIPTICITY            1 - B_IMAGE/A_IMAGE                                       
         1 -14.3372     68.3971    144.8242   9.4633359558e+01   3.7413582367e+01     4.884363     2.620186  81.17  0.002651417    4.376    0.771
         2 -13.8455    235.6756     22.9666   3.0277371596e+01   2.5476236291e+01     1.109248      0.84362  54.56  0.004509233    1.788    0.441
         3 -13.8360    207.9675     45.1966   3.7428614101e+01   2.8336779126e+01     1.417027     1.157552  31.70  0.005436939    1.834    0.455
         4 -13.6957    215.8392     40.3242   3.5530248776e+01   2.7318984800e+01     1.135363    0.8897213 -56.86  0.004683354    1.137    0.121
         5 -11.9315      3.5145      3.4393   7.9683464093e+01   7.4211813341e+01    0.3901765    0.2639178  -1.09  0.002796661    1.159    0.137
         6 -12.6672    223.4033     33.4450   3.3367633695e+01   2.6642121498e+01     0.563711    0.4138249  52.37  0.001520605    1.774    0.436
         7 -10.7248    116.8782    249.2212   9.8019848132e+01   5.5922954007e+00    0.3140766    0.1895585 -75.14  0.001539969    2.444    0.591
         8 -13.1741     58.1069    172.1448   1.0215403448e+02   3.1721229686e+01     1.789889    0.8998733 -23.51  0.004881746    6.154    0.838
         9 -14.8336      8.9812    208.0076   1.1814001622e+02   2.8222126252e+01     2.117096     1.042331 -72.13   0.00761284    1.803    0.445
        10 -10.3724     73.8829    207.1193   1.0271132721e+02   2.0879079120e+01    0.3649793    0.2335595  80.10 0.0009998436    1.875    0.467
        11  -9.6809    111.1337    203.8610   9.3032164658e+01   1.5967160331e+01    0.2204539    0.1854396  65.09 0.0004956892    1.267    0.210
        12 -10.6924    193.5022    195.8269   7.2750011440e+01   3.8900337298e+00    0.9553806    0.4805566 -63.76  0.002502225    7.410    0.865
        13  -8.9457    122.4797    199.4799   8.9531317300e+01   1.5093762281e+01    0.2390781    0.1457295 -68.98  0.001015012    2.110    0.526
        14  -9.2067     99.3154    181.0599   9.2324019273e+01   2.3330789440e+01    0.2053671    0.1904227 -69.23 0.0005202851    1.080    0.074
        15  -9.8054    186.9917    175.3357   7.0080287288e+01   8.9949660982e+00    0.3312722    0.2045396 -44.32  0.001556619    1.548    0.354
        16 -12.4937    238.9150    172.1845   5.9804989335e+01   1.1584280215e+00    0.6754155    0.3456594  27.24  0.003158701    2.622    0.619
        17 -12.9891     78.8253    154.8171   9.3370834929e+01   3.3268179607e+01     1.152172    0.8923475 -69.03  0.001370843    1.287    0.223
        18 -11.2168     22.4887    222.4689   1.1617248208e+02   2.3597147611e+01    0.2265109    0.2022357  71.07 0.0008049887    1.143    0.125
        19 -11.8658     71.6584    160.6402   9.6497958615e+01   3.2832893714e+01    0.3653181    0.3446877  63.31 0.0005537589    1.068    0.063
        20  -9.1220    110.9383    167.9366   8.6825182928e+01   2.4587002389e+01    0.2403382    0.1839719  77.28 0.0005290458    1.635    0.388
        21  -9.4723     60.9945    161.7024   9.9761717533e+01   3.4044952089e+01    0.2100083    0.1895059 -46.60 0.0002917777    1.161    0.139
        22 -13.5836     58.4331    156.2317   9.9634359584e+01   3.5809508771e+01    0.8405317    0.4698471 -59.32  0.002064652    1.642    0.391
        23  -9.2845    235.3068    155.3181   5.7092607505e+01   4.6641083852e+00    0.1322938   0.09443565 -13.64 0.0002815989    1.633    0.388
        24  -9.1544    174.8701    149.2987   6.7138211665e+01   1.6661124755e+01    0.2318023    0.1931757  69.25 0.0006477706    1.457    0.314
        25  -9.7925    134.2752    147.5399   7.6363702225e+01   2.5141733433e+01    0.5954823    0.1430211 -52.63  0.001438921    4.925    0.797
        26 -11.3941    141.0877    221.6091   8.8729037218e+01   7.2974600126e+00     0.418655     0.287119  71.56  0.001845289    2.373    0.579
        27 -16.0596     31.5942    184.5366   1.1077857971e+02   3.1676633631e+01     9.036742     3.688487  81.23    0.0293579    4.161    0.760
        28 -10.3831     95.0985    141.1169   8.5804471416e+01   3.4098342352e+01    0.3774526    0.3013567 -27.49 0.0009696742    1.418    0.295
        29  -9.6333     98.5230    137.9343   8.4092495305e+01   3.4290770490e+01    0.3293861    0.2439694 -23.20 0.0009933495    1.673    0.402
        30 -12.4209     82.7263    139.3141   8.9141091127e+01   3.6640779062e+01    0.3323405    0.2861138 -47.47 0.0004703483    1.133    0.117
        31  -9.3555    143.4311    139.2337   7.2139226500e+01   2.5227521641e+01     0.216399    0.1484185 -59.27 0.0006214693    1.599    0.375
        32 -11.8720     65.7484    127.1416   9.1935080568e+01   4.2346577220e+01    0.5869752    0.4562589  74.76  0.001883071    1.577    0.366
        33 -10.8674    106.6667    130.6686   8.0031563157e+01   3.4580658837e+01    0.4142883    0.3494945  16.36  0.001250397    1.324    0.245
        34 -10.8744     14.4277    128.1617   1.0902760128e+02   4.7627128103e+01    0.2386237    0.2158306 -63.11  0.000289521    1.070    0.065
        35 -11.0882    242.8714    127.3133   5.0344173072e+01   8.3530934754e+00    0.1957323     0.163764 -79.38   0.00121243    1.431    0.301
        36  -9.2085    160.4743    127.4951   6.5297275414e+01   2.4276832834e+01    0.1536755    0.1470092 -58.60 0.0001850532    1.031    0.030
        37  -8.7734     93.8645    126.3771   8.2834017709e+01   3.7990884316e+01    0.2076015    0.1494086  22.61 0.0003765642    1.587    0.370
        38  -9.0648    162.4592    120.2202   6.3091048997e+01   2.5398419923e+01    0.2229069    0.1401865 -55.91 0.0009415686    1.714    0.416
        39  -9.6528    105.0753    119.0195   7.7649762900e+01   3.7681559494e+01    0.2202102    0.2157774 -17.68 0.0003131527    1.022    0.022
        40 -11.1141    244.0115    118.0108   4.8320229347e+01   9.7574939842e+00    0.2099899     0.140649 -63.95 0.0008546667    1.689    0.408
        41  -8.4759    158.3167    114.6154   6.2630549300e+01   2.7469360874e+01     0.163278    0.1194898 -78.67 0.0007018524    1.828    0.453
        42 -10.0612    205.2205    110.6583   5.2578092676e+01   1.8288379144e+01    0.2954313    0.2467547  32.87  0.001025204    1.457    0.314
        43 -10.7748    245.2013    107.1944   4.5994708744e+01   1.1377174387e+01    0.2021209    0.1395477  -1.87 0.0009582568    2.877    0.652
        44  -9.8378     69.6214    105.8488   8.5677632383e+01   4.7030918134e+01    0.2852181     0.223235  82.24 0.0008464219    1.734    0.423
        45 -10.5396    241.9883    101.7552   4.5309863915e+01   1.2847527700e+01    0.1509515    0.1098493  60.85 0.0006057275    1.614    0.381
        46  -9.1729     63.8345    100.8736   8.6434435340e+01   4.9080926030e+01    0.1873895    0.1727756  69.12 0.0004019962    1.264    0.209
        47 -11.1072     53.2092     92.1971   8.8059643506e+01   5.2585868092e+01     0.544643    0.2012305 -58.30  0.001902692    2.903    0.656
        48 -10.0460     43.4768     89.8624   9.1175472481e+01   5.4340619305e+01    0.2500522    0.1848594  43.82 0.0007398086    1.589    0.371
        49 -13.2393     25.0126    200.5739   1.1390372104e+02   2.8425431674e+01    0.5526434    0.4032037 -46.72  0.001312247    1.665    0.399
        50  -9.9462    162.3770     84.3460   5.3989865992e+01   3.2464601522e+01    0.2148948    0.1772442  16.20 0.0006566472    1.599    0.375
        51  -9.8133     63.0511     80.8763   8.1159870767e+01   5.3682314474e+01    0.4580508      0.30959  81.42  0.001793161    3.321    0.699
        52 -10.3325     57.5080     76.8505   8.2056206642e+01   5.5359543245e+01    0.4261036    0.2384289  43.39  0.001240675    2.043    0.511
        53  -9.6666     53.6763     74.3441   8.2790053393e+01   5.6430219047e+01    0.2537511    0.1930259  50.34 0.0008266512    1.655    0.396
        54  -8.8069    184.5041     77.4790   4.8220361635e+01   2.8621770646e+01    0.1383297    0.1309417 -73.65 -4.662409e-05    1.073    0.068
        55  -8.5749    149.6918     76.7127   5.4548270128e+01   3.6755781147e+01    0.1425846    0.1154001  21.07 0.0002067864    1.573    0.364
        56  -8.7632     41.4841     66.5811   8.5377401674e+01   5.9625392156e+01    0.1318593    0.1177672 -15.97 0.0001510824    1.049    0.047
        57 -11.0147     13.4293     60.1860   9.6029161732e+01   6.3690219816e+01    0.2528011    0.2097557 -47.66 0.0004071296    1.171    0.146
        58  -9.8940     42.0876    230.8829   1.1255748927e+02   1.9544592727e+01    0.2238677    0.1584101 -85.23 0.0005704362    1.354    0.262
        59 -11.3999     30.0803    221.5255   1.1444391036e+02   2.2999028928e+01    0.5787543    0.4139635  43.15  0.002148548    1.316    0.240
        60 -16.1833     31.3002    242.3318   1.1569738216e+02   1.8327078079e+01     8.814516     2.775287  22.96   0.02786052    6.142    0.837
        61 -11.1122      2.2516     49.5634   9.8458702894e+01   6.6573026159e+01    0.3265085    0.1163034 -57.56  0.001516865    2.378    0.580
        62  -9.2153     26.8508     51.8287   8.7125775216e+01   6.4164954159e+01    0.1499894    0.1431964   2.36            0    1.286    0.223
        63  -9.7691    129.0681     28.9558   4.4746297525e+01   4.8565028188e+01    0.1936643    0.1712267  68.34 0.0003049554    1.022    0.021
        64 -12.1798      8.0831     25.7256   8.7190734536e+01   7.0510666678e+01    0.3466644    0.2646613   6.56  0.001782287    1.232    0.188
        65  -9.5040    189.4973     15.1000   3.2615773655e+01   3.6063009544e+01    0.1683359     0.113831 -40.04 0.0007236686    1.547    0.354
        66 -10.7172     23.6891    225.3107   1.1611405843e+02   2.2836233757e+01    0.2662494    0.1845794  75.55   0.00114176    1.247    0.198
