#   1 NUMBER                 Running object number                                     
#   2 MAG_AUTO               Kron-like elliptical aperture magnitude                    [mag]
#   3 X_IMAGE                Object position along x                                    [pixel]
#   4 Y_IMAGE                Object position along y                                    [pixel]
#   5 X_WORLD                Barycenter position along world x axis                     [deg]
#   6 Y_WORLD                Barycenter position along world y axis                     [deg]
#   7 A_WORLD                Profile RMS along major axis (world units)                 [deg]
#   8 B_WORLD                Profile RMS along minor axis (world units)                 [deg]
#   9 THETA_WORLD            Position angle (CCW/world-x)                               [deg]
#  10 FWHM_WORLD             FWHM assuming a gaussian core                              [deg]
#  11 ELONGATION             A_IMAGE/B_IMAGE                                           
#  12 ELLIPTICITY            1 - B_IMAGE/A_IMAGE                                       
         1 -11.9214     90.2778     59.1975   1.0152504593e+02   5.3673782865e+01     1.100315    0.8368857 -64.56  0.005561576    1.728    0.421
         2 -12.3544     60.4060     45.7146   1.0728442071e+02   6.1127571630e+01     1.048572    0.4851712 -44.21  0.004826298    1.996    0.499
         3 -12.2850    124.8796     27.7012   8.0005199428e+01   5.1041962068e+01     1.051992    0.8224968   0.63  0.003909687    1.420    0.296
         4 -12.1810    120.1960     57.5282   9.2002390738e+01   4.7734956359e+01     1.816514     1.267944 -86.92  0.007601309    2.420    0.587
         5 -10.0701    139.3651     32.9443   7.8705818855e+01   4.6808122674e+01    0.7737479    0.3431978 -18.02  0.002761951    3.088    0.676
         6 -11.4816    178.4705     20.9696   6.8046241691e+01   3.8111678968e+01    0.5415128    0.3390436  39.52  0.001594887    1.858    0.462
         7 -10.8172    119.8135     17.7217   7.7360727023e+01   5.3413253015e+01       0.9188    0.4659519  69.83   0.00384242    2.319    0.569
         8 -12.3007    131.2905     13.9565   7.3508264536e+01   5.1006433124e+01     1.413864    0.6443579  77.33  0.005147456    3.102    0.678
         9 -12.6702    112.9433     24.8196   8.1785078231e+01   5.4215557363e+01    0.9125952    0.4479463  53.38  0.004020756    1.867    0.464
        10 -10.0695     60.5250     24.7425   9.8600528213e+01   6.4569622733e+01    0.5836145    0.2435535 -35.11  0.002317344    2.255    0.557
        11 -11.6030     26.3730     27.6887   1.1502168027e+02   6.8419668910e+01    0.4767712    0.4617058 -14.13  0.002692467    1.362    0.266
        12 -11.6844     22.6864     11.2938   1.0964587387e+02   7.1470821510e+01      1.49114    0.6145709  11.43  0.005743011    4.875    0.795
        13 -11.4824     19.8502     23.1408   1.1640084240e+02   6.9799408249e+01    0.5297374    0.2595817 -45.03  0.002683691    1.655    0.396
        14 -11.1182     14.7202     23.4326   1.1912605869e+02   7.0162726307e+01    0.4666126    0.3635352 -57.13  0.002300465    1.476    0.323
        15 -11.9032     16.7969     13.4495   1.1380388182e+02   7.1682085685e+01    0.5307152    0.2533523 -30.49 0.0004981215    1.856    0.461
        16 -11.4124     14.2426      9.4228   1.1331772617e+02   7.2541764350e+01    0.3828344    0.2463938  17.46  0.002428617    1.626    0.385
        17 -11.1137    140.5292     20.5933   7.4113432706e+01   4.7990913886e+01    0.9174296    0.2686011  50.02  0.003115793    2.991    0.666
        18  -9.6626    149.5080     14.9904   7.0558342936e+01   4.6290966936e+01    0.2594292    0.2037901  35.81  0.001007913    1.326    0.246
        19  -9.5938     88.0623      7.4614   8.1151425351e+01   6.1596596661e+01    0.5032693    0.2507971  34.23  0.002245616    2.003    0.501
        20  -9.4498     83.1755      5.8232   8.1832575928e+01   6.2763087294e+01    0.2367305    0.1645482  47.45 0.0006510816    1.330    0.248
        21 -11.3329     90.7637     20.3391   8.6070550007e+01   5.9618778452e+01    0.5665468     0.414698 -17.27  0.002445041    1.367    0.268
        22 -11.3820     86.0588     14.3064   8.4844689438e+01   6.1287303223e+01    0.5509548    0.3110505  -6.78  0.001894678    2.126    0.530
        23  -9.4201     31.9736     12.1724   1.0532945037e+02   7.0333815616e+01    0.2794726    0.1954007  55.12  0.001572419    2.838    0.648
        24 -10.8815     47.4215     18.7637   1.0131674319e+02   6.7393345861e+01    0.3709576     0.308801  20.41  0.002074973    1.234    0.190
        25 -11.9192     49.1852     12.9708   9.7743595731e+01   6.7949427776e+01    0.7614459    0.3389484  39.25  0.003817902    2.270    0.559
        26 -10.1704    206.6680     20.1965   6.4338901285e+01   3.0927712439e+01    0.5002826    0.2649389 -30.40  0.001928532    1.933    0.483
        27 -11.8096     68.4431     17.5157   9.2252564771e+01   6.4243968802e+01    0.7804088    0.4630802  54.87  0.003990707    2.143    0.533
        28 -10.8787    239.7660      7.7754   5.8222337842e+01   2.4285213057e+01    0.3459699    0.1836486 -65.18 0.0003460293    1.819    0.450
        29 -10.7451    241.1080      3.8843   5.7237938948e+01   2.4391032338e+01    0.4318391    0.1748623  83.70  0.001887142    2.534    0.605
        30 -12.0248    239.5962     15.3647   5.9987017834e+01   2.3485601685e+01    0.8559062    0.5006433  73.19  0.004549143    1.653    0.395
        31 -11.2034    245.9923      7.9954   5.7809089185e+01   2.2841466989e+01    0.4382575     0.297124 -16.46  0.002317488    1.921    0.479
        32 -11.0897    165.3762     17.2370   6.8780402626e+01   4.1940835308e+01    0.3930158    0.2567369  40.55 0.0007135994    1.661    0.398
        33 -10.6622     42.2152     14.3668   1.0153431183e+02   6.8735880353e+01    0.3318556    0.1828131  42.58  0.001820661    2.176    0.540
        34 -10.4241    186.3757     15.1654   6.5306304046e+01   3.6685857346e+01    0.3160101    0.2489333  52.33 0.0006529085    1.301    0.231
        35 -11.2437    192.1635      7.8147   6.2555336324e+01   3.5947561279e+01    0.6811039    0.4641278  47.34  0.002827327    1.601    0.376
        36 -10.0498    193.9300      1.4675   6.0623131364e+01   3.6106380879e+01    0.2514698    0.1378187  62.54 0.0007331008    1.658    0.397
        37 -12.3392    104.8190     12.8841   7.8997132743e+01   5.7409832849e+01    0.4977996    0.4448282 -11.64  0.002301405    1.172    0.147
        38 -11.5411    211.2975     10.0719   6.1209169187e+01   3.0875757062e+01     0.462999    0.3474112  28.51  0.001780043    1.810    0.447
        39  -8.2894      4.4320      9.7481   1.1903437677e+02   7.3230836772e+01    0.5521996    0.1479663 -44.04  0.002216679    2.592    0.614
        40 -10.5756    169.1167     10.0149   6.5988655462e+01   4.1700206636e+01    0.3721902    0.2098868  48.08  0.001735613    1.780    0.438
        41  -9.6749    157.6160     10.1432   6.7659316031e+01   4.4675981800e+01    0.3724342    0.1302743 -35.72  0.001384186    2.843    0.648
        42 -10.6821     67.1420     10.2753   8.9271865942e+01   6.5355831333e+01     0.598015     0.234628  42.65  0.002218411    2.355    0.575
        43 -10.2973     62.7291      6.5586   8.9053894430e+01   6.6552704110e+01    0.3185839    0.1952706  -3.59  0.001135162    1.719    0.418
        44 -10.1968     71.8115      3.1305   8.4129744030e+01   6.5257725759e+01    0.4268422     0.287971  36.66  0.002387228    1.304    0.233
        45 -10.1024     77.0270      6.8176   8.4214280026e+01   6.3886771532e+01    0.2617246    0.2375932  41.59  0.001134726    1.233    0.189
        46 -10.5213     77.8059      2.7677   8.2022238251e+01   6.4131920585e+01    0.2935655    0.1780426  28.58  0.001489247    1.558    0.358
        47  -9.7783    158.1501      2.6271   6.5144438100e+01   4.5221892338e+01    0.4304211    0.1815347  53.45   0.00182053    2.092    0.522
        48 -10.4613    162.9353      5.6049   6.5444101129e+01   4.3721003430e+01    0.3885518    0.2318304  -1.57  0.001634461    2.283    0.562
        49  -9.1351    162.5706      1.4030   6.4165275445e+01   4.4185730082e+01    0.1895309    0.1100947  62.82 4.769057e-05    1.488    0.328
        50 -10.3472    151.1688      7.8755   6.7887540186e+01   4.6553593858e+01    0.3862015    0.2761631  74.20  0.001260557    1.308    0.235
        51 -10.1988      1.3175      7.2598   1.1975105252e+02   7.3839715161e+01    0.1753609   0.07550791 -47.65 0.0002549182    1.801    0.445
        52 -10.2008    200.2270      5.9348   6.1204112686e+01   3.4078747929e+01    0.4010611    0.2014519  77.01  0.001040103    1.840    0.457
        53 -10.9129    218.6642      3.3702   5.8858866752e+01   2.9750822251e+01    0.3046889    0.2505057 -64.58 0.0009106038    1.089    0.082
        54 -11.1601    223.7671      1.9178   5.8088365626e+01   2.8662594181e+01    0.7815498    0.3382506 -81.83  0.003211243    2.713    0.631
        55 -10.8333     38.6335     21.8146   1.0669655948e+02   6.8076341022e+01    0.4052664    0.1851451 -39.31  0.002081502    1.925    0.481
        56 -10.5001     42.5251      3.5539   9.5820088002e+01   7.0111471161e+01    0.4506685    0.2446185   1.08  0.002276513    2.370    0.578
        57 -10.5357    174.1109      4.4385   6.3651107875e+01   4.0929755439e+01    0.6055089    0.2314501  76.44  0.002295159    2.611    0.617
        58 -12.0249    133.7460      2.7028   6.8922469366e+01   5.1426636741e+01    0.3984175    0.2636684  60.48 0.0007014722    1.313    0.238
        59 -10.9146    105.8639      1.8903   7.4134981640e+01   5.8193924437e+01    0.6692141    0.2544604  67.08  0.002297062    2.914    0.657
        60  -9.9598    117.4768      2.5039   7.1890466562e+01   5.5422445395e+01    0.2343266    0.1787782 -22.35 0.0007612373    1.436    0.303
        61 -10.0459    113.3081      1.9001   7.2509862465e+01   5.6461867396e+01    0.3535376    0.1914031  73.45  0.001032152    2.083    0.520
        62 -11.7422     35.5061     18.9595   1.0686070432e+02   6.8896690297e+01    0.5994483    0.2333598 -32.10  0.002637269    2.534    0.605
        63 -10.5589    206.0170      2.3443   5.9705745225e+01   3.2973773847e+01    0.4490187    0.2153483  89.60  0.001966981    2.177    0.541
        64 -11.2269      2.7302      1.8376   1.1634581109e+02   7.4612848839e+01    0.3368621     0.166418   5.84  0.002022984    2.271    0.560
        65 -10.2919    141.6556      3.7286   6.7968498573e+01   4.9350761440e+01    0.4909807    0.2002946  60.78  0.001862697    2.023    0.506
        66  -9.5625    122.8436      1.3459   7.0386120839e+01   5.4223744906e+01    0.3393192    0.1037848  62.39  0.001263811    2.693    0.629
        67  -8.6770     15.9900      1.0000   1.0803395971e+02   7.3638580906e+01    0.1591416   0.05739342  28.83 0.0007992934    2.921    0.658
        68 -10.9605     47.1932    146.4517   1.3493383646e+02   4.0260547146e+01    0.5256417    0.2775588 -73.00  0.001794185    1.697    0.411
        69  -9.7427     42.9463    148.0000   1.3620405424e+02   4.0377387123e+01    0.2566342    0.1886369  30.77  0.001539264    1.623    0.384
        70  -9.5148    214.5267    151.5332   9.6561416887e+01   8.3406984092e+00    0.1420586    0.1318725   4.00 0.0001778759    1.002    0.002
        71 -10.4424     56.4546    149.3531   1.3296978768e+02   3.8475116082e+01    0.2745592    0.2052314 -81.13  0.000667434    1.189    0.159
        72 -10.0337     85.8459    150.1281   1.2559800245e+02   3.4152541180e+01    0.2275021    0.1817419  79.11  0.001250345    1.239    0.193
        73  -9.7205    239.8711    146.8430   9.1038701634e+01   4.1061551267e+00    0.2111342    0.1730383   3.38 0.0007039697    1.213    0.176
        74 -11.1118    249.6353    143.0224   8.8609752250e+01   2.8584926591e+00    0.6310972    0.2316622 -34.51  0.002513222    2.488    0.598
        75  -9.6258     74.2159    145.5874   1.2784078227e+02   3.6966634029e+01    0.1755676    0.1350625  24.81 0.0008998616    1.619    0.382
        76 -10.7937     33.2609    144.3098   1.3820110603e+02   4.2247666049e+01    0.2709308    0.2111508  83.34 0.0006619906    1.117    0.105
        77  -9.8874    133.5015    140.3668   1.1164076670e+02   2.7713169797e+01    0.3003474    0.2583682 -21.64  0.001035031    1.388    0.280
        78 -10.1004     69.9207    140.2333   1.2809364530e+02   3.8838017063e+01    0.2073713    0.1589219 -17.09  0.001068961    1.983    0.496
        79 -11.8239     29.8936    133.0578   1.3772729130e+02   4.5186202495e+01    0.5438049    0.3072234 -85.08 0.0004014498    1.655    0.396
        80  -9.2634     26.2955    140.3297   1.3951269753e+02   4.3831380294e+01    0.1831496    0.1177494 -49.04 0.0006773017    1.748    0.428
        81 -11.8691     23.1740    135.8172   1.3981027300e+02   4.5151105540e+01    0.7235104    0.3966441  49.50   0.00404114    1.889    0.471
        82  -9.0389     54.2070    139.5674   1.3215959887e+02   4.1048272509e+01     0.161185     0.131942  16.15 0.0009446375    1.613    0.380
        83 -11.5279     92.9825    128.8952   1.1974186229e+02   3.7961640341e+01    0.7610385    0.3329338 -57.75   0.00297453    2.237    0.553
        84 -10.4573     88.1164    134.0517   1.2209857818e+02   3.7554088926e+01    0.4484091     0.303258  -6.33  0.001831507    2.964    0.663
        85 -10.8163     47.6161    134.8813   1.3323386585e+02   4.2928340825e+01     0.382971    0.1977543 -55.06  0.001182951    1.817    0.450
        86 -10.8336     67.3060    134.6594   1.2786411035e+02   4.0518893715e+01    0.2116281    0.1347999  42.47  0.001077082    1.629    0.386
        87 -11.0956     81.6309    135.3561   1.2409969708e+02   3.8270813207e+01    0.5520176    0.3955948   0.80  0.002463632    2.350    0.575
        88  -9.3473    108.7173    145.9554   1.1900908416e+02   3.1246197031e+01    0.1980364    0.1792801 -82.02 0.0001765839    1.067    0.063
        89 -10.1030     14.2930    133.3562   1.4183408793e+02   4.6445977240e+01     0.267869    0.1617097  77.55  0.001565029    1.587    0.370
        90  -9.9482     62.3507    131.9779   1.2876723307e+02   4.1818281763e+01    0.4101428    0.1750228 -52.54  0.001737788    2.231    0.552
        91 -11.4544     78.6618    128.4277   1.2360712921e+02   4.0362704428e+01    0.7273212    0.4318342 -20.31  0.002541956    4.122    0.757
        92 -11.2628     55.8109    123.2950   1.2912322134e+02   4.4709511386e+01    0.6456783    0.3668021  28.27  0.002756012    2.104    0.525
        93 -10.4352     45.7305    120.5437   1.3155537243e+02   4.6530781370e+01    0.3245756    0.2310029  88.03  0.001202097    1.438    0.305
        94 -11.0897      2.7345    123.2064   1.4383387817e+02   4.9566856623e+01    0.3813167     0.290048 -58.32   0.00267244    1.316    0.240
        95  -9.5149     18.8563    124.2890   1.3963100527e+02   4.8175423312e+01    0.2408499    0.1373363 -66.74  0.000757627    1.419    0.295
        96 -11.8674    104.9347    121.0513   1.1474280612e+02   3.7675355575e+01    0.5534185    0.5026174 -68.30  0.002085621    1.065    0.061
        97  -9.2469    221.2142    120.4473   8.8206897550e+01   1.2241754232e+01    0.1918314     0.143888  66.58 0.0004941949    1.604    0.377
        98  -9.3277    148.3810    119.7927   1.0315500254e+02   2.8976179999e+01    0.2211626    0.1474585 -33.67 0.0004306938    1.670    0.401
        99  -9.3996     72.3649    120.0546   1.2375342113e+02   4.3276854684e+01    0.2192002    0.1972564   6.69 0.0008706636    1.362    0.266
       100 -11.6073     34.3932    118.9997   1.3457813766e+02   4.8056378426e+01     1.463543    0.2701077 -53.19  0.004706626    4.414    0.773
       101 -10.6030     44.6046     85.3929   1.2508612216e+02   5.4850371799e+01     0.339357    0.2645366 -39.08  0.001108335    1.249    0.200
       102 -12.0760     37.3913     86.0743   1.2772407611e+02   5.5428269204e+01    0.8127789    0.6293823  63.37  0.003720033    1.569    0.363
       103 -11.5923     23.9064     99.4064   1.3468999121e+02   5.3545026347e+01    0.6801457    0.2733261 -68.78   0.00314887    2.078    0.519
       104 -11.5126     33.8125     93.7993   1.3050076998e+02   5.3995331150e+01     1.237065    0.6061023 -69.52  0.005980418    1.884    0.469
       105 -11.8880      9.9456     97.6676   1.3880554080e+02   5.4930570392e+01    0.8959227     0.549877  54.09  0.005339321    1.915    0.478
       106 -12.2188      7.4589     88.8854   1.3833224548e+02   5.7068222714e+01    0.5464554    0.4161326 -70.84 0.0008096998    1.049    0.046
       107 -12.6538     24.4632    109.2797   1.3604769443e+02   5.1210760129e+01     1.597842    0.7713624 -32.00  0.007010553    3.308    0.698
       108 -11.3839     28.5269    113.0053   1.3539383979e+02   4.9998215552e+01    0.3372386     0.291793 -13.26  0.001158947    1.486    0.327
       109 -12.1006     18.8788    106.1370   1.3726662483e+02   5.2375985942e+01    0.3253222     0.217984 -53.78  0.000271796    1.356    0.262
       110 -11.8387     18.9407     95.9357   1.3570851591e+02   5.4720391706e+01    0.3588449    0.2651356 -58.76 0.0004790627    1.140    0.123
       111 -12.0074     18.4381     90.5276   1.3498490596e+02   5.5992074969e+01    0.4355505    0.3402383  83.33 0.0007806219    1.361    0.265
       112  -9.3329     81.4981    117.8821   1.2066173463e+02   4.2419893943e+01     0.212941    0.1312127 -55.88   0.00043568    1.508    0.337
       113 -10.3149    113.9420    115.9835   1.1107171139e+02   3.7114458187e+01    0.2386874    0.2168999  45.57 0.0003669951    1.125    0.111
       114  -9.5378     87.6593    114.4635   1.1812351636e+02   4.2232540386e+01    0.2589974    0.1960836  63.43  0.001307801    1.485    0.327
       115 -10.6364     67.1796    112.2478   1.2369468587e+02   4.5854134146e+01    0.5275347    0.3029404 -69.04  0.002442608    1.791    0.442
       116 -11.7182      2.7784    112.2869   1.4271513526e+02   5.2038822399e+01    0.4342442    0.2962838  53.82   0.00208353    1.608    0.378
       117 -10.6767      5.9573    108.5378   1.4139092500e+02   5.2699805012e+01    0.2113723    0.1949949 -58.16 0.0005701484    1.246    0.198
       118 -11.8434      3.0563    104.8885   1.4180802775e+02   5.3700299979e+01    0.3428004    0.3066505 -39.39 0.0007979182    1.342    0.255
       119  -9.1423    126.8347    114.1583   1.0716354710e+02   3.4893318426e+01    0.2096519    0.1869903  -0.15  0.000778078    1.317    0.241
       120 -10.6734    107.7015    112.3732   1.1190709612e+02   3.9143471816e+01    0.5228038    0.3486697 -85.99  0.001712786    2.341    0.573
       121 -10.9780    103.4504    108.4194   1.1212380707e+02   4.0845693185e+01    0.6495773    0.5132533 -10.38  0.003143625    1.694    0.410
       122 -10.8606    170.5063    110.1031   9.5542971395e+01   2.5837908986e+01    0.5292894    0.4407016  34.73  0.001988274    1.263    0.208
       123 -10.2066    175.3324    107.3167   9.3763441160e+01   2.5231793107e+01    0.2714309    0.2264695  17.72 0.0009577097    1.397    0.284
       124  -9.7903     49.0092    112.2041   1.2915367714e+02   4.8139669349e+01    0.2352684     0.175667 -69.97  0.001189006    1.181    0.153
       125  -9.2344     81.9288    102.8375   1.1710252846e+02   4.5863483180e+01    0.2208065    0.2022738 -58.03 0.0005824535    1.015    0.015
       126 -11.4142     86.3652    105.3985   1.1638173236e+02   4.4551932483e+01    0.5145206     0.399305  14.41  0.001848796    1.639    0.390
       127  -9.9951     83.0320    111.0141   1.1869628524e+02   4.3789297769e+01    0.3376275    0.2356869  51.38  0.001680202    1.550    0.355
       128 -10.8296     78.5742    108.1392   1.1937075043e+02   4.5159214098e+01    0.4553111    0.3637528  13.34  0.001484255    1.572    0.364
       129  -9.5804    130.4427    108.2518   1.0468760170e+02   3.5412577777e+01    0.3038976    0.1498872 -41.29  0.001141006    2.091    0.522
       130 -10.0636    119.7122    109.0260   1.0774865205e+02   3.7510883174e+01    0.2222543    0.1974368 -53.34 0.0006570946    1.109    0.099
       131  -9.3365    150.3014    108.6564   9.9808943590e+01   3.0871593745e+01    0.1617014    0.1246382 -80.96 0.0007038256    1.679    0.404
       132 -10.5212    157.6917    105.6112   9.7243908017e+01   2.9768222705e+01    0.3245161    0.2917248  -6.59 0.0009301112    1.244    0.196
       133 -10.3332    143.5966    105.6890   1.0065146877e+02   3.3028353841e+01    0.3738568    0.3306743   2.91  0.001341933    1.309    0.236
       134 -11.3153    146.5722     99.8752   9.8325998096e+01   3.3542936262e+01    0.5124394    0.4350359 -15.56  0.002503278    1.350    0.259
       135 -10.7614     48.1008    103.1736   1.2772407383e+02   5.0366735656e+01    0.3493036    0.2191617 -42.34 0.0003580138    1.654    0.395
       136 -10.0817     52.3412     96.9523   1.2508170718e+02   5.1331621386e+01    0.6370394    0.1378684 -52.02  0.002080167    3.603    0.722
       137 -10.3487     57.6331     97.7616   1.2354903058e+02   5.0501757163e+01    0.3965962    0.2393741 -62.75  0.001494005    1.526    0.344
       138 -11.1696     67.5655     97.1514   1.2022018156e+02   4.9326824669e+01    0.6378236    0.3533598 -52.58   0.00173705    1.613    0.380
       139  -9.3709    136.9081    100.3208   1.0086664460e+02   3.5669643770e+01    0.3292179    0.1834409  26.74  0.001115455    2.940    0.660
       140 -10.1737    142.7450    249.4475   1.2717229460e+02   5.4864449690e+00    0.2369797   0.08933216  44.40  0.000963286    2.036    0.509
       141 -10.3868     78.0327     97.0017   1.1686652524e+02   4.7816188639e+01    0.4133507    0.1887302 -55.34            0    2.067    0.516
       142 -10.8142     94.0669     76.0203   1.0586865056e+02   4.9662473737e+01    0.5732375    0.3663695  26.99  0.001338318    1.881    0.468
       143 -11.3277     81.9649     93.0692   1.1461583651e+02   4.8083305266e+01    0.6591225    0.4328487  57.95  0.002163233    1.916    0.478
       144 -11.2915     90.0576     89.0646   1.1098735368e+02   4.7608510889e+01    0.8750096    0.5078822 -25.73  0.003424733    2.620    0.618
       145 -12.0684     74.3118     50.1539   1.0373860639e+02   5.8158352302e+01     1.111801    0.7003577 -52.79  0.005461688    1.852    0.460
       146 -11.7128     85.2559     73.3546   1.0787052065e+02   5.1795066466e+01    0.6440549    0.5793244 -39.50  0.003700491    1.051    0.049
       147 -11.6123     78.7549     67.1875   1.0808258844e+02   5.4156049991e+01    0.7603447    0.6001594  89.69  0.003699345    1.884    0.469
       148 -11.4427     79.8408     82.6233   1.1242666270e+02   5.0738506178e+01    0.5995423    0.5304905  75.99  0.002642869    1.336    0.251
       149 -12.3142     70.0924     79.8737   1.1489491754e+02   5.2845299798e+01     1.143703    0.7750421   6.64  0.005487442    2.081    0.519
       150  -9.9554    210.6483     98.4048   8.4598369031e+01   1.8422045361e+01    0.2846089    0.2653809  10.03 0.0008515097    1.150    0.131
       151  -9.4638    140.5487     96.2321   9.8797654002e+01   3.5684452463e+01    0.2346034    0.2166659 -55.03  0.001200547    1.094    0.086
       152  -9.7169    138.1064     93.4379   9.8618176019e+01   3.6817427942e+01    0.4113457    0.2583504  24.06  0.001568023    2.370    0.578
       153  -8.5761     47.3168     96.2931   1.2657484810e+02   5.2056922838e+01    0.1325844   0.09138351 -35.25 0.0007010279    1.602    0.376
       154 -10.8898    125.2565     93.5660   1.0202286200e+02   3.9673259388e+01    0.5784315    0.3311143  43.27  0.001764288    1.781    0.438
       155 -10.1221    117.1676     92.9373   1.0406583139e+02   4.1536481534e+01    0.4316792    0.2485514  40.87  0.001160073    1.806    0.446
       156 -11.0588    122.2359     89.1034   1.0154975318e+02   4.1260179579e+01    0.4941387    0.3196087  23.07  0.001998727    2.186    0.543
       157 -10.5634    121.2790     85.3677   1.0070398498e+02   4.2236365325e+01    0.5617541    0.2497492  50.49  0.002044973    2.368    0.578
       158 -10.4994    101.6311     90.8107   1.0795000721e+02   4.5107941044e+01    0.5205456    0.4041215  61.44  0.002096366    1.487    0.328
       159  -9.7868    105.0000     88.0000   1.0614059110e+02   4.5059991737e+01    0.3434477    0.2064492  51.52  0.001392972    1.829    0.453
       160 -10.5367    152.7708     92.1846   9.4666163224e+01   3.3614820314e+01    0.3347959    0.3113474  37.19  0.001569491    1.097    0.088
       161 -10.3286     47.5995     89.7372   1.2505499907e+02   5.3535267215e+01    0.3633303    0.1704552 -63.12  0.001638581    1.973    0.493
       162  -9.9788    183.7157     87.1521   8.6568590094e+01   2.6939207864e+01    0.4014392     0.260986 -52.69  0.001726879    1.673    0.402
       163 -10.0596    103.9466     76.3700   1.0293399985e+02   4.7686260529e+01    0.6855927    0.3169033 -33.35  0.002489123    2.606    0.616
       164 -11.2022    113.6163     83.2360   1.0221445673e+02   4.4308509096e+01    0.7758252    0.3683932 -37.49  0.002591583    2.227    0.551
       165 -10.9669    108.5168     80.5478   1.0287319781e+02   4.5913834339e+01    0.4820189    0.3662015 -51.30  0.001542238    1.342    0.255
       166  -9.1596     67.5949     88.1623   1.1797701804e+02   5.1370166415e+01    0.2082846    0.1128563 -44.30 0.0009426491    1.749    0.428
       167  -9.5692    212.2050     87.0969   8.1420479998e+01   1.9967222804e+01    0.2210798    0.1999986   2.06 0.0004427053    1.238    0.192
       168 -10.5395    165.6123     83.0420   8.9123068270e+01   3.2200515204e+01    0.4883207    0.3625018 -53.92  0.001667111    1.442    0.306
       169 -11.3283    143.4944     83.3762   9.4315468291e+01   3.7550656688e+01    0.4950925    0.3821453 -26.62  0.001564557    1.409    0.290
       170 -10.4324    127.4856     83.3929   9.8422680478e+01   4.1262499601e+01    0.3830556    0.2648773  46.54  0.001495393    1.451    0.311
       171 -11.7137     53.0713     76.6518   1.1993686752e+02   5.5836897980e+01    0.7876626    0.3485112 -55.93  0.003481631    2.020    0.505
       172 -11.1433     58.1374     78.0815   1.1852896402e+02   5.4889711071e+01    0.4239497    0.3557096  85.02  0.001300583    1.484    0.326
       173 -10.2823    120.5660     80.0560   9.9283587599e+01   4.3463407259e+01    0.4722935    0.2261187  47.52  0.001814941    2.109    0.526
       174 -10.7409     24.4178     85.9081   1.3214631491e+02   5.6596288649e+01    0.5001554    0.3948432  47.51   0.00304621    1.507    0.336
       175 -12.0799     23.9703     55.9784   1.2548982934e+02   6.3167738751e+01     1.555728    0.6005767  22.40  0.007341355    3.048    0.672
       176 -10.1061     52.0968     47.3554   1.1117772463e+02   6.1965343747e+01    0.3788058    0.2257321 -42.66  0.002024644    1.480    0.325
       177 -12.8906     42.8126     46.3940   1.1464407606e+02   6.3278766984e+01    0.6377751     0.521455  75.28   0.00101355    1.948    0.487
       178 -11.2070     32.2504     41.9924   1.1764079038e+02   6.5236176821e+01    0.5047425     0.413575  78.09  0.002485038    1.957    0.489
       179 -11.2707     27.8637     47.0703   1.2123466345e+02   6.4654217178e+01    0.4138322    0.2325402 -10.96  0.002127961    2.374    0.579
       180 -10.4936     20.8890     46.7418   1.2416485458e+02   6.5292421746e+01    0.3610815    0.1866345 -46.07   0.00118655    1.521    0.342
       181 -11.8726     13.8577     74.5042   1.3368150199e+02   5.9894931973e+01    0.4603181    0.3849399 -70.83  0.002729296    1.124    0.110
       182 -12.0303     48.8641     60.1118   1.1673064634e+02   5.9854956408e+01    0.8017223    0.6258743  76.46  0.004511953    1.953    0.488
       183 -11.5514     39.8396     55.5975   1.1889824534e+02   6.1786747880e+01    0.5207518    0.3825698  54.84  0.002783674    1.926    0.481
       184 -12.0613      2.0669     70.8844   1.3730906244e+02   6.1342505831e+01    0.6997824    0.1590396 -66.48  0.002502926    3.019    0.669
       185 -12.2983     13.0050     64.9818   1.3205976894e+02   6.2026483598e+01    0.5125508    0.2853898 -78.51  0.001628999    1.985    0.496
       186 -11.7714      6.5873     62.3301   1.3399352471e+02   6.2963758915e+01    0.5659992    0.2363816 -51.23  0.002721947    1.787    0.440
       187  -9.5168      5.0152     78.0561   1.3746379620e+02   5.9620092011e+01    0.1827704    0.1392493 -64.75 0.0006295552    1.019    0.019
       188  -9.1058    134.9712     77.1917   9.4560225608e+01   4.0751681489e+01    0.2545147    0.1821788  83.63  0.001069069    2.015    0.504
       189  -8.8126     46.6558     77.2903   1.2239931107e+02   5.6440890750e+01    0.1254747   0.09888924  75.76 0.0007025719    1.655    0.396
       190  -9.4403    192.1906     65.4158   7.8912065893e+01   2.8469038921e+01    0.2698224     0.202602 -48.89 0.0009485857    1.328    0.247
       191 -10.3905    183.9938     75.0019   8.3099466061e+01   2.8983469435e+01    0.3886965    0.2761114  59.96  0.001209751    1.410    0.291
       192 -11.9339    187.0914     69.8927   8.1075095925e+01   2.9047086692e+01     0.800832      0.59927 -54.66  0.003194187    1.394    0.283
       193 -11.1592     33.0214     71.8109   1.2602137721e+02   5.9020204292e+01    0.5455155    0.2643846  30.22  0.002763156    2.358    0.576
       194 -10.3186     38.6888     73.6735   1.2438110247e+02   5.8074283221e+01    0.1991848    0.1595245 -33.02 0.0008540198    1.223    0.182
       195 -11.1895     40.5680     70.4656   1.2286119787e+02   5.8584648245e+01    0.3810916     0.313624 -75.02  0.001697287    1.342    0.255
       196  -9.0432     24.1999     73.4670   1.2967981372e+02   5.9397237746e+01    0.2990185    0.2020584 -87.36  0.001053937    1.793    0.442
       197  -9.0941     20.2279     71.5735   1.3074028495e+02   6.0110311491e+01    0.1562368    0.1099181 -12.46 0.0009539782    1.715    0.417
       198  -8.8754    151.3168     73.3494   8.9405393878e+01   3.7515423787e+01    0.1621865    0.1223022  14.95 0.0007047686    1.731    0.422
       199  -9.2968     46.5238     72.5791   1.2121561379e+02   5.7488208506e+01    0.2447625    0.1201738 -67.80      0.00103    2.571    0.611
       200 -11.8789    122.7012     68.1254   9.4893903592e+01   4.5279696037e+01    0.7253751    0.4884902  45.07  0.003350633    1.478    0.323
       201  -9.2475     60.9209     72.6743   1.1602373384e+02   5.5694320549e+01    0.1827572    0.1187538  44.37  0.000775842    1.793    0.442
       202 -10.0939    161.8048     70.5217   8.6218970953e+01   3.5386829315e+01    0.3936164     0.275718  80.73  0.001696691    1.809    0.447
       203 -10.0478    207.8452     68.2526   7.7142211905e+01   2.4081233017e+01    0.4194773    0.1978237  47.57  0.001623752    2.320    0.569
       204 -10.6010    172.0724     67.8511   8.3310260824e+01   3.3225002288e+01    0.4551779    0.3411832 -57.39  0.002072456    1.451    0.311
       205  -9.9764    167.7258     63.0856   8.2736888695e+01   3.5124764567e+01    0.2576597    0.2125084  64.54  0.000692741    1.201    0.167
       206  -9.9302    112.4358     67.5651   9.7580218833e+01   4.7646757616e+01    0.5147251    0.2907078  68.20  0.001817292    3.179    0.685
       207 -11.4480    219.4695     66.2756   7.4885271583e+01   2.1537984246e+01     0.648635    0.3741821  63.17  0.002264039    1.790    0.441
       208 -11.1798     58.3976     61.9446   1.1367880884e+02   5.8274483604e+01     0.590921     0.308061 -58.09  0.001869617    2.142    0.533
       209  -9.1864    213.2334    248.1977   1.1437837533e+02  -5.4441933709e+00    0.1936875     0.103228  12.10 0.0009459573    2.736    0.634
       210 -10.6393     60.7292     36.7213   1.0364349027e+02   6.2651039182e+01    0.3352372    0.1809301 -38.87   0.00107761    1.711    0.416
       211  -8.8059     69.7515     66.9583   1.1114218403e+02   5.5629694045e+01    0.1706029    0.1075218 -45.42 0.0002359729    1.448    0.309
       212 -10.1418     21.0471     65.0839   1.2896638823e+02   6.1461887789e+01    0.1813168    0.1743919 -14.36 0.0008846599    1.223    0.183
       213  -9.6694    204.9357     63.1199   7.6206824219e+01   2.5602238028e+01    0.3405315    0.2215452  24.66  0.001414049    2.342    0.573
       214  -9.8716    198.0389     62.7707   7.7200503913e+01   2.7395820680e+01    0.3255698    0.2213399 -56.46  0.001020004    1.568    0.362
       215 -10.2492    106.2469     62.6071   9.7722794309e+01   4.9878423116e+01    0.3967184    0.3024165 -84.17  0.001848117    1.990    0.497
       216 -10.7749    159.4849     61.7776   8.4017057741e+01   3.7447953588e+01    0.4950175    0.3011522  41.03  0.002061759    1.784    0.439
       217 -10.2286     98.5858     62.2832   9.9945739552e+01   5.1496624122e+01    0.3055715    0.2497803 -13.24 0.0009153933    1.304    0.233
       218  -9.7914    174.6827    246.8118   1.2103327521e+02   7.5484460229e-01    0.2423795    0.1368227  26.28  0.001316608    1.886    0.470
       219  -9.9815    199.0473    244.5169   1.1633680897e+02  -2.8170422862e+00    0.1904678   0.09395585  39.94  0.001037917    1.613    0.380
       220 -12.9861    117.4970     43.0603   8.7560888358e+01   5.0682651674e+01     1.011676    0.7289224  77.76  0.003999331    1.881    0.468
       221 -12.7853    120.3407     38.9836   8.5316101297e+01   5.0620362103e+01    0.7661065    0.5652778 -76.57   0.00109506    1.972    0.493
       222  -9.5613    147.4370     60.6129   8.6274159350e+01   4.0683042026e+01    0.3736122    0.1512179  60.30  0.001248569    2.734    0.634
       223  -9.2834    228.4054     59.1745   7.1853493464e+01   2.0452088742e+01     0.225813     0.168999  78.31 0.0004893556    1.404    0.288
       224  -9.9234    133.5491     37.1780   8.1478398767e+01   4.7694003812e+01    0.4389251    0.3057121 -74.93  0.001971954    2.058    0.514
       225 -11.1200    127.4798    242.0464   1.2913689414e+02   9.0360444906e+00    0.3506405    0.2228247 -69.63  0.002101463    2.042    0.510
       226 -10.8384    139.4826     43.2422   8.2267133970e+01   4.5370853055e+01    0.7889594    0.4170141  26.64  0.002755678    3.134    0.681
       227 -11.2327    136.4527     55.8146   8.7259729473e+01   4.4184220225e+01    0.6734839    0.4856929 -22.06  0.002385796    1.529    0.346
       228 -11.8060    145.5874     48.1474   8.2585227746e+01   4.3118079458e+01     1.100435    0.5236969 -22.75  0.003799004    2.650    0.623
       229 -10.6845    157.4781     56.5333   8.2785356106e+01   3.8804355815e+01    0.4608836    0.2729584  49.98 0.0007650992    1.637    0.389
       230 -11.3511    156.5175     53.4614   8.2004900526e+01   3.9530059485e+01    0.7991588     0.442141 -43.57  0.003323739    1.884    0.469
       231  -9.8859      2.1178     56.1204   1.3448005104e+02   6.4503683189e+01    0.1930314    0.1420829 -52.59 0.0004998961    1.052    0.050
       232  -9.5302    187.7819     55.0084   7.6680021261e+01   3.1205931887e+01    0.2864491    0.1756134  49.46  0.001260917    1.667    0.400
       233  -9.8990     67.2325     55.0704   1.0808859355e+02   5.8369121175e+01    0.2259045    0.1981081  35.44 0.0007102769    1.264    0.209
       234  -8.9876    212.4421     54.2455   7.2715800491e+01   2.5049567256e+01    0.2101845    0.1244742 -44.59 0.0009477957    1.610    0.379
       235  -9.9846    249.2592     53.0340   6.7891127513e+01   1.6529135681e+01    0.3372721    0.2192319 -85.67   0.00134309    1.783    0.439
       236 -11.0122    240.0186     50.3765   6.8276927873e+01   1.8982191233e+01    0.4524827     0.431615 -86.77  0.002830844    1.123    0.110
       237  -9.9205    244.5105     50.5000   6.7808126883e+01   1.7940868637e+01    0.2561212    0.1884798 -41.12  0.001033315    1.228    0.186
       238 -11.1557    201.8572     47.6407   7.2420195423e+01   2.8658374024e+01    0.8383155    0.4682659 -42.70  0.003722921    1.728    0.421
       239 -11.0895    173.8339     48.1937   7.7045064551e+01   3.5833154581e+01    0.5972832    0.3928186  67.84   0.00197115    1.518    0.341
       240 -10.3805    176.7513     43.3072   7.5058067908e+01   3.5763517165e+01     0.462015    0.2794594 -57.44  0.001983629    1.927    0.481
       241 -10.8048    176.8155     37.1866   7.3192109825e+01   3.6572705533e+01    0.4387799    0.3286109 -35.90  0.001347865    1.374    0.272
       242 -10.7593    172.2016     33.4593   7.2794637977e+01   3.8262400799e+01    0.4007384    0.3090658  57.52  0.001581362    1.231    0.187
       243 -10.3083    175.9539     29.7941   7.1080183988e+01   3.7736392826e+01    0.3009224    0.2891639  -4.19  0.001109997    1.167    0.143
       244 -11.7197    182.2600     25.3752   6.8831207491e+01   3.6616413726e+01    0.7390019    0.3195553  52.37  0.002215484    2.241    0.554
       245  -9.4081    131.1985    240.7959   1.2830212847e+02   8.6434768597e+00    0.1625583    0.1297501  30.39  0.001073507    1.353    0.261
       246  -9.5751      3.4116     48.9362   1.3233763385e+02   6.5935767999e+01    0.1941216    0.1504128 -14.36  0.001398479    1.422    0.297
       247  -9.4837     13.9835     46.5290   1.2712741695e+02   6.5824239918e+01    0.3435016    0.1299525 -43.93  0.001702921    2.095    0.523
       248  -9.7927     17.9580     41.9139   1.2399985800e+02   6.6468843749e+01    0.2608259    0.1659622 -10.08  0.001591183    1.768    0.434
       249  -9.2438    193.1731     45.7571   7.3168267466e+01   3.1150852462e+01    0.2385542    0.1767317 -85.28  0.001161909    1.464    0.317
       250  -9.3575    132.3419     45.2800   8.4625229147e+01   4.6831977858e+01    0.2684084    0.1633981  43.77 0.0006081614    1.618    0.382
       251 -10.3814    100.4631     43.5566   9.2572069283e+01   5.4351534750e+01    0.4595824    0.3357076 -78.41  0.002105938    2.348    0.574
       252 -11.1868     93.8795     41.4138   9.3777943520e+01   5.6038797872e+01    0.5065024    0.3127831  44.98  0.001596528    1.604    0.377
       253 -11.6176    156.2078     41.8005   7.8293409427e+01   4.1322415198e+01    0.4386884    0.4013429  61.34 0.0008879749    1.039    0.038
       254 -11.0937    153.5087     36.3989   7.7037206876e+01   4.2751956741e+01    0.3682041    0.3027849 -66.06 0.0007447466    1.347    0.258
       255  -9.8275      4.4788     43.9379   1.3063457078e+02   6.6899999391e+01    0.3588431    0.1878842 -20.99 0.0008588466    2.153    0.535
       256  -8.9312    188.7785     42.0163   7.2757597370e+01   3.2804855452e+01    0.1867043    0.1193497 -32.05 0.0003507067    1.606    0.377
       257 -11.4139     70.1273     32.5279   9.8302069249e+01   6.1824735732e+01    0.5022622    0.2806295  35.68  0.000519681    1.809    0.447
       258 -11.0535     81.6780     39.4415   9.7017226388e+01   5.8699026580e+01     0.455158    0.3109401  44.86  0.001564311    1.528    0.346
       259 -10.8613     77.8028     34.3349   9.6285539152e+01   6.0205255231e+01    0.3658357    0.3276394  32.22  0.001182432    1.182    0.154
       260 -11.0250     82.2680     31.6740   9.3636925614e+01   5.9780398695e+01    0.4106162    0.3504321 -52.61  0.002417256    1.482    0.325
       261 -10.2187    231.5013     39.3752   6.6531654613e+01   2.2454544095e+01     0.318128    0.1926962 -51.84  0.001434634    1.548    0.354
       262  -9.3186    218.3197     38.9802   6.7939532683e+01   2.5700840331e+01     0.198706    0.1769605 -47.94  0.001149572    1.107    0.096
       263 -11.2060      5.1002     36.0941   1.2819133101e+02   6.8422722504e+01    0.3978822    0.2742904 -26.13  0.001650869    1.356    0.262
       264  99.0000      6.6206     30.8218   1.2583590693e+02   6.9350171134e+01    0.3894929    0.2092838   9.65   0.00197597    2.164    0.538
       265 -10.0839    206.7541     36.9377   6.8828227443e+01   2.8861309090e+01    0.2947069    0.2302561 -54.33 0.0008540433    1.229    0.187
       266  -9.3405    189.4756     38.0134   7.1495050569e+01   3.3159672407e+01    0.2121266    0.1444304 -29.13 0.0003839154    1.552    0.356
       267 -10.7593     22.3845     36.3750   1.2015312751e+02   6.7190953011e+01    0.3542082    0.2401235  40.74  0.001794854    1.991    0.498
       268 -10.1151    161.7808     43.4619   7.7764411700e+01   3.9646637612e+01    0.3788384    0.2327673  65.68  0.001679978    1.611    0.379
       269 -10.2226    150.5534    237.8161   1.2431328251e+02   5.9691865684e+00    0.2486895     0.124372 -54.30  0.001292098    2.588    0.614
       270  -9.5028    167.6762    237.6783   1.2109179339e+02   3.1687072315e+00    0.1215644   0.08621975  16.30 0.0006324732    1.680    0.405
       271 -11.6227    105.6514     33.0591   8.6982876920e+01   5.4792089558e+01    0.5894879    0.3546214   6.06   0.00114958    2.484    0.597
       272  -9.5768     15.3466    233.5810   1.4853832661e+02   2.5488365310e+01    0.1873203    0.1053589 -82.45  0.001211764    1.590    0.371
       273 -10.4510    190.0418     32.8644   6.9928133612e+01   3.3676320405e+01    0.3736796    0.3046096 -67.04  0.001214846    1.223    0.182
       274 -10.2351    189.5077     27.6282   6.8493894061e+01   3.4460406400e+01    0.4172909    0.3159043   2.82   0.00121581    1.745    0.427
       275 -10.1572    160.4973     33.0392   7.4645443910e+01   4.1374901211e+01    0.3117743    0.2698123  64.75 0.0007365693    1.083    0.077
       276 -10.2678    159.9866     28.9998   7.3424941039e+01   4.2009673195e+01    0.2914839    0.2538339   1.39 0.0007181022    1.310    0.237
       277 -11.2627    164.3736     27.5280   7.2210739030e+01   4.1042336058e+01    0.4442393    0.3344284 -81.46  0.001634947    1.468    0.319
       278 -10.5821    241.1223     31.0534   6.3533295941e+01   2.1264688384e+01    0.4045444    0.3143027 -20.41  0.002321747    1.513    0.339
       279 -10.1062    242.3951    231.6700   1.0681937691e+02  -7.8927895439e+00    0.2370133    0.1965712  45.11   0.00166054    1.633    0.388
       280 -10.6649     56.8856     30.7540   1.0269769836e+02   6.4201901150e+01    0.3715844    0.2470939  29.51  0.001351925    1.532    0.347
       281 -11.8469     47.7985     30.4900   1.0638985331e+02   6.5514896058e+01    0.6899299    0.2941864  29.87  0.003184933    2.605    0.616
       282  -9.2829    182.6911     31.9776   7.0725476490e+01   3.5703231673e+01    0.1976818    0.1829273 -57.31 0.0004102518    1.093    0.085
       283  -9.4947     36.0366     31.7120   1.1210716544e+02   6.6727353124e+01    0.2052291    0.1663489 -62.76  0.001301182    1.684    0.406
       284  -9.4096    203.4729     27.5101   6.6677980135e+01   3.0879108298e+01    0.2355262     0.203461  55.07 0.0001643844    1.234    0.189
       285 -10.9526    197.9288     28.7940   6.7720019315e+01   3.2142170624e+01    0.4325428    0.3361776  69.22  0.001724828    1.218    0.179
       286 -10.4250    199.7114     24.9741   6.6439717252e+01   3.2143360514e+01     0.316935    0.2706193 -23.31 0.0008074261    1.322    0.244
       287  -9.4808    100.0572     30.3623   8.7504675304e+01   5.6375572739e+01    0.2341614    0.1853081   1.33  0.001272087    1.305    0.234
       288 -10.6377    198.3845    231.7338   1.1456012706e+02  -1.0599752026e+00    0.3893945    0.1213722  38.55  0.001605614    2.685    0.628
       289  -9.4210    247.4783    231.4918   1.0594011303e+02  -8.6086636773e+00    0.1166639   0.08863612  14.30 -1.76034e-06    1.006    0.006
       290  -9.2498     23.2303    231.6017   1.4711622427e+02   2.5022824016e+01    0.1279255   0.09082178  41.50  0.000541379    1.560    0.359
       291  -9.2126    189.9905    229.9811   1.1583590885e+02   5.6118616037e-01    0.1897038    0.1306804  16.20 0.0004978862    1.575    0.365
       292  -9.3296    181.2981    228.3356   1.1720938736e+02   2.2484603996e+00    0.1242416   0.08817372  12.53 0.0004612544    1.653    0.395
       293  -8.9526    247.3985    227.1792   1.0523889478e+02  -8.1133765634e+00    0.1426301    0.1029177 -32.34 0.0008300951    1.650    0.394
       294  -8.8949    230.5585     30.5082   6.4444213521e+01   2.3812051398e+01    0.1378469    0.1173489 -66.29 3.547885e-05    1.037    0.036
       295  -9.4995    210.8190     30.0145   6.6476405091e+01   2.8713976808e+01    0.2238928    0.1679159 -63.26 0.0006137666    1.287    0.223
       296 -10.5459    157.3217     20.7975   7.1195538895e+01   4.3653992425e+01    0.7017834    0.2212156  53.21  0.002451868    2.734    0.634
       297 -10.7217    153.3866     25.8116   7.3533066269e+01   4.4103892408e+01    0.5386083    0.3043233  36.95   0.00203637    2.055    0.513
       298 -10.0302    156.9471     24.9836   7.2635434864e+01   4.3277473673e+01    0.2510887    0.2318698 -64.89 0.0004339566    1.132    0.117
       299  -9.3119    149.4817     19.4467   7.2077471647e+01   4.5829444806e+01    0.2193097    0.1417071 -25.12 0.0005331835    1.682    0.405
       300 -10.1579    143.9455     24.9913   7.5000545452e+01   4.6624628821e+01    0.5025604    0.2455414  74.37  0.001931753    2.493    0.599
       301 -10.0018    134.1243     24.8328   7.6913366366e+01   4.9118240891e+01     0.431096    0.2747711 -68.36   0.00182351    2.303    0.566
       302  -9.7087      9.1417    227.1981   1.4928149332e+02   2.7266927897e+01    0.1458015    0.1115848  73.58  0.000357404    1.165    0.142
       303  -9.4619    145.8601     16.4856   7.1698341909e+01   4.7073025799e+01    0.3209641    0.1835599  70.24  0.001463307    1.705    0.413
       304  -9.8177    234.5338    222.5185   1.0664038199e+02  -5.6403618922e+00    0.1211377   0.09574408  16.23 4.811253e-05    1.008    0.008
       305  -9.6012    250.5572     25.0627   6.1296677657e+01   1.9858238744e+01    0.1913504    0.1146027 -35.31 0.0004932098    1.556    0.357
       306 -11.0516    214.8489     23.5325   6.4326357061e+01   2.8489560795e+01    0.4254365    0.3555452 -15.86  0.001990333    1.435    0.303
       307  -9.7720     90.6467     48.1547   9.7396292586e+01   5.5572313606e+01    0.2412305    0.2193552  85.96 0.0007910015    1.426    0.299
       308  -9.9146      9.8782    217.6452   1.4871208108e+02   2.8972944117e+01    0.1688134    0.1155254 -88.07 0.0005825605    1.265    0.209
       309  -9.4220    166.1871    212.7977   1.1775545715e+02   7.2568545054e+00    0.2072079    0.1357198  76.16 0.0005036449    2.783    0.641
       310  -9.1534    152.5154    207.5353   1.1968505891e+02   1.0584475059e+01    0.1341334    0.1146388  45.17 0.0001549328    1.005    0.005
       311  -9.9489    238.7319    204.4436   1.0275640080e+02  -4.0210066572e+00    0.2395979    0.1412654 -42.53   0.00128741    2.130    0.531
       312 -10.1003      4.6189    204.5219   1.4900538162e+02   3.1992106327e+01    0.2101038    0.1026644 -79.34  0.001321905    1.717    0.418
       313 -10.9749    245.4987    200.8145   1.0093521458e+02  -4.6290638228e+00    0.2235872    0.1561964  31.50 0.0007675092    1.302    0.232
       314 -10.3597    234.5509    196.8807   1.0209640914e+02  -2.3283309642e+00    0.4129716    0.2646173  13.96  0.001656438    1.650    0.394
       315  -9.3654    223.1975     22.3722   6.3168304725e+01   2.6571893711e+01    0.1967404    0.1825147  80.76 0.0006960254    1.145    0.127
       316 -10.1368    220.7015     19.1176   6.2598638963e+01   2.7558857956e+01    0.2448831    0.2173489 -67.61 0.0004088388    1.047    0.045
       317  -9.7623     16.5732    192.4591   1.4608118361e+02   3.3298965667e+01      0.19368     0.142283  79.68 0.0003040938    1.019    0.019
       318 -10.1688     66.1732     21.8712   9.5109778214e+01   6.4055058753e+01    0.2075796    0.1612319  19.81 0.0004381542    1.196    0.164
       319 -12.3057      5.2159    185.2278   1.4786789977e+02   3.5823578219e+01    0.7197161    0.4038341  78.46  0.003647543    1.410    0.291
       320  -9.4187    169.0404    191.5437   1.1366034406e+02   1.0357026218e+01     0.212603    0.1229481  42.92 0.0005238182    1.541    0.351
       321  -9.4931     96.3332    185.6642   1.2848954517e+02   2.4554862731e+01    0.1446036   0.09142632  70.48 0.0007052138    1.738    0.425
       322  -9.6539    239.9909    184.7730   9.8846319786e+01  -1.5651907524e+00    0.1685064    0.0979364  39.25 0.0007638826    1.651    0.394
       323  -9.8759    213.2233    181.9516   1.0312000129e+02   3.6141968989e+00    0.2958676    0.1975581 -22.67  0.001539059    1.611    0.379
       324  -9.4025      1.9143     20.4837   1.2472428343e+02   7.1524918745e+01    0.1471137   0.09830417  -1.25  0.001023715    1.590    0.371
       325  -9.7063    250.3935    179.7545   9.6100904784e+01  -2.6134371687e+00    0.2454672    0.1105171 -35.84  0.001151505    2.171    0.539
       326  -9.2737    225.1383     16.7198   6.1577918218e+01   2.6752647340e+01    0.2190405    0.1493615 -79.74 0.0009243217    1.403    0.287
       327  -9.6227    191.4679     17.0314   6.5219938367e+01   3.5167327965e+01    0.2700109    0.1754228  54.94  0.001027277    1.522    0.343
       328  -8.9713    170.7875     17.5821   6.8097016225e+01   4.0490789322e+01    0.1886356     0.127365  84.01 0.0003602869    1.500    0.333
       329  -8.9876     57.4660    175.4300   1.3596549669e+02   3.2404584380e+01     0.127344     0.105391  79.08 0.0001473288    1.009    0.009
       330  -9.9452     52.2225    174.1259   1.3700806917e+02   3.3350064898e+01    0.2592521    0.1536561  85.17  0.001384947    1.672    0.402
       331 -10.0871    248.2290    173.6651   9.5251402324e+01  -1.4004981296e+00    0.3659307    0.1543844  31.15   0.00149989    2.844    0.648
       332  -9.9291     39.5273    173.0560   1.3974875395e+02   3.5070618667e+01    0.1868233    0.1031958 -74.53 0.0009248035    1.587    0.370
       333 -10.9283     35.3867    170.6478   1.4044333436e+02   3.6054214683e+01     0.337737    0.1812191  85.28  0.001729976    1.800    0.444
       334  -9.8940    218.7523     12.8525   6.1211007769e+01   2.8736323754e+01    0.3494288    0.1693156  64.83   0.00162494    1.931    0.482
       335  -9.6248      8.9141    155.8692   1.4513249877e+02   4.1800530934e+01    0.2251225    0.1533128  53.08  0.001046802    1.438    0.305
       336 -10.0084     80.7730     19.3706   8.8803333743e+01   6.1734608929e+01    0.2907334    0.2027054  41.29  0.001089672    1.357    0.263
       337 -11.2249      9.3313    166.5898   1.4583297405e+02   3.9421054283e+01    0.4771232    0.2879812 -77.49  0.002265481    1.354    0.261
       338 -11.4712     13.7383    157.7721   1.4419045663e+02   4.0983300127e+01    0.5289844    0.1763659 -73.37  0.001000893    2.377    0.579
       339  -9.0732    197.9995    167.7704   1.0321177130e+02   8.8863267996e+00    0.1966384    0.1755456  28.15 0.0005126118    1.044    0.042
       340  -8.7584    149.3045    168.6645   1.1370782070e+02   1.8531694706e+01    0.1474289     0.112388  80.30 0.0006218465    1.667    0.400
       341  -9.2828     40.1648    166.2354   1.3892596538e+02   3.6518181370e+01    0.1984066    0.1150916 -39.36  0.000955877    2.852    0.649
       342 -10.0516     18.8833    165.2361   1.4364335986e+02   3.8882862837e+01    0.2213851    0.2149137 -63.98   0.00140018    1.418    0.295
       343  -9.9636    205.1388    163.2066   1.0086177721e+02   8.2453097496e+00    0.2402261    0.2145924  14.81 0.0006094081    1.056    0.053
       344  -9.2566    188.7867    164.1712   1.0432055545e+02   1.1382916104e+01    0.2012283    0.1657075   4.61 0.0007420231    1.342    0.255
       345 -10.0230     28.2152    163.3198   1.4137858915e+02   3.8421642041e+01    0.2179247    0.1480389 -86.08  0.001178399    1.210    0.173
       346 -10.4287     81.0276    159.9048   1.2836311318e+02   3.2637580720e+01     0.391785    0.2973367  34.94  0.002172915    1.466    0.318
       347  -8.8371    208.2844    160.6440   9.9713098315e+01   8.0526251643e+00     0.136374    0.1140004 -74.43 0.0003628379    1.669    0.401
       348 -10.5122    246.8578    158.5559   9.2378680588e+01   1.0304645503e+00    0.2705215    0.1623299 -45.91  0.001332801    1.956    0.489
       349 -10.7600    106.0480     20.7934   8.1947573442e+01   5.6265711361e+01    0.3680916    0.2217615 -25.51  0.001301378    1.721    0.419
       350 -10.7581    104.8099    153.9360   1.2148571448e+02   3.0124626016e+01    0.5076299    0.2959092 -65.89  0.002281408    1.845    0.458
       351  -9.2890    224.1861    156.6260   9.5891060873e+01   5.5748647794e+00    0.1994504    0.1211935  34.37  0.000591246    1.684    0.406
       352 -10.6843     31.3860    153.9788   1.3972131634e+02   4.0213951887e+01    0.3764157    0.2347607  68.25  0.002183984    1.532    0.347
       353 -10.6075     30.4578    148.9804   1.3941838105e+02   4.1447919222e+01    0.3274632    0.2024376  62.57 0.0008593033    1.583    0.368
       354 -10.4723     71.3505    151.6412   1.2952472805e+02   3.5960147948e+01    0.3155178    0.2635741  56.29  0.001761658    1.180    0.152
       355  -8.9775    140.9880    154.0000   1.1271967311e+02   2.3240120945e+01     0.241893   0.08167834  43.42 0.0003591879    2.832    0.647
       356 -10.7941     10.7569    127.1328   1.4211335199e+02   4.8133091374e+01    0.6159053    0.1350466 -63.16  0.002485509    3.076    0.675
       357 -11.2070     13.0939    139.5028   1.4274129814e+02   4.5138189803e+01    0.6101346     0.281091  70.87  0.002984088    2.421    0.587
       358 -11.9288     22.7604    149.4600   1.4133869896e+02   4.2061275931e+01    0.5155134    0.3121742 -33.26  0.002714686    2.728    0.633
       359 -10.7442     15.9039    147.8557   1.4283333703e+02   4.3019790702e+01    0.3545355    0.2202335  55.75   0.00140484    1.569    0.363
       360 -10.8770      2.2474    141.3278   1.4554061293e+02   4.5525151510e+01     0.325154    0.2809393  54.15  0.002474593    1.330    0.248
       361 -11.5229      3.8327    136.5517   1.4476192899e+02   4.6484592605e+01      0.23239    0.1862773 -81.11 0.0004698028    1.093    0.085
       362 -11.8455      5.0109    147.6838   1.4539157852e+02   4.3913309788e+01    0.5396068    0.3550693 -69.76  0.002683515    1.321    0.243
       363 -10.0088      8.0146    144.2673   1.4440439801e+02   4.4452252459e+01    0.2095896    0.1453812  60.31 0.0007790332    1.389    0.280
       364 -11.6549     62.7638    149.8891   1.3144402996e+02   3.7540498589e+01    0.4922776    0.4393722  46.47  0.002412628    1.244    0.196
       365 -10.1102     47.9603    151.8377   1.3542808833e+02   3.8920286848e+01    0.3873436     0.191757  43.91  0.001194661    1.995    0.499
