#   1 NUMBER                 Running object number                                     
#   2 MAG_AUTO               Kron-like elliptical aperture magnitude                    [mag]
#   3 X_IMAGE                Object position along x                                    [pixel]
#   4 Y_IMAGE                Object position along y                                    [pixel]
#   5 X_WORLD                Barycenter position along world x axis                     [deg]
#   6 Y_WORLD                Barycenter position along world y axis                     [deg]
#   7 A_WORLD                Profile RMS along major axis (world units)                 [deg]
#   8 B_WORLD                Profile RMS along minor axis (world units)                 [deg]
#   9 THETA_WORLD            Position angle (CCW/world-x)                               [deg]
#  10 FWHM_WORLD             FWHM assuming a gaussian core                              [deg]
#  11 ELONGATION             A_IMAGE/B_IMAGE                                           
#  12 ELLIPTICITY            1 - B_IMAGE/A_IMAGE                                       
         1 -15.0455     93.8797    164.8842   1.1104743113e+02   2.9717947623e+01     2.551816    0.9086247 -59.30   0.01075183    2.888    0.654
         2 -10.0627    119.1206     19.2436   6.5084469836e+01   5.3180824082e+01      0.52776    0.2377761 -21.89  0.002076312    2.365    0.577
         3 -10.3031    142.9569     18.1054   5.9522103314e+01   4.7359608223e+01    0.5323514    0.3308312  45.48  0.002453806    1.550    0.355
         4 -10.3788    172.0106     13.0121   5.2895549229e+01   4.0230716215e+01     0.354089    0.3313394  59.24  0.001807786    1.029    0.028
         5 -11.3187    166.3024      5.3793   5.1102422765e+01   4.2502449361e+01    0.6755517     0.570029  36.02  0.003712858    1.212    0.175
         6  -9.5077      5.3190      8.5179   1.0561313565e+02   7.3057444502e+01    0.2695598    0.1279152 -29.87  0.001509302    2.054    0.513
         7  -9.8950     79.0924      4.8780   6.9667844286e+01   6.3697245669e+01    0.3063011    0.2321289  -8.87    0.0017814    1.227    0.185
         8  -9.4079    235.3501      1.9147   4.2956519307e+01   2.4977786121e+01     0.384765    0.1711752 -86.11  0.001558082    2.757    0.637
         9  -9.8984    132.2958    238.4044   1.1235088038e+02   1.1442383432e+01    0.3099462    0.1138357  45.44  0.001609394    2.031    0.508
        10 -16.2827     62.2950    233.8018   1.2383219305e+02   2.1646935709e+01     2.618732     2.335211  46.74    0.0134142    1.476    0.323
        11 -11.5377    132.4807    218.7084   1.1016227377e+02   1.4229191304e+01    0.3349685    0.2616775  39.36  0.001854504    1.176    0.150
        12  -9.2825     14.5662    230.0626   1.3136759245e+02   2.7421590661e+01    0.2101583    0.1088662  43.04  0.001275284    1.652    0.395
        13 -11.2467    146.2887    221.7089   1.0803401505e+02   1.1624926600e+01    0.4055957    0.3360283  37.37  0.002933237    1.139    0.122
        14  -9.8779    219.9322    221.1847   9.5239372930e+01  -6.6405329265e-02    0.1894127     0.155004   2.47  0.001055016    1.235    0.190
        15 -10.7671    191.9156    218.0142   9.9492428951e+01   4.7542821803e+00     0.442812    0.3510156  36.64   0.00311161    1.073    0.068
        16 -10.0148    137.3144    237.0912   1.1135593759e+02   1.0873639545e+01    0.2332372    0.1318956  38.78  0.001261814    1.448    0.309
        17 -10.6342    210.3628    213.5601   9.5669138055e+01   2.2965877714e+00    0.5510116    0.1364467  46.18  0.002031934    3.851    0.740
        18 -10.4746    159.6498    210.8197   1.0421115738e+02   1.1016183572e+01    0.2703461    0.2212179  81.74  0.001795149    1.596    0.374
        19 -10.6186    143.9924    210.2386   1.0701202732e+02   1.3670763913e+01    0.2711504     0.192476  34.68  0.001715247    1.316    0.240
        20 -11.0014    153.5191    208.9059   1.0507515240e+02   1.2307644114e+01    0.2907041    0.2377853 -45.94  0.001767983    1.514    0.339
        21  -9.4582    108.8234    233.9309   1.1593975404e+02   1.5487506923e+01    0.3695785   0.09977661  45.54  0.001687064    2.703    0.630
        22  -9.6855    199.1319    207.8729   9.6716404400e+01   4.8210460493e+00    0.1783105    0.1534984  45.19  0.001018264    1.274    0.215
        23  -9.6114    152.3238    217.5604   1.0643300985e+02   1.1251115764e+01    0.2112272    0.1816655  12.39   0.00145038    1.387    0.279
        24  -9.5807    144.5251    200.9316   1.0566998561e+02   1.5014553437e+01    0.1578514     0.123641 -51.30  0.000411244    1.542    0.351
        25 -12.5875    124.8247    223.9574   1.1212949248e+02   1.4619611609e+01    0.8403154    0.5676102  66.89  0.003058579    1.562    0.360
        26  -9.3152    249.2434    198.4152   8.6794576329e+01  -2.2175189087e+00    0.1562453   0.09893137  43.63 0.0006584717    1.624    0.384
        27  -8.9683    233.4081    198.2185   8.9312890742e+01   3.1370989965e-01    0.1519944    0.1083499 -34.52 0.0009624056    1.715    0.417
        28 -10.8495    153.0540    197.0592   1.0349787437e+02   1.4178613786e+01    0.2999714    0.1890655  34.57  0.001686953    1.489    0.328
        29  -9.6755    200.9191    194.2542   9.4202565656e+01   6.2607389001e+00    0.3025837    0.1848962 -36.53   0.00166069    1.902    0.474
        30  -9.7172    171.4219    194.4276   9.9625081502e+01   1.1395753739e+01    0.1879184    0.1802055 -87.66  0.001244176    1.284    0.221
        31 -10.3632    110.1054    246.3855   1.1683820928e+02   1.3529548773e+01     0.288692    0.2220461  18.73  0.001865946    1.944    0.486
        32  -8.9529    177.4706    181.4877   9.6357268110e+01   1.2253653791e+01    0.1306224    0.1122984  36.39  0.000809772    1.016    0.016
        33 -12.2907    124.9401    166.8169   1.0457014856e+02   2.4260152721e+01    0.4611209    0.3965459 -40.82  0.001970384    1.380    0.275
        34 -12.8697    122.5175    153.6220   1.0290361617e+02   2.7229546432e+01    0.6677647     0.495219  -1.49  0.003280423    2.275    0.560
        35 -12.1370    114.3231    152.5878   1.0457661724e+02   2.8869658158e+01    0.3509524    0.3328627  10.92    0.0021959    1.272    0.214
        36 -12.1774    110.4641    163.6360   1.0721594948e+02   2.7328494715e+01    0.3060717    0.2842393  17.20  0.001368707    1.329    0.247
        37  -9.9174    114.0660    231.4625   1.1479737084e+02   1.5099255071e+01    0.1733967    0.1503339  80.85 0.0003205649    1.268    0.211
        38 -11.9440     57.3525    171.6873   1.1976061161e+02   3.3355278092e+01    0.3694417    0.2794617  -8.12  0.002153995    2.593    0.614
        39 -10.8462     24.9545    184.9590   1.2734118124e+02   3.4308357526e+01    0.2466688    0.1370116  67.30  0.001625071    1.467    0.318
        40 -10.2014     28.1816    182.3439   1.2655238646e+02   3.4487594911e+01    0.2509844    0.1516581 -77.76  0.001435516    1.495    0.331
        41 -12.1410    108.9897    148.0155   1.0502466155e+02   3.0709498201e+01    0.3912974    0.2909647  58.42  0.002175458    1.296    0.229
        42 -12.7824    123.1749    144.3790   1.0109009917e+02   2.8951668925e+01    0.5670355    0.4890901 -15.38   0.00321888    1.491    0.329
        43  -9.2353    139.3517    135.6704   9.5651404439e+01   2.7611686269e+01    0.1488936    0.1107066  81.16   0.00070475    1.771    0.435
        44 -13.9279     84.8100    177.9065   1.1465605636e+02   2.8493349169e+01     1.367331    0.6258938 -66.58  0.006824064    2.312    0.568
        45 -12.7366     56.9104    128.5838   1.1470961486e+02   4.2554161815e+01     0.673098    0.4657142 -49.90  0.003373255    1.587    0.370
        46 -11.8692    106.6917    131.2518   1.0253093632e+02   3.4608866693e+01    0.4921241     0.288645  74.45  0.001965382    2.839    0.648
        47 -14.6452     81.8174    146.4840   1.1117448192e+02   3.5319359292e+01      1.63258    0.9320955 -48.98  0.006854011    1.991    0.498
        48 -13.3654     97.4480    122.8963   1.0322797980e+02   3.7981492566e+01     0.891798    0.5290788  69.57  0.003818517    2.435    0.589
        49 -14.5494     76.7021    170.6169   1.1551945800e+02   3.1061561568e+01     1.200742     1.032624 -81.20  0.008247321    1.177    0.151
        50 -13.9890    116.6692    121.0691   9.7963311598e+01   3.4969995419e+01     1.074965    0.9096483  14.88  0.005301156    1.459    0.314
        51 -12.7730     74.1230    124.7356   1.0963474645e+02   4.1161084905e+01      0.52477    0.4195156   1.86  0.002957932    1.848    0.459
        52 -11.6118    106.8118    111.1282   9.8286193129e+01   3.8908016292e+01    0.4041502    0.2660355 -56.91  0.001963051    1.518    0.341
        53 -11.7002    243.4724    106.8691   6.8830585031e+01   1.0157310887e+01     0.897911    0.6330832 -24.20  0.004808839    1.309    0.236
        54  -9.6871    228.5234    111.4778   7.2270429070e+01   1.2641967360e+01    0.3305186    0.2415346 -31.35  0.001736707    1.319    0.242
        55  -9.0369    187.6789    118.3395   8.1303987392e+01   2.0528695334e+01    0.1475136    0.1182515 -76.79 0.0004233519    1.716    0.417
        56  -9.3014      2.0994    109.8074   1.2689317614e+02   5.1707760438e+01    0.4006453   0.05346509 -64.38  0.001507546    4.004    0.750
        57 -11.8720    160.8284    100.4877   8.2393252111e+01   2.9805439582e+01    0.6627381    0.4792514 -34.01  0.002663902    1.420    0.296
        58 -10.1885    181.2696    100.1977   7.7994060193e+01   2.5106992130e+01    0.3279611    0.2678923  13.46  0.001633743    1.369    0.270
        59 -10.2807     48.2512     99.4674   1.1243020865e+02   5.0127081761e+01    0.3614005    0.1736112 -49.57  0.001729376    2.028    0.507
        60 -11.1260    135.0581     97.9458   8.7759834327e+01   3.6049718710e+01    0.3322385    0.2535146 -73.95  0.001563067    1.668    0.400
        61 -10.2181     13.7690     96.1525   1.2218503719e+02   5.3963572583e+01    0.4354764    0.1956609 -60.55  0.002358401    1.795    0.443
        62 -10.7257     37.7069     98.2266   1.1536457279e+02   5.1505553566e+01    0.3058403    0.2867567 -38.70  0.002143472    1.266    0.210
        63 -10.4061    107.6823     94.6839   9.4055254362e+01   4.2277465193e+01     0.303919    0.2403781 -12.56  0.001513918    1.656    0.396
        64 -10.9190    210.9288     87.6555   6.9176588992e+01   2.0146399595e+01    0.9207274    0.3596276 -35.28  0.003385069    2.404    0.584
        65  -8.9189     27.3300     89.1774   1.1706287160e+02   5.4496378003e+01    0.2688031   0.07288239 -60.76  0.001104514    2.668    0.625
        66  -9.3984    241.4055     88.6619   6.4709514500e+01   1.3093944917e+01    0.2777057    0.1187495 -33.10  0.001132613    2.100    0.524
        67  -9.1581     43.1961     89.3482   1.1210522679e+02   5.2968764243e+01    0.1672996    0.1108876  44.14 0.0009487729    1.686    0.407
        68 -11.2817    129.2197     83.8459   8.5308504746e+01   4.0117767580e+01    0.4155907     0.382734  33.09  0.002098073    1.113    0.101
        69 -11.7953     84.4477     82.3372   9.7533916105e+01   4.9038668999e+01    0.5682422     0.470293  -0.45  0.002972443    1.513    0.339
        70  -9.9510     95.6148     81.5846   9.3964138677e+01   4.7287051827e+01    0.3576147    0.1319274 -53.08  0.001238288    2.870    0.652
        71 -10.1926    214.0114     70.1254   6.3949332602e+01   2.2013044086e+01    0.5520377    0.3530478 -44.12  0.002542997    1.589    0.371
        72 -10.8860      4.4758     66.5945   1.2104254578e+02   6.1102590258e+01    0.5469205    0.3112384 -78.55  0.003298053    1.497    0.332
        73 -10.6941    184.4079     64.1486   6.7205294038e+01   3.0282204672e+01    0.8178083    0.4385995 -22.04  0.003198555    2.118    0.528
        74 -11.7842    139.5725     64.1770   7.6645560934e+01   4.1439285419e+01    0.7323326     0.639918 -74.22  0.003324641    1.329    0.247
        75 -11.1460     87.0749     64.3370   9.1436085393e+01   5.2387818896e+01    0.4528359    0.4009027  38.17  0.002361864    1.210    0.174
        76  -9.0369    115.4099     62.1908   8.2253492659e+01   4.7277066960e+01    0.2125073    0.1351579 -48.92 0.0009430795    1.652    0.395
        77  -8.6602    159.3234     60.6868   7.1052496537e+01   3.7189944750e+01    0.1579057    0.1203292 -69.89  0.000448712    1.659    0.397
        78  -9.8183     20.4985     55.8775   1.1302505125e+02   6.2446474862e+01    0.3530131    0.1947208 -30.94  0.001908727    2.138    0.532
        79 -10.1945     95.5753     53.9356   8.5252740263e+01   5.2865303214e+01    0.4457042    0.3500857  -5.23  0.002308459    1.482    0.325
        80 -11.1678    199.5619     45.0588   5.8992797528e+01   2.9129664374e+01    0.8479396     0.505942 -30.01  0.003778341    1.630    0.387
        81  -9.3960    127.4272     50.2098   7.4913679114e+01   4.6698592096e+01    0.2202533     0.135318 -44.43 0.0009535229    1.701    0.412
        82  -8.9118     14.0083     48.8272   1.1397505288e+02   6.4416397184e+01    0.1906502   0.09278416 -49.88  0.001051158    1.630    0.386
        83  -9.1157    235.0463     46.4937   5.4690602719e+01   2.0127548278e+01    0.2347707    0.1802353 -28.47  0.001258227    1.225    0.184
        84 -11.4746     81.9062     43.1955   8.5764187880e+01   5.7382534349e+01    0.7111899    0.4246212 -29.34  0.003366534    1.724    0.420
        85 -10.5073     50.0284     42.2122   9.7235917992e+01   6.2407825301e+01    0.4808704    0.3150476 -32.42  0.002666005    1.471    0.320
        86 -10.8000    140.6000     38.2131   6.7465047119e+01   4.5365471238e+01    0.4956814     0.449435 -64.26  0.002433665    1.228    0.186
        87 -10.0231     40.3539     32.9742   9.7895117906e+01   6.5363398685e+01    0.4260496    0.1575601 -50.45  0.001867406    2.329    0.571
        88 -10.0888    172.7044     36.0562   6.0459559158e+01   3.7349910004e+01    0.3522785     0.321647 -31.46  0.001670582    1.107    0.097
        89 -10.3170    181.0576     25.9519   5.5835874026e+01   3.6389936562e+01     0.476765    0.3527407   7.55  0.002297143    1.611    0.379
        90 -10.1221    109.3741     24.4827   6.9736438725e+01   5.4778177205e+01    0.4664344    0.2525662  22.11  0.001781254    2.751    0.636
        91 -15.0945     37.4361    217.9054   1.2704849992e+02   2.7097678665e+01     2.211702     1.299541 -81.82   0.01604146    1.622    0.384
        92 -10.0847    144.2039    241.6561   1.1067159238e+02   9.2393618244e+00    0.2398241    0.2230427  14.00   0.00134089    1.372    0.271
        93  -9.9016     62.4097     19.1041   8.2720751935e+01   6.4770384465e+01    0.2885524     0.213817 -88.91  0.001357904    3.110    0.678
        94  -9.9714    203.4011     18.0889   5.0462329749e+01   3.1377616597e+01    0.3587141    0.2346589  21.08  0.001634586    2.004    0.501
        95  -9.3312    238.2146     16.1880   4.6404801587e+01   2.2863179268e+01    0.2352518    0.1259048  31.29 0.0009625453    2.887    0.654
        96  -9.9736    150.2367    238.9985   1.0936044089e+02   8.6757143808e+00    0.3146299      0.22279  33.67  0.002220324    1.282    0.220
        97  -9.1960    125.2351    242.8436   1.1398913287e+02   1.1871174284e+01    0.1670299    0.1513554  -4.00  0.001339637    1.617    0.381
        98 -12.4473    126.1178    203.2613   1.0948274812e+02   1.7647845301e+01    0.7202583    0.3166495  49.09  0.003576615    1.944    0.486
        99 -12.7882    134.4221    210.7411   1.0884975734e+02   1.5135144656e+01    0.6805235    0.4540102  56.67  0.004235902    1.379    0.275
