#   1 NUMBER                 Running object number                                     
#   2 MAG_AUTO               Kron-like elliptical aperture magnitude                    [mag]
#   3 X_IMAGE                Object position along x                                    [pixel]
#   4 Y_IMAGE                Object position along y                                    [pixel]
#   5 X_WORLD                Barycenter position along world x axis                     [deg]
#   6 Y_WORLD                Barycenter position along world y axis                     [deg]
#   7 A_WORLD                Profile RMS along major axis (world units)                 [deg]
#   8 B_WORLD                Profile RMS along minor axis (world units)                 [deg]
#   9 THETA_WORLD            Position angle (CCW/world-x)                               [deg]
#  10 FWHM_WORLD             FWHM assuming a gaussian core                              [deg]
#  11 ELONGATION             A_IMAGE/B_IMAGE                                           
#  12 ELLIPTICITY            1 - B_IMAGE/A_IMAGE                                       
         1 -11.8914    218.2023     15.3014   4.2440371831e+01   2.7470390905e+01    0.8005592     0.752596 -12.12  0.002696588    1.051    0.049
         2 -10.6715    210.8691     23.4962   4.5701958710e+01   2.8526888159e+01    0.5388783    0.3507789  30.34  0.001277238    1.773    0.436
         3 -12.0412    203.7137     31.4007   4.9010880814e+01   2.9517817240e+01    0.9739796    0.9192263 -32.28  0.004930583    1.035    0.033
         4 -11.4026    116.2707    229.2778   1.0600418603e+02   1.7435639287e+01    0.4700008    0.2510192  53.40  0.003215546    1.546    0.353
         5 -11.2283    126.8034    246.0862   1.0573658370e+02   1.4042708406e+01    0.3194785    0.2263499  58.62  0.002684647    1.339    0.253
         6 -11.2078    101.7836    250.1105   1.0992195620e+02   1.6719258753e+01    0.7836537    0.2032736  37.81  0.002788605    3.176    0.685
         7 -10.3550    119.8757    247.1596   1.0690092706e+02   1.4808712021e+01    0.2315616    0.2040884  43.22  0.002060144    1.318    0.241
         8 -11.1397    114.2697    246.4042   1.0771563740e+02   1.5607013947e+01    0.3575527    0.2912002 -54.72  0.003253257    1.791    0.442
         9 -11.0168     71.5048    244.5582   1.1428268130e+02   2.0980756003e+01    0.4668609    0.2512696 -81.55  0.003590425    2.265    0.558
        10 -10.7804     58.9933    243.6810   1.1618669958e+02   2.2487247445e+01    0.3924669    0.1608377  84.53   0.00238812    3.354    0.702
        11  -9.0793     53.0155    250.5753   1.1742064428e+02   2.2227041984e+01    0.1375168   0.06078365  42.99 0.0003535469    1.551    0.355
        12 -13.0477      2.7919     17.4312   1.0743685582e+02   7.2845012598e+01     14.32812          nan -68.68   0.01734384   33.059    0.970
        13 -11.6518     40.1057    209.9729   1.1763895279e+02   2.9382207587e+01    0.3721156    0.3264417  71.25  0.001327944    1.364    0.267
        14 -13.8668     49.7276    200.5688   1.1542089696e+02   2.9851709996e+01     3.234921     1.031487  60.67   0.01581657    3.135    0.681
        15  -9.4038    163.6805    239.4557   9.9385305225e+01   9.8470912896e+00    0.1379058   0.09483225 -40.82  0.001096222    2.058    0.514
        16 -14.2947      3.5769    180.9506   1.2305185699e+02   3.7660003438e+01     4.782959    0.7598706 -77.76   0.02034335    5.051    0.802
        17 -10.9332    107.7669    228.8064   1.0736816737e+02   1.8613291744e+01    0.5080112    0.1491084  38.86  0.002549629    2.693    0.629
        18 -11.4276     97.4792    226.0669   1.0885996672e+02   2.0302299885e+01     0.585058    0.2091304  44.18   0.00339652    1.959    0.490
        19 -10.1830     59.2960    229.7010   1.1542344518e+02   2.4365932472e+01    0.2747333    0.1163587 -81.61  0.001765949    2.837    0.647
        20 -11.1388    147.5018    229.6562   1.0094052616e+02   1.3138356035e+01    0.4410671    0.1985205  29.45   0.00236074    2.713    0.631
        21 -11.6565     84.1834    249.4191   1.1259442898e+02   1.8904588994e+01     0.801093    0.2783974  38.75   0.00489006    2.178    0.541
        22 -10.6303     52.9320    239.8144   1.1694948163e+02   2.3660232409e+01    0.2911106    0.1282647 -62.84  0.002024114    3.027    0.670
        23  -9.5056     59.3096    188.1306   1.1280616161e+02   3.0832229106e+01    0.2393293    0.1535058 -89.44  0.001680202    1.529    0.346
        24  -7.3405     73.7010    188.3226   1.1005608547e+02   2.9046813820e+01    0.1151385   0.06464498  64.05 0.0003470418    1.626    0.385
        25 -10.1832     65.8484    181.4680   1.1101143398e+02   3.1196741204e+01    0.2920577    0.2267589 -42.04   0.00181899    2.029    0.507
        26 -10.2060     70.6844    175.9189   1.0956118158e+02   3.1571098977e+01    0.2433992    0.2117887 -45.62 0.0009115287    1.661    0.398
        27  -8.2904    195.1807    168.6723   8.4614047066e+01   1.3035625134e+01    0.1866663     0.137115  50.31 0.0005999482    1.418    0.295
        28 -11.6510     68.4593    144.3760   1.0676859924e+02   3.7834881350e+01    0.7641994    0.4304613  68.31  0.003173291    1.862    0.463
        29 -11.1013     73.9311    154.8172   1.0673269659e+02   3.5056976433e+01    0.9181257    0.3447721  64.08  0.003087339    5.135    0.805
        30  -9.8605     79.8449    165.8190   1.0666715801e+02   3.2195378478e+01    0.2538964     0.212699 -69.47 0.0003800193    1.350    0.259
        31 -10.8605     85.8123    159.5759   1.0468835890e+02   3.2524660516e+01    0.5360593    0.4129225 -33.80  0.001960653    2.005    0.501
        32  -9.0094    139.2994    242.3014   1.0345846413e+02   1.2829552571e+01    0.0925035   0.06401895  25.73 0.0002584973    1.583    0.368
        33  -7.6156    161.3020    165.6330   9.0197797641e+01   1.9337727215e+01    0.1199305    0.0938417  77.11 0.0007034194    1.738    0.425
        34 -11.5777     67.3456    162.2590   1.0895665623e+02   3.4495145131e+01    0.3539279    0.2936628 -47.87  0.001048138    1.662    0.398
        35 -14.2237      8.4109    242.2018   1.2384978475e+02   2.7681203018e+01     1.558137      1.01221  72.02  0.005295888    1.247    0.198
        36 -10.1938     92.2366    234.6750   1.1036122873e+02   1.9815289488e+01    0.1861503    0.1380876  64.55  0.001584104    1.219    0.180
        37 -10.4938     88.1240    142.9828   1.0202946028e+02   3.5371740204e+01    0.2947499    0.2474529  13.02 0.0008987857    1.686    0.407
        38  -8.8077     99.7737    144.1980   9.9543758491e+01   3.3360960512e+01     0.160078    0.1525747 -13.49  0.001066469    1.371    0.271
        39  -8.8282     33.3229    138.8436   1.1449474892e+02   4.3023024238e+01    0.2272525   0.08985385 -85.65    0.0010839    2.532    0.605
        40 -10.4883     58.8082    132.4963   1.0765968000e+02   4.1507724701e+01     0.512614    0.1877599 -80.23  0.001906237    3.919    0.745
        41  -8.7554    110.7057    131.8856   9.5032947946e+01   3.3957387063e+01    0.2423766    0.1526345  28.48 0.0009758052    2.036    0.509
        42  -9.2698    148.0055    240.1975   1.0189989391e+02   1.1895403030e+01    0.1711515   0.08574583  54.51   0.00108575    2.039    0.510
        43  -8.5706    106.0053    130.9563   9.5969948393e+01   3.4933045215e+01    0.2104426    0.1890697  66.71  0.001324192    1.010    0.010
        44  -9.2544     97.9975    128.3320   9.7427913318e+01   3.6774590564e+01    0.2400807    0.2214748   0.84 0.0009266465    1.423    0.297
        45 -10.5982    135.7695    236.5714   1.0349373024e+02   1.3947658643e+01     0.266016    0.1156433  45.95  0.001682609    1.662    0.398
        46 -10.6762     49.7728    233.9205   1.1717495901e+02   2.4809827879e+01     0.232537    0.1543996 -70.32  0.001351507    1.918    0.479
        47  -7.8758    134.3320    120.3322   8.7358357123e+01   3.1862556317e+01    0.1381264    0.1092765   5.92 0.0007052161    1.726    0.421
        48  -7.8919    107.4403    120.4133   9.3700304615e+01   3.6794743460e+01    0.1311898    0.1229127  68.22 0.0002184049    1.048    0.046
        49 -11.4712    126.1463    229.6770   1.0441729068e+02   1.6064727564e+01    0.4487481    0.2953524 -73.53  0.003320281    2.198    0.545
        50  -8.3534    205.8538    109.9040   7.0740312835e+01   1.8731937260e+01    0.2201081    0.1713094  17.09 0.0007003169    1.276    0.216
        51  -9.2979     83.5249    232.8717   1.1165553804e+02   2.1116546143e+01    0.2473363    0.1316526  66.08  0.001726923    1.852    0.460
        52  -9.1126    240.2602     96.7571   6.2258613629e+01   1.3268833433e+01    0.2136512   0.08803274  42.98  0.000894751    2.418    0.587
        53  -8.4436    249.3464     88.3095   5.8989783777e+01   1.2398320616e+01    0.1417347   0.08953021  18.65 0.0007044778    1.705    0.413
        54  -8.7546     24.2708     82.5919   1.1100629956e+02   5.6319109286e+01    0.1444408    0.1211389  -0.47 0.0009237979    1.663    0.399
        55  -9.9933     13.1211     60.5575   1.1174057995e+02   6.2310647869e+01    0.3252174    0.1366246 -71.68 0.0009898773    1.846    0.458
        56 -13.4647     31.2957    221.1731   1.1962452691e+02   2.8561194542e+01     2.682341    0.7861198  88.90   0.01328071    4.465    0.776
        57  -9.4108    144.8042     49.6191   6.5088842224e+01   4.2415626206e+01    0.4439577    0.2919514 -76.72  0.001747636    2.384    0.581
        58 -11.6462     96.1076    245.9308   1.1052004279e+02   1.7914450822e+01    0.6231639     0.262379  37.06  0.003990455    1.972    0.493
        59 -10.4485    134.6709    243.0965   1.0425378730e+02   1.3352997801e+01    0.2092587    0.1089383  46.20  0.001064536    1.366    0.268
        60 -11.7689    196.1869     37.7423   5.2012546323e+01   3.0730304729e+01    0.8038386    0.6606254  65.49  0.002947344    1.286    0.223
        61 -11.1702     65.4256    241.3702   1.1506318261e+02   2.2083662924e+01    0.2936996    0.2539854  74.35   0.00137156    1.388    0.280
        62 -13.1401      8.9856    206.9686   1.2286816415e+02   3.2847771868e+01    0.8560616    0.7588265  84.85  0.004999529    1.505    0.336
