#   1 NUMBER                 Running object number                                     
#   2 MAG_AUTO               Kron-like elliptical aperture magnitude                    [mag]
#   3 X_IMAGE                Object position along x                                    [pixel]
#   4 Y_IMAGE                Object position along y                                    [pixel]
#   5 X_WORLD                Barycenter position along world x axis                     [deg]
#   6 Y_WORLD                Barycenter position along world y axis                     [deg]
#   7 A_WORLD                Profile RMS along major axis (world units)                 [deg]
#   8 B_WORLD                Profile RMS along minor axis (world units)                 [deg]
#   9 THETA_WORLD            Position angle (CCW/world-x)                               [deg]
#  10 FWHM_WORLD             FWHM assuming a gaussian core                              [deg]
#  11 ELONGATION             A_IMAGE/B_IMAGE                                           
#  12 ELLIPTICITY            1 - B_IMAGE/A_IMAGE                                       
         1 -10.1846    246.5600     13.4377   5.7976329380e+01   2.1582854445e+01     0.671938    0.2447807  56.51  0.002744266    2.754    0.637
         2 -10.2761    249.0056      5.6393   5.5740520340e+01   2.1743582089e+01    0.6421427    0.3185059 -21.55  0.003039965    1.865    0.464
         3 -10.6903    248.6932     31.9768   6.2689946397e+01   1.9230717748e+01    0.8807964    0.4696934 -30.97  0.004203984    1.629    0.386
         4  -9.9209    250.0440     18.9946   5.9139679932e+01   2.0249213389e+01    0.5859011    0.1812555 -25.65  0.002170398    2.688    0.628
         5 -10.0879    244.7147     22.3010   6.0497055137e+01   2.1140886168e+01    0.4614898    0.3953187  -8.03  0.001871937    1.158    0.136
         6 -10.7800    238.3434     18.4829   6.0062424326e+01   2.3011303677e+01    0.6808339    0.5440649  59.45  0.003703351    1.327    0.247
         7  -9.4365    231.7960      2.9187   5.6367051258e+01   2.6031500286e+01    0.3896249    0.2211057 -78.83  0.001500704    2.115    0.527
         8  -9.3263    232.9086     10.8744   5.8469580179e+01   2.5041576779e+01     0.312257    0.2187875   8.43 0.0008328484    1.650    0.394
         9 -10.0592    238.0562      8.5058   5.7372801126e+01   2.4031215328e+01    0.5557411    0.2527508 -55.79  0.002190883    2.580    0.612
        10  -9.6559    226.6265     17.7883   6.1013011250e+01   2.5901351583e+01    0.3975741    0.3288237 -51.34  0.002237975    1.215    0.177
        11  -8.9506    230.4128     15.2287   5.9915372772e+01   2.5229592963e+01     0.340277    0.1658342 -33.04  0.001513202    1.831    0.454
        12  -9.9722    221.4140     15.2344   6.0810347084e+01   2.7439355783e+01    0.5556246    0.3219482 -13.18  0.002554803    1.792    0.442
        13  -9.6733    199.8411     15.3828   6.3260086911e+01   3.2919280480e+01    0.3058599    0.2782742  47.67 0.0007695907    1.101    0.091
        14  -9.3531    193.3324     12.4714   6.3126041688e+01   3.4904581203e+01    0.5854132    0.1725101 -31.66  0.001985966    2.931    0.659
        15  -9.9195    212.9319      8.7554   5.9769859318e+01   3.0186552513e+01      0.54352    0.3185211 -30.16  0.002575033    1.602    0.376
        16  -9.9783    198.2351     10.1777   6.1804066907e+01   3.3840209547e+01    0.4139363    0.2293055  -1.97  0.001733731    2.154    0.536
        17 -10.0865    155.5126      9.5815   6.7528495157e+01   4.5198356476e+01    0.4268636    0.2569311  -7.62  0.001881974    1.783    0.439
        18  -9.0906    112.4749     11.4948   7.7185838895e+01   5.5807898897e+01    0.2388886    0.1603017  21.46  0.001140374    1.549    0.354
        19  -9.5059    111.6530      8.3231   7.5943762463e+01   5.6358521750e+01    0.2727847    0.1206321 -32.66   0.00109671    2.217    0.549
        20  -8.7287     84.5617     10.7358   8.4920943304e+01   6.1960501957e+01    0.2576803    0.1253972 -22.82   0.00111592    1.984    0.496
        21  -9.6431    223.1938      6.0470   5.7990139257e+01   2.7858601891e+01    0.4005994    0.2784418  42.80  0.001386852    1.547    0.354
        22  -8.6024    220.4998      3.4563   5.7490327163e+01   2.8757873664e+01    0.2542026    0.1564895 -32.19 0.0006021108    1.516    0.341
        23  -8.5142    139.8153      8.6344   6.9941190737e+01   4.9379908185e+01    0.2044964    0.1404829  78.51 0.0009426985    1.734    0.423
        24  -8.8517    103.5332      8.5041   7.8138215189e+01   5.8204393814e+01    0.1441574    0.1259973   9.58 0.0001164192    1.007    0.007
        25  -9.6222    206.1282      6.6774   5.9843244182e+01   3.2116014805e+01    0.3463307    0.1928715 -26.16  0.001579702    1.709    0.415
        26  -8.6296    171.2252      5.9072   6.3794035666e+01   4.1375016699e+01    0.3127104    0.1773559 -33.67  0.001210163    1.765    0.433
        27  -9.0311    132.1472      6.0433   7.0357709772e+01   5.1589627800e+01     0.370941    0.1641115  -0.63  0.001255208    3.197    0.687
        28  -9.7411    116.5822      6.7239   7.4022566805e+01   5.5361231882e+01     0.233222    0.1837057 -85.00 0.0008944563    1.746    0.427
        29  -9.2338    187.5459     10.0936   6.3070690407e+01   3.6655352780e+01    0.4165341    0.2923832 -65.94  0.001990086    1.670    0.401
        30  -9.7561     63.6474      2.3355   8.8042690290e+01   6.6967086411e+01    0.3331683    0.2258871   6.12  0.001038414    1.493    0.330
        31 -10.0430    118.3290     10.8861   7.5476268146e+01   5.4492036712e+01         0.25    0.2044713  68.00  0.001322413    1.409    0.290
        32  -8.6814    165.1113      3.0350   6.3616732671e+01   4.3256510128e+01    0.3917676    0.1398406 -23.87  0.001413175    2.644    0.622
        33  -8.9817    240.0657      2.5256   5.5602322178e+01   2.4093515449e+01    0.3010586    0.1899296 -73.79  0.001013185    1.781    0.438
        34  -8.6187    190.2795      2.3896   6.0210125885e+01   3.6625807310e+01    0.2972122     0.202178  38.55  0.001080951    1.523    0.343
        35  -8.4080    194.9865      2.5093   5.9727249430e+01   3.5378382171e+01    0.3276134    0.1380159 -67.01 0.0009885832    4.332    0.769
        36  -9.0167     98.2088      2.8066   7.6824598756e+01   6.0026343670e+01      0.23021    0.1408687 -58.33 0.0009552193    2.844    0.648
        37  -8.9542     48.2341      3.0229   9.5037649163e+01   6.9333454041e+01    0.1722732   0.09025147 -32.54 0.0008778695    1.623    0.384
        38  -8.3479    214.4113      1.7980   5.7561984679e+01   3.0430674203e+01    0.1866828    0.1294113   0.93 0.0004965949    1.605    0.377
        39  -8.2112     89.6586      3.3354   7.9554612908e+01   6.1823216953e+01    0.1350604    0.1054933 -53.86 0.0007050762    1.759    0.431
        40  -8.2767    137.2224      1.3927   6.7441572405e+01   5.0725467375e+01    0.1963574    0.1390447  80.54 0.0009392269    1.651    0.394
        41  -9.8986    193.6902    174.3177   1.0596710216e+02   1.1729940718e+01    0.2695169    0.1524101 -34.10  0.001419647    1.966    0.491
        42  -8.2373    224.7114    173.6412   1.0033342709e+02   6.4087722638e+00    0.2159018    0.1302103   0.98 0.0008462185    1.909    0.476
        43  -8.5165    224.2192    169.9829   9.9725842780e+01   6.9357073488e+00    0.1961185    0.1546085  68.80   0.00110328    2.208    0.547
        44 -10.2300    212.1741    169.1947   1.0167685458e+02   9.1448312023e+00    0.4712174    0.2089584 -42.73  0.002083464    2.974    0.664
        45  -9.6350    214.6679    163.6799   1.0017421213e+02   9.4151518354e+00     0.324777    0.1673775  33.49  0.001592171    1.777    0.437
        46  -7.7657    243.2771    169.3875   9.6431922707e+01   3.7604798744e+00    0.1327512   0.07887612   9.24  0.000497713    1.727    0.421
        47 -10.0741    192.8595    167.0752   1.0479467657e+02   1.2888609729e+01    0.3199555    0.2510152 -33.77  0.001842342    1.431    0.301
        48  -9.5155    147.2948    168.1392   1.1389815001e+02   2.0824576160e+01     0.239077    0.1679524  47.56 0.0005132844    1.305    0.234
        49  -8.8383    184.7036    166.1816   1.0616758106e+02   1.4492778911e+01     0.186771    0.1713811 -57.96  0.001187216    1.424    0.298
        50  -8.2122    201.6677    165.2873   1.0282734004e+02   1.1545242731e+01    0.1177999    0.1031995  68.95 0.0003398766    1.622    0.384
        51  -8.8164    246.9991    158.5010   9.3681268097e+01   4.3611869703e+00    0.1865834    0.1103915  39.13  0.001026622    1.571    0.363
        52  -9.8287    221.4789    153.0271   9.6836492317e+01   9.5649610289e+00    0.2688447     0.215933 -57.81  0.001508671    1.996    0.499
        53  -8.2931    118.3225    153.6979   1.1765042258e+02   2.8271274068e+01    0.1310888   0.09485137  71.33 0.0004646631    1.632    0.387
        54  -8.0231    250.4905    152.5140   9.1902252566e+01   4.4455751576e+00     0.128912    0.1033432   7.66 0.0001471318    1.029    0.028
        55 -10.7486    196.7128    148.1502   1.0033343389e+02   1.4912214647e+01    0.5152093    0.2450662 -45.27  0.002184161    2.673    0.626
        56  -9.8094    230.3059    148.5364   9.4379665463e+01   8.5194519096e+00    0.2355521     0.221028  24.22  0.001306424    1.310    0.237
        57  -8.9909    191.3794    149.1855   1.0156589695e+02   1.5781460370e+01    0.1823169    0.1252767 -43.82 0.0007232532    1.707    0.414
        58 -10.3592    206.6803    147.5190   9.8340846266e+01   1.3092425417e+01    0.2743964    0.2412788  11.23  0.001679732    1.047    0.045
        59  -8.3969    229.3714    152.8818   9.5445393339e+01   8.1410315571e+00    0.2234318    0.1685347  44.27  0.001307892    1.428    0.300
        60  -9.4821    224.4391    146.6395   9.4984324300e+01   9.8508342901e+00    0.2682692    0.2054351   8.11  0.001562888    1.181    0.153
        61  -9.2149    230.7188    141.6054   9.2827890205e+01   9.3290393593e+00    0.2603063    0.2342378  24.63  0.001192718    1.215    0.177
        62  -8.2178    250.4793    140.5297   8.9372946755e+01   5.8403081579e+00    0.1320256    0.1068744   5.41 0.0003880972    1.015    0.014
        63  -9.8037    243.8224    149.2070   9.2280655508e+01   5.9966962387e+00    0.2725865    0.2034552   9.60  0.001047196    1.142    0.125
        64  -9.3330    219.2721    139.2389   9.4289946717e+01   1.1822586741e+01    0.3076062    0.1781476  51.83  0.001470441    1.945    0.486
        65  -9.5475    209.6979    138.9647   9.5948824354e+01   1.3724517625e+01    0.1975386    0.1689249  -4.70 0.0009495707    1.097    0.089
        66  -9.4919    216.0801    135.8020   9.4096355277e+01   1.2918549704e+01    0.2967254    0.2777896   8.99  0.001028568    1.179    0.152
        67  -7.6915    182.6547    137.3152   1.0076375423e+02   1.9337906813e+01     0.134347    0.1135409  87.39 0.0006060869    1.716    0.417
        68  -9.1219    164.7430    136.7333   1.0432324878e+02   2.2982175408e+01    0.2128308    0.1658188  88.18  0.001055549    1.968    0.492
        69  -8.9929    249.1802    135.4982   8.8480618972e+01   6.6737775747e+00    0.2879864    0.1838776 -30.14  0.001402872    1.565    0.361
        70  -8.5466    249.0568    130.7058   8.7437400504e+01   7.2751420625e+00    0.2580182    0.2159696  83.82  0.001456047    2.100    0.524
        71  -9.5348    242.2278    133.7096   8.9190220802e+01   8.1742209809e+00     0.307427    0.2751661 -35.08  0.001488442    1.430    0.301
        72  -9.5880    170.0035    134.8554   1.0281395497e+02   2.2265004236e+01    0.2373141    0.2136007  41.58 0.0005757408    1.111    0.100
        73  -8.7184    221.5553    129.8747   9.1791878880e+01   1.2659699666e+01     0.255215    0.1887785  63.69   0.00130925    1.908    0.476
        74 -10.0862    206.9842    126.7632   9.3690342240e+01   1.6039831494e+01    0.3182226    0.2256915  40.36   0.00111491    1.348    0.258
        75  -9.8931    212.5329    124.2194   9.2083190645e+01   1.5275681493e+01     0.457975    0.2921966   3.47  0.002121258    1.897    0.473
        76  -9.6349    241.6349    124.7516   8.7260195706e+01   9.4118199610e+00    0.3454774    0.2981006  58.79  0.002056485    1.552    0.356
        77  -8.9853    228.9598    125.8379   8.9592802992e+01   1.1741647528e+01    0.2330399    0.1689755  14.87  0.001051687    1.327    0.247
        78  -8.7612    188.9040    123.4346   9.6367694886e+01   2.0294526950e+01    0.2892364    0.1892381 -31.57   0.00140366    1.546    0.353
        79  -8.4619    161.4123    124.2860   1.0228270329e+02   2.5835076330e+01    0.1861959    0.1364071 -49.11 0.0005059535    1.515    0.340
        80  -8.6918    195.4740    122.4579   9.4852050664e+01   1.9075689152e+01     0.146077    0.1280023  12.18 0.0002875256    1.043    0.041
        81  -8.8999    221.5895    120.9173   8.9702031427e+01   1.3893547875e+01    0.3021027    0.1907565  20.57 0.0009765831    1.724    0.420
        82  -8.1487    243.6765    119.3996   8.5697708915e+01   9.6956228054e+00    0.1342139    0.1023561 -52.39  0.000375581    1.898    0.473
        83 -10.5325    212.1161    116.4378   9.0300439890e+01   1.6492351063e+01    0.5661044    0.2896202  23.07  0.002121428    2.831    0.647
        84  -9.5344    218.8061    115.7953   8.8959373076e+01   1.5186501755e+01    0.4349753    0.1973141  48.84  0.001274089    2.214    0.548
        85  -9.1825    235.5679    115.7064   8.6119553707e+01   1.1771431496e+01    0.4327946    0.1939466 -42.75  0.001707302    2.828    0.646
        86  -9.8195    230.2724    116.0911   8.7079251215e+01   1.2788383138e+01    0.4438752    0.2986467  52.40  0.002267716    1.672    0.402
        87 -10.0812    248.0366    112.1141   8.3310029251e+01   9.7637495614e+00    0.4806238    0.2635077 -28.25  0.002047956    1.663    0.399
        88  -9.8307    248.9817    106.6805   8.1870063333e+01   1.0257693564e+01     0.312102    0.2544231  33.61  0.001121356    1.248    0.199
        89  -8.9426    248.2332    103.0144   8.1094934689e+01   1.0865833422e+01     0.255541    0.2336749 -33.31 0.0009704495    1.294    0.227
        90  -8.8177    203.8363    116.1657   9.1749824762e+01   1.8280601205e+01    0.2025803    0.1565098   7.48 0.0004981413    1.311    0.237
        91  -9.2174    182.2979    115.9971   9.5906053835e+01   2.2903199046e+01    0.2106977    0.1863301 -13.31  0.001158493    1.103    0.093
        92  -9.2353     15.1433    112.2997   1.3707149204e+02   4.9447308651e+01    0.2154309    0.1324716 -84.19 0.0005308941    1.321    0.243
        93  -8.7819    104.5341    111.9953   1.1312176322e+02   3.8983733551e+01    0.1986579     0.180295  44.49 0.0004168141    1.133    0.117
        94  -9.3460    183.4482    108.2691   9.3741323725e+01   2.3935015930e+01    0.2944263     0.143435 -28.84  0.001155321    2.186    0.543
        95  -8.3024    236.2113    107.8203   8.4112999139e+01   1.2680580563e+01    0.2018482    0.1472553  11.32  0.001060982    1.352    0.260
        96  -9.4018    214.8552    107.8515   8.7694544710e+01   1.7159194752e+01    0.3803306    0.1987601  48.82  0.001659565    1.927    0.481
        97  -9.8063    241.7534    106.4283   8.2905417709e+01   1.1734607019e+01    0.3566257    0.2227058  66.20  0.001642103    2.419    0.587
        98  -8.8204    249.3559     98.8681   7.9917839465e+01   1.1160203583e+01    0.2453275    0.1987578  69.05 0.0006756781    1.693    0.409
        99  -8.9917    241.8494    102.8364   8.2012195869e+01   1.2178224775e+01    0.2616719    0.1807068 -29.62  0.000817284    1.374    0.272
       100  -9.3105    245.0473     99.2135   8.0637172016e+01   1.1989808415e+01    0.3724256    0.2059959 -12.10  0.001682315    1.888    0.470
       101  -8.1548    196.5004    103.4736   8.9940002021e+01   2.1827990427e+01    0.1490545    0.1354343   6.28 0.0008101031    1.001    0.001
       102 -10.1849    235.8315     99.7540   8.2177624715e+01   1.3824872911e+01    0.5403621    0.2634466 -22.05  0.002313089    1.981    0.495
       103 -10.0487    230.8224     94.1334   8.1540053612e+01   1.5638614785e+01    0.4213936    0.2758732 -23.36  0.001217408    1.407    0.289
       104  -9.0905    221.1352    100.6667   8.4794424971e+01   1.6831370214e+01    0.2597824    0.1852111 -35.02  0.001312261    1.419    0.296
       105  -8.1818    167.3063    100.6751   9.5152491319e+01   2.8786715835e+01      0.14678    0.1207444 -74.40 0.0007034997    1.647    0.393
       106  -8.7145    130.1396     98.2494   1.0323839140e+02   3.7121265772e+01    0.2152861    0.1925738   8.16 0.0005584006    1.197    0.165
       107  -8.8041    196.0031     97.5147   8.8469600708e+01   2.2870971553e+01     0.194782    0.1374375  83.46 0.0006512626    2.444    0.591
       108  -8.0958    207.7046     95.3086   8.5729971026e+01   2.0569665090e+01    0.1411594    0.1157093 -59.38 0.0007003793    1.589    0.371
       109  -9.5922    243.3707     93.1939   7.9386315594e+01   1.3103441368e+01    0.2531717    0.1898942  44.12  0.001112307    1.398    0.285
       110  -9.5812    215.4111     89.2071   8.2767231564e+01   1.9721865134e+01    0.2754014    0.2576366 -75.02  0.001542449    1.346    0.257
       111  -8.2615    171.6783     91.6730   9.1764749517e+01   2.9367155491e+01    0.1599161    0.1146981  12.25 0.0006509582    1.687    0.407
       112  -9.8457    236.9045     89.8114   7.9491918054e+01   1.4906337512e+01      0.35633    0.2782394 -80.90  0.001676678    2.001    0.500
       113  -8.1810    232.4889     85.4977   7.9043799388e+01   1.6430670433e+01    0.2395174    0.1719568 -29.34 0.0005812316    1.305    0.234
       114  -8.9844    231.1263     81.9359   7.8313827267e+01   1.7202884921e+01    0.3386218    0.2184528  54.25  0.001082996    1.675    0.403
       115  -9.5085    237.4160     83.8107   7.7865877700e+01   1.5578187930e+01    0.4401013    0.2795216 -59.55  0.001912783    2.509    0.601
       116  -9.1663    247.5411     86.8814   7.7193609678e+01   1.3033434286e+01    0.3106148    0.2720614 -73.01  0.001789642    1.560    0.359
       117 -11.1133    244.3463     80.0849   7.5906803428e+01   1.4561175192e+01    0.9309435    0.6684446 -48.53  0.004816949    1.650    0.394
       118  -9.2935    176.0876     87.8121   8.9756471133e+01   2.9005380307e+01    0.2277782    0.2115211 -69.86 0.0008583573    1.286    0.223
       119  -9.2122    226.1690     86.0987   8.0182171203e+01   1.7744475156e+01    0.3603954    0.2254084 -18.69  0.001587003    1.537    0.349
       120  -8.0154    135.2939     83.6668   9.7912009664e+01   3.8916780095e+01    0.1490398    0.1199681 -74.60 0.0007025526    1.638    0.390
       121  -8.3795    210.6777     80.7238   8.1260982936e+01   2.2018819822e+01    0.1531551    0.1071273  20.27 0.0003404048    1.580    0.367
       122  -8.4185    196.0062     79.1633   8.3404681609e+01   2.5696691325e+01    0.4286732    0.1565092 -48.59  0.001120096    5.088    0.803
       123  -8.9803    175.6231     77.8151   8.6958963834e+01   3.0764631384e+01     0.225641    0.1351624 -40.48 0.0009207856    1.702    0.412
       124  -8.3826    119.6292     78.6959   1.0054963013e+02   4.3132423212e+01    0.1544263    0.1152332   3.45 0.0007032761    1.754    0.430
       125  -8.2152    224.5163     75.9847   7.7725811977e+01   1.9484401204e+01    0.2405737    0.1952154 -64.84  0.001106832    1.608    0.378
       126  -9.1589    226.7821     73.3819   7.6673132910e+01   1.9313574566e+01    0.3782525     0.234758 -42.20  0.001748206    1.704    0.413
       127  -9.0095    214.5558     75.7288   7.9230922752e+01   2.1820747070e+01    0.4527565     0.165021  53.61  0.001617111    2.732    0.634
       128  -8.1463    126.4417     76.4985   9.8063731269e+01   4.2167922494e+01     0.149295    0.1412329 -21.31 0.0001312494    1.007    0.007
       129  -8.3402    230.4713     72.0377   7.5762094839e+01   1.8649996568e+01    0.2251985    0.1308719 -26.20 0.0008264615    1.569    0.363
       130  -8.5482    250.1486     70.8304   7.2737243449e+01   1.4462535008e+01      0.28216     0.168713  -6.76 0.0008453612    1.792    0.442
       131  -9.5198    250.0854     65.9170   7.1472950909e+01   1.5068188015e+01     0.326219    0.1815192 -28.29 0.0009515285    1.572    0.364
       132 -10.2774    235.6798     73.6650   7.5447302047e+01   1.7268882494e+01     1.069471    0.2625836 -33.78  0.003421339    3.371    0.703
       133  -9.1642    220.9875     61.2957   7.4179606814e+01   2.2248984259e+01    0.3122326    0.2294839 -54.30  0.001062906    1.617    0.381
       134  -9.5631    227.0025     67.5308   7.5038456590e+01   2.0030229529e+01    0.4295565    0.2717182 -36.12  0.002037051    1.522    0.343
       135  -9.1723    223.1784     66.2041   7.5233980175e+01   2.1092332302e+01    0.2877519    0.2362621 -24.59  0.001491108    1.135    0.119
       136  -8.5751    210.4209     66.1939   7.7201154616e+01   2.4118918747e+01    0.2221372    0.1261721 -37.50 0.0009481701    1.725    0.420
       137  -8.6217    238.4670     64.9474   7.2729499900e+01   1.7744996623e+01    0.2202398    0.1296105 -21.25  0.001017455    1.568    0.362
       138  -7.7633    214.6773     63.3366   7.5710752644e+01   2.3484822799e+01    0.1533453    0.1104418 -56.16 0.0003896459    1.713    0.416
       139  -7.9363     43.6854     62.3198   1.2010958221e+02   5.8316167232e+01    0.1242534   0.09446454  83.55 0.0007039217    1.654    0.395
       140  -8.4815    238.5013     60.5066   7.1529919811e+01   1.8284589185e+01    0.1987054    0.1279657  44.77 -0.0001880617    1.625    0.385
       141  -8.9396    235.1792     60.1452   7.1871636228e+01   1.9085144450e+01    0.2612256    0.2202538  73.22  0.000946824    1.409    0.290
       142  -9.1615    171.6224     59.4818   8.2114797805e+01   3.4641789726e+01    0.3907669    0.2547016  34.59  0.001553864    1.644    0.392
       143  -8.4304    126.5699     58.7061   9.2273255358e+01   4.5465680539e+01     0.203146    0.1385836 -43.68 0.0004683579    1.487    0.328
       144  -9.2597    213.8580     57.2850   7.4090238773e+01   2.4482259405e+01    0.4567446    0.2372275  44.92  0.001902698    1.983    0.496
       145  -8.7395    250.2045     54.7769   6.8548753973e+01   1.6357014311e+01    0.3559971    0.1793633 -26.79   0.00153374    1.726    0.421
       146  -8.5199    131.7636     55.7431   8.9896998375e+01   4.4824019431e+01    0.2474503    0.1095118 -44.03 0.0008828146    2.409    0.585
       147 -10.3703    200.4970     54.3075   7.5290940569e+01   2.8164743699e+01    0.4170389    0.2859007  19.80  0.001883782    1.688    0.407
       148  -8.4918    197.2801     51.2734   7.4886000924e+01   2.9376282691e+01    0.3396032    0.1654676  72.15  0.001197322    2.892    0.654
       149 -10.0133    229.3637     52.2282   7.0458875156e+01   2.1407855834e+01    0.4920855    0.4725157  62.54  0.002903029    1.159    0.137
       150  -9.3852    249.7975     46.5595   6.6432657063e+01   1.7387380395e+01    0.6696821    0.2405512 -27.12  0.002618063    2.353    0.575
       151 -10.2107    244.1332     42.3086   6.5933474807e+01   1.9140690784e+01    0.4334348    0.3193578 -18.06  0.001488812    1.251    0.201
       152  -9.4719    236.6983     53.6705   6.9906265128e+01   1.9525026258e+01    0.3764655    0.2842067  81.63  0.001342241    1.668    0.400
       153 -10.2786    244.2899     51.4507   6.8369141097e+01   1.8059012179e+01    0.4573186    0.4319486 -47.37  0.002429098    1.153    0.133
       154  -8.2417    207.4968     54.0186   7.4099224902e+01   2.6466874774e+01     0.224255    0.1410014 -24.24 0.0005577313    1.511    0.338
       155  -8.8380    163.4912     53.4302   8.1787206330e+01   3.7587006010e+01    0.3236204    0.1479348 -29.62  0.001198428    2.123    0.529
       156  -8.3396    221.7190     53.3780   7.1823618385e+01   2.3084364217e+01    0.1982096    0.1295222  47.34 0.0008630989    1.569    0.363
       157  -8.7968    238.1936     45.4757   6.7479830961e+01   2.0144917434e+01    0.1958753    0.1401537  61.70  0.001009427    1.525    0.344
       158  -8.9301    233.2151     44.0406   6.7684149893e+01   2.1474067641e+01    0.4274142    0.2328161  21.42  0.001691581    2.628    0.619
       159  -9.4480    189.9346     42.8810   7.3450215322e+01   3.2344822764e+01    0.4310137    0.2443458  -2.75  0.001661975    2.299    0.565
       160  -8.9163    216.1946     41.1728   6.9038923394e+01   2.5923625664e+01    0.2229478    0.1916827  19.12 0.0006190502    1.190    0.160
       161  -8.7139    238.3200     38.6712   6.5599980744e+01   2.0888392730e+01    0.3282481     0.270293 -52.97  0.001307104    1.287    0.223
       162  -8.5173    209.4899     39.8564   6.9562116034e+01   2.7751250228e+01    0.2245642    0.1390982 -23.75 0.0006249537    1.534    0.348
       163 -10.1505    201.3084     37.6069   7.0036308299e+01   3.0092329718e+01    0.8325502    0.3380108  -8.96  0.002449373    4.049    0.753
       164 -10.4832    185.6781     37.3745   7.2362292922e+01   3.4142289700e+01     0.536876    0.2506787 -31.68  0.001648196    2.014    0.503
       165  -8.5939    173.3333     39.6809   7.5245526941e+01   3.7039446074e+01    0.1583723    0.1162627 -60.58 0.0007048763    1.696    0.410
       166  -9.4407    237.0804     30.5207   6.3494213638e+01   2.2070467657e+01    0.4697809    0.3328767  18.53  0.002235743    1.629    0.386
       167 -10.4924    225.7225     23.4966   6.2739327073e+01   2.5543369412e+01    0.6525701    0.4576016 -83.83  0.003260805    1.708    0.415
       168  -9.2240    241.9391     33.8457   6.3886582461e+01   2.0577452215e+01    0.4774893    0.1756259 -34.37  0.001858173    2.310    0.567
       169  -8.0642    187.4548    247.4974   1.1772481674e+02   4.0071649482e+00     0.106137   0.07522063  32.95 7.447713e-05    1.019    0.018
       170  -9.4502    206.8585    236.6259   1.1329672099e+02   2.3308864353e+00    0.2889351    0.1768273  43.87  0.001784736    1.477    0.323
       171  -8.5010    219.0011    235.5296   1.1123028656e+02   7.0086016942e-01    0.1706615   0.07923352  38.33 0.0009414004    1.602    0.376
       172  -8.1744    239.8110    232.3902   1.0756093992e+02  -1.9449218071e+00     0.159822   0.07106355  31.81 0.0009522858    1.683    0.406
       173  -8.3846    113.6582    231.3228   1.2810546948e+02   1.6225536331e+01    0.1098356   0.06402075  60.95 0.0007050642    1.727    0.421
       174  -7.9792    230.6675    229.6954   1.0858632172e+02  -4.2207644386e-01    0.1139506   0.06280445  19.13 0.0007037758    1.660    0.398
       175  -8.1678    162.6320     37.7127   7.6566077144e+01   4.0058059309e+01    0.1661473    0.1089557  28.30  0.000702176    1.704    0.413
       176  -9.8304    227.3069     33.5306   6.5429651437e+01   2.4079971812e+01    0.6586149    0.3012677 -35.46  0.002751204    1.983    0.496
       177  -8.9791    231.3226     32.1236   6.4570789913e+01   2.3266722775e+01    0.2699408    0.2043371 -80.51  0.001402632    1.582    0.368
       178  -8.5232    165.8170     40.1838   7.6815453597e+01   3.8906490158e+01    0.2332534    0.2063147 -53.36 0.0007162915    1.260    0.206
       179  -8.3040     11.3176     40.6618   1.2750045710e+02   6.5659227929e+01    0.1136207   0.08260167  80.68  0.000704887    1.704    0.413
       180  -9.3827    221.2772     31.5244   6.5566018937e+01   2.5776069093e+01    0.4271126    0.3563017 -38.49  0.002343776    1.167    0.143
       181  -9.1565    216.4701     30.5022   6.5850033985e+01   2.7082025734e+01    0.2896463    0.2434897  29.20  0.000960948    1.239    0.193
       182  -9.3229    212.9839     31.5166   6.6588622511e+01   2.7842222826e+01    0.4167397     0.270983 -48.97   0.00176784    1.655    0.396
       183  -8.7115    209.4475     31.4841   6.7034677030e+01   2.8737998631e+01    0.2756425    0.1775266  58.83 0.0006754257    1.569    0.363
       184  -9.2926    198.3378     30.3831   6.8197958381e+01   3.1704183125e+01    0.4134869    0.2066858 -49.07  0.001591863    2.372    0.578
       185  -8.1154    170.6200     30.3067   7.2504287042e+01   3.8938487043e+01    0.1601373    0.1140264 -62.98 0.0007025308    1.786    0.440
       186  -8.5087    201.4605     27.9800   6.7013318049e+01   3.1171157236e+01    0.2824252    0.1462909 -15.18  0.001137175    2.048    0.512
       187  -9.0418    200.7312     24.4575   6.6005863690e+01   3.1746516474e+01    0.5935092    0.1579771  59.92  0.001912335    3.257    0.693
       188  -8.3988    110.7993     26.3157   8.4161245569e+01   5.4260310664e+01    0.2903283    0.1414127  61.49  0.001100164    2.692    0.629
       189  -9.4001    118.2515     24.6085   8.1440302064e+01   5.2802960527e+01     0.496413    0.2558107 -51.70  0.001804279    3.003    0.667
       190  -8.5230    145.6591     25.3293   7.5398298821e+01   4.6009286932e+01    0.1562747    0.1148464 -60.01 0.0007051518    1.741    0.426
       191  -7.9969     97.4956     22.5744   8.6405601468e+01   5.7674939485e+01    0.1424034    0.1284588  -5.05 0.0002522122    1.043    0.041
       192  -9.4209    165.1993     20.0031   6.9773442824e+01   4.1560845131e+01    0.2626519    0.1519521 -48.55  0.001082312    2.032    0.508
       193  -7.7996    151.3489     19.6738   7.2111143396e+01   4.5221239713e+01    0.1568675    0.1127562 -59.63 0.0007049179    1.754    0.430
       194  -8.3981    211.4671    228.5281   1.1146519345e+02   2.4625668956e+00    0.1118836   0.08060243  27.04 7.776601e-05    1.015    0.015
       195  -8.2881     99.4526    226.2703   1.3005783748e+02   1.8809536498e+01    0.1264541   0.08976442  82.99 0.0009299174    1.562    0.360
       196  -8.8822    239.7518    221.7379   1.0599487798e+02  -9.9737722708e-01    0.1903905    0.1635685  72.93  0.001305442    2.578    0.612
       197  -8.0011    229.6400    222.7098   1.0772746268e+02   3.7270713169e-01    0.1176766   0.06431401  19.93 0.0006938027    1.692    0.409
       198  -9.7592    194.2738    220.4054   1.1315936606e+02   5.8873110645e+00    0.3836747    0.2147505  51.47  0.002229873    2.022    0.505
       199  -9.5131    219.3303    215.7233   1.0833709363e+02   2.5881204263e+00    0.1839032    0.1500098  31.45 0.0008164033    1.249    0.199
       200  -8.7223    217.9987     16.2110   6.1452342453e+01   2.8196230157e+01    0.2198157    0.1841814 -57.47  0.001212316    1.235    0.191
       201  -8.1244    187.1464     16.8416   6.5360948162e+01   3.6097533528e+01    0.2031767    0.1624492  32.68 0.0004611594    1.276    0.216
       202  -8.2876    141.4889     17.4925   7.3181806970e+01   4.8005863043e+01    0.1469607    0.1415969   2.51 0.0008095789    1.070    0.065
       203  -8.8939     74.4590     17.5084   9.1796598106e+01   6.2893081840e+01    0.1381896    0.1172874 -12.17 0.0008091764    1.009    0.009
       204  -8.4042     68.2907     17.7020   9.4224478820e+01   6.3927247827e+01    0.1221804    0.1040708 -54.89 0.0006979234    1.559    0.359
       205  -8.3252    159.9677    219.4685   1.1888788863e+02   1.1206170382e+01    0.1787076   0.08807877  40.62 0.0009846055    1.578    0.366
       206  -8.6732    132.4363    214.2176   1.2310196945e+02   1.6008767503e+01    0.1336654    0.1046471 -84.53 0.0007973413    1.640    0.390
       207  -8.6843    162.7907     16.0422   6.8733729201e+01   4.2623322663e+01    0.2360687    0.2011227 -56.15  0.001226821    1.317    0.241
       208  -8.0343    207.3412     14.2758   6.2039050719e+01   3.1090650893e+01    0.1497778    0.1005105  35.85 0.0007000777    1.618    0.382
       209  -8.4379    141.3355     12.4416   7.1190745496e+01   4.8599092315e+01    0.3230049    0.0765843  49.37 0.0009576992    3.531    0.717
       210  -8.5763     58.5128     12.5206   9.5603826207e+01   6.6327607566e+01     0.132909    0.1098841 -17.06 0.0008100799    1.024    0.023
       211  -8.2325    229.6563    210.6809   1.0588517011e+02   1.5398484062e+00    0.1220406   0.06877062  17.43 0.0007049449    1.722    0.419
       212  -8.6887    207.5157    209.5200   1.0935252878e+02   5.0635656615e+00    0.1170512   0.08987246  27.25 8.716765e-07    1.028    0.027
       213  -8.3503     86.1856    208.7958   1.3085005209e+02   2.3184115712e+01    0.1877704    0.0853794  64.97 0.0009418418    2.797    0.643
       214  -9.4545    124.0158    206.0007   1.2368337530e+02   1.8448580643e+01    0.1608962    0.1296516  50.50            0    1.030    0.029
       215  -7.7952     84.9770    204.0139   1.3064090200e+02   2.4114006710e+01    0.1249133   0.09721141  56.64            0    1.029    0.028
       216  -9.5989    165.2998    201.9145   1.1561136482e+02   1.2706443985e+01    0.2468295    0.1479645  36.76  0.001466259    1.382    0.277
       217  -8.2192     16.2186    202.3499   1.4268222277e+02   3.1791438707e+01    0.1337823   0.06333323  48.10  0.000537914    1.636    0.389
       218  -9.1529    204.4745    198.1796   1.0809729480e+02   6.8510572397e+00    0.2317676    0.1432955  36.28  0.001402614    1.308    0.235
       219  -9.4181    184.9321    197.0215   1.1135001179e+02   1.0182351297e+01    0.1949194    0.1567611  29.48  0.001321669    1.009    0.009
       220  -9.2758    176.5419    197.5681   1.1294184629e+02   1.1481238291e+01    0.1895994    0.1145663 -54.80  0.001034389    2.500    0.600
       221  -9.2259    249.1419    194.4911   1.0009236213e+02   1.8950327137e-01     0.227897     0.191087  35.73   0.00145267    1.493    0.330
       222 -10.0964    196.5029    194.5123   1.0889801438e+02   8.6007308373e+00    0.2467964    0.1514441   6.54  0.001314625    2.161    0.537
       223  -9.6462    238.3330    192.3807   1.0145068413e+02   2.0746067843e+00    0.2761949    0.2434927  18.43  0.001566249    1.331    0.249
       224  -8.1612    210.3447    189.6797   1.0567651069e+02   6.9042803597e+00    0.1100998   0.09501053  63.62 0.0007049633    1.728    0.421
       225  -8.6773    189.2892    189.3233   1.0934276503e+02   1.0466527771e+01    0.1232295     0.084057  13.51 0.0004599169    1.607    0.378
       226  -8.8408    194.1478    188.6794   1.0836284838e+02   9.7345290329e+00    0.2401553   0.09701108  47.97  0.001064131    2.478    0.596
       227  -8.0377    121.3084    187.6886   1.2196621821e+02   2.1758081162e+01    0.1198713   0.08232402  66.53 0.0007025269    1.622    0.383
       228  -9.1489    225.3924    184.9691   1.0228550319e+02   4.9675108288e+00    0.2280373    0.1721753  21.33  0.001492642    1.046    0.044
       229  -8.9372    198.5062    183.0006   1.0662006925e+02   9.7327756079e+00    0.1720635    0.1202956 -29.51  0.001034558    1.595    0.373
       230  -9.0094    227.1565    179.8998   1.0107583143e+02   5.2579616317e+00    0.2170138    0.1544294  33.38  0.001312178    1.218    0.179
       231  -9.9768    158.2009    178.9819   1.1349474298e+02   1.7216615609e+01    0.2990392    0.1626644 -32.85  0.001488722    2.398    0.583
       232  -8.6358    219.7785    178.9994   1.0216823949e+02   6.6059154787e+00    0.2182201    0.1448281  48.36  0.001241975    1.669    0.401
       233  -8.9586    152.0565    178.5036   1.1461843652e+02   1.8329179838e+01    0.1939921    0.1083486  41.76 0.0006146348    1.547    0.353
       234  -8.6118    197.4547    177.2157   1.0579631588e+02   1.0677285477e+01    0.1525322     0.121136 -43.17 0.0006385312    1.602    0.376
       235  -8.7722    234.0393    175.4502   9.9101508859e+01   4.6189787549e+00    0.2294857    0.1697362  32.42  0.001455621    1.216    0.178
