#   1 NUMBER                 Running object number                                     
#   2 MAG_AUTO               Kron-like elliptical aperture magnitude                    [mag]
#   3 X_IMAGE                Object position along x                                    [pixel]
#   4 Y_IMAGE                Object position along y                                    [pixel]
#   5 X_WORLD                Barycenter position along world x axis                     [deg]
#   6 Y_WORLD                Barycenter position along world y axis                     [deg]
#   7 A_WORLD                Profile RMS along major axis (world units)                 [deg]
#   8 B_WORLD                Profile RMS along minor axis (world units)                 [deg]
#   9 THETA_WORLD            Position angle (CCW/world-x)                               [deg]
#  10 FWHM_WORLD             FWHM assuming a gaussian core                              [deg]
#  11 ELONGATION             A_IMAGE/B_IMAGE                                           
#  12 ELLIPTICITY            1 - B_IMAGE/A_IMAGE                                       
         1 -14.4970    149.6245     61.6605   8.5866951176e+01   3.9688763268e+01     1.330324     1.130055   0.44  0.003645606    1.356    0.262
         2 -14.8455    160.9524     47.0281   7.9183509372e+01   3.9162058132e+01     1.233239     1.072679 -29.78  0.003782277    1.238    0.192
         3 -15.0377    174.0811     15.9137   6.8128535257e+01   3.9757085714e+01     1.551661     1.288505 -69.03  0.005826038    1.248    0.199
         4 -14.4975    189.0238     14.2392   6.5683011090e+01   3.6294762835e+01     1.071284    0.5517291  83.37  0.004373376    2.093    0.522
         5 -13.6013    201.3350      8.8689   6.2900308715e+01   3.3890738455e+01    0.4704771    0.3414824  76.96   0.00278555    1.187    0.157
         6 -10.3863    140.0000    241.9036   1.2746282011e+02   5.0016480921e+00    0.2295167    0.1589102 -54.21  0.001187309    1.693    0.409
         7 -20.2237     78.5950    174.8258   1.3082374619e+02   2.9070444185e+01     17.22397      7.08223 -64.32   0.07094881    2.330    0.571
         8  -9.9389    139.9791    249.9939   1.2851821919e+02   3.6358731187e+00    0.1832402    0.1316885  72.66 0.0006130743    1.568    0.362
         9 -12.9898    189.4748    177.7174   1.0646890281e+02   7.6405871378e+00     0.862145    0.4968865 -67.16  0.003066428    3.356    0.702
        10 -13.5233    177.5987    171.3460   1.0765159544e+02   1.1359194766e+01    0.9954742    0.3549338 -54.42  0.002866929    4.258    0.765
        11 -12.9391    204.4607    175.0316   1.0285770316e+02   5.1198667643e+00      0.52123    0.5085335 -68.75  0.001862918    1.144    0.126
        12 -12.5384    196.6832    175.7478   1.0457797226e+02   6.5552116707e+00    0.5728874    0.4247658 -68.79  0.002415492    1.844    0.458
        13 -12.6626    190.0107    155.7661   1.0164566094e+02   1.1898852227e+01    0.5322984    0.4879813  47.85  0.001680569    1.100    0.091
        14 -12.9438    193.2160    165.4952   1.0311535014e+02   9.2693578851e+00    0.4829716    0.3584867 -45.74 0.0009599339    1.370    0.270
        15 -10.9119    151.4938    236.7896   1.2455015545e+02   3.8923052786e+00    0.2762924    0.1794044  47.20 0.0007076767    1.315    0.239
        16 -12.3881    230.3971    167.6751   9.6315186205e+01   1.3527103240e+00    0.4671139    0.2201881 -49.92  0.001829771    2.581    0.613
        17 -12.5998    189.9855    161.0053   1.0281007426e+02   1.0847005094e+01    0.4140029    0.3728744  58.86 0.0008132019    1.165    0.141
        18  -9.8248      4.4798    157.4232   1.4526689419e+02   4.1383707704e+01    0.1156734   0.08699335 -74.76 0.0002422465    1.110    0.099
        19 -11.1058    114.4842    250.7547   1.3331117147e+02   7.7098368306e+00    0.1213281   0.08751488  48.63 -7.700924e-05    1.180    0.152
        20  -8.8689     32.5593    221.8957   1.4533350118e+02   2.4827328931e+01    0.3007608    0.1697211 -54.87  0.001748905    2.296    0.565
        21 -11.4550     17.6590    153.5195   1.4196647835e+02   4.1180385888e+01    0.3498281     0.193702 -52.34  0.001497449    1.816    0.449
        22 -11.0412     18.5467    148.4925   1.4119127269e+02   4.2242894817e+01    0.2354978    0.2079177   8.56   0.00148116    1.592    0.372
        23 -11.7763    218.1376    219.5831   1.0886310268e+02  -5.0604596981e+00    0.3448359    0.1619365 -46.58   0.00154149    2.622    0.619
        24 -11.7544    152.9910    151.4321   1.0884852615e+02   2.0810395721e+01     0.287966    0.2131938 -65.29 0.0005224202    1.516    0.341
        25 -12.7052     27.2194    145.5139   1.3878186680e+02   4.2147195439e+01    0.4531206    0.3560434 -70.22  0.002595233    1.072    0.067
        26 -11.6875    174.0454    148.3582   1.0339542902e+02   1.6911847911e+01    0.4473128    0.3419487 -65.03   0.00161756    1.505    0.335
        27 -10.6078     24.3447    216.1188   1.4634085930e+02   2.6919659940e+01    0.1389591    0.1005604  88.33 0.0003565694    1.077    0.071
        28 -12.6464    160.4178    127.9356   1.0161845348e+02   2.4326925994e+01     0.513252    0.3733738 -57.93  0.001621347    1.470    0.320
        29 -10.1923     39.2154    250.7290   1.4631213469e+02   1.8480992061e+01    0.1050331   0.06008412  73.70 0.0002512066    1.405    0.289
        30 -13.1848     11.4377    206.0133   1.4788792791e+02   3.0324435572e+01    0.3695243    0.2600676  33.46  0.001911758    1.899    0.473
        31 -10.9881    167.3874    112.5424   9.6140986042e+01   2.5972792722e+01     0.348821    0.2504344 -88.28  0.001244051    1.996    0.499
        32 -10.4291     31.7551    205.1707   1.4411340922e+02   2.8373392664e+01    0.1638854    0.1222512  78.15 0.0006233613    1.061    0.057
        33 -10.7752    205.3355    110.2350   8.7778346417e+01   1.7502551390e+01    0.3129781    0.2127038  47.13 0.0009182384    1.542    0.352
        34 -11.3694     23.4485    107.3422   1.3405369785e+02   5.1157385288e+01    0.3161209    0.2067385  32.06  0.001197583    1.863    0.463
        35 -11.7921     26.9966     99.6810   1.3161951896e+02   5.2562077228e+01    0.3614622    0.1969396  -0.85  0.001732957    2.988    0.665
        36 -11.5161     27.1600     97.1285   1.3107589844e+02   5.3107382560e+01    0.3746522    0.2143602   0.97  0.001948094    2.619    0.618
        37 -10.4005     19.4221    203.4703   1.4625911340e+02   3.0054542668e+01    0.1114431   0.08724218 -73.82 0.0001466343    1.323    0.244
        38 -11.1964    140.5846    200.7714   1.2120673344e+02   1.2670478937e+01    0.4822916     0.298091  47.42   0.00233321    1.493    0.330
        39 -11.1046    134.8099    198.7226   1.2210209208e+02   1.4171245055e+01    0.3782591    0.2786812  28.09  0.001343178    1.610    0.379
        40 -10.5939     32.6593    250.5536   1.4734795340e+02   1.9302623733e+01    0.1070059   0.07627617  78.63 0.0002800509    1.060    0.057
        41 -11.1630    121.8669    198.2256   1.2480773949e+02   1.6642246031e+01    0.2651377     0.199633 -48.45 0.0009515578    1.489    0.328
        42 -12.4438     44.8323     93.1272   1.2478255944e+02   5.2318769133e+01    0.4273137    0.2579802  -0.76  0.001662242    2.511    0.602
        43 -11.9826      3.8996     89.8066   1.3677383935e+02   5.6295009197e+01    0.3590408    0.1886892 -14.90  0.001978743    2.712    0.631
        44 -10.7627     19.6803    196.8378   1.4568142262e+02   3.1428990626e+01     0.155065     0.113716 -75.11 0.0006541456    1.249    0.199
        45 -13.6685    134.5929    239.0206   1.2811423283e+02   6.4309343711e+00    0.3851618    0.2931854 -60.26  0.001393917    1.507    0.336
        46 -10.8899    143.7764     81.5598   9.3100149678e+01   3.7604689384e+01    0.2744057    0.2125341 -38.58 0.0005735489    1.301    0.231
        47 -10.7865    155.8528    247.3530   1.2519583645e+02   1.3749093143e+00    0.1745381    0.1558186  66.79 0.0003345404    1.174    0.149
        48 -11.5637    127.8422    246.7663   1.3037736577e+02   6.2145244282e+00     0.171598    0.1578619 -74.98 0.0005916496    1.269    0.212
        49 -13.3433    165.3080     38.1732   7.5799409145e+01   3.9297034401e+01    0.4541396    0.4217657  71.81 0.0008610113    1.017    0.016
        50 -11.0619     13.3691     59.8764   1.2734412632e+02   6.1795240832e+01    0.1599817    0.1492407 -25.75 0.0004293053    1.255    0.203
        51 -11.7611    162.7693    245.2992   1.2360332643e+02   5.1898639708e-01    0.3064865    0.2107209  39.93 0.0004701513    1.238    0.192
        52 -11.4061     13.7656    240.4266   1.4970776699e+02   2.3303345547e+01    0.3067886    0.1001056 -85.29  0.001471483    3.023    0.669
