#   1 NUMBER                 Running object number                                     
#   2 MAG_AUTO               Kron-like elliptical aperture magnitude                    [mag]
#   3 X_IMAGE                Object position along x                                    [pixel]
#   4 Y_IMAGE                Object position along y                                    [pixel]
#   5 X_WORLD                Barycenter position along world x axis                     [deg]
#   6 Y_WORLD                Barycenter position along world y axis                     [deg]
#   7 A_WORLD                Profile RMS along major axis (world units)                 [deg]
#   8 B_WORLD                Profile RMS along minor axis (world units)                 [deg]
#   9 THETA_WORLD            Position angle (CCW/world-x)                               [deg]
#  10 FWHM_WORLD             FWHM assuming a gaussian core                              [deg]
#  11 ELONGATION             A_IMAGE/B_IMAGE                                           
#  12 ELLIPTICITY            1 - B_IMAGE/A_IMAGE                                       
         1 -13.7184    225.8105      3.2453   3.7707979068e+01   2.6429626688e+01      2.18356    0.9422556  54.99  0.005910644    2.437    0.590
         2 -14.0637    193.8009     37.4866   5.1420859769e+01   3.1219595553e+01      1.50367     1.104305 -21.44  0.003127484    1.350    0.259
         3 -14.6777    202.6245     27.3067   4.7110600977e+01   3.0067058594e+01     1.904241     1.371889  24.85  0.001558708    1.615    0.381
         4 -13.0752     32.4455     17.0182   8.9214936902e+01   7.0987419906e+01    0.5463571    0.2901655  27.17   0.00279619    2.320    0.569
         5 -12.0832     57.8380      3.2884   6.8813094990e+01   6.9541276740e+01    0.3870325    0.2507496  60.64  0.001991881    2.009    0.502
         6 -18.5235      8.4081    238.0988   1.2320826233e+02   2.8813255991e+01     13.53575       1.5598 -83.23   0.05090886    9.454    0.894
         7 -13.9883     61.3540    190.5813   1.1174472199e+02   3.0684850805e+01    0.6660327    0.6356047  72.30  0.003221687    1.439    0.305
         8 -15.8087     55.2084    204.9144   1.1389079761e+02   2.9038917958e+01     4.517414     1.479128  55.56   0.02371889    2.467    0.595
         9 -14.0091     74.6816    156.8941   1.0583427132e+02   3.5080255586e+01    0.6758005    0.4997246  54.40  0.001230122    1.139    0.122
        10 -15.7739     67.8961    144.0072   1.0591086706e+02   3.8556435691e+01     5.878273     2.358424  62.21   0.02361009    3.283    0.695
        11 -16.5975     58.4582    247.5433   1.1566067884e+02   2.2409266162e+01     7.821555     2.183656  31.86   0.01392182    9.431    0.894
        12 -10.6332     96.7128    190.5900   1.0483690374e+02   2.5973276868e+01    0.2480868    0.2029677  40.95  0.001058612    1.280    0.219
        13 -10.0703    100.0244    186.7396   1.0378888017e+02   2.6121569129e+01    0.1776096     0.144812  55.09 0.0006855557    1.070    0.065
        14 -11.2871    147.8994    185.4338   9.4439619976e+01   1.8807035420e+01    0.3169011    0.1917219  67.92  0.001654496    2.422    0.587
        15  -9.8918    154.4021    186.1535   9.3340050040e+01   1.7628796281e+01    0.1429178    0.1131135 -70.30 0.0007758409    1.722    0.419
        16 -14.8817     85.5219    229.8378   1.1019022218e+02   2.1587508442e+01     1.313624    0.9032009  76.56  0.008810667    1.483    0.326
        17 -10.8861     99.4769    180.7017   1.0323866738e+02   2.7205089199e+01    0.2183834    0.1686771  53.73 0.0005808133    1.037    0.035
        18 -12.2337     74.3867    175.6553   1.0784841809e+02   3.1630061250e+01    0.3053067    0.2451999 -41.20  0.002069983    1.920    0.479
        19 -12.2938     78.1634    171.0649   1.0660088476e+02   3.1946405550e+01    0.3049436    0.2522125 -51.24 0.0008174511    1.644    0.392
        20 -10.6299     97.1835    200.6006   1.0572648947e+02   2.4319319876e+01    0.2677209     0.215958  14.61  0.001624509    1.890    0.471
        21 -10.2504     55.4172    174.3287   1.1168867562e+02   3.4285618072e+01    0.2599364    0.1531459  66.58  0.001650068    1.452    0.311
        22 -11.3770     46.4552    173.3411   1.1348828741e+02   3.5519012245e+01    0.3757195    0.2236537  62.69  0.001598213    1.340    0.254
        23 -11.4499    107.3071    202.9651   1.0407225938e+02   2.2520849343e+01    0.3381267     0.157979  56.09  0.001261454    1.991    0.498
        24  -9.8947    161.9447    166.9550   8.9035624415e+01   1.9062038412e+01    0.1878882    0.1595721  46.27 0.0004094018    1.061    0.057
        25 -10.2864     58.4636    166.2280   1.1035691913e+02   3.5420835221e+01    0.2586038     0.150694 -76.81  0.001590174    1.719    0.418
        26 -10.5764    230.3671    166.1633   7.7167655355e+01   7.1085828615e+00    0.1520951    0.1031204 -33.41 0.0007024835    1.743    0.426
        27  -9.4379    156.4498    159.5218   8.8858530945e+01   2.1163282541e+01    0.1278629    0.1093239  46.02 0.0001951502    1.025    0.025
        28 -12.3709     92.7114    154.5059   1.0149465410e+02   3.2910474099e+01    0.5433973    0.4377075  -5.94  0.003191511    2.137    0.532
        29 -11.1111    112.8408    196.2829   1.0234863025e+02   2.2720387736e+01     0.337002    0.2338612   5.97  0.001813495    3.131    0.681
        30 -11.4191    133.7746    144.8653   9.0968814036e+01   2.7734285274e+01    0.9013003    0.2771872 -56.17  0.002856581    5.175    0.807
        31 -10.7505    174.6654    148.9774   8.3488321337e+01   1.9340579780e+01    0.2525173     0.202337  42.12 0.0008239998    1.091    0.084
        32 -10.2482    143.8829    146.7405   8.9169644845e+01   2.5538228222e+01    0.2465684    0.1728457 -84.54   0.00124493    2.154    0.536
        33  -9.1254    109.0789    147.1525   9.6768855291e+01   3.1670311873e+01     0.173476    0.1313305  67.64            0    1.275    0.216
        34 -10.7739     86.9268    145.4454   1.0159570897e+02   3.5541534086e+01    0.2927096     0.212624  70.14 0.0009917429    1.290    0.225
        35 -11.3197    105.6268    139.5276   9.6348375832e+01   3.3703610203e+01    0.4959706    0.3458982 -30.56  0.002550189    2.281    0.562
        36 -12.3306     92.8321    139.9481   9.9415843310e+01   3.5714929119e+01      0.24295    0.2240631 -79.88 0.0004074859    1.190    0.159
        37 -11.3234    208.2290    196.0379   8.5567864165e+01   7.6208392563e+00    0.2076911    0.1328851  37.76 0.0007672025    1.218    0.179
        38 -10.8710    105.8712    130.7438   9.4809501303e+01   3.5382277418e+01    0.3263788    0.2684436  87.80  0.001185475    1.229    0.187
        39 -10.7098    113.4130    130.2455   9.2929225232e+01   3.4150612008e+01    0.2717427    0.2487192 -20.55 0.0008553657    1.406    0.289
        40 -10.8461    135.8497    128.2120   8.7399034938e+01   3.0322890324e+01    0.4223612     0.169903 -47.92  0.001694449    2.718    0.632
        41 -10.1375    160.6649    127.9214   8.2050959530e+01   2.5397211477e+01    0.3116392    0.2140003 -63.43  0.001530475    1.981    0.495
        42 -10.9316    100.7770    126.4922   9.5295668362e+01   3.7110315963e+01    0.2509407    0.2282672  18.96  0.001065518    1.397    0.284
        43 -11.3043    119.4589    123.8816   9.0296455024e+01   3.4279239576e+01    0.5189615    0.3362105 -19.68  0.002140426    3.201    0.688
        44  -9.8719    135.0000    120.4213   8.5986493721e+01   3.1924411170e+01    0.2846534   0.08003591 -46.20 0.0009208755    3.824    0.738
        45 -10.1722    109.0527    119.1087   9.1871895672e+01   3.7146292190e+01    0.1992407    0.1794347  69.98 0.0003178973    1.006    0.006
        46  -9.9295    167.5842    112.4318   7.7204745421e+01   2.6492422257e+01    0.2976905    0.2189639 -76.33   0.00142025    1.991    0.498
        47 -11.7699    118.4710    110.0876   8.7661989183e+01   3.7183833243e+01    0.4987257    0.3710017  61.27  0.002621659    1.342    0.255
        48 -10.2412    205.4549    110.1639   6.9690756395e+01   1.8612144060e+01    0.2976315    0.1816895  41.96 0.0009111676    1.562    0.360
        49  -9.8546    134.5797    105.7256   8.2788494604e+01   3.4770960935e+01    0.2700357    0.1403171 -40.60  0.001139755    2.100    0.524
        50 -10.3291     81.8163    195.0681   1.0813948873e+02   2.7307877421e+01     0.242205    0.1945967  54.50   0.00141379    1.125    0.111
        51 -15.4688     11.1720    206.6858   1.2192937511e+02   3.3336516399e+01    0.9180191    0.4529045  28.02  0.006017668    2.503    0.600
        52  -9.5435    130.7443    213.4676   1.0093238619e+02   1.7611585027e+01    0.1602695    0.1259634 -88.15 0.0006279075    1.638    0.390
        53 -11.2476     41.7372     91.9690   1.0595364014e+02   5.3167531883e+01    0.3051393     0.186039  41.42  0.001205389    1.693    0.409
        54 -10.5971     40.2230     88.0095   1.0580168789e+02   5.4244259441e+01    0.2802838    0.1563754 -80.30  0.001441402    1.701    0.412
        55 -10.6799     53.1169     90.4980   1.0206310927e+02   5.2160801995e+01    0.2161498    0.1652439 -52.60  0.001150436    1.386    0.279
        56  -9.2135    156.4552     80.5536   7.1256727842e+01   3.4418405817e+01    0.1475166    0.1444523  48.86 6.951662e-05    1.006    0.006
        57  -8.9728    184.3692     77.2868   6.4891024181e+01   2.8177239872e+01    0.1577439    0.1091624  26.54 0.0007020691    1.706    0.414
        58  -9.9488     63.6402     69.8767   9.3995968501e+01   5.5434959502e+01    0.1982841    0.1908518  20.42 0.0004764912    1.237    0.192
        59 -11.3796    155.2064     57.7691   6.4547874463e+01   3.8513631691e+01    0.4337217    0.3049084 -75.69  0.001138948    1.916    0.478
        60 -11.5707    134.4125    246.2919   1.0346807255e+02   1.3076995585e+01    0.1793398    0.1210361  43.37  0.001060341    1.037    0.035
        61 -13.7331    183.1434     46.1092   5.5724217725e+01   3.2935020116e+01     1.150488    0.9365988  -2.03  0.001007288    1.339    0.253
        62 -11.0625    144.3432    244.0946   1.0169816450e+02   1.1969358667e+01    0.1824163    0.1034184  37.81 0.0006718055    1.323    0.244
        63 -10.8248    113.6269    208.4147   1.0345944517e+02   2.0810966552e+01    0.1909962    0.1480219  62.17 0.0006600132    1.180    0.152
        64 -10.3457    158.1287     52.2551   6.2143858609e+01   3.8623775475e+01    0.2688942    0.2300845 -53.88 0.0003899534    1.213    0.176
        65 -10.9266    106.3828    210.8256   1.0499756711e+02   2.1495405442e+01    0.3770076    0.2190762  37.99  0.002348888    1.507    0.337
        66 -12.2917    193.0299    194.7367   8.7842154665e+01   1.0191349294e+01    0.7257056    0.4431357 -65.64  0.003160477    5.292    0.811
        67  -9.2381    167.3219     19.6792   4.9140320975e+01   4.0505628026e+01    0.1640482    0.1089239 -58.40 0.0007045075    1.673    0.402
        68 -10.3336     72.8154    230.7686   1.1239907782e+02   2.3031086290e+01    0.2666195    0.1054939  40.96  0.001637895    1.849    0.459
        69 -10.1760    189.6357     14.9068   4.4612961426e+01   3.4864000534e+01    0.2530234    0.2025275  54.85 0.0007583487    1.272    0.214
