#   1 NUMBER                 Running object number                                     
#   2 MAG_AUTO               Kron-like elliptical aperture magnitude                    [mag]
#   3 X_IMAGE                Object position along x                                    [pixel]
#   4 Y_IMAGE                Object position along y                                    [pixel]
#   5 X_WORLD                Barycenter position along world x axis                     [deg]
#   6 Y_WORLD                Barycenter position along world y axis                     [deg]
#   7 A_WORLD                Profile RMS along major axis (world units)                 [deg]
#   8 B_WORLD                Profile RMS along minor axis (world units)                 [deg]
#   9 THETA_WORLD            Position angle (CCW/world-x)                               [deg]
#  10 FWHM_WORLD             FWHM assuming a gaussian core                              [deg]
#  11 ELONGATION             A_IMAGE/B_IMAGE                                           
#  12 ELLIPTICITY            1 - B_IMAGE/A_IMAGE                                       
         1 -13.3215    182.3661     32.1248   6.7865282973e+01   3.5950646766e+01     1.167462    0.9738508  15.69   0.00493946    1.612    0.380
         2 -12.2566    186.6791     25.4982   6.5584275045e+01   3.5717493359e+01    0.6189603    0.5107169 -55.76  0.001438515    1.236    0.191
         3 -11.3734    204.1893      2.3072   5.8110148976e+01   3.4126141311e+01    0.7173804     0.249563  73.09  0.003128869    2.483    0.597
         4  -9.3445     59.5006      6.5006   8.6711510797e+01   6.4836020370e+01    0.1165441   0.09115768  16.58 -0.0001565366    1.001    0.001
         5  -9.7728    171.7247    217.0213   1.1348710561e+02   3.0994668205e+00    0.1841638    0.1808202 -10.83 0.0003914869    1.093    0.085
         6 -19.4169     31.1804    139.6375   1.3407944644e+02   4.3287900068e+01     20.14523     2.838913 -66.77   0.04986209    6.705    0.851
         7  -8.5855    164.6997    207.3345   1.1326960319e+02   6.2685404653e+00    0.1418965    0.1111282  78.86 0.0007034195    1.655    0.396
         8  -8.9136     92.8946    206.9944   1.2889806349e+02   1.9145366451e+01    0.2086991     0.185748  79.92 0.0005516753    1.043    0.041
         9  -9.4288     84.0511    205.6174   1.3063652741e+02   2.0845356062e+01    0.2568909    0.2106312 -41.35  0.001465573    1.597    0.374
        10 -10.4453    107.5416    203.3698   1.2515409031e+02   1.7527838745e+01    0.4470088    0.3179448  16.11  0.002119538    2.158    0.537
        11 -11.1868    194.3154    194.0819   1.0454413939e+02   3.2570822854e+00    0.7337407    0.3860722 -49.15    0.0027915    2.069    0.517
        12  -9.7670    190.9782    189.6595   1.0436010575e+02   4.7508116865e+00    0.3279935    0.2800525 -39.30  0.001791618    1.185    0.156
        13  -8.7623    102.2996    195.2276   1.2509276962e+02   2.0259279580e+01     0.239948    0.1658641 -59.70 0.0006066168    1.444    0.307
        14  -8.6518    114.3385    195.3143   1.2236520256e+02   1.8156574151e+01    0.1392701    0.1162818 -12.24 0.0004882344    1.697    0.411
        15  -8.6612    164.0000    215.0167   1.1476022277e+02   4.8947700406e+00    0.2182325   0.08052205 -48.46  0.000802004    2.939    0.660
        16  -9.9271    211.0370    180.0809   9.8342333810e+01   2.7571849939e+00    0.5341291    0.3598837 -18.55  0.002500077    1.795    0.443
        17 -10.7575     86.6420    177.6674   1.2599394209e+02   2.6953013186e+01    0.5169634    0.2741199 -46.10  0.001065791    2.171    0.539
        18 -10.8121     89.5039    172.5051   1.2445732691e+02   2.7737204130e+01    0.4275944     0.275297 -42.25  0.001987505    1.847    0.459
        19  -8.7898     99.2048    180.7961   1.2350242718e+02   2.4149715791e+01    0.2159984    0.1837691  74.48 0.0005946673    1.128    0.113
        20  -8.4181     95.5805    179.7948   1.2420062828e+02   2.4994723397e+01    0.1977828    0.1313404 -75.34 0.0006242061    1.583    0.368
        21 -10.3564    197.4881    174.1462   9.9831628779e+01   6.5481953813e+00    0.6442952    0.3456335 -48.65  0.002701258    1.939    0.484
        22 -10.9652    250.3504    170.2157   8.9080316389e+01  -2.5508457865e+00    0.6092359    0.2997053 -48.53  0.002682641    2.197    0.545
        23 -10.1562    100.5506    170.0161   1.2131720381e+02   2.6497014686e+01    0.3356608    0.1648226  55.38  0.001281256    2.432    0.589
        24 -10.0880     95.6356    163.1659   1.2130086557e+02   2.8989042901e+01    0.2994892    0.2481974 -61.02 0.0003849506    1.150    0.130
        25 -11.9364     84.1285    158.4657   1.2336924491e+02   3.2004967373e+01    0.5549641    0.4781133  16.08  0.001647995    1.458    0.314
        26 -10.0728     99.6096    157.4342   1.1921620705e+02   2.9704265268e+01    0.4491587    0.3676449 -21.28  0.001253444    1.596    0.373
        27  -9.6680    101.5049    153.4807   1.1795495863e+02   3.0334781234e+01    0.3539785    0.2533982  54.70  0.001675793    1.473    0.321
        28  -9.4880    134.2259    145.8372   1.0798315664e+02   2.5913670047e+01    0.7817573    0.1332974 -51.40  0.001604525    6.842    0.854
        29  -9.3263    145.0603    145.9194   1.0533800635e+02   2.3638092526e+01     0.242456    0.2352293  73.85 0.0008053142    1.029    0.028
        30 -10.3931    110.0126    140.7864   1.1306947230e+02   3.1863623680e+01    0.4905236    0.3012275 -37.36  0.002058563    1.890    0.471
        31 -10.6124     99.3154    140.8512   1.1592687527e+02   3.3779874638e+01    0.2960585    0.2693145 -36.87 0.0004230471    1.176    0.149
        32 -10.5281      3.6782    137.5473   1.4085648405e+02   4.6018279446e+01    0.2179186    0.2136019 -58.44 0.0009032717    1.312    0.238
        33  -9.8165      9.9363    137.0385   1.3922198622e+02   4.5693058996e+01    0.1812205     0.173552 -42.66 0.0003205856    1.305    0.234
        34 -10.3185    105.5145    128.8846   1.1157580394e+02   3.5529959462e+01    0.6378584    0.3058735 -58.03  0.002393389    2.223    0.550
        35 -10.2490    117.0302    130.4682   1.0884986621e+02   3.2971886416e+01    0.3862109    0.3343875 -16.25  0.001488413    1.356    0.262
        36  -9.0621    135.3969    124.7617   1.0268709898e+02   3.0530865906e+01    0.2311956    0.1455502 -37.30 0.0009537446    1.706    0.414
        37  -8.6861    111.5078    119.5241   1.0767971902e+02   3.6583615668e+01    0.1519651    0.1460039 -52.05 4.724305e-05    1.006    0.006
        38 -10.5247     74.8173    117.8233   1.1771898534e+02   4.3241323177e+01     0.307053    0.2333659  49.38  0.001566283    1.479    0.324
        39  -8.7089    168.5570    113.4050   9.1907025219e+01   2.5576666273e+01    0.3130197    0.2102292 -73.03 0.0009888549    2.102    0.524
        40  -8.5393    205.5171    110.4420   8.3720125643e+01   1.7635122417e+01    0.1497073    0.1415096 -60.54 0.0002077843    1.016    0.016
        41  -9.0687     10.1167    213.9556   1.4633787725e+02   2.8311101632e+01    0.2287639    0.1592148   9.00  0.001369386    2.844    0.648
        42  -7.9772     78.6206     74.7378   1.0511896725e+02   5.1936861273e+01     0.140262    0.1007818  -1.40 0.0006980448    1.674    0.403
        43 -10.0602    116.1542    212.1788   1.2458003407e+02   1.4118701428e+01    0.3306355    0.2240376  71.69 0.0008550261    1.679    0.405
        44 -12.0716    168.3820     46.6085   7.3958553142e+01   3.7426536558e+01    0.6629708    0.5573621 -71.60  0.002279785    1.235    0.190
        45  -9.4772    168.2767    248.0036   1.1915000322e+02  -1.7556399924e+00    0.1711524    0.1588269  32.86 0.0003468792    1.089    0.082
        46 -10.4434    171.5327    239.2572   1.1717729341e+02  -8.4579754510e-01    0.2914055    0.1944024  53.27  0.001561365    1.579    0.367
        47  -9.9168    108.3802    209.5549   1.2588423748e+02   1.6020436376e+01    0.3234868    0.2586138  53.24  0.001821305    1.151    0.131
        48  -9.5172    173.9811    229.7471   1.1516508511e+02   3.7762521271e-01    0.1834914    0.1044184  39.55 0.0008881456    1.574    0.365
