#   1 NUMBER                 Running object number                                     
#   2 MAG_AUTO               Kron-like elliptical aperture magnitude                    [mag]
#   3 X_IMAGE                Object position along x                                    [pixel]
#   4 Y_IMAGE                Object position along y                                    [pixel]
#   5 X_WORLD                Barycenter position along world x axis                     [deg]
#   6 Y_WORLD                Barycenter position along world y axis                     [deg]
#   7 A_WORLD                Profile RMS along major axis (world units)                 [deg]
#   8 B_WORLD                Profile RMS along minor axis (world units)                 [deg]
#   9 THETA_WORLD            Position angle (CCW/world-x)                               [deg]
#  10 FWHM_WORLD             FWHM assuming a gaussian core                              [deg]
#  11 ELONGATION             A_IMAGE/B_IMAGE                                           
#  12 ELLIPTICITY            1 - B_IMAGE/A_IMAGE                                       
         1 -13.5108    226.5390      6.7075   3.3474112718e+01   2.8624237785e+01     1.951686        1.166  46.89   0.01002754    2.188    0.543
         2 -13.0689    182.9323     51.3051   4.9744773132e+01   3.3376711719e+01    0.9622796    0.9068463  18.63 0.0009878261    1.178    0.151
         3 -13.3140    194.9270     41.4909   4.5279442204e+01   3.1835949343e+01     1.154031    0.9782436 -56.17  0.003451011    1.139    0.122
         4 -13.5348    202.8534     33.3977   4.2149517973e+01   3.0991255454e+01     1.109939    0.9978635  -8.77  0.001383993    1.334    0.250
         5 -11.1888     42.9281      5.8437   6.9880937924e+01   6.9091212768e+01     0.355008    0.1410797 -33.92   0.00171587    2.554    0.608
         6 -11.6542     55.8733      4.5743   6.3808408431e+01   6.7157161435e+01    0.3980045    0.1831475  44.33  0.002026908    1.988    0.497
         7 -10.9361     31.8903      2.7130   7.3435997004e+01   7.1009998735e+01    0.4301315     0.127315  33.47  0.001831654    3.306    0.698
         8 -11.8541    112.4308    196.6676   1.0093896591e+02   1.8557407469e+01    0.6746262    0.4202307  -5.69  0.002543045    3.614    0.723
         9 -11.6136    139.9105    246.8650   1.0199674535e+02   4.7937958707e+00    0.6757332    0.2941737 -50.40  0.003300223    2.732    0.634
        10 -18.7282     15.7755    190.5732   1.2214052089e+02   3.2078005484e+01      16.0509     4.686587 -79.69   0.06510238    3.236    0.691
        11  -9.1928     92.0012    184.0923   1.0389591967e+02   2.4514656923e+01    0.2071363    0.1927994  64.69 0.0004684985    1.023    0.022
        12 -12.7667    107.7758    203.9835   1.0307563295e+02   1.7739116230e+01    0.9075227    0.4399998 -45.05 0.0004887165    2.453    0.592
        13 -10.6359     99.0031    180.9110   1.0170504945e+02   2.4170946016e+01    0.4070331    0.2480356  28.29  0.001842138    1.816    0.449
        14 -11.5165    111.8843    205.0057   1.0229180873e+02   1.6885193199e+01    0.4237568    0.2784666 -76.65  0.001346339    1.923    0.480
        15 -10.4052    209.2799    190.1600   7.8549451901e+01   3.1872490427e+00    0.2766063    0.1479333  23.98  0.001223808    2.114    0.527
        16 -10.4974     53.4442    163.4802   1.1062576514e+02   3.4560971741e+01    0.2348472    0.1784708 -63.04 0.0006012955    1.223    0.182
        17 -11.3184     47.0678    172.7654   1.1336633985e+02   3.3063740741e+01    0.4791639    0.4334239 -70.07  0.001946814    1.146    0.127
        18 -10.4406     50.6793    170.7125   1.1223603657e+02   3.3144460319e+01    0.2531389    0.1899839 -76.18 0.0006273779    1.198    0.165
        19  -9.9199    188.3137    176.6037   8.0099973893e+01   9.2826671000e+00    0.3685562    0.3375311 -77.98     0.002022    1.462    0.316
        20  -8.7848    149.0033    176.2498   8.8803010111e+01   1.6614044658e+01    0.2140235    0.1980082  79.52 0.0004256747    1.256    0.204
        21  -9.5991    146.8149    172.2784   8.8537957544e+01   1.7860339286e+01    0.2915324    0.2055657 -62.12  0.001359615    1.706    0.414
        22  -9.4712     84.1518    173.5963   1.0425695504e+02   2.8109244811e+01    0.2135915    0.1787842 -45.19  0.000262775    1.296    0.228
        23  -9.0273    194.1718    171.6786   7.7850806097e+01   9.1311023874e+00    0.2428643    0.1916611 -42.56 0.0008801572    1.331    0.249
        24  -9.3163    185.5009    169.9854   7.9321518047e+01   1.1061792181e+01    0.2156133    0.1395405 -39.60 0.0005104239    1.526    0.345
        25 -10.0815    240.0184    169.4857   6.8638684004e+01   1.5234612749e+00    0.1882329      0.12727  33.93 0.0005139123    1.565    0.361
        26  -9.7799    137.5739    168.3321   8.9974845169e+01   2.0422932103e+01    0.3123902    0.2743171  56.49  0.001427086    1.215    0.177
        27  -8.5053    195.7950    190.3477   8.1293155675e+01   5.4485181641e+00    0.1866958    0.1194054  26.76 0.0001183955    1.543    0.352
        28 -11.5264     92.4062    151.7454   9.8399725111e+01   3.2101003339e+01    0.7236024    0.5079987 -28.70  0.003381376    1.804    0.446
        29 -10.7393    133.7985    145.6695   8.6141587695e+01   2.6226904127e+01     1.248096    0.3354699 -54.57  0.002932393    5.703    0.825
        30  -9.4797    111.9651    150.4430   9.2881738124e+01   2.9153987407e+01    0.4675266    0.2854088  69.65  0.001738794    2.801    0.643
        31  -9.3866    174.9069    149.1521   7.7063582488e+01   1.7265116008e+01    0.2289817     0.214666 -87.65 0.0007804858    1.287    0.223
        32 -10.3781    104.9480    138.0146   9.2165979704e+01   3.3346195868e+01    0.5648077    0.3370341 -27.34  0.002185891    2.426    0.588
        33 -10.2956    105.9441    130.8550   9.0286818279e+01   3.4885651051e+01    0.3985068    0.3259829 -62.05  0.001130898    1.256    0.204
        34 -11.7501     92.6432    137.7583   9.5574142419e+01   3.5467694341e+01    0.2923017     0.260971 -39.64 0.0005645225    1.123    0.110
        35  -8.2593    224.2563    206.6425   7.8826118337e+01  -1.8471367570e+00    0.1123465    0.1024636 -50.25 0.0003323579    1.615    0.381
        36 -10.7508    135.8574    128.9127   8.1671014604e+01   2.9619121000e+01     0.702415    0.2237953 -50.73  0.002037347    3.490    0.713
        37 -11.3834    119.0780    123.9636   8.4958157781e+01   3.4075792730e+01    0.9038943    0.4315154 -35.37  0.003155924    2.562    0.610
        38  -9.3062    160.9294    128.1821   7.5263894842e+01   2.4539087972e+01    0.2454705    0.2240977 -86.27  0.001248148    1.295    0.228
        39  -8.3703     95.5928    127.7971   9.2564616973e+01   3.7402861548e+01    0.1945977    0.1413689 -64.61 0.0003395561    1.455    0.313
        40 -10.3158    100.5760    125.0287   9.0475636298e+01   3.7219685479e+01     0.318863    0.2559587 -19.34 0.0008558839    1.429    0.300
        41 -10.4518    113.5160    129.1101   8.7751459286e+01   3.3926090560e+01    0.3930858    0.3641345  30.13 0.0008922992    1.113    0.101
        42  -9.2924    108.9791    118.2933   8.6402003612e+01   3.7303717508e+01    0.2483362    0.2105651 -45.49 0.0004173166    1.132    0.116
        43 -10.0016    231.4200    113.6895   5.7800464147e+01   1.2468254761e+01    0.2705554     0.238213 -16.98  0.000781929    1.119    0.107
        44  -9.0403    167.9997    113.0051   6.9742656172e+01   2.6134966799e+01     0.259296     0.198389 -78.02  0.001143256    1.843    0.458
        45 -10.0735    134.6347    105.1444   7.5774431460e+01   3.5105118068e+01    0.5418407    0.1510935 -45.78  0.001517901    3.628    0.724
        46  -9.5141    205.3707    110.2594   6.1428573073e+01   1.8436489437e+01    0.2901413    0.2059702  43.76 0.0009578764    1.511    0.338
        47 -10.3289    149.4399    187.4853   9.0826646754e+01   1.4203446584e+01    0.3383979    0.2613259 -75.65  0.001443022    1.761    0.432
        48 -11.6211    117.1869    108.9383   8.1608787200e+01   3.7873972453e+01    0.7577714    0.6172282  87.75  0.003575329    1.653    0.395
        49  -9.3684     93.4400    205.6976   1.0654082165e+02   1.9537767351e+01    0.2366043     0.192724 -11.85 0.0008194779    1.701    0.412
        50  -8.6927     86.8108    203.1911   1.0771401969e+02   2.1031666427e+01    0.1728955    0.1578536 -26.08  0.001071029    1.360    0.265
        51 -10.5115    120.2151    194.2636   9.8757145074e+01   1.7807795670e+01    0.3037683    0.2304088 -85.34 0.0007313628    1.647    0.393
        52 -10.2051     39.8275     88.6210   1.0166113526e+02   5.4282572812e+01    0.2453368    0.1546783 -48.02  0.001133547    1.328    0.247
        53  -8.5575    157.1483     82.1925   6.3648411124e+01   3.4575425960e+01    0.2085483    0.1824186 -71.14 0.0005156065    1.305    0.234
        54  -9.0879     62.2618     69.2180   8.7914414958e+01   5.5947700085e+01    0.1753832    0.1678687 -77.58 0.0007717758    1.339    0.253
        55  -8.0475    168.2744    248.2584   9.6584332798e+01   3.3772238829e-01     0.116183   0.08297372  10.43 0.0006843383    1.463    0.317
        56  -9.5042     82.1357    195.1608   1.0776293643e+02   2.3451950215e+01    0.3020514    0.2652112  -1.51  0.001810537    1.467    0.318
        57  -8.6061    241.3312    243.6826   8.2205703597e+01  -9.2874618248e+00   0.09840452   0.08986968  26.92 0.0007047302    1.687    0.407
        58  -9.0815    158.3682    235.7228   9.6771695821e+01   3.8084079856e+00    0.1631682    0.1158168 -31.72  0.000686124    1.630    0.387
        59 -12.4651    193.9768    205.0026   8.4431653407e+01   3.2245950133e+00    0.9498899    0.4340228  19.22  0.003213983    3.942    0.746
        60 -15.1983     71.4759    147.9712   1.0346816284e+02   3.6091664130e+01     7.068753      3.55989  77.96   0.01044945    5.865    0.830
        61 -11.1041    193.2872    195.4976   8.2799281732e+01   4.9733129537e+00    0.9592404    0.4922396 -60.38  0.003011776    5.367    0.814
        62  -8.9711    189.5105     14.9901   3.8956846030e+01   3.6221747556e+01    0.1836997    0.1249124 -32.35 0.0005756391    1.547    0.354
        63  -8.8186    168.7684    233.7880   9.4379831033e+01   2.5102582008e+00    0.1578827    0.1407485  49.35 0.0003578341    1.313    0.238
        64 -11.9758    163.6508    214.5904   9.2408979610e+01   6.5804746233e+00    0.4812583    0.4393433  -4.90  0.003020145    1.110    0.099
