#   1 NUMBER                 Running object number                                     
#   2 MAG_AUTO               Kron-like elliptical aperture magnitude                    [mag]
#   3 X_IMAGE                Object position along x                                    [pixel]
#   4 Y_IMAGE                Object position along y                                    [pixel]
#   5 X_WORLD                Barycenter position along world x axis                     [deg]
#   6 Y_WORLD                Barycenter position along world y axis                     [deg]
#   7 A_WORLD                Profile RMS along major axis (world units)                 [deg]
#   8 B_WORLD                Profile RMS along minor axis (world units)                 [deg]
#   9 THETA_WORLD            Position angle (CCW/world-x)                               [deg]
#  10 FWHM_WORLD             FWHM assuming a gaussian core                              [deg]
#  11 ELONGATION             A_IMAGE/B_IMAGE                                           
#  12 ELLIPTICITY            1 - B_IMAGE/A_IMAGE                                       
         1 -14.4620     68.8212    144.3134   1.0011715064e+02   3.7370978480e+01     4.847533     2.537438  68.13  0.009139461    3.597    0.722
         2 -13.3615    199.5954     41.9393   4.2113603899e+01   3.0397422755e+01      1.12578    0.9917967 -47.16  0.003489341    1.154    0.134
         3 -13.7914    209.5591     32.3081   3.8631747405e+01   2.9363322588e+01     1.288957    0.9283221 -13.85  0.001584187    1.932    0.482
         4 -12.9391    234.8609      6.2157   3.0738840544e+01   2.6897477295e+01    0.8203853    0.6111809 -85.48  0.004994025    1.153    0.133
         5  -9.4519     59.8440      7.6067   5.9863681592e+01   6.5883944346e+01    0.1640588     0.109406  54.97 0.0009460044    1.716    0.417
         6 -10.2275    184.0077    212.9981   8.4277887010e+01   2.6284533726e+00     0.168797    0.1478304   7.74 0.0009252616    1.005    0.005
         7 -11.1046    140.0089    248.6844   9.8906377048e+01   3.3686288004e+00      0.43358    0.2788669 -52.21   0.00249334    1.857    0.462
         8  -9.8433    129.9495    249.6877   1.0108305393e+02   4.7022967169e+00    0.1856542    0.1406936  38.04 0.0008899564    1.105    0.095
         9 -11.5201    115.7502    247.4732   1.0371460828e+02   7.1961989398e+00    0.5293376    0.3306614 -68.89  0.002932477    2.042    0.510
        10 -11.1416    119.8702    244.7214   1.0253738249e+02   7.0780719203e+00    0.3204977    0.2251285  48.41  0.001170774    1.285    0.222
        11 -14.3816     53.9785    185.1978   1.1013487923e+02   2.9155585467e+01     12.71315     5.238881  75.59    0.0295947    8.597    0.884
        12  -9.3477     89.4729    211.3685   1.0497393613e+02   1.8275279025e+01    0.2249906    0.1977096  70.34 0.0004124921    1.067    0.063
        13  -8.0944    224.2544    206.6500   7.5227304602e+01  -2.5809156608e+00     0.113416    0.1008634 -51.88 0.0002540174    1.596    0.374
        14 -10.9131    193.1923    195.4566   7.9161627690e+01   4.2375171578e+00    0.9344754    0.4697611 -61.26  0.002750148    5.902    0.831
        15 -10.0453     60.0162    197.6200   1.1013046361e+02   2.5466016407e+01    0.2275098     0.192849  85.89  0.000349901    1.066    0.062
        16  -9.9847    147.6607    187.4276   8.7589613602e+01   1.3837243994e+01    0.3662787    0.2299117 -61.79  0.001174895    1.996    0.499
        17 -11.0876    111.2556    203.8396   9.8896829913e+01   1.6544397599e+01    0.3338445    0.2570518  81.04 0.0009600649    1.536    0.349
        18  -9.3945     79.3708    183.0232   1.0354550581e+02   2.6256617990e+01    0.2022269    0.1676073 -76.03 0.0004964204    1.169    0.145
        19  -9.8743     99.3810    180.7782   9.8156104502e+01   2.3709385310e+01    0.2800959    0.2413051 -47.08 0.0005888231    1.226    0.184
        20 -10.5168    107.5089    203.4993   9.9722037261e+01   1.7220089322e+01    0.2477875    0.1966666  81.26 0.0007664984    1.422    0.297
        21 -10.0088    187.1647    175.5824   7.6463896308e+01   9.0333040195e+00     0.360749    0.2853663 -51.55  0.001141417    1.413    0.292
        22 -13.0586     70.3980    154.1194   1.0138957283e+02   3.4673434372e+01    0.6660764    0.6090073 -37.44  0.001116661    1.196    0.164
        23 -17.2230     15.3273    242.7546   1.2301435535e+02   2.0898462571e+01     7.424677     5.490597  83.78   0.02598561    1.157    0.136
        24  -8.9435    134.3379    171.3233   8.7680358327e+01   1.9809095457e+01    0.1561925    0.1186731  -8.84 0.0007050936    1.718    0.418
        25  -8.4684    193.5163    170.4828   7.4083671842e+01   8.8592629743e+00    0.1434476    0.1337273 -15.28 0.0008096426    1.053    0.051
        26  -9.9503    240.7285    169.4167   6.5045254812e+01   9.6654860580e-01    0.1715081    0.1195369  22.47 0.0009454886    1.579    0.367
        27 -12.0500     81.7076    159.2268   9.9142029794e+01   3.1740497589e+01     1.025509     0.618161  68.46 0.0004423907    2.324    0.570
        28  -9.1825    110.8353    168.0589   9.2986989450e+01   2.4808435557e+01    0.2310171     0.201975  85.11 0.0005344045    1.238    0.193
        29  -8.3061     29.4394    164.4567   1.1390916817e+02   3.6929707902e+01    0.1318578     0.111069 -85.09 6.980026e-05    1.004    0.004
        30 -14.8887     45.8788    199.5126   1.1359966883e+02   2.6769647379e+01      8.87674     3.098863  65.23   0.01385564    7.382    0.865
        31 -11.5678     89.0990    152.2165   9.5820260013e+01   3.2334702259e+01    0.7069824    0.4814962 -23.04  0.003067472    2.093    0.522
        32 -10.4381    134.3728    147.2355   8.2585420449e+01   2.5342055450e+01    0.8484585     0.279823 -53.74  0.002466571    3.559    0.719
        33 -10.0442    132.7839    140.7610   8.1513254199e+01   2.7158756874e+01     0.492407    0.2207981 -53.41  0.001725062    2.391    0.582
        34  -9.0766    174.8381    148.8666   7.3325245161e+01   1.6810184973e+01    0.2084384    0.1844825 -76.60 0.0006583363    1.361    0.265
        35  -8.5093    111.9773    150.0000   8.9086232275e+01   2.8950682593e+01    0.2501704   0.08776041  37.77 0.0007970211    2.905    0.656
        36  -9.9236     38.9122    146.3123   1.0906556148e+02   4.0504871753e+01    0.3030421    0.2455067  87.88 0.0008530064    1.188    0.159
        37 -10.1707    102.7212    138.3755   8.9132364113e+01   3.3451433853e+01    0.5621578    0.3532739 -20.43  0.002120339    2.594    0.614
        38 -10.0499    105.9388    130.8746   8.6508252182e+01   3.4692846041e+01    0.3988982     0.327248 -58.09  0.001324676    1.213    0.176
        39 -11.6069     90.1062    137.9859   9.2668415409e+01   3.5716650624e+01    0.2968093    0.2657595 -32.55 0.0003941468    1.170    0.145
        40 -10.0508    135.5577    129.0584   7.7989179341e+01   2.9284390223e+01    0.3677461    0.1511388 -52.22  0.001204584    2.660    0.624
        41  -9.7923    111.7824    129.3392   8.4487014856e+01   3.3966788270e+01    0.3498859    0.2728299   8.44 0.0009568351    1.605    0.377
        42 -10.9507     43.1758    129.0037   1.0509606199e+02   4.4426970152e+01    0.4763634     0.222916  47.23  0.001985631    2.549    0.608
        43  -9.9778     32.5993    129.2567   1.0839067063e+02   4.5430379330e+01    0.3277036    0.1715578 -44.89  0.001520747    1.923    0.480
        44 -10.3718     29.1236    128.5863   1.0934998641e+02   4.5918475633e+01    0.2756914    0.1995881 -62.39  0.001552577    1.171    0.146
        45 -10.1990     67.1801    125.1231   9.6865381904e+01   4.2438890792e+01    0.2844414    0.2515146  -7.12  0.001560337    1.276    0.217
        46  -9.0106    161.0000    128.0172   7.1496761638e+01   2.4115230942e+01    0.2655411   0.08685163 -43.38  0.000805223    2.962    0.662
        47 -10.2689     99.0566    125.1806   8.7157221588e+01   3.7321425972e+01    0.3197395     0.264705 -12.95  0.001440782    1.413    0.292
        48 -10.1361    117.9663    123.5051   8.1326044027e+01   3.4142818766e+01    0.3123276    0.2058858  25.58  0.001126609    1.829    0.453
        49  -9.1223     89.3794    122.6042   8.9440502299e+01   3.9633062410e+01    0.4119005    0.2346012  65.11  0.001413512    3.235    0.691
        50  -8.8734    135.0000    119.9746   7.5841110671e+01   3.1451236584e+01    0.2610471   0.08844315 -45.49 0.0007941338    2.885    0.653
        51  -9.3207    108.0198    118.3865   8.2858929096e+01   3.7281387769e+01    0.2375562    0.2048214 -34.84 0.0002851399    1.156    0.135
        52 -11.0382     34.2252    118.9795   1.0618719150e+02   4.7849988885e+01    0.3196896    0.2389914   1.91  0.001766364    1.654    0.396
        53 -11.4269     73.3140    167.6008   1.0278987358e+02   3.0890543564e+01    0.5036997    0.3367704 -51.63  0.001334602    1.498    0.333
        54  -9.8945    231.3253    113.7248   5.4658208877e+01   1.2210068372e+01    0.2648463    0.2323077 -48.09 0.0007471812    1.071    0.066
        55  -9.3121    135.0000    112.4929   7.3879660464e+01   3.3106836068e+01    0.3603749    0.0883064 -44.49 0.0009421158    3.994    0.750
        56  -8.4683    147.7997    174.5512   8.5070214180e+01   1.6582469554e+01    0.1963291    0.1399453  49.52 0.0003449234    1.486    0.327
        57 -11.2600    244.3380    109.0176   5.1728629674e+01   1.0559038642e+01    0.4932315    0.2095141 -31.65  0.002011308    2.432    0.589
        58  -9.4648    205.3235    110.2748   5.8111350865e+01   1.8079306887e+01    0.2922943    0.2036242  44.86  0.001067455    1.580    0.367
        59 -10.4866    114.8968    108.4104   7.8256582985e+01   3.8223725738e+01    0.5000017    0.2173905 -43.99  0.001784711    2.250    0.556
        60 -10.0495    119.5218    173.4960   9.1789064408e+01   2.1998847914e+01    0.2745123    0.1465094  25.42    0.0010398    2.403    0.584
        61  -8.2848    138.8383    105.8259   7.1093460398e+01   3.3706683585e+01     0.207536    0.1847087 -81.88 0.0004823112    1.283    0.221
        62 -11.0093     45.3401    105.6420   9.9878029622e+01   5.0000212647e+01    0.3682992     0.246173  36.72  0.001346905    1.679    0.404
        63 -11.3859     69.2108    172.2569   1.0457415036e+02   3.0314780159e+01    0.4060902     0.287116 -33.00  0.001997221    1.843    0.458
        64  -9.8563     39.8566    103.1227   1.0123848472e+02   5.1198500845e+01    0.2205357    0.1912089 -53.57 0.0008294606    1.019    0.019
        65  -9.5481     34.0528    100.4822   1.0272160590e+02   5.2409829569e+01     0.215566      0.16166 -55.68 0.0007144271    1.135    0.119
        66 -10.3790     30.5513     98.4493   1.0354449436e+02   5.3220808819e+01    0.2971551    0.2130072 -23.15  0.001322637    1.529    0.346
        67  -8.7414    126.5592     93.8122   7.0914174960e+01   3.8918433965e+01    0.2092433    0.1456338 -54.20  0.000326469    1.571    0.363
        68  -9.0844     34.6991    171.5070   1.1334987395e+02   3.4670824431e+01    0.2194918    0.1552558  61.83 0.0007644786    1.390    0.280
        69  -9.3545    156.0289     88.1651   6.2079536497e+01   3.3332367077e+01    0.3493193    0.2229648 -64.96  0.001159066    2.169    0.539
        70 -14.4961     10.3958    206.3912   1.2185826407e+02   2.8917651606e+01    0.9010994    0.7714706  12.47  0.002591523    1.660    0.398
        71  -8.8882    115.2702     84.3389   7.1210564556e+01   4.3278637058e+01    0.2842985    0.1852154  67.81   0.00114403    2.277    0.561
        72  -9.1855    158.4865     82.9904   6.0086246292e+01   3.3714788281e+01    0.2273836    0.1474596 -38.35 0.0004173386    1.531    0.347
        73  -8.1130     69.9906     81.7835   8.4952770216e+01   5.2257582351e+01    0.1688649    0.1160109  31.17 0.0003172635    1.526    0.345
        74  -8.0218    184.6761     76.7116   5.3289153093e+01   2.8650565096e+01    0.1424545    0.1145397  21.23   0.00044758    1.607    0.378
        75  -8.4444     56.4770     66.5406   8.5204422126e+01   5.7435100739e+01    0.1359561    0.1226695 -22.19 0.0003609718    1.063    0.059
        76 -13.0656    188.9169     49.9476   4.5584994654e+01   3.1794150840e+01     1.070834    0.8373155  22.82  0.001654915    1.757    0.431
        77 -10.8715    121.4868    197.1982   9.5452706403e+01   1.6303678583e+01      0.46518    0.2735358 -74.19   0.00147727    2.521    0.603
        78  -8.2399     33.4699     37.4709   8.4539167007e+01   6.5791636280e+01    0.1258977    0.1024116 -15.06 4.861345e-05    1.020    0.019
        79 -11.2437     20.0814     33.4196   8.9439498256e+01   6.7886697336e+01    0.3907346    0.1755486  34.07   0.00149816    2.611    0.617
        80 -11.4071    126.5678    244.6476   1.0114477894e+02   6.0873134428e+00    0.3497835    0.2876171  39.32  0.002244632    1.034    0.032
        81  -8.8112     67.0812     51.8200   7.5965617256e+01   5.8587377459e+01    0.1894344    0.1819664  30.31 0.0006312887    1.264    0.209
        82  -9.2526    198.2582     23.5138   3.7744107216e+01   3.2986646669e+01    0.2327504    0.1566297 -13.86 0.0008149565    2.078    0.519
        83  -9.1944    189.6558     14.9548   3.6559275152e+01   3.5919365210e+01     0.177403    0.1524605 -61.17 0.0006625898    1.130    0.115
        84 -15.2588      2.7087    198.7451   1.2297008904e+02   3.1280966143e+01     12.49804          nan -72.64  0.009353144   11.627    0.914
