#   1 NUMBER                 Running object number                                     
#   2 MAG_AUTO               Kron-like elliptical aperture magnitude                    [mag]
#   3 X_IMAGE                Object position along x                                    [pixel]
#   4 Y_IMAGE                Object position along y                                    [pixel]
#   5 X_WORLD                Barycenter position along world x axis                     [deg]
#   6 Y_WORLD                Barycenter position along world y axis                     [deg]
#   7 A_WORLD                Profile RMS along major axis (world units)                 [deg]
#   8 B_WORLD                Profile RMS along minor axis (world units)                 [deg]
#   9 THETA_WORLD            Position angle (CCW/world-x)                               [deg]
#  10 FWHM_WORLD             FWHM assuming a gaussian core                              [deg]
#  11 ELONGATION             A_IMAGE/B_IMAGE                                           
#  12 ELLIPTICITY            1 - B_IMAGE/A_IMAGE                                       
         1 -15.0458      7.9669    148.2248   1.3167788686e+02   4.3611815765e+01     3.670975    0.9463713 -82.04   0.01601055    3.804    0.737
         2 -15.0274     43.7749    200.6733   1.2854913551e+02   3.0909340251e+01     7.839528      1.79933  55.00   0.03340849    4.258    0.765
         3 -13.1407    196.3934     32.7340   6.1494579986e+01   3.1474567942e+01     1.353456     1.118424  42.43  0.006860656    1.183    0.155
         4 -13.8640    210.6402     16.1639   5.4580457139e+01   2.9456972391e+01     1.824473     1.113168  27.71  0.008192459    1.925    0.480
         5 -11.0835      2.1058      5.3055   1.0976141570e+02   7.2854161128e+01    0.5727196    0.1407417 -55.90  0.002497748    3.073    0.675
         6 -11.5407      2.5559     15.0754   1.1316008240e+02   7.1013560975e+01    0.4910651    0.2227333 -69.62  0.002485228    2.664    0.625
         7 -13.9119     10.0513    206.7696   1.3443288323e+02   3.3194143996e+01     1.317116     0.592618  83.02  0.006670867    1.898    0.473
         8 -10.8089    163.4804    247.5105   1.1306960358e+02   8.4138604361e+00    0.2876037    0.1855401   3.72   0.00174525    3.081    0.675
         9 -13.5328    107.9228    245.5054   1.2149263463e+02   1.6475493372e+01     1.203518    0.3162881  44.63  0.006126027    2.665    0.625
        10 -12.0891     92.6249    249.4091   1.2412776859e+02   1.7956344928e+01    0.4297169    0.2692875  54.62 0.0005315793    1.133    0.117
        11 -11.3259     88.9902    244.4796   1.2432196372e+02   1.9056751321e+01    0.2381293    0.1488972  65.16  0.001405063    1.369    0.269
        12 -12.4431     31.1356    247.7196   1.3303660785e+02   2.5135685863e+01     0.555411    0.4927652  11.50  0.005227676    2.255    0.557
        13 -11.2467     40.5959    247.2535   1.3167021321e+02   2.4237792921e+01    0.3384804    0.1714476  55.99   0.00224831    1.350    0.259
        14 -10.1506     38.5492    243.4808   1.3178684502e+02   2.4969906588e+01    0.1938483    0.1174249  69.65  0.001445133    1.246    0.198
        15 -12.0295      3.8894    227.1696   1.3614418835e+02   3.0602901457e+01    0.3910413    0.3617012  70.26  0.004104139    1.638    0.389
        16 -12.0821      4.0836    247.2813   1.3675759202e+02   2.7725356510e+01    0.6743637    0.3118728  68.46  0.002129196    1.529    0.346
        17 -12.7603     14.8320    239.9816   1.3503203426e+02   2.7775393512e+01      0.90404    0.3188191  65.96  0.006104939    2.268    0.559
        18  -9.4772     42.2025    231.3932   1.3063851053e+02   2.6311276328e+01    0.1402293   0.08769993  82.29 0.0004631748    1.398    0.284
        19 -10.4710    244.9929    250.0000   1.0111556084e+02  -3.7149085252e+00    0.3610045   0.04181329  44.01  0.001185549    6.230    0.839
        20 -10.8345    227.8221    204.2138   9.7007580031e+01   2.8234081221e+00    0.2876732    0.2248846 -51.05 0.0007910822    2.174    0.540
        21 -12.5789     33.6772    225.7657   1.3164678377e+02   2.8022497300e+01    0.2407505    0.1921464  76.02 0.0007569389    1.237    0.191
        22 -11.5821     60.8349    193.1847   1.2499570171e+02   3.0241669457e+01    0.2768771    0.2245971 -51.02  0.001705865    1.748    0.428
        23  -9.4371    192.0157    193.0326   1.0116108659e+02   1.0149360363e+01    0.3005855    0.1724283 -65.33  0.001027302    6.947    0.856
        24  -8.4155    181.4899    192.4393   1.0290428468e+02   1.2058378772e+01    0.1227709   0.09852739  38.47 0.0001054054    1.022    0.021
        25 -11.6656     66.8372    185.8870   1.2325737492e+02   3.0766389450e+01    0.2187923    0.1927016 -71.67 0.0006726121    1.363    0.266
        26 -11.3542    139.3443    248.3371   1.1688721432e+02   1.1806736778e+01    0.2312174    0.1736052 -87.47  0.001832902    1.833    0.455
        27 -10.8293     76.8344    174.0368   1.2014981864e+02   3.1587582830e+01    0.1937161    0.1732956  77.87 0.0003681181    1.140    0.123
        28 -13.1703     63.7318    171.4668   1.2245951186e+02   3.3703071778e+01    0.3882571    0.2376042 -47.79  0.001919112    2.243    0.554
        29 -11.8669     84.2982    165.3485   1.1764202828e+02   3.2161244514e+01    0.5995309     0.422973  63.00  0.003889109    1.296    0.228
        30 -10.6873     33.3210    156.6725   1.2717004937e+02   3.9792620461e+01    0.2231334    0.1216457  68.30  0.001309012    1.723    0.420
        31 -11.8228     56.9948    130.2289   1.1907902209e+02   4.2490854297e+01     1.476943    0.4854287 -76.85  0.004093832    7.491    0.867
        32  -9.8322     97.5203    149.7944   1.1271860299e+02   3.3151809069e+01    0.2334362     0.219418  61.63 0.0007746739    1.120    0.107
        33  -9.0609    100.8062    145.6734   1.1135861999e+02   3.3429775210e+01    0.2232236    0.1618163 -31.94  0.001245377    1.946    0.486
        34 -12.0150     86.0211    148.8335   1.1508355396e+02   3.5024533719e+01    0.2341246    0.2143729 -56.80 0.0004452484    1.261    0.207
        35 -12.5727     67.2516    143.8684   1.1854768442e+02   3.8508477534e+01    0.6844284    0.4280795  73.54  0.002854409    1.741    0.426
        36  -9.5025    109.4862    135.4762   1.0768327406e+02   3.3986659251e+01    0.2731505    0.1973718 -11.00  0.001181259    2.419    0.587
        37 -10.3798     96.4917    132.6236   1.1016304293e+02   3.6633356325e+01    0.2250161    0.2049112 -19.30 0.0007902893    1.384    0.277
        38  -9.0606    106.5176    122.9167   1.0600408241e+02   3.6932544046e+01    0.1771718    0.1636875  61.07 0.0003001078    1.053    0.050
        39 -10.2035    167.7894    112.7671   8.9883385130e+01   2.6802955427e+01    0.3204348    0.2716057 -83.20  0.001051654    1.536    0.349
        40  -8.8873    203.4435    111.4915   8.2609042662e+01   1.9088328455e+01    0.1476575    0.1284122  17.01 0.0002618008    1.070    0.065
        41 -11.1893    242.6696     93.6673   7.1704783023e+01   1.2759182746e+01    0.2998338    0.1905609  19.49  0.001429295    1.747    0.427
        42 -11.5306      2.0098     89.0665   1.2798327250e+02   5.5888853162e+01     0.581377    0.1143384 -74.11  0.002208099    4.058    0.754
        43 -11.7285      2.4347     79.3006   1.2669368504e+02   5.7904479389e+01    0.5470127    0.1347908 -69.48  0.002452505    2.824    0.646
        44  -8.6779    158.6688     77.6856   8.2403081016e+01   3.4760355084e+01    0.1587684     0.113942  17.75 0.0005695291    1.680    0.405
        45 -13.7681     40.6229    217.1871   1.3009758607e+02   2.8610406684e+01    0.7213234    0.4843127  68.03  0.002886783    1.100    0.091
        46 -10.8819     55.1301    238.6337   1.2908406742e+02   2.3872995805e+01    0.2341032     0.158657  49.33  0.001140612    1.258    0.205
        47 -11.1893     21.0418    235.9952   1.3399145322e+02   2.7762187734e+01    0.2049517    0.1531678 -74.78   0.00178126    1.670    0.401
        48 -11.5055     98.6774    236.1690   1.2217265256e+02   1.8923260629e+01    0.2692473    0.1593985  63.66  0.001082105    1.528    0.346
