#   1 NUMBER                 Running object number                                     
#   2 MAG_AUTO               Kron-like elliptical aperture magnitude                    [mag]
#   3 X_IMAGE                Object position along x                                    [pixel]
#   4 Y_IMAGE                Object position along y                                    [pixel]
#   5 X_WORLD                Barycenter position along world x axis                     [deg]
#   6 Y_WORLD                Barycenter position along world y axis                     [deg]
#   7 A_WORLD                Profile RMS along major axis (world units)                 [deg]
#   8 B_WORLD                Profile RMS along minor axis (world units)                 [deg]
#   9 THETA_WORLD            Position angle (CCW/world-x)                               [deg]
#  10 FWHM_WORLD             FWHM assuming a gaussian core                              [deg]
#  11 ELONGATION             A_IMAGE/B_IMAGE                                           
#  12 ELLIPTICITY            1 - B_IMAGE/A_IMAGE                                       
         1 -10.7900     37.2158      9.6381   1.0461453194e+02   7.1656391285e+01     1.074232    0.4641832 -44.85  0.002903714    2.348    0.574
         2 -10.4622     10.3199     18.7834   1.2694278444e+02   7.2664192054e+01     1.489657    0.4117144 -31.35  0.004272108    6.222    0.839
         3 -10.9065     19.1473      6.9674   1.1500164382e+02   7.4358191960e+01     1.231658    0.8793028  60.23  0.006472753    2.708    0.631
         4 -10.9610     23.7507     32.8474   1.2380020339e+02   6.8563243803e+01     1.779564    0.4757328 -45.99  0.002919293    2.963    0.663
         5 -10.1583      4.9040     41.7966   1.3699502385e+02   6.7675231860e+01    0.8693631    0.3706675 -74.70  0.003832448    2.152    0.535
         6  -9.5581      2.1799     14.4683   1.3106735220e+02   7.4047640156e+01    0.5242056    0.2428104 -78.36   0.00221173    2.922    0.658
         7 -10.4238      5.1377      4.6008   1.2455347455e+02   7.5972801389e+01    0.4838249     0.395202 -29.00  0.001443329    1.075    0.070
         8 -10.4728     35.8661     37.9922   1.1900791542e+02   6.6231738262e+01     0.583506    0.3014849 -33.04 0.0003799279    2.036    0.509
         9  -9.7509     60.4274     31.7449   1.0413602435e+02   6.4072646088e+01     1.017932    0.3551545 -36.43  0.003295666    2.952    0.661
        10 -10.2640     73.5041     17.7218   9.1589302694e+01   6.3960291684e+01     1.474097    0.3620076 -31.37  0.004454419    4.108    0.757
        11  -8.9377     78.4972      2.8589   8.1677354140e+01   6.4750824662e+01    0.5638018    0.2606285 -15.04  0.002327839    2.385    0.581
        12  -9.4338     63.1940     21.4478   9.7834331319e+01   6.5399442197e+01    0.4185643    0.3087618 -60.19 0.0007028663    2.033    0.508
        13 -10.2085     64.1488     13.7410   9.3270140348e+01   6.6415047118e+01    0.7006544    0.4085044 -12.20  0.002869758    2.032    0.508
        14  -8.2662    111.6195     21.9184   8.1563090464e+01   5.4674800840e+01    0.4469173    0.1563436 -30.24  0.001373682    2.738    0.635
        15  -8.8065    102.0204      8.4864   7.7839221571e+01   5.8590952890e+01    0.3199359    0.2203889 -58.23 0.0005184947    1.938    0.484
        16  -9.2010    103.0075     21.0391   8.3465694264e+01   5.6883302496e+01    0.4553273    0.2230141 -37.01 0.0007549052    2.101    0.524
        17  -8.5264    104.1751     15.3888   8.0545150531e+01   5.7297875420e+01    0.4682713    0.2526527  11.41  0.001761625    2.768    0.639
        18 -10.4426     50.6018     15.4443   1.0059111665e+02   6.8602071005e+01     1.403026    0.7570617  -2.15  0.005004761    3.768    0.735
        19  -9.8950    152.6682     27.2520   7.5058089294e+01   4.3567840580e+01    0.5290785    0.3856423  52.44  0.002637696    1.337    0.252
        20  -9.1230     96.1493     14.9892   8.2568742488e+01   5.9278895173e+01    0.7182624    0.2972853 -14.84  0.002425784    3.246    0.692
        21  -9.0883    135.1514      2.0425   6.8412638284e+01   5.0692187203e+01    0.4734954    0.2382922  38.70  0.001988805    2.114    0.527
        22  -9.0229    132.4203     17.2230   7.4966407939e+01   4.9949697979e+01    0.4654463    0.2931408  66.43  0.002153488    1.595    0.373
        23  -7.9439    134.4052     12.7924   7.2827543025e+01   4.9899340739e+01    0.3083846    0.1397974 -20.45   0.00114753    2.292    0.564
        24  -8.8992    132.4981      9.5134   7.1852240808e+01   5.0718905362e+01    0.2625406    0.1132051 -34.20  0.001032155    2.302    0.566
        25  -9.7180    123.5325     14.0290   7.5428427137e+01   5.2585296267e+01    0.8823086    0.3198625  35.11  0.002577475    4.267    0.766
        26  -9.2043    125.6704      4.9959   7.1206687872e+01   5.2915170465e+01    0.4353013    0.2203465  42.78  0.001455851    1.947    0.486
        27  -8.1967    121.0441      5.7462   7.2388096981e+01   5.4046180761e+01    0.2110007    0.1941286 -75.07  0.000468855    1.205    0.170
        28  -9.1266    115.2002      3.9955   7.2769045838e+01   5.5708653448e+01    0.4074128    0.2049183 -37.10  0.001102493    2.115    0.527
        29  -8.7342    110.4537      7.9770   7.5588606260e+01   5.6539495874e+01    0.2302117    0.1739429 -46.83 0.0004343716    1.513    0.339
        30  -8.7239    112.3251     15.6292   7.8611356076e+01   5.5253815061e+01    0.3418484    0.2101495 -38.10 0.0006429353    1.726    0.421
        31  -9.3155    113.8471     10.2092   7.5840790117e+01   5.5456040692e+01    0.5079539    0.2372677  43.03 0.0003586928    2.094    0.522
        32  -9.4602     85.1897     13.0244   8.4957393906e+01   6.2063107431e+01    0.4384055    0.2696713 -52.20  0.001458127    2.312    0.568
        33  -7.8922     80.5017     12.5713   8.6299095074e+01   6.3168661717e+01    0.2758468    0.1441866 -44.85  0.001144572    2.418    0.586
        34  -9.5772    234.4642      7.2284   6.0049642207e+01   2.5893468904e+01    0.3390931    0.2124072 -28.35   0.00123081    1.411    0.291
        35  -8.9880     96.4717      4.7037   7.7404252244e+01   6.0333368728e+01    0.4414166    0.2992965 -40.55  0.002199305    1.665    0.399
        36  -8.5639     85.2348      6.1700   8.1347892103e+01   6.2853623408e+01    0.3132103    0.1912656  15.23  0.001431441    1.890    0.471
        37  -9.0726    126.8597      8.9374   7.2640006904e+01   5.2240906499e+01    0.3003395    0.2505669  17.16  0.000720809    1.228    0.186
        38  -9.5513     63.8105      2.9851   8.7132127519e+01   6.7911946034e+01     0.390474    0.2555701 -47.93  0.001911244    2.079    0.519
        39  -8.3880    103.8999      2.6014   7.4554270271e+01   5.8697744773e+01    0.3814843    0.1915811  32.47  0.001367621    2.184    0.542
        40  -8.4785     89.0472      2.7020   7.8383560810e+01   6.2317719984e+01    0.2416915    0.1775284 -27.94 0.0007982297    1.419    0.295
        41  -7.2434    206.5172      2.4624   6.0778307385e+01   3.2572436701e+01    0.1257704    0.1196536 -55.21 0.0008087935    1.046    0.044
        42 -10.6646    108.1915    100.3482   1.1026857566e+02   4.0968204452e+01     1.055337    0.7949746 -85.32  0.003178359    1.946    0.486
        43 -10.1011    207.7131    249.6173   1.1544222905e+02   5.3400691313e-01    0.4185449    0.1103786  38.36  0.001908256    3.357    0.702
        44 -10.5307    192.2364    248.2909   1.1789044666e+02   2.5432505755e+00    0.3913846    0.2628508  27.82  0.002906694    1.172    0.147
        45 -10.2543    177.8659    248.1540   1.2036914555e+02   4.3353391752e+00    0.3006223    0.1673861  33.05  0.001785884    1.366    0.268
        46 -10.3876    164.4728    249.6320   1.2291152600e+02   5.8365672246e+00    0.3302379    0.1847407  28.35  0.001651839    1.328    0.247
        47  -9.4652    127.7578    102.5300   1.0531159302e+02   3.6681975465e+01    0.5052671    0.3960935  59.97  0.001851504    1.510    0.338
        48  -9.6071     98.5944    128.9736   1.1960399671e+02   3.6246314552e+01    0.5601329    0.3321632  65.78  0.002224341    2.722    0.633
        49  -9.9798     58.2003    124.5588   1.3073877187e+02   4.2954790690e+01     0.593567    0.3289766  74.92  0.002066154    2.627    0.619
        50  -9.8942    140.5453    118.5490   1.0606009906e+02   3.0879948861e+01    0.4842436    0.3387868 -60.91  0.001135015    1.872    0.466
        51 -10.1854    139.3710    103.5917   1.0256034305e+02   3.4086612884e+01     1.153081    0.3777516 -46.69  0.002405368    3.364    0.703
        52  -9.6192    138.7912     91.8729   9.9474003752e+01   3.6508043758e+01    0.7161449    0.3716351 -34.21  0.002229867    1.989    0.497
        53 -10.7275    133.2877    109.7123   1.0571581085e+02   3.4098020723e+01    0.8615724    0.4671765 -43.52  0.002608694    1.852    0.460
        54  -9.4183    135.4082    122.4114   1.0826980255e+02   3.1104805363e+01    0.4714152    0.2281668 -40.16    0.0018856    2.131    0.531
        55  -9.8466    130.6021    118.9072   1.0867686525e+02   3.2741440945e+01    0.4511476    0.3447838 -88.98 0.0009485398    2.028    0.507
        56  -9.1424    140.5453     82.3654   9.6236188103e+01   3.7935329825e+01    0.6118432     0.288952 -33.78  0.001332985    2.170    0.539
        57  -8.9085    139.9432     75.5494   9.4288220886e+01   3.9332143936e+01    0.5118583    0.2602406 -36.04  0.001287976    1.932    0.482
        58  -9.3121     41.3468    122.1474   1.3558071080e+02   4.5356074550e+01    0.4642382    0.2198903 -87.40  0.001515333    2.592    0.614
        59  -9.4652     27.3579    123.0044   1.3997935566e+02   4.6401976419e+01    0.5576145    0.2371036  61.37  0.002310376    2.888    0.654
        60  -8.6023    158.4832    122.4346   1.0271367844e+02   2.6580748476e+01    0.2435235    0.2057715 -79.47  0.001168919    1.687    0.407
        61  -7.8887      1.3747    116.2081   1.4729761542e+02   4.9745598656e+01    0.2288564   0.09189498 -75.31 0.0007376277    2.034    0.508
        62  -7.6143    180.3471    115.9584   9.6404848475e+01   2.3333168369e+01    0.2000382    0.1689015 -15.80 0.0004596175    1.109    0.098
        63 -10.1696     78.0363    112.9767   1.2250356802e+02   4.3106997643e+01    0.5401575    0.3489228 -89.35  0.001731438    2.253    0.556
        64  -8.6321    152.5575    115.5028   1.0239965058e+02   2.9068411376e+01    0.2134752    0.1868553 -82.89  0.000584952    1.529    0.346
        65  -8.7307    149.8652    110.9686   1.0189790266e+02   3.0481415372e+01    0.4463416    0.1699291 -48.83  0.001152841    3.257    0.693
        66 -10.0313     91.9090    112.9414   1.1820972923e+02   4.0974992131e+01     0.586214    0.4076329  79.46  0.001574019    2.144    0.534
        67  -8.8784     92.6846    103.6708   1.1583123921e+02   4.2982623863e+01     0.640011    0.3744347  13.79  0.002439376    2.757    0.637
        68  -8.7139     64.8501     86.0955   1.2093285201e+02   5.1424276351e+01    0.7032744    0.3912482  -3.49  0.002376484    3.973    0.748
        69 -10.5370     62.8742     95.7905   1.2390179010e+02   4.9346661744e+01     1.027056    0.5785736 -88.39  0.001922211    3.141    0.682
        70 -10.1272     65.5370    111.1521   1.2613341749e+02   4.5271595512e+01    0.7368648    0.4790561 -85.15  0.001667205    1.897    0.473
        71  -9.6234     59.0583    109.3453   1.2791415099e+02   4.6528158917e+01    0.2996603    0.2258312  62.09 0.0006250204    1.463    0.317
        72  -9.5497     14.1310    111.3618   1.4294982973e+02   5.0176029852e+01     0.464685    0.2033315  68.87  0.001841711    2.685    0.628
        73  -8.9476     14.0189    105.0006   1.4236896561e+02   5.1731825204e+01    0.3704192    0.1828247 -45.80  0.001480701    2.161    0.537
        74  -7.8521    250.6618    112.2337   8.3683792423e+01   1.0667220666e+01    0.1773519   0.09950747 -18.48 0.0002489974    1.596    0.373
        75  -8.2828    158.8827    111.8151   1.0000503798e+02   2.8463211985e+01     0.254733    0.2034943 -32.75 0.0005849486    1.232    0.188
        76  -9.7973     24.6141    111.9253   1.3963146225e+02   4.9303565661e+01    0.3029451    0.2180549   6.96  0.001064801    1.720    0.419
        77  -8.9797     35.8235    111.1069   1.3586817953e+02   4.8566989820e+01    0.2051449    0.1655656  72.84 0.0005952939    1.238    0.192
        78  -7.2294    184.5068    110.6156   9.4240308024e+01   2.3379504997e+01    0.1432767    0.1308852   3.51 -2.092142e-05    1.035    0.033
        79 -10.9171     44.7025    102.5243   1.3155984555e+02   4.9822216564e+01    0.9263662    0.4343767  61.84  0.003287587    3.396    0.706
        80  -8.8059     39.9306    107.1536   1.3393179439e+02   4.9155543728e+01     0.204348     0.165807  72.82 0.0004641041    1.262    0.207
        81 -10.7043     20.4382    100.7016   1.3971429463e+02   5.2365369911e+01     1.125278    0.4457481  71.64  0.003874663    4.191    0.761
        82  -9.4840      5.7725    104.0808   1.4501530725e+02   5.2426980563e+01    0.4758329    0.3201062  48.97  0.002210323    1.536    0.349
        83  -7.8316     77.6729    105.6693   1.2107563996e+02   4.4894919083e+01    0.2262672    0.1620026 -23.48 0.0008844259    1.757    0.431
        84  -8.6822    166.0280    104.1234   9.6417789895e+01   2.8359212807e+01    0.3067726    0.2027455 -39.85 0.0005402271    1.513    0.339
        85  -9.4180    149.3254    103.2494   1.0001365291e+02   3.2066656440e+01    0.4028763    0.2732549 -50.24 0.0009611872    1.659    0.397
        86  -9.0291    148.0677     97.2294   9.8682141432e+01   3.3477574264e+01    0.3941955    0.3615149  34.68  0.002117752    1.102    0.092
        87  -7.5915     73.6635    102.8719   1.2177665034e+02   4.6148999604e+01    0.2011062    0.1303881 -69.02 0.0004688658    1.679    0.404
        88  -8.5625    159.0927    101.4852   9.7261102611e+01   3.0315145717e+01    0.2867076    0.2235681 -62.11 0.0004357861    1.677    0.404
        89  -9.4690     81.4122    100.0823   1.1858370349e+02   4.5648169018e+01    0.4124841    0.2815996 -75.67 0.0007894843    1.842    0.457
        90  -8.5040    237.9238    112.4064   8.5525906554e+01   1.2836266559e+01    0.2508149    0.1593127 -38.94 0.0008275912    1.609    0.379
        91  -8.7984    165.1017     95.4861   9.4297032665e+01   3.0087801958e+01    0.5412458    0.2663532 -52.84    0.0018764    3.056    0.673
        92  -9.2692     94.2678     97.2869   1.1374234514e+02   4.4173555071e+01    0.3176705    0.2575287 -71.38 0.0006445243    1.419    0.295
        93  -8.8568     96.1838     90.7088   1.1138215585e+02   4.5322115334e+01    0.5268021    0.3173799 -14.63  0.001871012    3.117    0.679
        94  -9.1854    241.5048     95.0604   8.1002006376e+01   1.4462533670e+01    0.3970763    0.2188816   9.18  0.001685074    2.849    0.649
        95  -9.1514    130.3094     96.9847   1.0312381957e+02   3.7293083523e+01     0.437499    0.2571435  22.61  0.001670601    2.404    0.584
        96  -9.9555     20.1807     83.7566   1.3752480928e+02   5.6584636111e+01     0.982142     0.333894 -72.83  0.003892193    2.593    0.614
        97 -10.3729     32.0173     64.2821   1.2884233978e+02   6.0479408698e+01     1.055766    0.4282104 -42.87   0.00266331    2.422    0.587
        98 -10.0352     34.4881     90.8054   1.3322168171e+02   5.3711876085e+01    0.5879838    0.2746318 -87.46  0.001648283    2.986    0.665
        99 -10.1786     36.4302     81.4276   1.3073829597e+02   5.5863713925e+01     1.132496    0.5084708 -21.52  0.003613393    4.921    0.797
       100 -10.1750      4.3251     89.7790   1.4421983152e+02   5.5988401069e+01    0.6325647    0.2699888  80.28  0.001694798    2.602    0.616
       101  -9.4737      5.7302     78.7059   1.4249966372e+02   5.8648031174e+01    0.6247258    0.2355205 -39.80  0.002661656    2.915    0.657
       102  -9.0020     40.9019     20.6270   1.0857143602e+02   6.9168111562e+01    0.2684122    0.1723891 -41.42 0.0002631737    1.421    0.296
       103  -9.5079    225.2401    248.3115   1.1239655238e+02  -1.3972683083e+00    0.2780419    0.1246928  25.16  0.001740994    1.687    0.407
       104 -10.1163     15.2659     71.2243   1.3755011116e+02   6.0002825310e+01     1.344507    0.1986428 -61.91   0.00441318    3.600    0.722
       105  -9.9062    200.6054    247.6367   1.1637980416e+02   1.5903169720e+00     0.320099    0.2067907   5.35   0.00231113    1.383    0.277
       106  -9.7711    184.3515    248.2689   1.1924997933e+02   3.5172784577e+00    0.2582575    0.1948341 -25.59  0.002013694    1.595    0.373
       107  -9.3388    153.8942    249.1796   1.2475605324e+02   7.2125028663e+00    0.1693546    0.1230573  37.09   0.00126136    1.238    0.192
       108 -10.8651     21.7338     53.6050   1.3105683449e+02   6.3892393486e+01     0.899885    0.6145743 -84.96  0.002759516    1.652    0.395
       109  -9.7514     15.0248     44.4146   1.3218076618e+02   6.6534899259e+01    0.5088448    0.2817673 -40.21  0.001024693    1.635    0.389
       110  -8.8809     10.0858     47.2007   1.3542667849e+02   6.6147046541e+01    0.3471733    0.2269435 -79.37 0.0008538034    1.501    0.334
       111  -8.7122     54.3674    250.6491   1.4303523280e+02   1.8580410013e+01    0.1714734   0.07385281  32.80 0.0001632905    1.826    0.452
       112  -7.3625     79.3683    248.2895   1.3836195965e+02   1.6276957776e+01   0.09718428    0.0735889   9.02 0.0004499443    1.710    0.415
       113  -7.6025    122.1447    240.4079   1.2970459688e+02   1.2342001142e+01    0.1589118   0.07589867  41.85 0.0004962604    1.685    0.407
       114  -9.4847      6.6313     32.6925   1.3382649950e+02   6.9737452586e+01    0.3023035    0.2065579 -35.12 0.0007653674    1.334    0.250
       115 -10.0735      7.3174     28.3910   1.3219247528e+02   7.0693285447e+01    0.4180902    0.2980542  33.95  0.001077639    1.728    0.421
       116  -8.9703    150.5132     88.9183   9.5751241214e+01   3.4492842071e+01    0.3790071    0.1986603 -38.26  0.001143896    1.868    0.465
       117  -9.1115    157.8129     90.8112   9.4607564078e+01   3.2526278585e+01    0.4333584    0.1918033 -33.00  0.001530425    2.296    0.565
       118  -9.1812    110.8098     90.0070   1.0666242672e+02   4.2708981875e+01    0.6915144     0.335806  27.09  0.002329783    3.075    0.675
       119  -7.0951    205.5136     90.3925   8.5225570268e+01   2.2178338396e+01    0.1401651    0.1265825  -6.72 0.0001211766    1.024    0.023
       120 -10.0176     74.3968     55.7695   1.0806916523e+02   5.6872001565e+01     1.531598    0.6242564 -32.32  0.004819551    3.617    0.724
       121 -10.4066     48.0901     83.2189   1.2656001529e+02   5.4224854035e+01     1.052472    0.4201073 -59.74  0.002306751    2.192    0.544
       122 -10.7832     55.0429     69.7169   1.2040405177e+02   5.6652239713e+01     1.038168    0.6621874 -72.91  0.002290609    1.916    0.478
       123  -9.9470     63.2690     60.8440   1.1431360848e+02   5.7559257858e+01    0.8116746    0.3218202  28.76  0.002937611    3.026    0.669
       124 -10.2544     85.3492     86.6346   1.1383214317e+02   4.8141642617e+01     0.547837    0.3932664  66.85 0.0009680766    1.924    0.480
       125  -9.6303     87.4989     78.5965   1.1078764085e+02   4.9591742754e+01    0.5975249    0.3869505  12.54  0.001811316    2.199    0.545
       126  -8.7727    163.3630     86.4024   9.2123472418e+01   3.2060403010e+01    0.3645814    0.2238911 -23.32 0.0009554052    1.753    0.429
       127 -10.2869    103.8446     82.6533   1.0663858344e+02   4.5653481897e+01    0.5407384    0.3161314 -54.81 0.0009236392    1.931    0.482
       128  -9.5289    105.8522     70.7460   1.0225676232e+02   4.7745665107e+01    0.8042646    0.4873914 -31.60   0.00295681    1.750    0.429
       129  -8.7319    156.8707     76.1374   9.0509618588e+01   3.5315501018e+01    0.4598787    0.2445289 -35.91  0.001338047    1.819    0.450
       130  -8.6506    157.6899     83.4054   9.2498662721e+01   3.3867728667e+01     0.319548    0.2206012 -33.10  0.001119864    1.408    0.290
       131  -7.8075    158.6563     79.6826   9.1183560773e+01   3.4293809082e+01    0.2161598    0.1892207 -10.87 0.0008029471    1.125    0.111
       132  -8.8152    170.3620     82.7968   8.9616569338e+01   3.1086327555e+01    0.2809781    0.1917106 -21.62   0.00129392    1.505    0.335
       133  -8.8113    149.9858     80.0150   9.3246284043e+01   3.6226075012e+01    0.5218795    0.2184525 -33.36  0.001400718    2.419    0.587
       134  -8.7572    119.0393     80.4996   1.0142498214e+02   4.3004004541e+01    0.3293514    0.2409995 -52.51 0.0007302818    1.499    0.333
       135  -8.1847    119.8000     76.1662   9.9849750430e+01   4.3708170719e+01    0.3140943    0.2186124   2.39 0.0008713863    2.023    0.506
       136  -9.1590     74.2777     79.1374   1.1563495745e+02   5.1678451093e+01    0.6978386    0.2638554 -50.56  0.002055023    2.440    0.590
       137  -8.8180    166.3014     78.2545   8.9128547704e+01   3.2772155308e+01    0.3576866    0.1930416 -31.13 0.0008870123    1.809    0.447
       138  -8.0158     68.4895     78.9760   1.1772651948e+02   5.2597871786e+01    0.2300179    0.1345788 -53.02  0.001033501    1.594    0.373
       139  -8.1302    184.1649     77.9804   8.5572627297e+01   2.8719273258e+01    0.2603599    0.2060868  25.16 0.0008020849    1.339    0.253
       140  -8.1718     63.4257     82.2546   1.2049129569e+02   5.2542128500e+01    0.1973252    0.1342208 -68.10 0.0008136943    1.579    0.367
       141 -10.5901     25.6913     77.9803   1.3438758139e+02   5.7626350463e+01     1.004222    0.4936486  88.49  0.004108018    2.779    0.640
       142  -9.4285    127.3665     75.2289   9.7448347074e+01   4.2232436468e+01    0.4326464    0.2971908 -55.11 0.0007739237    1.745    0.427
       143  -8.8809    129.0140     69.1335   9.5029133162e+01   4.3008608670e+01    0.5864034     0.299383  25.21  0.001819165    3.633    0.725
       144  -8.7164    130.5098     64.9693   9.3246706915e+01   4.3422816165e+01    0.3879767    0.2283896 -36.91  0.001243256    1.666    0.400
       145  -9.8519     81.6319     72.5547   1.1100486323e+02   5.1966941463e+01    0.4658185    0.3288369 -76.26 0.0008560256    2.090    0.522
       146  -9.1101     83.6422     64.4951   1.0764884759e+02   5.3374588127e+01    0.5829366    0.3835989 -10.86  0.002435968    2.219    0.549
       147  -8.4854    169.2836     71.2110   8.6424183969e+01   3.3223437352e+01    0.4017043    0.1731567 -30.62  0.001364254    2.273    0.560
       148  -8.5347    170.7190     65.9281   8.4544305968e+01   3.3712049482e+01    0.3333312    0.2782854 -17.32    0.0015897    1.175    0.149
       149  -8.2343    162.5467     73.0095   8.8339741453e+01   3.4514737873e+01    0.2549831    0.2182422  87.29 0.0006990398    1.463    0.316
       150  -9.4846    147.0262     69.3968   9.0637144702e+01   3.8777910323e+01    0.4318832    0.2707483 -49.89 0.0009575798    1.836    0.455
       151  -8.0489    156.6335     70.0832   8.8698377941e+01   3.6392792619e+01    0.2426688    0.1761448 -46.66 0.0009272321    1.472    0.320
       152  -8.3428     95.2886     54.4799   9.9958314931e+01   5.3159564596e+01    0.3518454    0.2093607 -47.15  0.001512354    1.767    0.434
       153  -9.6944     94.6244     68.1243   1.0503066981e+02   5.0539587667e+01    0.4691797     0.278077 -51.55 0.0009669147    1.805    0.446
       154  -9.3199     96.9687     58.8780   1.0101809184e+02   5.1955647178e+01    0.7869474     0.453371  -8.67  0.002525565    3.751    0.733
       155  -9.1527    121.2613     66.1485   9.6143739474e+01   4.5318465256e+01     0.391592    0.2848303 -64.19 0.0009198962    1.870    0.465
       156  -8.0727    122.0494     61.4475   9.4307412853e+01   4.6006970477e+01     0.421404    0.2246341  28.83  0.001259572    2.653    0.623
       157  -9.3397    138.1431     65.6881   9.1554651915e+01   4.1512768801e+01    0.5354533    0.2370915 -40.57  0.001411164    2.246    0.555
       158  -9.3238    109.7549     63.9611   9.8750120733e+01   4.8270621941e+01    0.3707951    0.2869923 -59.13 0.0006935504    1.557    0.358
       159  -9.0017    110.4692     58.1459   9.6471034644e+01   4.9219054366e+01    0.4281099    0.3011445   3.87  0.001017082    1.893    0.472
       160  -9.1424    115.2332     72.0740   9.9850412673e+01   4.5502014416e+01    0.5971835     0.252733 -34.09  0.001554784    2.600    0.615
       161  -8.7098    157.5771     63.2372   8.6337074163e+01   3.7283706515e+01    0.2521657     0.244748 -64.64  0.000720211    1.128    0.114
       162  -8.7602      9.3171     60.0064   1.3829202515e+02   6.3081681492e+01    0.3497052    0.2179814  51.57  0.001895639    1.937    0.484
       163  -8.0538    164.5017     60.4822   8.4058442332e+01   3.6041355290e+01    0.1495906     0.143479 -12.12 -3.289299e-05    1.016    0.016
       164  -7.8004    152.3980     60.2818   8.6482660011e+01   3.9007254487e+01    0.2156992    0.1359049 -41.25 0.0006516683    1.606    0.377
       165  -8.6948    149.8228     48.2813   8.2998453182e+01   4.1487212886e+01    0.3308536    0.2355326  -9.31  0.001171064    1.584    0.369
       166  -8.9529    146.4925     59.0353   8.7371428865e+01   4.0638936792e+01    0.2800179    0.2241652 -49.44 0.0007250219    1.357    0.263
       167  -8.4853    147.3662     54.1676   8.5536108211e+01   4.1200449759e+01    0.4135956    0.2592165 -24.76   0.00123272    1.636    0.389
       168  -9.1639     88.0265     56.6411   1.0328550452e+02   5.4186201462e+01    0.8421707     0.372924 -33.25  0.002372647    2.596    0.615
       169 -10.1462     85.1052     48.0605   1.0105751109e+02   5.6448326464e+01    0.4467382    0.3374613 -67.26 0.0009485396    1.877    0.467
       170 -10.2871     89.6322     38.1076   9.5313719400e+01   5.7338930431e+01    0.9659124    0.3746271  35.88  0.003155622    3.313    0.698
       171  -8.7464     38.4532     58.3711   1.2438625882e+02   6.1281992513e+01    0.2813282    0.2507903  49.05  0.001695244    1.312    0.238
       172  -9.8685    244.4518     55.8694   7.1226414213e+01   1.8747966019e+01    0.2583851    0.2179976  -0.23 0.0003115802    1.232    0.188
       173  -9.0510    248.4726     51.5354   6.9770465159e+01   1.8461303296e+01    0.2577463    0.2197863 -21.18 0.0008863398    1.065    0.061
       174  -8.6223    141.9943     48.7826   8.4858818281e+01   4.3354808672e+01    0.3104591    0.2248191 -23.78 0.0003625422    1.391    0.281
       175  -8.0116    142.4846     44.5224   8.3238558292e+01   4.3870369601e+01    0.2467106    0.1811395  21.03  0.000858451    1.561    0.359
       176  -9.0439    138.8835     56.8542   8.8390916590e+01   4.2835265938e+01    0.3643622    0.2266144 -44.39  0.001029126    1.700    0.412
       177  -8.1994    138.6796     51.7049   8.6644936012e+01   4.3715779255e+01    0.2710708    0.2148914  35.81 0.0006588356    1.278    0.217
       178  -9.1216    129.9359     56.8829   9.0608116417e+01   4.4972251038e+01    0.5231302    0.2504018 -37.66  0.001115795    2.045    0.511
       179  -9.4913    118.2522     54.6576   9.2939965827e+01   4.8092337551e+01     0.568298    0.3294226 -41.67  0.001107059    1.750    0.428
       180  -9.1828    121.0787     46.9076   8.9280753364e+01   4.8742537576e+01    0.3492927    0.2506606 -28.16 0.0005102228    1.385    0.278
       181  -8.8441     54.5160     35.5213   1.0859115248e+02   6.4291287659e+01    0.2424156    0.1753795  15.08 0.0008372693    1.504    0.335
       182  -8.7366     53.0886     39.8969   1.1111760115e+02   6.3612264990e+01    0.3793817    0.1758121 -42.41  0.001611712    1.964    0.491
       183  -9.5741     55.9044     43.4298   1.1122679913e+02   6.2458381767e+01    0.8210013    0.4417446 -13.89  0.002784115    3.871    0.742
       184  -9.8264     50.0476     54.6831   1.1797386331e+02   6.0796608031e+01    0.4326344    0.3609397 -71.28  0.001330565    1.367    0.268
       185  -8.6639     48.3482     48.6415   1.1669057599e+02   6.2377795152e+01    0.2927098    0.2377921 -88.76 0.0007863241    1.691    0.409
       186  -9.2239    162.9566     54.4434   8.2428939614e+01   3.7326364939e+01    0.2880516    0.1947058 -45.37 0.0006670582    1.555    0.357
       187  -7.0562    157.6761     55.7051   8.3880628790e+01   3.8433358179e+01    0.1567378    0.1131771  21.80 0.0002997675    1.620    0.383
       188  -9.7301     43.9287     52.8202   1.2017170791e+02   6.1975849189e+01    0.4308108    0.3493283 -58.45 0.0009462252    1.207    0.171
       189  -9.0315    105.4239     52.0981   9.5771980366e+01   5.1444490629e+01     0.655563    0.2809245 -36.00  0.001926388    2.307    0.567
       190  -7.1115    152.5083     53.5113   8.4215487085e+01   4.0037460066e+01    0.1499187    0.1457156 -29.74 -1.559655e-06    1.058    0.055
       191  -8.4086    162.5168     46.7486   7.9997326385e+01   3.8541345370e+01    0.2320278    0.1662349 -60.85  0.001067697    1.703    0.413
       192  -8.5923    157.4370     49.2107   8.1779379123e+01   3.9456366602e+01    0.2141878    0.1334049 -40.30 0.0006132171    1.612    0.380
       193  -9.6064    130.3351     46.9079   8.6911476783e+01   4.6510191184e+01    0.9421934    0.3643949 -22.07  0.001163457    3.758    0.734
       194  -8.8730    132.8362     36.1087   8.2270404000e+01   4.7492681939e+01    0.5610601    0.2841873 -47.04  0.001657135    2.345    0.574
       195 -10.3410    134.0850     30.9044   8.0001957758e+01   4.7880693052e+01    0.4072799     0.286007   3.76  0.001875811    1.684    0.406
       196  -8.4596    111.9501     46.8787   9.1808742216e+01   5.0888772732e+01    0.2760088    0.2075766 -39.32 0.0003980554    1.348    0.258
       197  -8.5073    112.6632     42.6837   8.9959781397e+01   5.1418213277e+01    0.7233185    0.3776484  -4.04  0.002021541    4.832    0.793
       198 -10.2005     37.7705     42.1547   1.1954904185e+02   6.5098594627e+01    0.5932903    0.3797797 -87.39  0.002154225    2.974    0.664
       199  -9.5209    187.9948    233.2699   1.1667608505e+02   4.7493813685e+00    0.3045886    0.1601939 -46.81  0.001756157    2.924    0.658
       200  -9.3179     71.5085     25.4785   9.6331436790e+01   6.3157701815e+01    0.5437334    0.2807243  39.61  0.001796734    1.955    0.488
       201  -8.5256     32.1333    229.2822   1.4607260012e+02   2.4114766364e+01    0.1591375    0.1409445  55.13 0.0004525352    1.218    0.179
       202 -10.1391     69.3739     40.7719   1.0422083430e+02   6.0801455872e+01    0.9441906    0.3939432 -41.19  0.002513551    2.265    0.558
       203  -7.8387    109.1816    224.8205   1.3066445258e+02   1.6274303162e+01    0.1558085    0.1212345  17.19  0.001078971    1.332    0.249
       204  -7.2518     56.1973    216.9440   1.4069578854e+02   2.3826017689e+01     0.123352   0.08217601 -81.81            0    1.655    0.396
       205 -10.1255     76.1752     31.7220   9.7442314747e+01   6.1191443821e+01    0.4922436    0.4035559 -85.59  0.001431456    1.906    0.475
       206  -7.2518     29.6195    216.1631   1.4595748845e+02   2.6592623066e+01    0.1219835   0.09048698 -74.18 0.0003179403    1.520    0.342
       207  -9.2690      7.2155    208.3926   1.5003765230e+02   2.9887227704e+01    0.2232028    0.1176066  48.11 0.0009161814    1.432    0.302
       208  -9.7649     79.4766     23.9922   9.2491979040e+01   6.1781284654e+01    0.5831951    0.2964656  29.99  0.001546288    2.442    0.590
       209  -9.0647     84.7095     21.9453   8.9605805907e+01   6.0966816850e+01    0.2964117    0.2535504  -7.40 0.0007386858    1.108    0.097
       210 -10.1741    152.1532     41.3477   8.0129221118e+01   4.1892245099e+01    0.5746291    0.3899193  38.25  0.002252272    1.552    0.356
       211  -8.8435    152.7622     34.9933   7.7788378186e+01   4.2585445512e+01    0.3613492    0.2253623 -41.96  0.001060992    1.651    0.394
       212  -8.4253    245.0372     44.9791   6.8513121858e+01   1.9873090941e+01    0.2000539    0.1438382  15.86 0.0007529311    1.721    0.419
       213  -7.7652    186.1472     41.8550   7.4571515513e+01   3.3350646257e+01    0.1902891    0.1599597  23.98  0.001021938    1.286    0.222
       214  -8.1175    122.3345     41.5357   8.6893542789e+01   4.9291870559e+01    0.3522305    0.2123088  11.28  0.001317699    2.597    0.615
       215  -9.7103     11.3517    207.0526   1.4918173373e+02   2.9800940234e+01    0.2898842    0.1967586  55.32  0.001390538    1.125    0.111
       216  -8.9745    110.1356     33.0381   8.6733859140e+01   5.3511640754e+01    0.3991574    0.2321536 -40.44 0.0009343783    1.801    0.445
       217  -7.7366    110.2452     26.7354   8.4017800180e+01   5.4379482310e+01    0.3828513    0.1991018 -17.24  0.001504487    2.239    0.553
       218  -9.0801    104.8461     41.0578   9.1600527170e+01   5.3491722701e+01     0.433631    0.2598206 -49.44 0.0009966085    2.008    0.502
       219  -8.3353    105.9902     36.4983   8.9373517462e+01   5.3962025555e+01    0.3711945    0.1969977  33.00  0.001164072    2.255    0.557
       220  -9.0258    139.5054     39.6090   8.2105079130e+01   4.5324718632e+01    0.4931608    0.2603835 -29.47  0.001736717    1.868    0.465
       221  -8.5552    159.8665     39.3863   7.8014698092e+01   4.0207197882e+01    0.2101255    0.1818002 -43.46 0.0005660277    1.179    0.152
       222  -7.2708    229.0378     38.0000   6.8315654141e+01   2.3952454448e+01    0.1954466   0.07532091  67.37 0.0007989228    2.918    0.657
       223  -8.8551    144.0765     36.5935   8.0044217765e+01   4.4585850679e+01    0.3138211    0.1890611 -43.11 0.0006011677    1.752    0.429
       224  -8.9874    140.9312     32.9062   7.9327755645e+01   4.5876076791e+01    0.2731045    0.2510821  33.05 0.0004555354    1.064    0.060
       225  -8.7524    118.8652     34.6601   8.5067082564e+01   5.1164749399e+01    0.3560477    0.2077167 -26.55 0.0007299094    1.733    0.423
       226  -7.5623     51.5820    206.2746   1.4092112972e+02   2.6218406183e+01    0.1327589    0.1005567 -65.27 0.0003902309    1.526    0.344
       227  -9.4442    100.8763     32.5945   8.9246446068e+01   5.5749155138e+01    0.6175591    0.2581308 -29.95   0.00125532    2.422    0.587
       228  -8.0530    101.5238     25.9633   8.6122020632e+01   5.6571885912e+01    0.3650166    0.2289771  -2.00 0.0009247983    2.027    0.507
       229 -10.0948    176.9051    201.6292   1.1415365865e+02   1.0323055880e+01    0.2119531    0.1735086  13.14 0.0003723532    1.048    0.045
       230  -8.9953    192.1687    194.7232   1.1012383678e+02   9.0232502708e+00    0.5871522    0.3583441 -61.57  0.002253726    5.686    0.824
       231  -8.5016    158.8512     33.8305   7.6295402951e+01   4.1180018000e+01    0.3386658    0.2155125  15.81  0.001441578    2.076    0.518
       232  -7.5998    177.4700    187.2251   1.1170489487e+02   1.2309161495e+01    0.1426321    0.1222934 -38.68 0.0002804315    1.453    0.312
       233 -10.0907     46.2852     29.8877   1.1015616889e+02   6.6624040712e+01    0.4574382    0.3022144 -61.35 0.0009359049    2.016    0.504
       234  -8.7910     42.0147     28.4229   1.1173482686e+02   6.7501254481e+01    0.2201101     0.161287 -29.32 1.717478e-05    1.229    0.186
       235  -7.7387      8.6428    170.3195   1.4829418421e+02   3.7176129156e+01    0.1261088   0.06098925  57.33 0.0007045036    1.759    0.431
       236  -7.6342    229.5312    167.4579   9.8504459232e+01   6.9936945919e+00    0.1254202   0.09846909   1.78 0.0001007018    1.022    0.021
       237  -9.0035     91.1690     26.2665   8.9482449919e+01   5.8905417273e+01    0.4065357    0.2448186 -47.07 0.0009273556    2.000    0.500
       238  -8.2211     92.0657     21.1204   8.6762226387e+01   5.9437925792e+01    0.3618444    0.1926134  30.71 0.0009503709    2.227    0.551
       239  -8.7302    144.0414     25.8362   7.6088455247e+01   4.5961516615e+01    0.2566159    0.2088432 -26.66 0.0006293866    1.235    0.190
       240  -7.0579     52.6436    165.6652   1.3734200844e+02   3.4196083889e+01    0.1226227   0.09168967 -31.21 0.0007042463    1.800    0.444
       241  -7.5566     22.5388    157.4979   1.4423194771e+02   3.8843479084e+01    0.1202527   0.09770691  70.06  5.63599e-05    1.047    0.045
       242  -7.4314    191.5962    151.4405   1.0217018762e+02   1.5430602234e+01    0.1351505    0.1152211   3.32 3.006819e-05    1.014    0.013
       243  -8.0542    134.0000    149.0409   1.1429934087e+02   2.6051825413e+01    0.2943673    0.1552389 -50.40  0.001299464    2.083    0.520
       244  -8.5935    128.5181     26.0042   7.9285824498e+01   4.9923116976e+01    0.2833841    0.2337114 -50.45 0.0007270388    1.344    0.256
       245  -8.3608    129.9898     21.5045   7.7168907988e+01   5.0092343541e+01     0.296237    0.2019346   7.86  0.001267355    1.734    0.423
       246  -9.0687    118.7406     21.3977   7.9600470309e+01   5.2965181429e+01    0.2572068    0.2420309 -57.11 0.0006145848    1.185    0.156
       247  -8.2903    133.3119    144.7917   1.1363183445e+02   2.7005935912e+01    0.3189598    0.1350741 -48.80  0.001251053    2.528    0.604
       248  -7.2675      7.7304    149.0368   1.4746821779e+02   4.1816960889e+01    0.1390012   0.08736494 -88.25 0.0003460039    1.378    0.274
       249  -8.9758    122.9177    147.0392   1.1664341808e+02   2.8347536841e+01     0.198721     0.185309  23.62  0.001169885    1.007    0.007
       250  -7.8707    139.8392     18.1091   7.3931645047e+01   4.7929018586e+01    0.2184847    0.1929794 -57.40 0.0006047261    1.225    0.184
       251  -9.7076     67.0358    144.2762   1.3104764129e+02   3.7271105878e+01    0.5681207    0.3189839  62.84  0.002469305    2.190    0.543
       252  -8.5794    187.9689    138.2440   1.0006295104e+02   1.8170796412e+01     0.218063    0.1809778 -17.62 0.0003408142    1.132    0.116
       253  -8.4443    112.4125    134.1344   1.1684070019e+02   3.2824970908e+01    0.2827396    0.2149864  66.55  0.001285907    1.644    0.392
       254  -8.4124    135.6805    131.9134   1.1035361256e+02   2.9141583729e+01    0.5248641    0.1638699 -43.56  0.001727049    3.303    0.697
       255 -10.4178     70.1528    126.6279   1.2745794060e+02   4.0968325011e+01     0.683355    0.5538051 -37.17  0.001889483    1.366    0.268
       256 -10.4756    234.0621    130.9804   9.0261661472e+01   1.1033527223e+01    0.2666601    0.2460296  -9.25 0.0004595369    1.269    0.212
       257  -7.9366    141.2246     12.7712   7.1638746276e+01   4.8122539883e+01    0.2099978     0.161026  32.99  0.001073031    1.343    0.255
       258  -7.4267    143.6764    133.2908   1.0869644154e+02   2.7379941539e+01    0.1387893    0.1163871  75.11 0.0004683077    1.611    0.379
       259  -8.5631    120.4955    131.8062   1.1421778186e+02   3.1917543065e+01    0.2362165    0.2126711  15.62 -0.0002263127    1.107    0.097
       260  -9.6827    117.2108    125.5475   1.1374657781e+02   3.3829659644e+01    0.6222319    0.4365991  88.40  0.001820648    2.423    0.587
       261 -10.0963    108.5296    114.5736   1.1367990028e+02   3.7768463385e+01    0.7107052    0.4366041 -72.75  0.001465434    2.626    0.619
       262  -8.8134    125.9892     83.9506   1.0052877046e+02   4.0828424295e+01    0.6107118    0.3625616   6.39  0.001928425    3.792    0.736
       263 -10.2709    123.2393     91.1678   1.0341220553e+02   3.9948091654e+01    0.7769346    0.4745823 -37.34  0.002286764    1.641    0.391
       264 -10.9900    121.5438    111.1361   1.0920858255e+02   3.6103215894e+01     1.401239     0.737906 -45.52  0.004064426    1.903    0.475
