#   1 NUMBER                 Running object number                                     
#   2 MAG_AUTO               Kron-like elliptical aperture magnitude                    [mag]
#   3 X_IMAGE                Object position along x                                    [pixel]
#   4 Y_IMAGE                Object position along y                                    [pixel]
#   5 X_WORLD                Barycenter position along world x axis                     [deg]
#   6 Y_WORLD                Barycenter position along world y axis                     [deg]
#   7 A_WORLD                Profile RMS along major axis (world units)                 [deg]
#   8 B_WORLD                Profile RMS along minor axis (world units)                 [deg]
#   9 THETA_WORLD            Position angle (CCW/world-x)                               [deg]
#  10 FWHM_WORLD             FWHM assuming a gaussian core                              [deg]
#  11 ELONGATION             A_IMAGE/B_IMAGE                                           
#  12 ELLIPTICITY            1 - B_IMAGE/A_IMAGE                                       
         1 -12.0513      1.7145     25.0798   7.8691358917e+01   6.8247064099e+01    0.4540291    0.1179449 -57.28  0.002019084    3.113    0.679
         2 -13.8130     12.0873     22.9673   7.3493199843e+01   6.7969167835e+01    0.6786664    0.2484047 -38.98  0.003537653    2.153    0.535
         3 -13.5557    248.2880      4.6496   1.1996867013e+01   2.2136696922e+01    0.7205356    0.5503104 -55.04  0.004476507    1.171    0.146
         4 -13.2056     24.6159      4.6246   6.0454428270e+01   6.9795362084e+01     0.526226    0.3343549  -6.94  0.003483428    1.476    0.323
         5 -12.4650     13.3776     12.6462   6.9070596417e+01   6.9590703119e+01     0.328329    0.1861432 -27.73  0.001649179    1.460    0.315
         6 -12.4972     15.6506      7.0383   6.5681057582e+01   7.0276913845e+01    0.4202973    0.2174729 -26.89   0.00222409    1.651    0.394
         7 -13.3538      6.5114     11.0481   7.1637797813e+01   7.0347608206e+01    0.7645113    0.3570546 -33.75  0.004657296    1.694    0.410
         8 -12.2565     10.2948      2.0953   6.6067887800e+01   7.1454130172e+01    0.5478965    0.2134948  18.36  0.002911083    3.086    0.676
         9 -12.3209     19.7431     13.9079   6.6686940636e+01   6.8866083065e+01    0.3564793    0.1504293 -34.27  0.001929959    1.972    0.493
        10 -11.0457      2.4697      1.9746   6.9895221948e+01   7.2046366974e+01    0.2299818      0.20263   7.02  0.001713955    1.487    0.328
        11 -10.7966     41.5763      2.2939   5.1994508891e+01   6.8143409776e+01     0.204989    0.1193421  13.86  0.001193447    1.800    0.445
        12 -11.9879     72.9246    240.5592   9.2864171297e+01   1.7637224255e+01    0.2884054    0.1467818  67.21  0.001728065    1.868    0.465
        13 -13.0734    241.5618    238.0113   6.3577074261e+01  -8.2941969234e+00    0.7411429    0.3525597   8.69  0.003000101    4.302    0.768
        14 -12.7820    242.9094    245.7561   6.4561712053e+01  -9.2931797302e+00    0.5918606    0.3199368  -0.85  0.003272363    2.472    0.595
        15 -12.1985    248.8177    248.1374   6.3970505969e+01  -1.0387181677e+01     0.518553    0.3193399 -17.18  0.003506276    1.740    0.425
        16 -12.3872    247.4395    239.3118   6.2819204063e+01  -9.3055857227e+00    0.3980098    0.2356801   2.10  0.002068544    1.866    0.464
        17 -12.0448    249.9903    232.7201   6.1343088123e+01  -9.0001179965e+00    0.3152134    0.1852231 -19.29  0.001774542    1.796    0.443
        18 -11.2052     87.4568    250.5166   9.1306717763e+01   1.4079890828e+01    0.2292619   0.08438028  43.48  0.001216179    2.185    0.542
        19 -11.4675     74.7577    250.5540   9.3345997585e+01   1.5787610090e+01    0.2604774   0.07505701  44.74  0.001290618    2.609    0.617
        20 -11.9761     65.1658    249.0742   9.4753705478e+01   1.7265590350e+01    0.3692088    0.1570777  54.24  0.002203711    1.799    0.444
        21 -11.4626     50.6547    250.0431   9.7070698008e+01   1.8904800943e+01    0.3575396     0.117306  45.35  0.002010067    2.314    0.568
        22 -12.1794     36.7687    248.6003   9.9086065966e+01   2.0751316650e+01    0.3830447     0.174235  60.90  0.002547014    1.676    0.403
        23 -10.9547     27.4205    248.8757   1.0048687871e+02   2.1737977715e+01    0.2565565    0.1176344  66.27  0.001642577    1.705    0.414
        24 -11.8739     20.3280    249.0633   1.0152909250e+02   2.2459990689e+01    0.3392132    0.1563648  56.65   0.00171987    1.560    0.359
        25 -12.4103     15.9861    240.4472   1.0174648897e+02   2.4307840602e+01    0.5195285    0.2068036  56.81  0.002681212    1.847    0.459
        26 -11.2885      3.3849    250.2502   1.0397886714e+02   2.3965202073e+01    0.2351175    0.1049783  43.70  0.001694484    1.988    0.497
        27 -11.9133     12.2015    248.9251   1.0268671450e+02   2.3312306921e+01    0.3516629    0.1398076  54.53  0.001790271    1.784    0.440
        28 -12.5821      3.3852    243.2647   1.0369566179e+02   2.5084524280e+01    0.4716628    0.2110739  79.80  0.003299918    1.777    0.437
        29 -11.7988      2.2929    220.7559   1.0286174451e+02   2.8976593297e+01    0.3083281    0.1437267 -87.60  0.001473417    1.717    0.418
        30 -11.8750      6.7031    236.3117   1.0291741015e+02   2.5909940255e+01    0.4167838    0.1932132  69.80  0.002919568    1.640    0.390
        31 -11.9728      4.7404    228.2845   1.0284236727e+02   2.7449956175e+01    0.3795255    0.1793805  73.98  0.001823217    1.647    0.393
        32 -12.1007    226.0054    240.6744   6.6578005692e+01  -6.2013565224e+00    0.2153072    0.1400323   8.96  0.001345972    1.646    0.393
        33 -10.8089     38.3637    240.6323   9.8377999942e+01   2.1873703281e+01    0.2320962    0.1107726  66.94  0.001269031    1.739    0.425
        34 -11.6067    107.4576    240.1170   8.7027530048e+01   1.2842848341e+01    0.2526561    0.1120477  54.85  0.001337915    1.976    0.494
        35 -10.7566     64.7695    239.8953   9.4143424660e+01   1.8807926384e+01     0.217578   0.09513044  61.00  0.001231949    2.033    0.508
        36 -11.2800     45.2704    237.2017   9.7081882400e+01   2.1650255895e+01     0.248477    0.1273318  64.37  0.001529514    1.575    0.365
        37 -10.7113     33.0867    236.2878   9.8935563206e+01   2.3191696272e+01    0.2646074   0.09619874  65.99  0.001397437    2.696    0.629
        38 -11.1392     95.3498    235.6615   8.8669228036e+01   1.5339382417e+01    0.1880242    0.1083361  67.25  0.001124537    1.701    0.412
        39 -11.1104     82.0084    236.0372   9.0975154990e+01   1.7159578454e+01    0.1912245    0.1044992  67.41  0.001145067    1.750    0.428
        40 -11.2458     11.1639    225.7197   1.0174292430e+02   2.7277109542e+01    0.3036509    0.1434261  62.55  0.001666374    1.620    0.383
        41 -11.3796     59.9302    232.2839   9.4359446075e+01   2.0704043590e+01    0.2987519    0.1190455  62.22  0.001543388    2.481    0.597
        42 -11.2903     39.7534    230.9870   9.7555542139e+01   2.3346819424e+01    0.2927117    0.1477314  79.69  0.001853146    1.832    0.454
        43 -11.0242     48.6639    230.5532   9.6084595535e+01   2.2382109467e+01    0.2780769    0.1278458  74.81  0.001564224    2.271    0.560
        44 -12.2571     25.6158    228.7256   9.9660145975e+01   2.5290918389e+01    0.4401357    0.2128717  76.79   0.00284935    1.794    0.443
        45 -12.3281    249.1006    225.4252   6.0283388676e+01  -8.0841581348e+00    0.3317568    0.1653782 -30.62  0.001875082    2.176    0.540
        46 -10.5678     32.3753    229.3410   9.8629107498e+01   2.4456427570e+01    0.2213749   0.09660352  66.91  0.001318591    2.021    0.505
        47 -11.4765    236.9920    228.0110   6.2730146721e+01  -6.4999919167e+00    0.1981844    0.1201659  13.33  0.001146413    1.729    0.422
        48 -11.5994     14.1783    232.0453   1.0160197826e+02   2.5896096187e+01    0.3361239    0.1597016  70.41  0.001950961    1.660    0.398
        49 -11.4492     18.6759    221.8740   1.0036482737e+02   2.7204581224e+01    0.2618933    0.1322846  76.50  0.001751482    1.631    0.387
        50 -10.5877     54.6535    222.3231   9.4476359147e+01   2.3099870188e+01    0.1197651   0.06219216  67.40 0.0007049805    1.740    0.425
        51 -10.8881     44.1349    221.4288   9.6184439845e+01   2.4518019550e+01    0.2182632   0.09727747  69.95  0.001196508    2.256    0.557
        52 -11.2688     34.7488    217.7589   9.7496233710e+01   2.6240845323e+01    0.2814863    0.1435642  80.50  0.001753325    1.791    0.442
        53 -12.0718     12.0235    216.8378   1.0114365268e+02   2.8754009683e+01    0.3871816    0.1941841  68.10  0.002183086    1.574    0.365
        54 -10.6016     24.3759    217.3638   9.9182259765e+01   2.7423041454e+01    0.2226289   0.09826412  67.69  0.001164594    2.002    0.501
        55 -12.0635    248.5340    214.7077   5.8544520936e+01  -6.7915122745e+00    0.3201161    0.1777382 -17.30  0.001779896    1.960    0.490
        56 -11.3465      1.7229    205.8914   1.0221652797e+02   3.1680655728e+01    0.2717859    0.1157056 -75.30  0.001396739    1.942    0.485
        57 -11.0902     21.5310    211.4867   9.9287579560e+01   2.8779600676e+01    0.2473596     0.134363  83.87  0.001663594    1.522    0.343
        58 -11.0513     28.7048    211.4730   9.8086730502e+01   2.8038411159e+01    0.2275858    0.1158896  75.47  0.001373371    1.735    0.424
        59 -12.7235     12.2833    205.1590   1.0044228881e+02   3.0849159944e+01    0.4958181    0.2095823  62.20  0.003000995    2.012    0.503
        60 -11.7379      2.4266    212.5206   1.0244117765e+02   3.0420105267e+01    0.3201946    0.1443526  89.71  0.001611188    1.795    0.443
        61 -12.2521      3.4542    197.0031   1.0145073198e+02   3.3171335091e+01    0.3797412    0.1733782  75.49  0.002315643    1.879    0.468
        62 -12.3413      4.1807    188.6296   1.0083828634e+02   3.4694910755e+01    0.5132486    0.1992183  72.70  0.002733455    2.574    0.611
        63 -11.4935      9.4723    197.9734   1.0048876589e+02   3.2450587802e+01    0.2204952    0.1084236  71.94 0.0009274933    1.719    0.418
        64 -11.7515     17.1416    195.8309   9.9031170801e+01   3.2137315723e+01    0.2686913   0.09624734  47.81  0.001512353    2.356    0.576
        65 -11.6840     11.2769    191.0592   9.9747436101e+01   3.3599881583e+01    0.2052122    0.1089572  81.95  0.001223171    1.557    0.358
        66 -11.3672     17.1141    189.8835   9.8633757541e+01   3.3283571925e+01    0.2417479     0.115207  81.01  0.001414725    1.931    0.482
        67 -10.6926     24.1329    186.2518   9.7093855603e+01   3.3312802188e+01    0.2243214    0.1058107  77.55  0.001238454    2.109    0.526
        68 -12.4420     11.5711    184.1848   9.9240933365e+01   3.4905442790e+01    0.3109537    0.1442973  88.69  0.001836082    1.879    0.468
        69 -11.7514     17.3317    182.1600   9.8044332019e+01   3.4775636569e+01    0.3378066    0.1297269  89.21  0.001636181    2.776    0.640
        70 -11.6677      5.1961    182.9101   1.0030437241e+02   3.5712529317e+01     0.209013    0.1214882  74.48  0.001256545    1.391    0.281
        71 -11.7776      1.9501    178.0827   1.0058189897e+02   3.6926748222e+01    0.3273321    0.1471469 -85.78  0.001984042    1.789    0.441
        72 -11.4832     18.7080    174.6965   9.7218071460e+01   3.6138287196e+01    0.2245533   0.08618801  55.07  0.001174497    2.492    0.599
        73 -12.5864      6.4903    171.4493   9.9298234068e+01   3.7865626310e+01    0.3205992    0.1367058 -85.99  0.001807822    1.993    0.498
        74 -10.5232      1.4265    170.2971   1.0017028509e+02   3.8507372502e+01    0.2037454   0.07531206 -72.88  0.001133229    2.087    0.521
        75 -11.6152     11.0871    166.8338   9.8076806450e+01   3.8409230651e+01    0.1785005     0.115633  76.28  0.001199618    1.288    0.224
        76 -11.5469      2.5370    165.5537   9.9633915330e+01   3.9369539016e+01     0.269323    0.1226268  57.89  0.001617608    2.067    0.516
        77 -11.8134      5.2551    161.1024   9.8781254427e+01   4.0056470931e+01     0.216109    0.1153938  83.98  0.001351124    1.605    0.377
        78 -12.0898     10.0309    155.7190   9.7396629932e+01   4.0778884185e+01    0.2598113    0.1227465 -84.93  0.001488261    1.793    0.442
        79 -12.3695      3.7995    153.2735   9.8467646276e+01   4.1775161942e+01     0.304187    0.1214564 -73.04  0.001702675    1.910    0.477
        80 -11.6265      2.3948    143.6207   9.7970917563e+01   4.3881935608e+01    0.2353902    0.0841568 -75.60  0.001213114    2.157    0.536
        81 -11.8570      4.4155    137.1491   9.6966155302e+01   4.5094565056e+01    0.2831146   0.08758711 -76.89  0.001298099    2.678    0.627
        82 -10.8471    248.5919    129.8160   4.1440720981e+01   4.7627861085e+00    0.2014169    0.1182738 -41.14 0.0009526655    1.716    0.417
        83 -11.2829      3.1317    127.7390   9.6364317844e+01   4.7175598497e+01     0.266115     0.125491 -89.87  0.001456513    2.025    0.506
        84 -11.7889    248.8471    118.5516   3.8831855817e+01   6.4268432143e+00    0.2904802    0.1651289 -46.07   0.00132351    1.913    0.477
        85 -10.5935    248.3312    106.6701   3.6148457691e+01   8.3516873940e+00    0.1421725    0.1058613 -62.67 0.0007051826    1.718    0.418
        86 -11.5454    249.4252     97.7335   3.3877813597e+01   9.4840843781e+00    0.2773731    0.1198207 -36.98  0.001118293    2.087    0.521
        87 -11.0921    249.4803     87.5283   3.1443958420e+01   1.1011944106e+01    0.1391258    0.1276129 -36.43 0.0002968906    1.023    0.023
        88 -11.7426    248.5052     73.9935   2.8333015440e+01   1.3228783930e+01    0.2202416    0.1272811 -33.47 0.0009193866    1.593    0.372
        89 -10.6401    249.3096     65.6495   2.6220957126e+01   1.4254003093e+01    0.1475366   0.09659994 -59.79  0.000704438    1.715    0.417
        90 -12.3600      3.1088     49.6862   8.4657704279e+01   6.3537456663e+01    0.4728378    0.1532007 -59.52  0.002372543    2.187    0.543
        91 -10.5966     16.0000     47.9754   7.9468372200e+01   6.3092467739e+01    0.1966277    0.0521104 -58.12  0.000808741    2.986    0.665
        92 -10.9589      8.4973     43.9807   8.1263709821e+01   6.4348015361e+01    0.1801676   0.08617259 -57.07  0.001040107    1.611    0.379
        93 -13.3415    248.7970     37.2285   1.9489005963e+01   1.8215769572e+01    0.6777697     0.226591 -32.08  0.002623216    2.719    0.632
        94 -11.9593     12.3454     36.9353   7.7828957893e+01   6.5441808360e+01    0.3677366    0.1004234 -54.64  0.001656397    2.685    0.628
        95 -12.0930      3.0638     33.7914   8.0679460856e+01   6.6585849405e+01    0.3150613   0.09936925 -50.23  0.001342827    2.092    0.522
        96 -11.4838     19.0058     30.2891   7.3044597745e+01   6.6173532472e+01    0.2598139   0.09028068 -36.07  0.001189056    2.710    0.631
        97 -12.1286    225.8225    248.3867   6.7763493293e+01  -7.0085275450e+00    0.2981197    0.1644548  26.07  0.001792178    1.612    0.380
        98 -12.2546    212.9214    247.6549   6.9808212979e+01  -4.9398402243e+00    0.3510841     0.197068  21.96  0.002016055    1.895    0.472
        99 -11.5746     45.0995    245.1217   9.7614365293e+01   2.0357877014e+01    0.3132374    0.1662134  63.58   0.00169213    1.451    0.311
       100 -11.8743     26.1453     16.5176   6.4922199268e+01   6.7870393757e+01    0.2473997    0.1125944 -31.26  0.001327274    1.947    0.486
       101 -12.7846    234.5433    244.3034   6.5710640436e+01  -7.8984865813e+00    0.3666976    0.2114941  15.84   0.00218568    1.815    0.449
       102 -12.4504     97.8132    244.6290   8.9090514088e+01   1.3542185988e+01    0.3532953    0.1545588  57.54  0.001898907    2.090    0.521
       103 -11.0769     77.2328    246.3966   9.2626585303e+01   1.6117955602e+01    0.1602802   0.07312232  52.17 0.0009527566    1.680    0.405
       104 -12.5005     84.9079    244.2575   9.1198615950e+01   1.5418287958e+01    0.3296404     0.141492  51.42  0.001883265    1.810    0.447
       105 -11.0419    116.0096    244.4878   8.6008502746e+01   1.0878916868e+01    0.1821739   0.08906871  45.64  0.001037951    1.608    0.378
       106 -12.2461     56.8719    241.9957   9.5565107138e+01   1.9454018044e+01    0.4130304    0.1643482  57.64  0.002356303    2.075    0.518
       107 -12.0483     29.4697    240.8040   9.9748874476e+01   2.2833013551e+01    0.3839644    0.1694965  69.07  0.002051134    1.938    0.484
