#   1 NUMBER                 Running object number                                     
#   2 MAG_AUTO               Kron-like elliptical aperture magnitude                    [mag]
#   3 X_IMAGE                Object position along x                                    [pixel]
#   4 Y_IMAGE                Object position along y                                    [pixel]
#   5 X_WORLD                Barycenter position along world x axis                     [deg]
#   6 Y_WORLD                Barycenter position along world y axis                     [deg]
#   7 A_WORLD                Profile RMS along major axis (world units)                 [deg]
#   8 B_WORLD                Profile RMS along minor axis (world units)                 [deg]
#   9 THETA_WORLD            Position angle (CCW/world-x)                               [deg]
#  10 FWHM_WORLD             FWHM assuming a gaussian core                              [deg]
#  11 ELONGATION             A_IMAGE/B_IMAGE                                           
#  12 ELLIPTICITY            1 - B_IMAGE/A_IMAGE                                       
         1 -13.5758    206.5504      3.9267   6.0067398797e+01   3.2685911301e+01     1.005858    0.6193833  68.11  0.003286899    1.488    0.328
         2 -13.9669    185.0509     27.9289   6.9193096379e+01   3.5584265712e+01     1.547176     1.018499  -6.05  0.005438645    2.074    0.518
         3 -14.0839    193.2449     20.9135   6.6099386825e+01   3.4276937599e+01      1.45837      1.00587 -31.44  0.005856303    1.522    0.343
         4 -12.7247    199.4951     12.9132   6.3162591344e+01   3.3549823659e+01    0.5303665    0.4820452  46.41  0.001110828    1.257    0.204
         5 -12.4120     32.8509      7.1998   1.0236386403e+02   7.0931548127e+01    0.9246617    0.1238215 -38.04  0.002706785    6.723    0.851
         6 -11.6055     87.0211    172.7711   1.2881503796e+02   2.8820129216e+01    0.2889864    0.2322078  83.03 0.0005161138    1.164    0.141
         7 -13.4395    175.6339    249.1476   1.2117014803e+02   2.9086989687e-01     1.161403    0.2386539  38.02  0.003812854    4.529    0.779
         8 -13.6517     52.7245    221.8116   1.4123142947e+02   2.3433827235e+01    0.7549208    0.4617733  65.45  0.003323463    1.326    0.246
         9 -15.6112     49.9228    232.3387   1.4250540501e+02   2.1821021472e+01     2.387648     1.663068  66.68   0.01001675    1.069    0.065
        10 -16.6094     51.4929    202.9936   1.3994716807e+02   2.7291648487e+01      11.4316     2.888524  53.09   0.03713848    3.866    0.741
        11 -12.7673     76.4101    157.2910   1.2910814901e+02   3.3923754162e+01     1.098319    0.5062299  68.64   0.00364797    4.134    0.758
        12 -14.1054     10.4404    206.7250   1.4806217997e+02   3.1021141405e+01      1.26856    0.5224459  25.52  0.006208532    3.830    0.739
        13 -13.3526     75.0330    169.3407   1.3115311215e+02   3.1379178139e+01    0.4608974    0.2890461 -44.51  0.001628756    2.077    0.518
        14 -10.9513    104.4784    148.0287   1.2048118144e+02   3.1530007379e+01      0.37155    0.2780623 -48.31 0.0008410519    1.418    0.295
        15  -9.8996    106.6250    144.0658   1.1917451498e+02   3.2056201059e+01    0.3082439    0.1637671 -39.22  0.001172311    2.483    0.597
        16 -12.3446     93.2209    147.5842   1.2327105598e+02   3.3555716883e+01    0.2799616    0.2613678 -49.81 0.0005114893    1.205    0.170
        17 -10.6265    133.8520    144.7139   1.1249159980e+02   2.6688786577e+01    0.8436006    0.1862207 -54.36  0.001783883    7.506    0.867
        18 -13.2127     54.6153    145.4948   1.3290397396e+02   3.9604870704e+01    0.5618651    0.3836181 -48.68  0.003095038    1.634    0.388
        19 -10.2599    113.6263    134.6456   1.1543455320e+02   3.2921788145e+01    0.2989841    0.2411881 -12.12 0.0008351764    1.710    0.415
        20 -12.0934     70.1783    134.4565   1.2704740784e+02   4.0169054565e+01    0.2852828    0.2486991  63.21  0.001187257    1.150    0.130
        21 -10.3294    169.5042    215.4772   1.1751793109e+02   6.2372541757e+00    0.2033309    0.1268778 -60.50  0.001030065    2.297    0.565
        22 -10.9630    101.2413    131.5381   1.1805118756e+02   3.5914367787e+01     0.292876     0.244541 -29.61 0.0006186991    1.441    0.306
        23  -9.9388    109.4216    122.1824   1.1377689965e+02   3.6575200689e+01    0.2199754    0.2023886  30.81 0.0004276378    1.182    0.154
        24 -17.3568      6.4162    187.6076   1.4776988036e+02   3.5228972057e+01     17.19779     1.893662 -78.38   0.04551798    8.921    0.888
        25 -12.4289     45.6167    115.0468   1.3066902875e+02   4.7843935187e+01    0.3569269    0.2377721  87.78   0.00189343    1.660    0.398
        26 -10.6214    168.4004    113.2133   9.6819885511e+01   2.5719606504e+01    0.3596733    0.2741108 -68.08 0.0009304264    1.600    0.375
        27 -11.2211    193.2435    195.0573   1.0942646222e+02   5.2314390789e+00    0.8156613    0.3944587 -61.07  0.002183337    7.941    0.874
        28 -11.6576     66.8576    195.6674   1.3609622035e+02   2.6807718709e+01    0.3894578    0.2178354  53.07  0.001822188    1.560    0.359
        29 -11.0717     23.0671     93.5936   1.3398753164e+02   5.4948411824e+01    0.3341318    0.1708498  37.38  0.001759214    2.253    0.556
        30 -11.8502     79.1872    183.7406   1.3206475114e+02   2.7600029748e+01    0.3049571    0.2412405 -55.09 0.0007375368    1.468    0.319
        31 -14.0305     58.0218    130.5094   1.2971745364e+02   4.2721591676e+01     1.727917    0.6150988 -74.59  0.005372801    4.361    0.771
        32 -13.9320     91.7234    164.9264   1.2653364143e+02   2.9831965811e+01     2.935293    0.8064456  50.57  0.001457168    4.580    0.782
        33 -13.5730     67.7163    144.2642   1.2932235292e+02   3.8193164073e+01    0.8867982    0.5627612  78.08  0.004349279    1.835    0.455
        34 -11.9629     74.9268    190.0356   1.3375548191e+02   2.6869316932e+01    0.3740103    0.2781501 -42.86  0.001634185    1.882    0.469
