#   1 NUMBER                 Running object number                                     
#   2 MAG_AUTO               Kron-like elliptical aperture magnitude                    [mag]
#   3 X_IMAGE                Object position along x                                    [pixel]
#   4 Y_IMAGE                Object position along y                                    [pixel]
#   5 X_WORLD                Barycenter position along world x axis                     [deg]
#   6 Y_WORLD                Barycenter position along world y axis                     [deg]
#   7 A_WORLD                Profile RMS along major axis (world units)                 [deg]
#   8 B_WORLD                Profile RMS along minor axis (world units)                 [deg]
#   9 THETA_WORLD            Position angle (CCW/world-x)                               [deg]
#  10 FWHM_WORLD             FWHM assuming a gaussian core                              [deg]
#  11 ELONGATION             A_IMAGE/B_IMAGE                                           
#  12 ELLIPTICITY            1 - B_IMAGE/A_IMAGE                                       
         1 -17.7022    245.3793    118.7874   2.5643862697e+01   8.7642032603e+00     7.198985     5.740736  39.80   0.01425258    1.456    0.313
         2 -16.8016    248.4962    102.2990   2.1695762972e+01   1.0877898918e+01     7.909293     3.071131 -53.38   0.01416259    3.448    0.710
         3 -11.1890    248.0493     25.5201   5.8290415567e+00   2.1852168945e+01    0.4887593    0.3449594 -52.10  0.002211759    1.210    0.174
         4 -10.9799    119.2471      9.7365   1.7853555335e+01   5.2790322403e+01    0.6044161    0.3676522  41.23  0.002797092    1.530    0.347
         5 -10.2456    236.4848      6.5652   2.9659742621e+00   2.6319852571e+01    0.2723238    0.1592629  56.41  0.001608511    1.995    0.499
         6  -9.9193    207.1680      2.4845   4.4067127802e+00   3.3006183662e+01    0.2864113    0.1558628  53.00  0.001263333    2.046    0.511
         7  -8.9852     97.9949      1.9568   1.9529307866e+01   5.8139333353e+01    0.1871171    0.1525837  41.07 0.0003621809    1.029    0.028
         8  -9.0016    203.7962    187.2805   4.7385546553e+01   4.2632302261e+00    0.2525928    0.2089112 -21.82 0.0007871439    1.137    0.120
         9 -12.9522    225.6075    244.3276   5.3503907773e+01  -8.0172868158e+00      1.68433    0.8422127  28.29  0.009185037    1.772    0.436
        10 -10.0121    237.5729    249.4095   5.2183826440e+01  -1.0252841802e+01    0.4452906    0.2356841  30.30   0.00225345    1.670    0.401
        11  -8.8495    100.3058    250.1254   7.9014198649e+01   9.7513537056e+00    0.1902792    0.1449663  35.28 0.0003887589    1.238    0.192
        12 -10.5794    247.6990    249.2236   5.0383823313e+01  -1.1497660915e+01    0.5884526    0.2992189  36.84  0.003405704    2.046    0.511
        13 -11.3171    242.1116    243.9257   5.0483994559e+01  -1.0136057272e+01    0.6592379    0.2810244  37.94  0.003398095    2.390    0.582
        14 -10.0410    189.0714    247.6521   6.0930775247e+01  -3.2776800865e+00    0.2291869    0.1712938 -19.08   0.00072723    1.408    0.290
        15  -8.7230    145.8487    170.7529   5.6698695721e+01   1.8275244176e+01    0.3704493    0.2067383 -65.06  0.001373816    2.733    0.634
        16  -9.4635    115.9722    199.7034   6.9007880297e+01   1.7326068330e+01    0.2124305    0.1931316 -60.30 0.0007963464    1.162    0.139
        17  -8.7874    110.5306    167.9569   6.4878489169e+01   2.5387637643e+01    0.2234474    0.1445437 -56.14 0.0007633081    1.563    0.360
        18  -8.3108    142.9449    165.9198   5.6407557911e+01   1.9884529376e+01    0.2303587    0.1849079  85.64 0.0006224962    1.645    0.392
        19  -8.1149     25.6086    164.1800   8.6230199808e+01   3.7775758277e+01    0.1749624   0.09855891 -62.09 0.0002857322    1.556    0.357
        20  -8.8119     70.8255    160.1381   7.3912498606e+01   3.3518026817e+01    0.2167413    0.1818457  76.41 0.0004831587    1.228    0.186
        21 -11.6595    115.0558    152.7714   6.0704474268e+01   2.8127594803e+01    0.7880251    0.5338855  30.24  0.003599295    1.591    0.372
        22 -10.5523    124.9089    147.0661   5.6905930710e+01   2.7604788901e+01    0.4591502    0.2815927 -48.64  0.001841693    1.619    0.382
        23 -11.6881     68.2482    144.1819   7.1879544479e+01   3.7764297037e+01    0.7836243     0.570479  86.13  0.003404579    1.643    0.392
        24  -9.1743    189.3751    183.4084   4.9548157115e+01   7.5313707504e+00    0.2373345    0.2289804   8.58 0.0004650654    1.122    0.108
        25  -8.6580     17.3225    138.0815   8.5351942200e+01   4.4720413629e+01    0.1788729    0.1623598 -39.35 0.0009229324    1.247    0.198
        26 -10.6391    151.7407    132.6725   4.6827564626e+01   2.5376692753e+01    0.4427757    0.3609187   8.02   0.00158427    1.453    0.312
        27  -9.9746    115.8303    127.7921   5.4893916139e+01   3.3784908325e+01    0.3810777    0.3077662  39.36  0.000881388    1.259    0.206
        28  -8.2331     91.7980    129.3899   6.2073277119e+01   3.7754061718e+01    0.1878591    0.1446216  22.93 0.0003673977    1.446    0.309
        29 -10.7158    122.0250    125.3600   5.2615952378e+01   3.3123834926e+01    0.6350016    0.4658678 -63.38  0.001354543    1.572    0.364
        30 -10.5347    152.6415    124.9814   4.4727815277e+01   2.6822077080e+01    0.4755264    0.3567223 -68.44  0.002149164    1.689    0.408
        31 -10.2543     39.7142    125.7999   7.7008828941e+01   4.5672383667e+01    0.2312108    0.2030663 -52.21 0.0002493825    1.069    0.064
        32 -13.2518     61.4850    112.2884   6.7496427239e+01   4.6370292098e+01     1.780586     1.112902  30.82  0.005666692    1.733    0.423
        33 -12.7433     22.7224    111.3157   7.9830974069e+01   5.0675902718e+01    0.8861513      0.75061 -45.22  0.003955335    1.119    0.106
        34  -9.9428    145.7617    112.9842   4.3336787601e+01   3.0832408419e+01    0.3449998    0.2549716  46.61 0.0009206438    1.366    0.268
        35  -9.3493    141.5303    112.5308   4.4264154930e+01   3.1848938344e+01    0.2149334    0.2082027   1.68 0.0006846981    1.034    0.033
        36 -11.8548     49.0013    111.2658   7.1310138882e+01   4.8148886146e+01     0.477312    0.4720661 -59.52 0.0008872502    1.116    0.104
        37  -9.8832    163.5044    179.3105   5.4333235481e+01   1.3126869883e+01    0.4328586    0.3109974  74.53  0.001909335    2.236    0.553
        38  -8.1864    151.1996    180.4529   5.7366957105e+01   1.5195587417e+01    0.2131994    0.1407348  41.11 0.0004572956    1.468    0.319
        39  -7.9842    149.2316    177.6451   5.7275421891e+01   1.6156960613e+01    0.2203293    0.1771513 -59.65 0.0004733744    1.388    0.280
        40  -8.5409     59.7952    183.3475   8.0087239353e+01   2.9440887432e+01     0.170995    0.1595829  54.42 0.0005216678    1.139    0.122
        41  -8.7090    132.5135     98.5710   4.2788587693e+01   3.6683752896e+01    0.2992349    0.1501906 -41.45 0.0006757008    1.993    0.498
        42  -8.4808     25.2675    243.7309   9.2859107685e+01   2.0519761029e+01     0.131662    0.1179864 -84.59 0.0005900181    1.341    0.254
        43  -9.4212    113.9190     95.0544   4.6832491746e+01   4.1327254134e+01     0.229428    0.2143825   0.49 0.0003748638    1.065    0.061
        44  -9.7329    122.8030     93.0755   4.3806798371e+01   3.9878135198e+01    0.2866026    0.2122466 -19.13  0.001066165    1.583    0.368
        45  -9.4393    156.9444     91.6681   3.5002472610e+01   3.2520926283e+01    0.4783815    0.2265825 -37.67  0.001818876    2.142    0.533
        46 -10.0648      7.1713     81.0178   7.9651005360e+01   5.8645989411e+01     0.195698    0.1322907  84.60  0.001102779    2.014    0.504
        47  -8.2170     86.1309     80.0704   5.0841259856e+01   4.9664728183e+01    0.1733931    0.1665747 -65.06   0.00099686    1.224    0.183
        48  -9.2163    159.4271    173.6628   5.4121503524e+01   1.5064695575e+01    0.2797016    0.2382503 -85.35  0.001080379    1.511    0.338
        49  -9.5465    190.1983     65.5756   2.1674010680e+01   2.9142687046e+01    0.2698176    0.2424686 -65.06 0.0006122669    1.074    0.069
        50  -9.9095    162.4744     62.1843   2.5634600481e+01   3.6232146910e+01    0.4351737    0.2801693 -21.62  0.001996294    1.896    0.473
        51  -8.8844    136.8251     61.1016   3.0716290458e+01   4.2463808710e+01    0.2109368    0.1932821 -75.94 0.0003886016    1.218    0.179
        52  -9.2830    169.3369     51.0449   2.1280958214e+01   3.6219423044e+01    0.1944318    0.1848764 -55.87 0.0009094775    1.088    0.081
        53  -9.3881    149.2678     49.8662   2.4652367595e+01   4.1193355397e+01    0.2821391    0.1667295  73.52  0.001223346    2.056    0.514
        54  -9.9654    161.2644     47.1447   2.1601429516e+01   3.8693874657e+01    0.3605717    0.2494046 -14.37  0.001552153    1.845    0.458
        55 -10.0848    175.8997     42.4836   1.7883644640e+01   3.5801441477e+01     0.483259    0.2997655  26.89  0.001348653    2.512    0.602
        56  -7.0892    122.5492    205.5195   6.8405070484e+01   1.4997555361e+01    0.1380943    0.1279395  47.36 1.198583e-06    1.011    0.010
        57 -10.4585    192.5589    240.2146   5.9087835418e+01  -2.6888511149e+00    0.3375162    0.1796771  46.83  0.001210327    2.205    0.547
        58  -9.7463    180.9937     24.1765   1.2349169624e+01   3.6789974088e+01    0.3343266    0.1966795  88.73  0.001640776    1.872    0.466
        59  -8.0688    140.0000    202.0058   6.3860184311e+01   1.2743864945e+01    0.1618592    0.1593505 -19.67 0.0004016836    1.082    0.075
        60  -9.2737    156.6627     22.1585   1.5231728666e+01   4.2807311572e+01    0.2658743    0.1662375  58.25 0.0006774697    1.412    0.292
        61  -9.2515    136.4230    197.0500   6.3830321268e+01   1.4389205489e+01    0.4647504    0.2933553 -87.86  0.001499513    3.250    0.692
        62  -9.5313    243.8338     15.4363   4.1730701541e+00   2.3861344837e+01    0.1951459    0.1459541  30.85  0.001194837    2.269    0.559
        63 -11.1613    193.0413    194.6969   5.1002131868e+01   4.8030388043e+00    0.9357696    0.5393081 -63.87  0.003432706    3.855    0.741
        64  -9.2297    189.4861     15.0258   9.0393333754e+00   3.5777514907e+01    0.2506804    0.1576898 -87.72  0.001358551    1.582    0.368
        65  -9.4301    156.3544    222.8353   6.3695661828e+01   5.9532105693e+00    0.2939365    0.2283185  80.55 0.0009876592    1.937    0.484
        66  -8.1918     94.4775     13.5118   2.4762750205e+01   5.7907399996e+01    0.1280407    0.1086743  36.69 5.498702e-05    1.016    0.016
        67 -10.6488    170.7208    236.3762   6.2838864863e+01   1.2909824996e+00    0.6194735    0.3171541  58.14  0.002232076    4.383    0.772
        68  -8.4257     27.5616    219.5055   9.0784485469e+01   2.5134755114e+01    0.1172587   0.09476203  77.37 7.718708e-05    1.028    0.028
        69 -10.4124    162.1282    228.9221   6.3444037017e+01   3.9263704678e+00    0.4755298    0.2918215  59.67  0.001970426    2.473    0.596
        70  -8.4785    214.6481    195.4457   4.6861390855e+01   1.0188774614e+00    0.2390145     0.125118  42.60 0.0007900803    2.029    0.507
        71 -10.1904    245.7790    234.0113   4.8171863749e+01  -9.3190600919e+00    0.2487522      0.20556  50.91  0.001624654    2.063    0.515
