#   1 NUMBER                 Running object number                                     
#   2 MAG_AUTO               Kron-like elliptical aperture magnitude                    [mag]
#   3 X_IMAGE                Object position along x                                    [pixel]
#   4 Y_IMAGE                Object position along y                                    [pixel]
#   5 X_WORLD                Barycenter position along world x axis                     [deg]
#   6 Y_WORLD                Barycenter position along world y axis                     [deg]
#   7 A_WORLD                Profile RMS along major axis (world units)                 [deg]
#   8 B_WORLD                Profile RMS along minor axis (world units)                 [deg]
#   9 THETA_WORLD            Position angle (CCW/world-x)                               [deg]
#  10 FWHM_WORLD             FWHM assuming a gaussian core                              [deg]
#  11 ELONGATION             A_IMAGE/B_IMAGE                                           
#  12 ELLIPTICITY            1 - B_IMAGE/A_IMAGE                                       
         1  -8.3886    108.2232      8.7941   3.9652174144e+01   5.5196435668e+01    0.1803422    0.1235815  41.25  0.001073236    1.393    0.282
         2 -10.4063    196.2310    243.4608   7.7482220867e+01  -4.4791268280e+00    0.2251954    0.1863097 -18.27 0.0002092522    1.161    0.139
         3  -7.6605    246.5780    250.2279   6.9163096728e+01  -1.1204832559e+01    0.1655504   0.08190331 -26.54 0.0009518793    1.681    0.405
         4  -9.2416    174.8864    248.7944   8.2719132035e+01  -2.5957884572e+00    0.3235244    0.2684796  68.05  0.001755783    2.056    0.514
         5  -9.0842    162.8029    242.8102   8.4376242452e+01   8.2226212278e-02    0.2897062    0.2311307  23.47  0.001188264    1.141    0.124
         6  -9.0179    164.1791    238.2886   8.3372594131e+01   7.0657448803e-01    0.2202841    0.1977373  10.68 0.0003089822    1.113    0.101
         7  -6.9558    201.2789    241.3336   7.6126270471e+01  -4.7697445548e+00    0.1310018   0.08187477 -11.02 0.0003817618    1.608    0.378
         8  -6.9712    190.7077    241.7158   7.8319124431e+01  -3.4832521830e+00    0.1293849   0.08478322  -6.55 0.0002779746    1.537    0.349
         9  -7.9169    234.5606    236.5326   6.9029159364e+01  -7.9634359878e+00    0.1232596   0.09035163 -12.12 0.0007468743    1.044    0.043
        10  -7.4567    175.3311    234.9517   8.0431162308e+01  -2.4824822216e-01    0.1863448    0.1509026  -8.05  0.000800288    1.105    0.095
        11  -8.3443    165.2446    233.7139   8.2410801214e+01   1.3954412513e+00    0.2323525    0.1834341 -20.87 0.0003821311    1.223    0.182
        12  -7.7740    193.7049    232.0145   7.6103191969e+01  -2.2336368800e+00    0.1816965    0.1420373 -24.46 0.0004277762    1.173    0.148
        13  -7.7299     85.4653    231.9094   1.0058754832e+02   1.3268856125e+01    0.1960352    0.1316499 -61.34  0.001026693    1.593    0.372
        14 -10.1494    132.5850    226.1307   8.8625575705e+01   7.6847063159e+00    0.2661681    0.2393816 -21.14 0.0004717576    1.132    0.116
        15  -8.6101     84.0609    219.0561   9.9342859561e+01   1.6352168542e+01    0.2036489    0.1863748  52.87 0.0002923909    1.032    0.031
        16  -6.8416     43.3482    215.6778   1.0888808425e+02   2.2310872601e+01      0.14647   0.08586603  61.15 0.0005532045    1.742    0.426
        17  -6.9568     21.4733    214.4162   1.1392391077e+02   2.4911440068e+01    0.1242324     0.110721  82.66 0.0002227087    1.076    0.071
        18  -7.0409    204.2718    213.6806   7.0775760472e+01  -4.5062420107e-01     0.114165    0.1067142 -64.70 0.0001536671    1.566    0.361
        19  -8.7611    155.8063    212.8866   8.1042875393e+01   6.8659790636e+00    0.2235197    0.1971751   4.30 0.0003110796    1.035    0.034
        20  -7.7778    141.3720    209.2135   8.3792075843e+01   9.9064128503e+00     0.243365    0.1839939 -59.51  0.000660741    1.528    0.345
        21  -7.2820     83.4895    204.0085   9.7475051184e+01   1.9992074824e+01    0.1986238    0.1216338  82.05 0.0008079675    2.389    0.581
        22  -9.0639     16.4367    201.8822   1.1413855068e+02   2.8382536801e+01    0.2247928    0.1925306 -73.34 0.0005157754    1.160    0.138
        23  -7.9418     83.1259    195.6587   9.6370154401e+01   2.2091290726e+01    0.1984604    0.1796398  25.31 0.0005153125    1.135    0.119
        24  -7.1092     64.4453    194.5510   1.0117417289e+02   2.4927470688e+01    0.1394456    0.1344725 -62.45 8.775374e-05    1.085    0.078
        25  -8.1801     88.9486    192.3118   9.4313114392e+01   2.2071130394e+01    0.2020273    0.1873062  33.78 0.0002586559    1.075    0.069
        26  -7.3319    178.1889    191.6140   7.2089632448e+01   7.6780334758e+00     0.185916    0.1307509  18.60 0.0002295569    1.503    0.335
        27  -8.8915     19.6437    186.2215   1.1201509711e+02   3.1973013128e+01    0.2150977    0.1955198 -67.27 0.0003000575    1.147    0.128
        28  -7.3053    116.2372    180.1337   8.4915497689e+01   2.0744645879e+01    0.1946426    0.1724393  60.59 0.0003970432    1.244    0.196
        29  -7.5650    101.0257    175.7746   8.8233086824e+01   2.4342429418e+01    0.2019607    0.1951904  36.81  0.001085297    1.044    0.042
        30  -7.1048     44.8860    169.2006   1.0319310388e+02   3.3850776915e+01    0.1920004    0.1519205 -44.51 0.0002820358    1.312    0.238
        31  -9.6030    165.0077    160.4293   6.8675206952e+01   1.6608419010e+01     0.286506    0.2205576 -40.42 0.0001532346    1.225    0.183
        32  -8.0572    170.3873    157.8247   6.6894757552e+01   1.6181822638e+01    0.3216884    0.2023458  18.50 0.0009073114    2.162    0.537
        33  -8.7065    108.2375    154.6216   8.2048195748e+01   2.8462436110e+01    0.2696673     0.254178 -18.40 0.0002831997    1.067    0.063
        34  -7.1280    170.1346    150.5997   6.5368396246e+01   1.7792376376e+01    0.2035023    0.1425007  24.65 0.0005310554    1.667    0.400
        35  -7.4478    194.9961    149.0083   5.9834612457e+01   1.3517732659e+01      0.20562    0.1690089 -72.81  0.001074932    1.537    0.349
        36  -7.1474     71.8869    143.3974   9.0675424209e+01   3.7234209488e+01    0.1970225    0.1479394   8.56 0.0003889984    1.557    0.358
        37  -7.1608    155.9847    139.7785   6.6157102064e+01   2.2912480170e+01    0.2066277    0.1278132  41.22 0.0008793426    1.692    0.409
        38  -7.4434    101.9696    137.3139   8.0064975728e+01   3.3911217208e+01    0.2642059    0.1088629  53.03 0.0007047284    4.308    0.768
        39  -6.9845     73.6617    134.6754   8.8310510050e+01   3.9240998224e+01    0.1642602    0.1137114 -24.71 0.0007051241    1.722    0.419
        40  -7.4608    223.5041    133.5368   5.1510354496e+01   1.1477540279e+01    0.1360797    0.1153209 -35.71   4.1228e-05    1.066    0.062
        41  -8.2613    248.6077    129.0201   4.6909074489e+01   8.1940215320e+00    0.1937174    0.1743124 -73.01 0.0005083472    1.285    0.222
        42  -7.2756    115.5064    129.4745   7.4243024717e+01   3.3309824990e+01    0.1572854    0.1526029 -26.81 0.0001276549    1.005    0.005
        43  -8.6302     59.0050    120.0080   9.0040556302e+01   4.5063869614e+01    0.2166838    0.1987472 -38.28  0.001184367    1.009    0.009
        44  -9.0472    173.4633    114.4452   5.6288337512e+01   2.4693942591e+01    0.3971354    0.2744211 -31.72 0.0008748694    1.538    0.350
        45  -8.2670     93.7419    111.5071   7.6268727450e+01   4.1655996580e+01    0.3652073    0.2474296  12.81 0.0007807842    1.898    0.473
        46 -10.3724     78.2072    103.0703   7.9175355542e+01   4.6324216301e+01    0.2671146    0.2412176   9.24 0.0003291267    1.102    0.093
        47  -7.6024     89.9161    103.5069   7.5361466828e+01   4.4194725409e+01    0.2205572    0.1498828  34.16 0.0004264465    1.491    0.329
        48  -7.3337    150.1834    101.2052   5.8004421527e+01   3.2310734285e+01    0.1931954    0.1709588 -86.01 0.0002748296    1.246    0.198
        49  -7.1614     44.3367     92.2475   8.8849072500e+01   5.3660557162e+01    0.1438931   0.09837389 -19.63 0.0001562211    1.559    0.358
        50  -7.3514    127.7758     84.9645   5.8989040056e+01   4.0381875158e+01    0.1941018    0.1820143 -41.55            0    1.084    0.078
        51  -6.5014    126.3128     73.2906   5.5974172384e+01   4.2821075035e+01     0.144979    0.1123433  17.75 0.0002519345    1.588    0.370
        52  -6.8275    103.3472     72.3154   6.1914548351e+01   4.7958715867e+01    0.1523255    0.1112739  11.02 0.0007047668    1.722    0.419
        53  -6.9552     93.7231     70.6228   6.4321130748e+01   5.0226341044e+01    0.1494458    0.1094308  -1.37 0.0007005225    1.702    0.412
        54  -7.2975    113.4632     60.9849   5.5520045274e+01   4.7715679071e+01    0.1760625    0.1203926 -65.11 -1.222026e-05    2.097    0.523
        55  -7.4401    151.9757     60.0111   4.6584726406e+01   3.9142343323e+01    0.2004096    0.1596655  30.08            0    1.526    0.345
        56  -8.1946    144.9638     57.8323   4.7344643773e+01   4.1077841784e+01    0.1986557    0.1818853  63.50 0.0002858382    1.039    0.038
        57  -8.5094    218.4772     51.7559   3.5055695510e+01   2.5879188278e+01    0.1943743    0.1752788  81.83  0.000350165    1.233    0.189
        58  -8.8777    113.9958     48.9055   5.1546273524e+01   4.9414969439e+01    0.2620378    0.1998603 -18.13 0.0003594155    1.518    0.341
        59  -7.1667    132.7223     50.7067   4.7803593668e+01   4.4922140469e+01    0.1328439    0.1027183  27.42            0    1.527    0.345
        60  -7.3758    235.5265     49.4390   3.2892189500e+01   2.2906142491e+01    0.1174116   0.09459791 -66.03 0.0001043141    1.033    0.032
        61  -7.7325    230.9004     47.3518   3.2919578618e+01   2.4059473689e+01    0.1950928     0.127206 -53.12 0.0003427613    1.272    0.214
        62  -6.9692    182.6917     40.7117   3.6807966315e+01   3.4884163076e+01    0.1183615   0.09571545  40.66 -0.000275831    1.575    0.365
        63  -7.7922    182.0313     34.2163   3.5355541138e+01   3.5842578515e+01    0.1768148    0.1520324  61.38 0.0003154376    1.262    0.208
        64  -7.2244    109.4449     33.5198   4.7629064481e+01   5.2429386601e+01    0.1320888     0.117049  49.17 0.0001358169    1.006    0.006
        65  -7.2711    203.9886     31.7809   3.2362261717e+01   3.1429284405e+01    0.1493956   0.08791504  73.50 0.0003452623    1.589    0.371
        66  -7.2111    106.4190     23.5043   4.4974312595e+01   5.4219150021e+01    0.1278516    0.1115975  51.40 8.806826e-05    1.016    0.016
        67  -8.3960    160.0340     20.0336   3.4657021659e+01   4.2372541168e+01    0.1813031    0.1554464  87.30  0.000330018    1.022    0.021
        68  -7.4638    129.4624     20.4586   3.9400336359e+01   4.9317260908e+01    0.1274725    0.1094239  66.24 0.0001674531    1.002    0.002
