#   1 NUMBER                 Running object number                                     
#   2 MAG_AUTO               Kron-like elliptical aperture magnitude                    [mag]
#   3 X_IMAGE                Object position along x                                    [pixel]
#   4 Y_IMAGE                Object position along y                                    [pixel]
#   5 X_WORLD                Barycenter position along world x axis                     [deg]
#   6 Y_WORLD                Barycenter position along world y axis                     [deg]
#   7 A_WORLD                Profile RMS along major axis (world units)                 [deg]
#   8 B_WORLD                Profile RMS along minor axis (world units)                 [deg]
#   9 THETA_WORLD            Position angle (CCW/world-x)                               [deg]
#  10 FWHM_WORLD             FWHM assuming a gaussian core                              [deg]
#  11 ELONGATION             A_IMAGE/B_IMAGE                                           
#  12 ELLIPTICITY            1 - B_IMAGE/A_IMAGE                                       
         1 -16.2771    146.8122    158.5453   5.6803061727e+01   2.1303376777e+01     3.170119      1.80511   0.91   0.01108241    3.837    0.739
         2 -13.5333     70.6675     32.5245   3.9851208865e+01   6.3588269537e+01     1.048608    0.6239657 -36.39  0.004750805    1.735    0.424
         3 -13.7381     64.5024     40.8233   4.6519368306e+01   6.3586462344e+01     1.062218    0.8762845 -74.79  0.005441875    1.450    0.310
         4 -10.1485     82.8889     16.2819   2.7524052756e+01   6.2722433444e+01    0.2494088    0.1885784 -44.51  0.001123139    1.378    0.275
         5  -9.7395    118.1512     14.4083   1.9940787731e+01   5.3650441846e+01    0.2326681    0.1575368 -36.25 0.0009925006    1.465    0.317
         6  -9.7255     92.7666      8.7392   2.1545328401e+01   6.0901174947e+01    0.2202379    0.0891832 -36.32 0.0008804682    2.398    0.583
         7  -9.4175    106.4875      6.4653   1.8251657396e+01   5.7473500665e+01    0.1399777    0.1233774 -83.30  0.000809373    1.027    0.027
         8  -9.8779      2.2947    241.5510   1.0132344873e+02   2.1838683124e+01    0.2144756   0.07650776  30.00  0.001014368    1.989    0.497
         9 -11.2425    248.7175    250.2308   5.3621230813e+01  -3.8651825834e+00    0.3105285      0.10501  22.22   0.00177768    2.738    0.635
        10  -9.4504      3.0713    251.0000   1.0133892043e+02   2.0038440730e+01    0.1797742   0.04980811  23.26 0.0007972989    2.907    0.656
        11 -11.5601    247.6280    238.4912   5.2170076891e+01  -2.5895854061e+00    0.2247097    0.1252597  -0.83  0.001334117    1.443    0.307
        12 -10.6755    250.1723    232.0806   5.0908417860e+01  -2.1312661436e+00    0.1592636   0.09231849  -9.87  0.001197624    1.283    0.220
        13 -10.6108     50.9773    223.9754   8.9321606449e+01   2.0827828550e+01    0.1914455    0.1445938 -18.95  0.001142983    1.750    0.429
        14 -10.7089     53.4008    212.7670   8.7908005267e+01   2.2873430526e+01    0.1684482    0.1153597 -57.89 0.0009548028    1.701    0.412
        15 -16.1730    105.8046    201.3197   7.3604328237e+01   1.8849199072e+01     2.270882     2.051573  -9.48   0.01442028    1.150    0.131
        16  -9.8060      1.3181    207.6723   1.0080820057e+02   2.8807532128e+01    0.1389502    0.0644372  51.70 0.0003763002    1.680    0.405
        17 -10.7837      4.0486    191.4014   9.9646637558e+01   3.2286881547e+01    0.2268682    0.1658235 -65.32  0.001011328    1.564    0.361
        18  -9.8023     20.0448    248.7749   9.7651019454e+01   1.9031602581e+01    0.1584059   0.07277273  27.75 0.0008810801    1.682    0.405
        19 -11.3702      1.9319    179.5692   9.9852298029e+01   3.5270074299e+01    0.3621289      0.21604 -74.66  0.001244129    1.712    0.416
        20 -11.5036      6.2514    173.9787   9.8403332730e+01   3.6336036671e+01    0.3271239    0.2066164 -57.61  0.001511143    1.800    0.445
        21 -11.2164      1.4781    171.0086   9.9697464535e+01   3.7419611724e+01    0.3823857    0.1456233 -71.81  0.001491691    2.561    0.610
        22 -12.4454      8.6889    158.4807   9.6948818092e+01   4.0121488923e+01    0.6298658    0.3341206 -46.79  0.002824808    2.303    0.566
        23 -10.5719      3.0126    161.4821   9.8875423451e+01   3.9741066953e+01     0.222443    0.1493647 -38.79  0.000919389    1.882    0.469
        24 -11.5180      2.7415    156.1528   9.8740069451e+01   4.1146654001e+01    0.5386866    0.2354967 -63.76  0.002204298    2.312    0.568
        25 -10.1484     11.4957    186.0090   9.7406584238e+01   3.2985159822e+01    0.1901743    0.1204519 -84.44  0.000772453    1.572    0.364
        26 -10.3875      5.5054    184.5150   9.9016641950e+01   3.3810848720e+01     0.130187    0.1111686  57.54 6.012066e-05    1.041    0.039
        27 -10.4340     10.5707    168.3072   9.6859536846e+01   3.7439734245e+01    0.2129178    0.1617012 -20.61  0.000932838    1.701    0.412
        28 -11.0770      1.4514    165.4832   9.9509552082e+01   3.8819113173e+01    0.4207129    0.1198655 -84.63  0.001487013    3.323    0.699
        29 -11.6873      4.3082    148.3565   9.7870666236e+01   4.3109115366e+01    0.6552342    0.3018991 -15.27  0.002434239    3.551    0.718
        30 -11.3214      3.4678    143.8669   9.7933231703e+01   4.4370773329e+01    0.5069335    0.2552939 -13.64  0.002061302    2.910    0.656
        31  -9.7433      1.3058    186.3235   1.0023600639e+02   3.3687291190e+01    0.1213097   0.09382208 -45.03  0.000490189    1.643    0.391
        32 -11.8427      9.4234    134.7438   9.5282736968e+01   4.6470124286e+01    0.3848408    0.1671662 -55.15  0.001541394    2.375    0.579
        33 -10.6528     13.1756    137.5972   9.4125075978e+01   4.5411855740e+01      0.19159    0.1359682  -5.24 0.0009444784    1.738    0.425
        34  -9.3692     15.6361    142.6851   9.3631916828e+01   4.3825042918e+01    0.1485469    0.1001649 -40.31 0.0007040428    1.764    0.433
        35 -12.4868    146.0697    128.9248   5.0638024945e+01   2.7394777318e+01     0.398774    0.2770984   3.76   0.00176425    2.132    0.531
        36 -11.5440      3.9299    138.1772   9.7474966794e+01   4.5887684040e+01    0.3821931    0.2381444 -59.50  0.001809659    1.647    0.393
        37 -10.8919      2.1065    128.2599   9.7590154879e+01   4.8726929272e+01    0.3451809    0.1582039 -64.02  0.001459243    2.060    0.515
        38 -11.6007      4.8053    132.0345   9.6804934140e+01   4.7521801766e+01     0.331677     0.226843 -31.14  0.001652525    1.780    0.438
        39 -10.3394     66.4159     91.5278   6.4928842904e+01   5.1701652095e+01    0.3856081    0.2284834 -44.21  0.001568538    1.778    0.437
        40  -9.4455     73.0000     88.4625   6.1429728299e+01   5.1274985245e+01    0.3412379   0.08870419 -53.40 0.0009160029    3.785    0.736
        41 -10.3094     40.6521     85.2180   7.4614824766e+01   5.7393415706e+01    0.3163303    0.2239094  11.11  0.001441916    1.670    0.401
        42  -9.1571     85.3496     83.3411   5.5249372138e+01   5.0050811105e+01    0.1638216    0.1278781  -6.88  0.000704436    1.798    0.444
        43  -9.5918     60.4858     83.4892   6.5049996688e+01   5.4805549858e+01    0.1548826    0.1509196 -62.25 0.0005186245    1.024    0.023
        44 -10.8335     53.1437     80.8798   6.7529213986e+01   5.6707475675e+01    0.4639643    0.2936637 -34.73  0.001929136    1.908    0.476
        45  -9.2760     71.2868     81.3303   5.9888179575e+01   5.3365752106e+01    0.1577919     0.124142 -19.25 0.0005236041    1.617    0.382
        46 -10.2135     79.5126     78.6103   5.5815521222e+01   5.2372016223e+01    0.3331722    0.2190507 -38.13  0.001212922    1.666    0.400
        47  -9.8809     45.5868     79.2438   7.0610183804e+01   5.8302027629e+01      0.22722    0.1330492 -49.84 0.0009512191    1.662    0.398
        48  -9.9507     59.8580     77.8453   6.3563851173e+01   5.6344544928e+01    0.2444598    0.2091935 -25.93 0.0008756528    1.309    0.236
        49 -12.1146     41.0607     73.3777   7.1137788466e+01   6.0492664105e+01    0.4926534    0.3600004 -54.58  0.002377413    1.308    0.236
        50  -9.9197     64.4579     74.5124   6.0456776782e+01   5.6327023687e+01    0.2910019    0.1348381 -42.28  0.001027258    2.380    0.580
        51  -9.4720     73.2668     73.3722   5.6424045700e+01   5.4874651846e+01    0.1585711    0.1227368 -19.10 0.0006056504    1.668    0.400
        52 -12.4322     47.3493     69.5101   6.6707399283e+01   6.0540798043e+01    0.6248013     0.363706 -58.65  0.002661133    1.700    0.412
        53 -11.7799     64.0182     28.6918   4.0399585471e+01   6.5752504421e+01    0.4511063    0.2149653 -39.48  0.001796969    2.155    0.536
        54 -12.5543     66.1241     54.5182   5.2094274842e+01   6.0538094037e+01     1.121872     0.388994 -37.12  0.003275164    3.892    0.743
        55 -12.6936     55.7945     44.0233   5.2067461776e+01   6.4822534947e+01    0.6124995    0.3642757 -50.99  0.002694684    1.792    0.442
        56 -12.9571     76.0709     40.1113   4.1614065475e+01   6.1055156092e+01    0.8376847    0.3290677 -34.48  0.002948093    2.771    0.639
        57  -9.5458     12.1382    248.3754   9.9347891950e+01   1.9776598544e+01     0.175513    0.0668515  35.65 0.0009447102    1.755    0.430
        58 -12.9110     50.9067     59.4496   6.1255132637e+01   6.2390972478e+01     1.123957    0.3471483 -56.40  0.003288969    3.787    0.736
        59 -13.1597     58.4016     61.7610   5.8522117720e+01   6.0485814875e+01     1.143855    0.5621551 -32.75  0.003842177    3.099    0.677
        60 -11.8606    243.3111    245.5449   5.3757697197e+01  -2.9621222402e+00    0.1954491    0.1172383  -6.36 0.0009465013    1.190    0.159
        61 -10.0518     90.4721     66.3052   4.7579691894e+01   5.2697250787e+01    0.2998566    0.1525545 -37.59  0.001124899    2.131    0.531
        62  -9.9302     71.8663     65.7336   5.4201098714e+01   5.6906136284e+01    0.3012426    0.1697571 -35.84 0.0008726183    2.083    0.520
        63 -11.0265     61.0363     69.6295   6.0253014411e+01   5.8143848868e+01    0.5531632    0.3523039 -23.65  0.002153973    2.382    0.580
        64 -11.8307     42.6188     61.1487   6.6241258045e+01   6.3358489771e+01    0.3645746    0.2896405 -62.67  0.001842287    1.278    0.218
        65  -9.5034     82.3043     61.3313   4.8510554767e+01   5.5585898311e+01    0.1546751     0.124948   2.45 0.0007036837    1.657    0.396
        66 -10.3982     75.2284     60.0818   5.0664963127e+01   5.7417263617e+01    0.3529953      0.24417 -31.85  0.001206846    1.652    0.395
        67 -10.1728     68.5756     60.8292   5.3651547201e+01   5.8673882959e+01    0.2939554     0.146287 -42.25  0.001121754    2.076    0.518
        68  -9.7074     91.9808     57.9424   4.3895717340e+01   5.4018364498e+01    0.2377521    0.1920428   6.22 0.0007463827    1.666    0.400
        69 -13.7993     59.0070     51.8853   5.4150293594e+01   6.2554536116e+01     1.218654    0.7365064 -21.44  0.004597225    2.722    0.633
        70 -10.9139     44.5130     52.4912   6.1795923785e+01   6.5104343524e+01    0.3110033    0.1438168 -52.78  0.001206183    2.152    0.535
        71 -11.7701     51.5269     49.3389   5.6684332498e+01   6.4552747280e+01    0.4075201    0.2684843 -50.49  0.001583857    1.538    0.350
        72 -10.4210     79.1101     53.6033   4.6535877393e+01   5.7867410307e+01    0.3013892    0.2252556 -33.07  0.001247253    1.443    0.307
        73 -10.8470     91.0434     47.1178   3.9770506086e+01   5.6229300191e+01     0.375148    0.2994952   2.08  0.001798376    1.668    0.400
        74 -10.0739     68.3105     70.3526   5.7368978512e+01   5.6573269658e+01    0.2950877     0.183148 -39.74 0.0009756621    1.735    0.423
        75 -11.2500     29.1010     45.0886   6.7980101787e+01   6.9172136598e+01    0.2675986    0.1991859  35.91  0.001382251    1.380    0.275
        76 -12.0165     41.2051     42.9060   5.9360985325e+01   6.7796041115e+01    0.3612926    0.3090251  83.60  0.001921639    1.459    0.314
        77  -9.8145     82.5291     69.4479   5.1497180739e+01   5.3807532575e+01    0.2793889    0.1465397 -35.42  0.001023426    2.289    0.563
        78  -9.6344    101.9888     41.2339   3.4230495200e+01   5.4455920591e+01    0.2108199    0.1693142   2.57 0.0006939854    1.631    0.387
        79 -11.6286     49.6575     40.4728   5.3428852069e+01   6.6750253929e+01    0.3126187     0.249322  35.58  0.001194092    1.250    0.200
        80  -9.9335    110.9904     39.7724   3.1488247530e+01   5.2371822800e+01     0.262467     0.202193 -11.20  0.001245493    1.632    0.387
        81 -10.3075     89.5719     38.8327   3.6601126912e+01   5.7969004605e+01    0.3281963     0.187305 -27.92   0.00117908    1.990    0.498
        82 -11.6510     45.2606     36.0059   5.3501178887e+01   6.8475794220e+01    0.3514922    0.2940591 -65.20  0.001882081    1.402    0.287
        83  -9.9206     97.0443     35.9508   3.3251560933e+01   5.6518786330e+01    0.2364471    0.1777153  27.38  0.001126186    1.679    0.404
        84 -10.9064     82.1996     35.3288   3.7250389364e+01   6.0351186433e+01    0.2019006    0.1894522 -23.42  0.001025597    1.144    0.126
        85 -11.4961     88.3214     27.3701   3.1637109829e+01   5.9962463791e+01    0.3417646    0.2189542 -33.45  0.001347926    1.614    0.380
        86  -9.9928    113.5237     32.0393   2.7855420529e+01   5.2803763503e+01    0.2186586    0.1434372 -30.73  0.001002511    1.582    0.368
        87 -10.0172     92.8618     31.9003   3.2540222871e+01   5.8175090856e+01     0.230177    0.1946219  32.34 0.0006729234    1.336    0.251
        88 -12.1525     79.5726     29.5178   3.5250670381e+01   6.1874254613e+01    0.3961467    0.2841455 -36.59  0.001394701    1.441    0.306
        89  -9.8472     76.8969     68.9612   5.3421889770e+01   5.5128243235e+01    0.2562155     0.174869 -24.88  0.001053009    1.975    0.494
        90 -10.2170    106.1508     28.3613   2.7838822459e+01   5.5209569193e+01    0.2468246    0.2052441 -17.40  0.001309596    1.377    0.274
        91  -9.4860     37.6586     28.6934   5.3897340964e+01   7.1287439077e+01    0.1446041    0.1071354   2.10 0.0007042435    1.686    0.407
        92 -10.5480     94.1133     24.5871   2.8850749394e+01   5.8828734631e+01    0.2719567    0.2193837 -18.39 0.0009495621    1.402    0.287
        93  -9.5552     48.3127     25.6839   4.5900579357e+01   6.9721107719e+01    0.1382168    0.1126812 -82.59 0.0007034462    1.641    0.391
        94  -9.8618     58.0560     21.4901   3.8718432327e+01   6.8205522462e+01    0.2210434    0.1337143  56.46   0.00102998    1.586    0.369
        95  -9.9670    106.4913     19.9517   2.4156794236e+01   5.6134139274e+01    0.2118544    0.1413966 -27.37  0.001026756    1.591    0.371
        96 -10.0625     50.9181     19.1278   4.0458502754e+01   7.0164705063e+01    0.2144531    0.1946089 -78.60  0.001199227    1.279    0.218
        97 -10.3126     64.2079     17.1032   3.3651217345e+01   6.7326960744e+01    0.2737006    0.1884097 -51.23  0.001356463    1.657    0.396
        98 -10.7087    248.9833    245.0255   5.2880373841e+01  -3.3672485697e+00    0.1570118    0.0801411  -6.02  0.000675363    1.646    0.393
        99 -11.3094    234.2171    243.9056   5.4863249692e+01  -2.0329478069e+00    0.2021338   0.09586713   1.68   0.00125577    2.154    0.536
       100  -9.7433     99.3906     16.7558   2.4080981740e+01   5.8356906364e+01    0.1859253      0.14013  -8.82  0.000948441    1.595    0.373
       101 -11.4607     55.6033    243.8974   8.9552661045e+01   1.6564158242e+01    0.2846737    0.1492241 -20.95  0.001191427    4.224    0.763
