#   1 NUMBER                 Running object number                                     
#   2 MAG_AUTO               Kron-like elliptical aperture magnitude                    [mag]
#   3 X_IMAGE                Object position along x                                    [pixel]
#   4 Y_IMAGE                Object position along y                                    [pixel]
#   5 X_WORLD                Barycenter position along world x axis                     [deg]
#   6 Y_WORLD                Barycenter position along world y axis                     [deg]
#   7 A_WORLD                Profile RMS along major axis (world units)                 [deg]
#   8 B_WORLD                Profile RMS along minor axis (world units)                 [deg]
#   9 THETA_WORLD            Position angle (CCW/world-x)                               [deg]
#  10 FWHM_WORLD             FWHM assuming a gaussian core                              [deg]
#  11 ELONGATION             A_IMAGE/B_IMAGE                                           
#  12 ELLIPTICITY            1 - B_IMAGE/A_IMAGE                                       
         1 -12.2828    143.3396     39.1900   6.8444008643e+01   4.4944124540e+01     3.075729     1.495157  40.56    0.0115912    2.288    0.563
         2 -12.5552     53.3521     89.8248   1.1036326593e+02   5.1850326015e+01     2.376079    0.7826425 -47.57  0.008971097    3.190    0.687
         3 -11.4827     51.3054     24.0634   9.1445937572e+01   6.5927181202e+01    0.8528777    0.4345902 -22.77 0.0004725405    2.767    0.639
         4 -11.8496     58.1034      5.1495   7.9306223368e+01   6.7930250394e+01     1.705616    0.7497045  35.33  0.007864593    2.469    0.595
         5 -13.2546    146.7599     53.6127   7.2708864622e+01   4.1833451966e+01     2.625895     1.360524  66.04 0.0005855766    2.432    0.589
         6 -12.4161    179.0115     29.0829   5.8192185190e+01   3.6939730390e+01     2.544325      1.41494 -32.63   0.01089358    1.767    0.434
         7 -14.0701     95.0091     50.6532   8.5754464015e+01   5.3905681015e+01     4.605731     2.545065  55.79   0.01058989    2.285    0.562
         8 -13.2995     70.6247     30.8541   8.6529070126e+01   6.1844585633e+01     2.434903    0.9612861  34.64  0.009577137    3.070    0.674
         9 -10.4879     67.5963     19.8392   8.2824303277e+01   6.4187184063e+01     1.245025    0.7630175  26.75  0.006394658    1.840    0.457
        10 -12.5866     54.5133     35.3847   9.4708529424e+01   6.3403433196e+01    0.8405702    0.7992892  87.36  0.005315062    1.341    0.254
        11 -12.2761    106.1158     34.9512   7.6361844154e+01   5.4382456761e+01     1.753635    0.9988597  27.66  0.007230811    2.318    0.569
        12 -11.9628    113.1761     20.3719   6.8368505611e+01   5.4922590186e+01     1.261785    0.9172579   5.75   0.00630921    1.533    0.348
        13 -12.5584      8.2644     26.1264   1.1254894062e+02   6.9595156050e+01     1.366128    0.7420122  15.95  0.008334458    2.269    0.559
        14 -12.9812     20.1553     13.7710   1.0202061282e+02   7.1190917793e+01     1.349329     1.100479 -26.86  0.009773463    1.106    0.096
        15 -12.4498      3.2218     17.4203   1.1246048927e+02   7.1609495443e+01    0.3423133    0.1966477 -46.75 0.0002763489    1.311    0.237
        16 -13.7264      4.0506      9.2771   1.0915576263e+02   7.3147791726e+01    0.8380649    0.4653468 -41.66  0.001444614    1.387    0.279
        17 -12.3445     40.3673     20.7085   9.4907533138e+01   6.7901691748e+01     1.857184     1.061271  -9.95  0.008891867    2.650    0.623
        18 -13.0716     98.7511      7.1746   6.6358523381e+01   5.9815962251e+01     1.001261    0.6776046  36.34  0.001292504    1.415    0.294
        19 -12.1234    129.7762     18.8832   6.3735700946e+01   5.1103212287e+01     1.379921     1.082414  60.66  0.004391772    1.279    0.218
        20  -9.9926    202.1897     26.7004   5.4113081678e+01   3.1050638746e+01     1.020977    0.3084607 -45.40  0.003106215    3.724    0.731
        21 -11.2564    211.9679     15.7462   4.9702404987e+01   2.9714344092e+01     0.959645    0.5753755  43.65  0.004402487    1.868    0.465
        22 -10.8108    215.4497     23.7824   5.1634512945e+01   2.7932176906e+01    0.6147428    0.4999025 -18.82   0.00165161    1.279    0.218
        23 -12.2100    166.3706     23.3747   5.8328294322e+01   4.1023044704e+01    0.9602843    0.4969758 -44.81 0.0009502595    2.092    0.522
        24  -8.8778    238.1181      7.2148   4.4882741296e+01   2.4014295747e+01    0.1840723    0.1772928  29.06 0.0007643494    1.189    0.159
        25 -11.4608    214.9174      4.1778   4.6079136077e+01   3.0119540665e+01     1.936981     0.401567  72.34  0.005162905    4.591    0.782
        26 -10.4345    225.8038      8.3357   4.6239076716e+01   2.6941114774e+01     1.005292    0.6732842  23.60  0.004912183    1.975    0.494
        27 -10.2901    231.5942     16.3263   4.7873206108e+01   2.4673877390e+01    0.6604227     0.343322 -29.26  0.003035259    1.790    0.441
        28 -11.1484    233.2287      9.4824   4.5891324988e+01   2.4980183980e+01    0.5823739    0.3539912 -17.94  0.001448299    1.757    0.431
        29 -10.5337    242.7825     13.0716   4.6014235455e+01   2.2297859045e+01    0.5607581    0.3163474 -15.51  0.002647819    1.977    0.494
        30 -11.4680    236.5920     31.9096   5.1551605966e+01   2.1713173666e+01     0.802561    0.5274898  -7.79  0.003880003    1.801    0.445
        31 -10.8557    240.0800     18.6982   4.7713938181e+01   2.2351336949e+01    0.8179559    0.2910408 -32.64  0.003269439    2.367    0.578
        32 -12.5119    152.0258     18.9598   5.9264214018e+01   4.5361914907e+01     2.655593     2.113173  12.73   0.01130515    1.378    0.274
        33 -10.5868    202.2502     18.5525   5.1646036870e+01   3.1958121935e+01    0.6291505    0.3666033  49.02   0.00253452    1.773    0.436
        34  -9.3871    198.0489     16.9368   5.1664962854e+01   3.3247053424e+01    0.2926947    0.2358082  27.99  0.001126379    1.400    0.286
        35  -9.2273    187.4564     14.4328   5.2217808292e+01   3.6347822531e+01     0.362342    0.2341042 -71.88  0.001627273    1.821    0.451
        36  -9.5230    141.6950     11.1590   5.8225812908e+01   4.8937434315e+01    0.5624744    0.2558349  35.01   0.00166453    2.709    0.631
        37  -8.9429    138.7084      8.3592   5.7689036671e+01   5.0003772217e+01    0.2499946    0.1825794  47.51  0.001260852    1.281    0.219
        38  -9.8863    173.4773      8.6519   5.2184546603e+01   4.0711369800e+01    0.2596529     0.228655  -0.42 0.0008271686    1.228    0.186
        39 -11.9156    112.4889      7.6157   6.2990146728e+01   5.6612105630e+01     1.026924    0.4296198  66.29  0.003039602    2.849    0.649
        40 -10.9513     77.3169      9.1287   7.4021220837e+01   6.4005923779e+01     0.269812    0.2367048  -4.10 0.0005795258    1.034    0.032
        41  -8.7895     79.3614      3.5824   7.0496347238e+01   6.4299332530e+01    0.5132448    0.2457568  33.72  0.002269584    2.280    0.561
        42 -10.4772    179.9413      4.9175   5.0086732507e+01   3.9325615417e+01    0.8670743    0.4312636  78.80  0.002654959    2.119    0.528
        43 -11.1932    199.1364      5.3072   4.7988684813e+01   3.4142482952e+01    0.6222219     0.553206 -71.61  0.001788495    1.092    0.084
        44  -9.6428    189.5768      7.9514   4.9889710642e+01   3.6438564929e+01    0.4142644    0.2396465  52.28   0.00170651    1.693    0.409
        45  -8.9836     38.9710      9.2618   9.0206569886e+01   7.0042235801e+01    0.1871721    0.1191321   0.46    0.0010221    1.902    0.474
        46 -10.4169     41.9765      3.9664   8.5950394898e+01   7.0488830448e+01    0.2973824    0.2079308 -27.34 0.0009113391    1.201    0.168
        47  -7.3234     37.9529      6.0000   8.9027057137e+01   7.0693134796e+01    0.2014086      0.15072  29.18 0.0009395008    1.492    0.330
        48  -9.7459    249.5753      6.6290   4.3839018981e+01   2.1350067008e+01    0.4197609    0.2130572 -37.80  0.002049003    1.701    0.412
        49  -9.8724    248.9879      1.9793   4.2723385345e+01   2.1942310723e+01     0.316024    0.1887581  76.95  0.001629389    1.701    0.412
        50 -11.1754    139.2432      1.9442   5.5046663157e+01   5.0483588261e+01    0.4349141    0.3126165  61.81  0.001081471    1.301    0.231
        51  -8.0538    123.0231      4.0000   5.9023569921e+01   5.4423364371e+01    0.2225635   0.07700308  63.23 0.0006041859    2.779    0.640
        52 -10.9201    132.2296      4.5950   5.7410951713e+01   5.2044695634e+01    0.5796773    0.3362819  48.61   0.00178428    1.583    0.368
        53  -9.5234     29.9330    119.8882   1.2169340898e+02   4.7432018807e+01    0.3094834     0.183355  36.97  0.001376166    1.832    0.454
        54  -9.0182    183.9941    250.4904   1.0579967675e+02   2.5793650778e+00    0.1756148   0.07817598  41.88 0.0009567523    1.611    0.379
        55  -8.7476    125.1408    249.7920   1.1532251505e+02   1.1270589598e+01    0.1425306    0.1048455  36.04  0.001075019    1.352    0.261
        56  -9.4433      6.9740    125.6223   1.2802971339e+02   4.8009443587e+01    0.2072589    0.1633784  73.59 0.0004299059    1.137    0.121
        57 -10.7980      7.5342    135.2803   1.2859446129e+02   4.5919164116e+01    0.6135164    0.3354585  21.11  0.003773529    2.490    0.598
        58  -9.8718      5.2673    147.0359   1.2985605947e+02   4.3646255329e+01    0.2517787    0.1686133  59.91  0.001284692    1.303    0.233
        59 -11.1251      5.6561    142.4408   1.2949072131e+02   4.4562962473e+01    0.4009064     0.321965  48.00  0.002173723    1.380    0.275
        60 -11.0702     18.6003    121.9107   1.2482518088e+02   4.7945988632e+01    0.6383354     0.206156 -68.30  0.001477778    2.398    0.583
        61 -10.4113     13.9384    118.3565   1.2568561365e+02   4.9080018782e+01    0.3790182     0.266271 -58.40  0.002078404    1.465    0.317
        62 -11.2168     14.6489    131.2997   1.2662149541e+02   4.6225717938e+01    0.5221665    0.3236334  76.99  0.002705376    1.380    0.275
        63 -10.5841     12.7514    125.9962   1.2664782555e+02   4.7510536514e+01    0.3393982    0.2456204  79.10  0.001594235    1.140    0.123
        64  -9.2480     87.0282    149.0368   1.1132313659e+02   3.4177007340e+01    0.2030342    0.1722933  76.47 0.0006122227    1.046    0.044
        65  -9.9471     66.3402    148.4132   1.1608896784e+02   3.7184810420e+01     0.281278    0.2122809  88.50  0.001410057    1.196    0.164
        66 -10.1890     14.7527    143.5673   1.2753351382e+02   4.3622318903e+01    0.3426465    0.1982309 -57.38  0.002132893    1.903    0.475
        67 -10.8999     30.3008    141.1722   1.2376666358e+02   4.2761824344e+01    0.3410977    0.2481331  59.38  0.001860969    1.264    0.209
        68 -10.5784     24.2346    137.1490   1.2483288912e+02   4.4175822349e+01    0.3900243    0.2199616  26.49  0.002323943    2.218    0.549
        69  -8.4843     97.8553    140.8554   1.0747982669e+02   3.4226155916e+01    0.1860076    0.1442336  79.78 0.0004216904    1.317    0.241
        70  -8.8753     80.5727    140.2978   1.1157420748e+02   3.6980070217e+01    0.1731097    0.1139802 -56.07 0.0009408579    1.558    0.358
        71 -10.0874     55.0542    137.8166   1.1746847408e+02   4.0862016532e+01    0.3505475    0.1759261 -57.58  0.001043859    1.957    0.489
        72  -9.7715     54.5616    133.0997   1.1699176824e+02   4.1951932903e+01    0.2691909     0.172577  32.76 0.0008761074    1.783    0.439
        73  -9.4317     23.2446    133.0184   1.2470132623e+02   4.5149370810e+01    0.2484208    0.1619428 -89.78  0.001056712    1.259    0.205
        74  -9.5019     86.6392    134.3146   1.0914233433e+02   3.7378419683e+01    0.3715098    0.1870975  36.10   0.00171796    2.130    0.530
        75 -11.5426     42.9932    116.2852   1.1776897444e+02   4.6973254331e+01    0.7140232    0.3621932 -55.82  0.002881484    1.869    0.465
        76 -11.6958     46.8452    129.7147   1.1850476063e+02   4.3571226806e+01    0.6937399     0.412506 -63.98   0.00297275    1.526    0.345
        77 -10.3098     40.1458    127.2505   1.1990738525e+02   4.4821766554e+01    0.3463827    0.2455198  87.84  0.001456174    1.236    0.191
        78 -10.3220     72.3637    130.0785   1.1206185213e+02   4.0359906805e+01    0.3807775    0.2057889 -54.99  0.001909673    1.830    0.454
        79  -9.6805     34.8042    129.5636   1.2151746215e+02   4.4843125626e+01    0.2938513    0.1302261  73.02  0.001297244    2.905    0.656
        80 -10.9157     59.4106    120.9669   1.1403678035e+02   4.4066051973e+01    0.3415782    0.2595972 -30.94  0.001890057    1.840    0.457
        81 -10.6830     65.9823    125.2285   1.1295795653e+02   4.2284741917e+01    0.3010866    0.2195758  48.55  0.001096971    1.378    0.274
        82 -10.6798     68.2520    121.7192   1.1180654083e+02   4.2770268872e+01    0.4080706    0.1946212 -53.01  0.001485987    2.072    0.517
        83  -9.0054     75.2442    124.7900   1.1047197994e+02   4.1131915704e+01    0.2601135    0.1488092  59.96  0.001257191    1.954    0.488
        84 -10.3979     35.0148    122.9889   1.2072568008e+02   4.6272020117e+01    0.3122302    0.2045494 -44.50  0.001842786    1.910    0.476
        85  -9.9776     92.4358    118.9612   1.0490994426e+02   3.9835319324e+01    0.6414452    0.2215967 -53.52  0.002047872    2.756    0.637
        86  -9.3219     91.3061    112.4313   1.0390878584e+02   4.1460464139e+01    0.3032368    0.2296386  16.32  0.001043039    1.823    0.451
        87 -11.4560      5.2444     80.8321   1.2421563196e+02   5.7934882024e+01     1.391839    0.5021719 -73.55  0.006904034    2.115    0.527
        88  -9.4034    235.3079    249.0269   9.7550257200e+01  -4.6948378712e+00    0.1439595    0.1074015  21.38  0.001151883    1.112    0.101
        89  -9.5876      3.6355    245.9451   1.3412435513e+02   2.6215351808e+01    0.1685492   0.08421364 -74.28  0.001228608    2.189    0.543
        90 -11.8063     39.7783     83.9020   1.1353801257e+02   5.4641632487e+01     1.613392    0.7051556 -49.44  0.004544837    2.147    0.534
        91  -9.0229    189.6571    244.3217   1.0414808630e+02   2.3950749534e+00    0.1047436   0.07329258  57.38 0.0007050242    1.727    0.421
        92  -9.8971    142.2569    243.4944   1.1188845181e+02   9.6049315497e+00    0.2984686    0.1440498  32.26  0.001627837    2.232    0.552
        93  -8.4711    206.0123    245.0000   1.0159699446e+02  -1.1238404005e-01    0.1825761   0.04602307  42.14 0.0007638099    2.907    0.656
        94 -12.7452     24.3994     81.9903   1.1820552814e+02   5.6415664017e+01     1.141373    0.8130012 -14.30   0.00559823    1.958    0.489
        95 -10.2732     14.6543    237.6565   1.3223822563e+02   2.6444689144e+01    0.2674129    0.1352232  89.50  0.001779229    1.737    0.424
        96  -9.5228     12.6167    232.2146   1.3236240604e+02   2.7487957600e+01    0.2132029   0.09977472  63.93  0.001365633    1.490    0.329
        97  -8.0712    243.3149    239.6458   9.5034618906e+01  -5.0060875496e+00   0.09106601   0.07835364  47.02 0.0006894402    1.738    0.425
        98  -8.9473    227.1081    231.5098   9.6400917873e+01  -1.9156718465e+00    0.1672231   0.08314063  38.29 0.0005583533    1.522    0.343
        99 -11.4472     42.8483     49.8130   1.0433019617e+02   6.1871292300e+01    0.7031866    0.4043526  15.70  0.003621091    2.337    0.572
       100 -11.5582     37.9292     41.4358   1.0375810979e+02   6.4132062481e+01     1.160093    0.6500115   5.35  0.005672963    2.747    0.636
       101  -8.8324    202.1530    228.9222   1.0009360373e+02   2.1582749786e+00     0.162012    0.1254262  42.39 0.0003661239    1.230    0.187
       102  -9.3717     50.3743    227.3116   1.2606963204e+02   2.4331118961e+01    0.1674616    0.1151299  73.75  0.001014616    1.173    0.147
       103  -8.6500    110.7035    224.7457   1.1544949129e+02   1.6872063192e+01     0.187809   0.06339469  49.21 0.0008941912    2.353    0.575
       104 -12.2898     10.1376    110.4559   1.2595032448e+02   5.1080491562e+01     1.054005    0.5698092 -49.42   0.00619803    2.070    0.517
       105 -12.4571     18.7332     99.5852   1.2240468298e+02   5.2882429863e+01     1.243873    0.7111557 -69.45  0.007477452    1.397    0.284
       106  -8.8423     40.9920    221.2790   1.2730213035e+02   2.6367046157e+01    0.1463738   0.09203038 -44.45 0.0008892535    3.369    0.703
       107  -8.1945    167.6927    220.6904   1.0488228803e+02   8.6357409916e+00    0.1134648   0.07984862  20.93  0.000244928    1.616    0.381
       108  -8.3478    234.3271    219.2712   9.3432525528e+01  -1.7951840650e+00    0.1163632   0.06763455  20.74 0.0002099811    1.580    0.367
       109  -9.4183      3.3735    213.9858   1.3320195440e+02   3.1297271131e+01    0.1949082   0.07210842 -84.58  0.001217638    2.338    0.572
       110  -9.1858    131.9628    119.4993   9.4993686345e+01   3.2541501970e+01    0.2121383    0.1974098 -56.94 0.0004167869    1.099    0.090
       111  -9.4660     51.0282    118.1086   1.1585631882e+02   4.5693971297e+01    0.2861539    0.2339526  36.46  0.001843711    1.408    0.290
       112  -9.7476    104.5147    116.8749   1.0132470387e+02   3.8262515288e+01    0.4153803    0.2290393  58.33  0.001780549    2.169    0.539
       113  -8.9973    116.8274    116.7005   9.8122813598e+01   3.6064682150e+01     0.322196    0.1815199  31.97  0.001138677    2.200    0.545
       114  -9.1171     80.7155    115.3314   1.0734660043e+02   4.2452534460e+01    0.2208337    0.1524505 -74.06 0.0004055856    1.455    0.313
       115  -9.5640     83.8398    114.3501   1.0631309997e+02   4.2203131457e+01    0.2648492    0.2104022  26.10 0.0005227952    1.528    0.346
       116  -9.3958    109.5075    115.2667   9.9685729005e+01   3.7721395638e+01    0.3039899    0.1844119  53.29  0.001407876    1.720    0.418
       117  -9.2911     97.5898    114.4532   1.0264068360e+02   3.9979304824e+01    0.2856214    0.2287121 -35.72  0.001115207    1.472    0.321
       118  -9.9610     33.3012    108.8282   1.1943313738e+02   4.9598271060e+01    0.4963004     0.428089 -52.36  0.002779562    1.308    0.236
       119  -9.4872    132.7671    112.4182   9.3162095440e+01   3.3827585681e+01    0.3086632    0.2629038 -78.78  0.001039528    1.302    0.232
       120 -11.1115     77.1658    102.0809   1.0571746468e+02   4.5950941825e+01    0.7644789    0.3419091  36.33  0.003125528    2.434    0.589
       121 -11.1314     67.7418    107.0688   1.0939979541e+02   4.6138727559e+01    0.5931611    0.3529382 -33.65  0.002719297    2.538    0.606
       122 -10.0720     74.1577    107.4948   1.0766390026e+02   4.5162037794e+01    0.4135128    0.2989903  32.15  0.001768305    1.588    0.370
       123  -8.3939    120.5211    109.4780   9.5538016161e+01   3.6885709654e+01     0.143126    0.1389814  85.26 0.0008098715    1.013    0.012
       124  -8.4597    104.4371    108.9987   9.9639017315e+01   3.9988098528e+01    0.2116538    0.1341645 -53.27 0.0005956414    1.542    0.351
       125  -9.5204    149.5680    106.1907   8.7603911579e+01   3.1499434677e+01    0.4405175    0.2315914 -31.76  0.001701189    2.330    0.571
       126  -9.7655    133.6715    102.9266   9.0609340049e+01   3.5577910219e+01    0.4439619    0.1328004 -48.65  0.001339071    3.602    0.722
       127  -9.8149    141.5740    103.1267   8.8721937224e+01   3.3849619817e+01    0.3722047    0.2753013 -49.15  0.001218324    1.385    0.278
       128  -9.6801    171.3196    102.5891   8.1812573678e+01   2.7246165035e+01    0.3703668    0.2543682  29.26  0.001221522    1.690    0.408
       129  -8.2298    164.0028    103.2070   8.3560001710e+01   2.8819595679e+01    0.1986496    0.1187068  49.46 0.0003616186    1.637    0.389
       130  -9.5474     63.9451     98.0630   1.0877200011e+02   4.8680239322e+01    0.3452166      0.27636 -34.79  0.001904488    1.476    0.322
       131  -8.6964    225.6325    211.8249   9.3685373819e+01   3.2772238765e-01    0.1365658     0.106054 -34.57  0.000520807    1.676    0.403
       132 -11.1248      4.2172     99.9037   1.2657481352e+02   5.3776847690e+01    0.4054464     0.214784 -63.99   0.00143289    1.562    0.360
       133  -8.8743      9.1968     94.3723   1.2457964694e+02   5.4696257444e+01    0.1809868    0.1320172  74.10 0.0006441461    1.312    0.238
       134 -10.6400    116.5146     99.9328   9.4266071991e+01   3.9684780537e+01    0.5366092    0.3642953  22.30  0.002392336    2.054    0.513
       135 -10.7332     87.6315     99.9780   1.0225685768e+02   4.4820068120e+01    0.5868505    0.3531558 -34.85  0.002629713    2.198    0.545
       136 -10.8745     88.3620     90.4884   9.9807118837e+01   4.6806622300e+01    0.6256105    0.3713713 -53.17  0.001777656    1.578    0.366
       137  -9.6996     92.6265     88.8526   9.8138979513e+01   4.6453206696e+01    0.2981353    0.2445116 -59.51 0.0007337178    1.166    0.142
       138  -9.6390     41.8223    108.9556   1.1706189044e+02   4.8746172662e+01    0.2720837    0.1655579  53.17 0.0005366573    1.728    0.421
       139  -9.7068     34.6692     98.9994   1.1765881223e+02   5.1694644241e+01    0.2576716    0.2194317  66.82 0.0004941117    1.216    0.178
       140  -9.5310     38.5036     97.4718   1.1628202943e+02   5.1680259485e+01    0.2792307     0.162999 -42.42  0.001486068    2.002    0.500
       141  -9.0054    147.8332     98.3949   8.5989238944e+01   3.3402018075e+01    0.2407163    0.2023453 -56.58 0.0005398802    1.261    0.207
       142  -9.8373    158.8216     96.2171   8.2864768149e+01   3.1315018424e+01    0.4593764    0.3588521  74.05  0.001756909    1.536    0.349
       143 -10.5231    114.3057     95.2947   9.3677917905e+01   4.1097608791e+01    0.4302064    0.2171343  53.21  0.001719484    2.229    0.551
       144  -8.3932    188.5352     94.5029   7.6155585741e+01   2.4601529481e+01    0.1505076    0.1451206  12.27 0.0008096179    1.008    0.008
       145 -10.8608    123.9676     92.7723   9.0438242043e+01   3.9684583871e+01     0.568839     0.418162  58.89  0.002760132    1.469    0.319
       146 -10.5926    119.6886     86.6211   8.9892404569e+01   4.1833255145e+01    0.7838377    0.2923126  51.84  0.002534948    3.089    0.676
       147 -10.2479    124.7700     82.9120   8.7480011833e+01   4.1526685699e+01    0.9010565    0.3191603 -51.65  0.002757027    3.554    0.719
       148  -9.5921     74.0144     89.3666   1.0385819292e+02   4.9269387778e+01    0.7045411     0.154874  40.43  0.002208305    4.537    0.780
       149 -10.1816     81.9330     88.9998   1.0136341356e+02   4.8163591509e+01    0.4981375    0.2738634 -58.80  0.001686365    1.754    0.430
       150 -10.0476     91.1851     77.7512   9.5601479270e+01   4.9105714909e+01    0.6814917    0.4690091  16.52  0.003187324    2.074    0.518
       151  -9.6279     97.5117     71.9843   9.1994342189e+01   4.9195279106e+01    0.3913415    0.2332237  34.49   0.00176175    1.913    0.477
       152 -10.1794    101.4753     69.2431   8.9959829500e+01   4.9016312790e+01    0.5582227    0.3294477 -63.81  0.002275786    2.374    0.579
       153 -10.2404    103.5687     92.2643   9.5861195900e+01   4.3776450782e+01    0.4090147    0.2816675  48.38 0.0007435627    1.506    0.336
       154 -11.3028    107.3763     86.4956   9.3258476545e+01   4.4297634513e+01     0.878628    0.6287411  10.55  0.003817398    2.122    0.529
       155 -10.1222    105.2135     75.4598   9.0740002222e+01   4.7022978408e+01    0.4220023    0.3646836  66.49  0.001123292    1.285    0.222
       156 -10.6973    103.7370     80.6458   9.2674947722e+01   4.6222921453e+01    0.4275457    0.3734733   0.92  0.001685148    1.348    0.258
       157 -10.5543     98.7067     77.3586   9.3216235364e+01   4.7850821390e+01    0.4355151     0.380922 -73.15  0.001716893    1.226    0.185
       158  -8.5374      3.6968     93.1022   1.2605534615e+02   5.5305315419e+01    0.1587433    0.1161783 -77.43 0.0006329648    1.058    0.055
       159  -8.0274    223.3251     92.2684   6.9382370779e+01   1.6782978066e+01    0.1471618    0.1064799  21.62 0.0002454055    1.571    0.364
       160  -7.9237    194.6895     90.2735   7.3842223857e+01   2.3828693596e+01    0.1466085    0.1192875 -74.60  0.000198533    1.552    0.356
       161  -8.5351    152.8209     87.3940   8.1797534796e+01   3.4364427902e+01    0.2272782    0.1386379  40.18 0.0009505975    1.724    0.420
       162 -10.0246    140.5571     84.2610   8.3832568023e+01   3.7786476545e+01    0.5217044     0.309308  65.35  0.002057841    2.236    0.553
       163 -10.7369    133.5486     78.7579   8.3974481642e+01   4.0431487784e+01     0.808057    0.3370024 -49.69  0.002770451    2.752    0.637
       164 -10.3008    139.0156     75.7873   8.1703454050e+01   3.9758649101e+01    0.6206909    0.4238345 -16.38  0.002666637    1.921    0.480
       165  -9.0151    154.0123     71.3222   7.6768106298e+01   3.7016997793e+01    0.3514858    0.2147193  48.01 0.0009468126    1.621    0.383
       166 -10.6087    151.1191     67.0107   7.6085026807e+01   3.8482173867e+01    0.4885998     0.409606  -3.61 0.0009937834    1.344    0.256
       167  -9.9544    146.4330     85.1230   8.2654369447e+01   3.6276748728e+01    0.5780722    0.3395612 -34.43  0.002426933    1.786    0.440
       168  -9.8036    150.0595     78.1078   7.9739469478e+01   3.6741687820e+01    0.5253277    0.3171022  30.90  0.001803847    2.129    0.530
       169 -10.8041    145.0701     76.2099   8.0352891900e+01   3.8270815506e+01    0.6934984    0.4719979  -2.97  0.002815017    2.259    0.557
       170  -9.1592    131.9030     67.6820   8.0974547386e+01   4.2911846072e+01    0.3032472    0.2625445  36.18 0.0009233971    1.182    0.154
       171  -9.6916    144.1804     71.1939   7.9028099873e+01   3.9404393441e+01    0.3711366    0.2760129 -55.68  0.001187202    1.506    0.336
       172 -10.4716    138.4227     68.4798   7.9581920676e+01   4.1257162207e+01    0.7404464    0.3719877  39.57   0.00224798    2.243    0.554
       173  -8.8274    239.3197     86.3541   6.5432426979e+01   1.4025999962e+01    0.1499471    0.1035353  15.04 0.0007046657    1.751    0.429
       174  -9.6124    164.4474     85.6575   7.8685436797e+01   3.1927098341e+01    0.2801573    0.2520528  12.19 0.0005673613    1.186    0.157
       175  -9.1873     77.5747     93.4612   1.0372144874e+02   4.7829495123e+01    0.3080086    0.2438401  -7.40 0.0009799906    1.764    0.433
       176  -9.3816    186.3474     84.6435   7.3887597237e+01   2.6779210725e+01    0.2920574     0.262509  12.92 0.0009877286    1.158    0.136
       177 -10.2258     82.1252     81.7313   9.9474386723e+01   4.9739502058e+01    0.6098969    0.2495962 -58.41  0.002004391    2.599    0.615
       178 -10.2278    216.9523     81.0478   6.7479371035e+01   1.9926008392e+01    0.5291632    0.2403019 -28.73  0.002054416    2.171    0.539
       179 -10.1122    160.3061     81.9439   7.8530515855e+01   3.3591806158e+01    0.4526348    0.4314303 -62.47    0.0024241    1.100    0.091
       180  -9.4143    179.0788     80.1980   7.4061679390e+01   2.9309542653e+01    0.3427421    0.2186719  56.01 0.0008689068    1.585    0.369
       181  -9.6411    247.6847     75.3547   6.1511437760e+01   1.3665154849e+01    0.3063806     0.207562 -54.78  0.001163309    1.735    0.424
       182  -9.8413     26.1676    212.1053   1.2933904777e+02   2.9469730058e+01    0.1459385    0.1176244  77.80  0.001238441    1.243    0.196
       183  -8.6922    219.4745     75.0288   6.5467155661e+01   2.0205045918e+01     0.229193     0.137189 -32.30  0.001022003    1.586    0.369
       184  -9.1398    214.5544     73.0772   6.5710772237e+01   2.1675785785e+01    0.4781185     0.260922  -2.30  0.001633767    3.284    0.695
       185  -8.6109    203.9985     75.5333   6.8126784683e+01   2.3891814144e+01    0.2345636    0.1471409  55.93  0.001037798    1.613    0.380
       186  -9.1516     84.5402     74.5082   9.6755274202e+01   5.0920551504e+01    0.2224411    0.1769169  -9.72 0.0007401531    1.607    0.378
       187 -12.1015     26.9398     71.8523   1.1557796398e+02   5.8498090397e+01     1.026699    0.4554828  16.87  0.002988359    3.167    0.684
       188  -9.2130    191.8190     73.4411   6.9684452139e+01   2.7241830477e+01     0.425279    0.2608776 -86.88  0.001066462    3.051    0.672
       189  -9.5731    124.0125    205.9996   1.1101500023e+02   1.7796206612e+01    0.1708561    0.1365173  52.24   0.00116677    1.011    0.011
       190  -9.5304     84.5023     67.9715   9.4860999559e+01   5.2317892647e+01     0.273156    0.2226909 -25.94  0.001067131    1.323    0.244
       191  -9.5116     29.3295     49.2375   1.0960160157e+02   6.3283593138e+01    0.3563429    0.1631567 -51.20  0.001077125    1.732    0.423
       192  -9.2500     12.9751     56.7048   1.1778586381e+02   6.2834834230e+01    0.3492811    0.2548415  80.32  0.002125669    1.536    0.349
       193 -10.7890      7.0962     59.3221   1.2048465546e+02   6.2591168777e+01    0.8046283    0.4565149  60.66  0.004620229    2.260    0.558
       194 -10.5659      5.3023     50.6199   1.1962994545e+02   6.4580961291e+01    0.4999647    0.2950179 -39.84  0.002040148    1.676    0.404
       195 -12.6866     19.6945     58.3607   1.1554669415e+02   6.2036549685e+01    0.5795963    0.3421345 -51.13    0.0034769    1.419    0.295
       196 -10.1750     24.7823     53.8645   1.1257892394e+02   6.2649523452e+01    0.3063743    0.1878941 -43.19  0.001813861    1.503    0.335
       197  -9.9977    250.5135     65.3200   5.8627623429e+01   1.4348042483e+01    0.5928134    0.1277369 -27.48  0.001717884    4.308    0.768
       198 -10.9368     67.2655     62.2829   9.8951000855e+01   5.6186231854e+01    0.2480377    0.2247866 -43.37 0.0004368217    1.028    0.027
       199  -9.1564    189.0396     49.4751   6.3036812402e+01   3.1562374771e+01    0.2840764    0.2683485  80.73 0.0007258659    1.085    0.078
       200  -9.0797    179.1645     58.9617   6.7716377864e+01   3.2725439238e+01    0.4636324    0.2543204 -18.89  0.001776137    2.219    0.549
       201 -10.0108    185.9793     54.0576   6.4969898897e+01   3.1698352459e+01    0.5720837    0.3060674 -10.83  0.002033411    2.758    0.637
       202 -10.7533    182.3507     51.5353   6.4829486454e+01   3.3013680563e+01    0.6289203    0.3948181 -25.00  0.001554453    1.652    0.394
       203 -10.2751    222.7820     56.6970   5.9984259492e+01   2.1969781858e+01    0.4721009     0.369838  52.07  0.002460415    1.316    0.240
       204  -9.8364    201.6436     58.1827   6.3571993500e+01   2.7060038968e+01    0.4597044    0.3290678  -2.20   0.00210364    1.696    0.410
       205 -10.5336    174.0321     56.6462   6.7969898411e+01   3.4407782356e+01    0.6403286    0.4508893   6.68  0.002033544    1.873    0.466
       206  -9.0003    137.7138     59.1761   7.6729326530e+01   4.3092732248e+01    0.2528138    0.2002832  57.86 0.0005759926    1.308    0.235
       207  -8.5810     54.8037     49.8056   9.9657061145e+01   6.0482453450e+01    0.2210886    0.2086883  70.11 0.0009315278    1.268    0.211
       208 -11.0940     60.2228     50.3819   9.7784600283e+01   5.9654913391e+01    0.9092489    0.3628011 -58.07   0.00349932    2.906    0.656
       209  -9.8427     54.7874     45.7715   9.8333916663e+01   6.1313155077e+01    0.3119934    0.2557787 -89.90  0.001322909    1.654    0.395
       210  -9.1021    243.2961     54.4602   5.6729728562e+01   1.7370109039e+01    0.2546025    0.2229138 -17.27  0.001467316    1.116    0.104
       211  -9.1934    235.6105     55.2314   5.7882372435e+01   1.9069832547e+01    0.2010785      0.13202 -15.14  0.000947407    1.631    0.387
       212  -9.4400    196.9929     54.4938   6.3239389981e+01   2.8781804361e+01    0.3585601    0.2528606 -89.80  0.001127327    1.803    0.445
       213  -9.6760    193.3284     53.7077   6.3607881776e+01   2.9841630011e+01    0.3109946    0.2434607 -40.47 0.0006880216    1.271    0.213
       214  -8.5928     42.8201     54.2998   1.0563529479e+02   6.0917205530e+01    0.1590707    0.1149118   9.70 0.0009038051    1.738    0.425
       215  -8.7129     51.7466     53.3025   1.0191786982e+02   6.0126355125e+01    0.1770638    0.1422328 -54.55  0.000512457    1.114    0.103
       216  -8.7753    211.2135     52.1895   6.0369175681e+01   2.5465575488e+01    0.2647293    0.1467115  24.89 0.0009573457    2.857    0.650
       217  -9.1735    171.3427     48.4994   6.5880913675e+01   3.6337906144e+01    0.4551903    0.1782775 -35.98  0.001595726    2.445    0.591
       218  -9.7216    174.4093     48.2263   6.5219542689e+01   3.5575415239e+01    0.3553395    0.2705391 -58.70  0.001676169    1.484    0.326
       219  -8.6255     16.7693     50.1680   1.1492841030e+02   6.4022754606e+01    0.1649375    0.1056386 -45.90 0.0005968267    1.374    0.272
       220  -8.2926    225.3481     49.2836   5.7597562800e+01   2.2320687648e+01    0.1486577    0.1065591  29.61 0.0007017382    1.649    0.394
       221  -9.3440    197.3182     49.4492   6.1680154862e+01   2.9408760931e+01    0.3644839    0.1386235  58.99  0.001280133    2.523    0.604
       222  -8.9200      1.1607     47.9293   1.2079752424e+02   6.5354936355e+01    0.1460872   0.06479388 -71.05 -0.0006383859    1.752    0.429
       223  -9.8308    230.0929     45.2592   5.5894447554e+01   2.1673316371e+01    0.4785044    0.2969965  66.94  0.002026425    1.702    0.413
       224  -9.3122    220.0494     42.2043   5.6316006876e+01   2.4546881577e+01    0.2708115    0.2079309 -17.14  0.000476912    1.351    0.260
       225  -9.7528    244.4628    204.4570   8.9445972750e+01  -1.8525506988e+00    0.2142697    0.1470031  19.48  0.001428626    1.185    0.156
       226 -10.0027    199.2209     31.9468   5.6101657184e+01   3.1203443185e+01    0.4511397    0.4203108  20.42  0.002504697    1.143    0.125
       227 -10.3576    206.6092     45.8109   5.9192476795e+01   2.7500289284e+01    0.4385881    0.2776824  70.85  0.001750236    1.698    0.411
       228  -8.9121    203.7513     42.0120   5.8485900752e+01   2.8740293387e+01      0.23673    0.1871015 -55.91 0.0003076222    1.324    0.245
       229 -10.4579    202.2573     38.0191   5.7508896156e+01   2.9645564271e+01    0.5366399    0.3626294  31.54  0.002164532    1.762    0.433
       230  -9.6449    105.9194     44.9176   8.0283013819e+01   5.2756637496e+01     0.419156    0.3040264  47.57  0.002106749    1.426    0.299
       231  99.0000      5.5380     40.5703   1.1749362077e+02   6.6727824982e+01    0.1471571    0.1119537   1.01 0.0005251005    1.645    0.392
       232  -8.7075     12.3573     34.0000   1.1283272066e+02   6.7737062303e+01    0.2252811    0.1404807  27.27  0.001428136    1.976    0.494
       233 -10.6481     15.8861     31.1560   1.1037887835e+02   6.8099500372e+01    0.3073171    0.2216146 -66.04 0.0004166664    1.297    0.229
       234 -10.2046     21.8142     43.6127   1.1123529952e+02   6.5080124500e+01    0.6327437    0.3045274  18.31  0.002866085    2.629    0.620
       235  -9.1963      9.7623     42.3897   1.1608204552e+02   6.6118667896e+01    0.4575723    0.2367033 -16.39  0.002469743    2.680    0.627
       236  -9.3379     21.4612     40.4287   1.1052621295e+02   6.5779620446e+01     0.195178    0.1723977 -72.30 0.0005581517    1.211    0.174
       237  -9.9943     18.1727     37.6860   1.1121492298e+02   6.6590493323e+01    0.4623476    0.3080725 -38.80  0.002969117    1.366    0.268
       238 -10.0878    214.0340     42.5235   5.7200220991e+01   2.6028261474e+01    0.5309854    0.3152794   6.25  0.001815543    2.592    0.614
       239  -8.8055    233.7780    199.9848   9.0424105643e+01   3.1265655181e-01    0.1439899   0.09164917 -23.87 0.0008824519    1.701    0.412
       240  -9.2196     27.8540    193.8529   1.2808333417e+02   3.2528528002e+01    0.1868179    0.1055155 -74.75  0.001271366    1.695    0.410
       241 -10.6716    211.5531     32.2253   5.4547843011e+01   2.7949217925e+01     0.549252    0.5070059  -5.08  0.001564291    1.150    0.130
       242  -9.7165    217.9455     36.5112   5.4973727500e+01   2.5789378041e+01    0.3895922    0.2348597  67.96  0.001098402    1.706    0.414
       243 -10.3740    220.5549     32.3645   5.3480412363e+01   2.5630595527e+01    0.4619252    0.2878185 -43.55 0.0006107198    1.548    0.354
       244  -8.5059    196.5411     45.5480   6.0626913663e+01   3.0147067946e+01    0.1471324    0.1457608 -58.31 5.731068e-05    1.003    0.003
       245  -9.7193     66.8049     43.3347   9.2863228801e+01   6.0129449678e+01      0.43001    0.2441648 -43.32  0.001450903    1.571    0.363
       246  -9.2432     10.4534    192.2214   1.3115559286e+02   3.4469800812e+01    0.1835828    0.1194398  46.81  0.001407937    1.427    0.299
       247  -8.9478    221.3475     45.7131   5.7131104482e+01   2.3773655555e+01    0.2267564    0.2123714 -80.61 0.0008204459    1.098    0.089
       248  -8.6756    197.0007     41.5315   5.9338780804e+01   3.0565181742e+01    0.2285077    0.1463408  64.23  0.001023156    1.567    0.362
       249 -10.0715    194.7934     30.5929   5.6307357874e+01   3.2540506222e+01    0.5150746      0.30764   5.47  0.001892421    2.449    0.592
       250  -9.5723    190.9607     40.0683   5.9817698036e+01   3.2348289349e+01    0.2723419    0.2522672  10.69  0.001091783    1.140    0.123
       251  -9.4053    192.3353     36.1995   5.8405290947e+01   3.2489468520e+01    0.3084361    0.2663852  22.70 0.0007771237    1.262    0.207
       252  -8.5905    214.3411    189.6688   9.1949572440e+01   4.7794066728e+00    0.1141036   0.09744505  71.09 0.0007051422    1.747    0.428
       253  -9.6309      1.4752    187.2971   1.3255626946e+02   3.6134450529e+01    0.2394706   0.07772885 -86.46  0.001297405    2.616    0.618
       254 -10.0611    246.9667     25.8783   4.8937836194e+01   1.9929878635e+01    0.7601072    0.2560211  72.15  0.002787439    3.320    0.699
       255  -9.2276    245.4147    187.1102   8.6300797801e+01  -1.6022241229e-01    0.2064583    0.1330044  28.51 0.0005487322    1.294    0.227
       256  -9.3791    235.8695     38.5708   5.3409566332e+01   2.1097431733e+01    0.2403648    0.2264483 -56.72 0.0003752648    1.037    0.036
       257  -9.0513      7.9700    185.9774   1.3132599333e+02   3.5830303257e+01    0.1503644   0.08358081  66.99 0.0003197336    1.345    0.257
       258  -9.9150      5.8992    183.1495   1.3157994622e+02   3.6530715537e+01    0.2324291   0.09703366 -65.24   0.00127253    2.502    0.600
       259  -8.8036     35.4048    185.2907   1.2613504600e+02   3.3346490375e+01   0.09372383   0.08255843 -40.94 0.0003862858    1.809    0.447
       260  -9.4791    242.6450     34.0258   5.1474959322e+01   2.0018143265e+01    0.2427481    0.2034798 -52.14 0.0005522833    1.135    0.119
       261  -9.8027    247.4154     32.8916   5.0696209909e+01   1.9029782622e+01    0.3973474    0.2368283  47.96  0.001232636    1.887    0.470
       262  -9.9457     11.9600    184.4555   1.3052103997e+02   3.5764511929e+01    0.1807997     0.118942 -73.90  0.001071251    1.535    0.348
       263 -11.0608     19.9814    183.8225   1.2898782855e+02   3.5152709197e+01    0.4360844    0.1703458  35.63  0.002504796    2.480    0.597
       264 -10.6039    246.5967     18.9879   4.7205627007e+01   2.0770282933e+01    0.5480008    0.2643062  72.01  0.001808676    2.169    0.539
       265  -8.4239    229.2690     38.3315   5.4105088387e+01   2.2734618037e+01     0.140831     0.107161  20.49 0.0003898792    1.585    0.369
       266  -8.9661    123.7601     36.3063   7.2053877436e+01   5.0173835726e+01    0.4693397    0.2663735  66.14  0.001912488    2.208    0.547
       267  -9.4917    126.5629     32.0347   6.9699458343e+01   5.0138944783e+01     0.479221    0.2227566  47.91  0.001415911    2.080    0.519
       268 -10.7027    134.7564     33.9320   6.8461397907e+01   4.7860001998e+01    0.3287222    0.2704801 -10.06 0.0002600301    1.270    0.212
       269  -9.0669    138.4741     31.4667   6.6686186603e+01   4.7278607068e+01    0.3126377     0.268216 -78.58  0.001614213    1.373    0.272
       270  -9.4185    155.0659     33.1274   6.3812734196e+01   4.2782632177e+01    0.3692908    0.2143082 -10.82  0.001472017    2.180    0.541
       271  -9.3791     32.6636     33.2029   1.0331318296e+02   6.6323892431e+01    0.2344421    0.1221436 -46.92 0.0007727133    1.546    0.353
       272  -9.4320    228.1787     31.1734   5.2268927197e+01   2.3860708879e+01    0.2721717    0.2026617 -45.05 0.0005325765    1.277    0.217
       273 -10.1903    225.1573     26.7500   5.1382945064e+01   2.5127363482e+01    0.5765056    0.3692775 -66.83   0.00271784    1.772    0.436
       274 -10.0193      1.9510    178.6411   1.3211476980e+02   3.7698393162e+01    0.3631079    0.1401597 -79.51  0.002167099    2.144    0.534
       275 -13.2760     50.8970     67.9999   1.0628815822e+02   5.7040856367e+01     3.606416    0.9857337  36.99   0.01354002    3.857    0.741
       276  -9.4945     97.3001     21.9556   7.3537871335e+01   5.8234040148e+01     0.276602     0.223432  37.95 0.0009433964    1.220    0.181
       277  -8.6839     37.4981    179.4920   1.2532445979e+02   3.4233098967e+01    0.1118672   0.08450877  73.15 3.762685e-05    1.002    0.002
       278  -9.3726     26.2387    176.8271   1.2736744715e+02   3.5889240561e+01     0.320849    0.1253177  44.54  0.001400799    2.111    0.526
       279  -8.3919     80.3185    176.3612   1.1628565005e+02   2.9616279258e+01    0.1098317   0.09485646 -29.44 0.0001614619    1.767    0.434
       280  -8.8776    182.9940     14.5018   5.2831557892e+01   3.7541935857e+01    0.3033369    0.1565259  52.53  0.001074637    1.859    0.462
       281  -9.3961    176.4283     14.8861   5.3871517450e+01   3.9272658109e+01    0.3232709    0.1918926  61.58 0.0009371528    1.575    0.365
       282 -10.0321      9.8604    158.2238   1.2954065058e+02   4.1020251064e+01    0.3887484    0.1192036 -56.24  0.001707499    4.250    0.765
       283 -10.3680     18.2703    164.7463   1.2820260429e+02   3.9000772303e+01    0.2927733    0.1792422  65.27  0.000866867    1.320    0.243
       284 -10.6225     12.9648    164.9814   1.2929655438e+02   3.9416637392e+01    0.2820471    0.2143118  53.67  0.001374254    1.288    0.224
       285 -10.3015      9.2239    162.6274   1.2992137703e+02   4.0194943249e+01    0.2172846    0.1796616  22.21   0.00143108    1.741    0.425
       286  -8.7479    205.0346    164.6454   8.9047961145e+01   9.8362177965e+00    0.1877973    0.1479641  37.85 0.0004475898    1.137    0.120
       287 -10.3505      2.2794    160.0318   1.3119138607e+02   4.1257801749e+01    0.4252299    0.1655727 -83.08  0.002425762    2.067    0.516
       288 -10.5714     16.4591    159.5873   1.2825019057e+02   4.0192077401e+01    0.2785146    0.1832721  30.10  0.001920969    1.861    0.463
       289  -8.6543     85.0124    154.4806   1.1255768747e+02   3.3339236279e+01    0.1654556    0.1157588  10.03 0.0008103363    2.617    0.618
       290 -12.2443     20.2768    147.8265   1.2661056633e+02   4.2268367830e+01    0.6028379    0.5361716 -40.32  0.003546808    1.617    0.381
       291 -11.1108     34.8772    150.6770   1.2357519424e+02   4.0306243220e+01    0.3998573    0.2075896  42.31  0.001714197    1.837    0.456
       292  -9.4515     45.5435    148.4766   1.2093476130e+02   3.9652100918e+01    0.2084697    0.1877533 -75.11 0.0007758099    1.269    0.212
       293 -10.0619     45.9744    144.9707   1.2046851919e+02   4.0350911051e+01    0.2997032    0.2496593 -20.52  0.001968942    1.871    0.466
       294 -10.9075     39.3378    147.2501   1.2224195832e+02   4.0573480132e+01    0.3585408    0.3076592  53.47  0.001622734    1.263    0.208
       295 -10.1109     38.1609    143.1279   1.2211156861e+02   4.1571679651e+01    0.2535035     0.214856 -27.20 0.0005050318    1.767    0.434
       296  -8.8601      8.2808    150.9601   1.2944249528e+02   4.2614166047e+01    0.1886491    0.1032295 -87.50 0.0004773073    1.449    0.310
       297 -10.6438     23.7883    127.8738   1.2408986683e+02   4.6216973535e+01    0.5712326    0.4319695 -18.23  0.003717898    2.111    0.526
