#   1 NUMBER                 Running object number                                     
#   2 MAG_AUTO               Kron-like elliptical aperture magnitude                    [mag]
#   3 X_IMAGE                Object position along x                                    [pixel]
#   4 Y_IMAGE                Object position along y                                    [pixel]
#   5 X_WORLD                Barycenter position along world x axis                     [deg]
#   6 Y_WORLD                Barycenter position along world y axis                     [deg]
#   7 A_WORLD                Profile RMS along major axis (world units)                 [deg]
#   8 B_WORLD                Profile RMS along minor axis (world units)                 [deg]
#   9 THETA_WORLD            Position angle (CCW/world-x)                               [deg]
#  10 FWHM_WORLD             FWHM assuming a gaussian core                              [deg]
#  11 ELONGATION             A_IMAGE/B_IMAGE                                           
#  12 ELLIPTICITY            1 - B_IMAGE/A_IMAGE                                       
         1 -11.4419    232.3742     37.6674   2.1257459919e+01   2.1906303734e+01    0.9171463    0.5893172  39.70  0.004437102    2.028    0.507
         2  -7.5552     43.7215     22.4034   6.0672688967e+01   6.9065656578e+01    0.1705264    0.1185027  20.26 0.0005646255    1.496    0.331
         3  -9.8079    249.8005    249.5643   6.1873547472e+01  -7.3077794646e+00    0.3017413    0.1552985  25.05  0.002082129    1.430    0.301
         4  -8.9266     54.0003    249.2414   9.6953472832e+01   1.8672020237e+01    0.1615904    0.1308073  63.81 0.0002563905    1.196    0.164
         5  -9.6070     11.1385    239.5774   1.0432173047e+02   2.4782449719e+01    0.2569759    0.1138313  59.24  0.001357338    1.612    0.380
         6  -9.8391      3.8729    249.2953   1.0584445920e+02   2.3856870120e+01     0.366446    0.2409492  49.55  0.002874522    1.141    0.123
         7 -11.0486     12.3239    246.0716   1.0430434114e+02   2.3592867005e+01    0.7531694    0.3270876  44.89  0.003835499    1.539    0.350
         8  -8.0707     51.0071    245.2106   9.7286726792e+01   1.9667017284e+01    0.2089772    0.1305273 -53.83  0.001388241    2.394    0.582
         9  -7.8774    236.3166    244.3272   6.3250697919e+01  -5.2081260034e+00    0.1120638   0.06147446  10.53 0.0007045186    1.676    0.403
        10  -8.2781     87.2607    244.0750   9.0354886744e+01   1.5379256324e+01    0.1526756    0.1270264  43.61 0.0004755268    1.176    0.150
        11  -9.0139     40.3054    242.1224   9.9113773568e+01   2.1377856490e+01    0.2856143    0.1894364   6.65  0.001677247    3.049    0.672
        12  -9.9032    246.2290    240.1784   6.1078387735e+01  -6.0354448657e+00    0.2393993    0.1163034   4.65  0.001191563    2.417    0.586
        13  -9.4093     51.0934    238.6205   9.6904777578e+01   2.0746898274e+01    0.2800511    0.1948221  11.60  0.001767328    2.357    0.576
        14  -9.2470     47.4867    237.1913   9.7511173601e+01   2.1401956531e+01    0.2451051     0.190691 -67.96  0.001858983    1.660    0.398
        15  -8.2229    113.2886    238.9506   8.4861091193e+01   1.2624341808e+01    0.1556896    0.1243524  41.38 0.0002637114    1.072    0.067
        16  -7.2973     94.6020    239.4622   8.8556207026e+01   1.5128391217e+01    0.1137516   0.08795297  44.18 0.0001311879    1.063    0.060
        17  -8.5256     56.4779    237.7856   9.5827229379e+01   2.0256492337e+01    0.1651667    0.1597426 -39.90  0.001345758    1.560    0.359
        18  -9.4961     26.9878    246.3148   1.0172029079e+02   2.2101232394e+01    0.2272169    0.1926427  10.76  0.001817432    1.862    0.463
        19  -7.3751     63.6685    236.6837   9.4370271875e+01   1.9575335564e+01   0.09734045   0.08477692   7.80 0.0007046691    1.685    0.406
        20  -8.5122     41.2867    234.5687   9.8552887971e+01   2.2545997069e+01    0.2351549     0.175827   3.56  0.001314842    2.353    0.575
        21  -7.5015     20.4492    234.4011   1.0245919011e+02   2.4762574907e+01    0.1068624   0.07335506  56.34 0.0001628489    1.016    0.016
        22  -8.3510     36.3006    233.0536   9.9427215219e+01   2.3352963286e+01    0.1981989     0.121031  43.57 0.0007130909    1.265    0.210
        23 -11.8670     18.9828    194.0643   1.0103310716e+02   3.2437688068e+01    0.8304775    0.6289806  42.77  0.005929854    1.273    0.214
        24 -10.8196      9.4755    201.3456   1.0335378276e+02   3.1869458958e+01    0.4181869      0.32335  20.88  0.001027461    1.688    0.408
        25  -8.7262     90.8080    230.2116   8.8500624352e+01   1.7144960546e+01    0.1761117    0.1587368  41.79 0.0005526952    1.235    0.190
        26  -8.9650     64.0221    229.1515   9.3787023541e+01   2.0816650127e+01    0.3389215    0.1591199  39.90   0.00131095    1.615    0.381
        27  -7.8858    137.4030    227.6887   7.8878042162e+01   1.0808799362e+01    0.1692547    0.1216314 -60.00 0.0005381184    1.878    0.467
        28  -8.9780    242.6135    227.0652   5.9682300247e+01  -4.3176777955e+00    0.1730259     0.124051  27.29 0.0009031509    1.310    0.237
        29  -7.7056     29.4096    226.4651   1.0043803738e+02   2.5242089356e+01    0.1107869   0.07816121  58.65 -7.992185e-05    1.027    0.026
        30  -8.8085     19.8776    222.4798   1.0210763870e+02   2.6922480487e+01    0.2738902    0.1288362  59.05  0.001059263    1.607    0.378
        31  -7.7466     86.7985    221.9648   8.8577822288e+01   1.9098460845e+01    0.1318827   0.09345959 -71.71 -0.000430966    1.678    0.404
        32  -8.0197     60.6884    225.8681   9.4225634547e+01   2.1801919448e+01    0.1506644    0.1399692 -65.44 0.0005631404    1.468    0.319
        33  -9.1497     15.5757    219.2169   1.0281295309e+02   2.7932126507e+01    0.2166027    0.1627936 -66.77  0.001315127    1.703    0.413
        34  -9.2954     18.9891    216.7635   1.0204924671e+02   2.8054315530e+01    0.3235835    0.1315638  30.49  0.001303231    2.348    0.574
        35  -8.2037     94.3570    218.9764   8.6722448811e+01   1.8567678305e+01    0.1666329    0.1368779  50.39 0.0004549666    1.055    0.052
        36  -9.5617     30.5511    217.7306   9.9796938623e+01   2.6707842804e+01    0.2829586    0.1889808  20.70   0.00103256    1.961    0.490
        37  -9.0504     11.1305    216.4581   1.0357520558e+02   2.8855617769e+01     0.217791    0.1190266  76.16  0.001441264    1.536    0.349
        38  -9.0294     27.5591    212.5814   1.0014563856e+02   2.7979003350e+01    0.2065049    0.1501978  55.75 0.0006000006    1.050    0.047
        39  -8.7644     32.1564    210.2427   9.9082884134e+01   2.7943921888e+01    0.2250518    0.2040317 -28.91  0.001688355    1.702    0.412
        40 -10.5083      5.5628    214.6569   1.0459476018e+02   2.9691646959e+01    0.9705185    0.2559178  74.16  0.004068083    4.078    0.755
        41  -7.4542     91.4833    204.4722   8.5851519360e+01   2.1601092386e+01    0.1268634    0.1034706  49.08  5.98355e-05    1.022    0.021
        42  -6.9887    140.3154    202.2482   7.4953997727e+01   1.4396053749e+01    0.1243773   0.09073499  17.24 0.0002007878    1.520    0.342
        43  -8.2190     97.1625    201.0132   8.4211853045e+01   2.1417464766e+01    0.2340592    0.1625115 -59.91 0.0009689045    1.690    0.408
        44  -7.4926    248.6654    200.3336   5.4376837067e+01  -2.3082341879e+00   0.09478752   0.09202145  -4.12 0.0007052205    1.736    0.424
        45  -9.6242      9.9374    230.0020   1.0424815312e+02   2.6535754386e+01    0.3996051    0.1515113  37.09  0.002312922    2.001    0.500
        46  -8.3925     28.7518    198.9051   9.9179227698e+01   3.0505322258e+01    0.1981063     0.163069 -45.32  0.001380957    1.767    0.434
        47  -7.1282     48.6658    198.6711   9.4813499189e+01   2.8364723480e+01    0.1067757   0.09275165 -28.65 0.0006017978    1.723    0.420
        48  -8.6288      1.3642    191.4917   1.0468782409e+02   3.4505110665e+01    0.2261945   0.08511557  88.70  0.001173048    2.382    0.580
        49 -10.8308     30.3410    187.4457   9.8149523918e+01   3.2669777665e+01    0.5848054    0.3741022  55.03  0.003700561    1.256    0.204
        50 -10.0389     27.4637    180.8556   9.8393916458e+01   3.4342218833e+01    0.3934002    0.2140646  24.04  0.001377435    2.138    0.532
        51 -11.2757      3.8246    223.2411   1.0518044008e+02   2.8285737843e+01    0.8541754    0.3877708  74.33  0.005400969    1.830    0.454
        52  -7.0951     84.5456    186.4540   8.5425404473e+01   2.6129612833e+01    0.1290646    0.1118884  51.78 3.564013e-05    1.061    0.057
        53  -8.9301      2.2519    182.7766   1.0418820432e+02   3.6199419941e+01    0.2682019    0.1511992 -80.35  0.001692296    1.638    0.390
        54 -10.6350     10.3682    207.9111   1.0341817581e+02   3.0525792858e+01     0.420191    0.2964879  75.98  0.001466589    1.175    0.149
        55  -8.9257     11.2560    182.7638   1.0219438175e+02   3.5451422614e+01    0.1997421    0.1389104  83.39  0.001356871    1.220    0.180
        56  -7.9294     69.9415    180.2768   8.8222053376e+01   2.9467937834e+01    0.1787775    0.1435287  51.84  0.000276097    1.070    0.066
        57  -9.5579     43.5098    176.4870   9.4266201693e+01   3.3572615107e+01    0.2967203    0.2124094 -70.10  0.001364489    1.454    0.312
        58  -7.2798    117.0274    177.7553   7.6562800432e+01   2.2761749185e+01    0.1721412     0.103291  40.08 0.0003121149    1.451    0.311
        59 -10.5083    101.0030    175.9973   8.0141322715e+01   2.5758352865e+01     0.193814    0.1678254  52.14  0.001161548    1.003    0.003
        60  -7.3772     63.9961    176.7632   8.9296191807e+01   3.1010774094e+01    0.1620152   0.09688546  37.34 0.0003711415    1.526    0.345
        61  -7.5743    148.4937    175.4365   6.8950908580e+01   1.7672828692e+01     0.139378    0.1210621  35.59 7.035911e-05    1.011    0.011
        62  -8.9395    175.2722    172.4014   6.2648883157e+01   1.3318493891e+01    0.2547539    0.2143669  21.56 0.0006663672    1.068    0.064
        63  -8.1275      1.3368    171.8043   1.0397107232e+02   3.8562799092e+01    0.1548466   0.08594256 -76.80 0.0005389366    1.669    0.401
        64  -9.2449     51.0300    170.1801   9.1847777720e+01   3.4075119237e+01    0.2257612    0.2019286  25.22 0.0003961753    1.351    0.260
        65  -9.8470     12.8785    170.8401   1.0123323687e+02   3.7836627469e+01    0.4218894    0.1424688  21.78   0.00180467    3.709    0.730
        66  -8.7967     26.8073    168.9110   9.7757184661e+01   3.6985000603e+01    0.1798728    0.1555402 -71.76  0.001237848    1.309    0.236
        67  -7.0538     42.6628    168.7171   9.3809665987e+01   3.5368957699e+01    0.1132819   0.09652033 -33.46 0.0002158562    1.624    0.384
        68  -9.0769      3.3559    166.4718   1.0327655032e+02   3.9550082198e+01    0.4262697    0.1068779  57.78  0.001722596    3.449    0.710
        69  -9.8445     10.2460    163.5947   1.0148147980e+02   3.9633649972e+01    0.3782508    0.1177606 -58.04  0.001577094    3.677    0.728
        70  -9.4400     24.7098    162.0468   9.7794696966e+01   3.8708669671e+01     0.337096     0.185696  64.71   0.00154768    1.629    0.386
        71  -8.6376     63.9268    160.7976   8.7522006762e+01   3.4545195369e+01    0.2047518    0.1799012 -86.14 0.0004279547    1.132    0.116
        72  -7.5061     32.9792    161.7557   9.5669935763e+01   3.7962566698e+01    0.1467498   0.09783918  35.21 0.0003647064    1.492    0.330
        73  -8.0363     15.9827    159.5192   9.9825347039e+01   4.0058089190e+01    0.1790072   0.06125372  49.79 0.0006406595    2.448    0.592
        74  -7.5711     95.0133    156.9803   7.8811663874e+01   3.0791214193e+01    0.1710622    0.1500812  52.92 0.0005948989    1.032    0.031
        75  -9.3207     48.8339    156.8701   9.1070342355e+01   3.7333844781e+01    0.3621632    0.2139408  26.56  0.001017723    1.880    0.468
        76  -9.0199     20.1567    154.8855   9.8451222015e+01   4.0739395957e+01    0.3459933    0.1351628 -73.48  0.001275664    2.272    0.560
        77  -9.8468     20.9958    150.0919   9.7881951344e+01   4.1761014092e+01    0.5014113    0.2927764   1.89    0.0012976    2.852    0.649
        78  -7.4598      3.5486    154.5056   1.0267061471e+02   4.2160515966e+01    0.1189187   0.09221231  74.47 0.0003488483    1.012    0.012
        79  -9.5593     71.6538    155.2229   8.4756345676e+01   3.4753450416e+01    0.2820633    0.2435098  68.83  0.000918708    1.041    0.039
        80  -9.3767     11.0691    150.7865   1.0054281928e+02   4.2428521988e+01     0.244113    0.1835289 -49.27 0.0003610247    1.649    0.394
        81 -10.7013     69.2224    144.4945   8.3917467486e+01   3.7584110760e+01    0.7168471    0.4326303  66.22  0.003023887    1.870    0.465
        82  -8.5368    233.9891    148.1981   4.6922109250e+01   6.4159404622e+00    0.2263441     0.170228 -22.16 0.0006477621    1.212    0.175
        83  -8.8461    241.5111    141.9824   4.4444266034e+01   5.9725192574e+00    0.1868359   0.09994226  -8.16 0.0008104185    2.559    0.609
        84  -7.2758     23.2711    142.3620   9.6647709454e+01   4.3355244213e+01    0.1231297   0.08485345 -52.36  0.000498478    1.654    0.395
        85  -7.5984     30.7797    140.1762   9.4336379409e+01   4.3175488983e+01    0.1549449    0.1436156 -44.52 0.0003698899    1.327    0.246
        86  -9.0077    244.1728    139.0333   4.3422000866e+01   5.9151707240e+00     0.206828    0.1389824 -50.16  0.001101637    2.035    0.509
        87  -7.3711     77.6793    139.6802   8.0770573542e+01   3.7481074054e+01    0.1377493    0.1105953 -24.49 0.0005137466    1.668    0.400
        88  -7.4557     93.9967    139.0000   7.6034200880e+01   3.5020996607e+01    0.2447603   0.07886999  37.01 0.0008072543    2.976    0.664
        89  -9.2486      8.5730    138.1743   1.0041295243e+02   4.5514420712e+01    0.1700896    0.1456418  24.92 0.0006615103    1.407    0.289
        90  -7.6006     23.8569    136.1862   9.5941799753e+01   4.4760847546e+01    0.1699575    0.1319183 -64.52 0.0006670813    1.307    0.235
        91  -8.7906     14.2933    135.8969   9.8650052119e+01   4.5619331148e+01    0.2559616    0.1546422  35.94  0.001476534    1.661    0.398
        92  -9.4183    245.7407    129.7636   4.1227823136e+01   6.8919017666e+00    0.2474821    0.1747128 -62.54  0.001272231    2.408    0.585
        93  -9.3770     72.5385    142.3450   8.2657336698e+01   3.7615672907e+01    0.2552674    0.2233178  64.56 0.0002944892    1.048    0.046
        94  -7.4528     37.2670    124.5876   9.0673404269e+01   4.6284639084e+01    0.1435749   0.08636899  71.18 0.0006961848    1.765    0.433
        95  -7.4773     21.6497    122.2520   9.5265400936e+01   4.8291607887e+01    0.1312217   0.08042409  58.94 0.0001493133    1.593    0.372
        96  -8.8727    248.7754    116.6277   3.7951959330e+01   8.1291704272e+00    0.1598189    0.1254373  62.37 0.0005917075    1.661    0.398
        97  -7.5675     32.3723    115.2091   9.1033768824e+01   4.9064720898e+01    0.1628533      0.15674  74.84  0.000484516    1.134    0.118
        98  -8.5202     13.5420    115.0499   9.7111632160e+01   5.0653179414e+01    0.2196299    0.1475709  49.31  0.000163982    1.481    0.325
        99  -7.7405     39.4224    114.7435   8.8655638064e+01   4.8477821075e+01    0.1802844    0.1122597 -60.66 0.0003853925    1.489    0.329
       100  -9.7814     65.4967    112.7492   7.9723391564e+01   4.5760774205e+01    0.2390434     0.237791 -52.27 0.0002518066    1.116    0.104
       101  -8.1005     12.8105    106.6410   9.6525004653e+01   5.2743553965e+01    0.1610764    0.1068295  39.28 0.0006439065    1.585    0.369
       102  -8.6800    248.6038    104.7496   3.5345433212e+01   9.7650649938e+00    0.1867236    0.1040864 -37.93 0.0009425575    1.621    0.383
       103  -7.5693     73.4210    103.7733   7.5227728522e+01   4.6766395810e+01    0.1953019    0.1318414 -50.14 0.0004138623    1.470    0.320
       104  -8.0925      3.8213     94.1206   9.8385234439e+01   5.6313910776e+01    0.1868449    0.1414434  80.21 0.0004121573    1.211    0.174
       105  -6.9472     17.7266     92.2892   9.3091851005e+01   5.5916455945e+01    0.1257133   0.08667052  69.05 0.0001794085    1.512    0.339
       106  -8.4136      3.2329     81.1520   9.7231890151e+01   5.9474326831e+01    0.1891164    0.1380334 -59.66 0.0005042304    1.216    0.177
       107  -8.1547    105.0103     60.9542   5.2082078645e+01   5.0274856229e+01    0.2220198    0.2182766  34.38 0.0003176481    1.018    0.017
       108  -8.0955    116.6349    247.9974   8.5087509928e+01   1.0816848164e+01    0.1937297    0.1226764  32.76    0.0006143    1.309    0.236
       109  -7.1080     12.2766     43.6671   8.6483002051e+01   6.7869377264e+01    0.1177433   0.09064364  75.39 0.0006996305    1.602    0.376
       110  -7.3736     30.0083     41.2310   7.6156566451e+01   6.7000070846e+01    0.1501003    0.1067752  19.36 0.0002643867    1.531    0.347
