#   1 NUMBER                 Running object number                                     
#   2 MAG_AUTO               Kron-like elliptical aperture magnitude                    [mag]
#   3 X_IMAGE                Object position along x                                    [pixel]
#   4 Y_IMAGE                Object position along y                                    [pixel]
#   5 X_WORLD                Barycenter position along world x axis                     [deg]
#   6 Y_WORLD                Barycenter position along world y axis                     [deg]
#   7 A_WORLD                Profile RMS along major axis (world units)                 [deg]
#   8 B_WORLD                Profile RMS along minor axis (world units)                 [deg]
#   9 THETA_WORLD            Position angle (CCW/world-x)                               [deg]
#  10 FWHM_WORLD             FWHM assuming a gaussian core                              [deg]
#  11 ELONGATION             A_IMAGE/B_IMAGE                                           
#  12 ELLIPTICITY            1 - B_IMAGE/A_IMAGE                                       
         1 -13.8252    170.1475     74.7963   7.3143659495e+01   3.2148496699e+01      2.83445      1.99585  18.47   0.01235478    1.841    0.457
         2 -14.9544    247.8319      8.0821   4.3565198646e+01   2.1435696976e+01     1.113284    0.6454116 -13.39  0.004386899    1.994    0.499
         3 -16.8135    243.8205     35.3892   5.0827937403e+01   1.9407703802e+01     8.324689     5.490383  25.33   0.02366197    2.036    0.509
         4 -13.8008    214.5116     21.6464   5.0233279866e+01   2.8129012153e+01     2.689429     1.321589  30.08  0.009670354    3.362    0.703
         5 -15.0505    225.5391     64.4703   6.0715500706e+01   2.0036721210e+01     3.319284     1.940385 -88.99   0.01053208    2.893    0.654
         6 -12.8178    206.6656     16.3113   4.9568927887e+01   3.0719552913e+01     1.070782    0.5074076 -22.55  0.002503532    2.168    0.539
         7 -11.9019    145.1215     28.4740   6.2954157848e+01   4.5546001177e+01    0.7028908    0.5278017 -41.91  0.002513579    1.401    0.286
         8 -14.0933    231.0882     27.2321   4.9998164574e+01   2.3375190345e+01     1.320068    0.6217631 -54.03  0.005390074    2.394    0.582
         9 -12.0931    134.7238     17.5101   6.0926147424e+01   4.9534574066e+01     1.131204     0.441639 -12.42  0.003541775    3.880    0.742
        10 -10.0355    171.5322     18.7998   5.4908760250e+01   3.9743073968e+01    0.3230204    0.2073736 -10.98 0.0006925337    1.773    0.436
        11 -10.7158     92.1757     14.1353   7.0065069338e+01   5.9901182402e+01    0.6573752    0.2574938 -27.54  0.002565461    2.487    0.598
        12  -8.8154    165.2246     13.5084   5.4059917677e+01   4.1992047560e+01    0.4234755    0.1931335 -15.99  0.001616206    2.524    0.604
        13 -11.0911    128.8660     10.0011   5.9137004412e+01   5.1831538798e+01     0.696566    0.2230993 -21.11  0.002345303    3.321    0.699
        14 -12.3328    119.1350      9.1609   6.0861164343e+01   5.4324751076e+01    0.7539369    0.5814874   4.64  0.003304401    1.339    0.253
        15 -11.0120    216.2738      8.7533   4.6419480759e+01   2.9029647777e+01    0.4318138    0.2529014  -4.55  0.001400254    2.202    0.546
        16  -9.5408    224.9559      9.1148   4.5715544676e+01   2.6816104522e+01    0.3012027    0.2673744  -7.15  0.001227476    1.254    0.203
        17 -16.2348    214.0356     73.2147   6.4789372137e+01   2.1559579018e+01     10.28624     6.245188 -64.17   0.02154918    2.470    0.595
        18 -14.8364    237.2113     17.0456   4.6716705608e+01   2.3012432139e+01     1.625207    0.6222693 -24.47  0.006514172    2.522    0.604
        19  -9.6724    182.1012      2.9846   4.8301487891e+01   3.8502287239e+01    0.3545026    0.2438035 -33.61  0.001787849    1.473    0.321
        20  -8.7405    171.9213      2.9140   4.9521307343e+01   4.1225883479e+01    0.2280832    0.1531608 -58.07 0.0007851897    1.646    0.392
        21  -8.9658    148.1660      2.4206   5.2711960086e+01   4.7584083295e+01    0.2261667    0.1664329 -26.17 0.0006943941    1.421    0.296
        22 -10.2855    137.7985      1.5073   5.4067442387e+01   5.0367070811e+01    0.3938308     0.141831  60.71  0.001381181    2.371    0.578
        23 -10.4102    113.8740      2.8753   5.9317962633e+01   5.6224868998e+01    0.3576512    0.1926137  58.56  0.001645543    1.741    0.426
        24 -12.3078     57.6572    152.5953   1.1764180770e+02   3.7248443059e+01     0.572681    0.3769149  84.86  0.001671304    1.463    0.316
        25 -12.5670     43.8864    161.1103   1.2162536049e+02   3.7066788353e+01    0.5608228    0.4491735  24.12  0.001072385    1.688    0.407
        26 -13.0849     51.3769    156.5058   1.1950457644e+02   3.7174656759e+01    0.9331066     0.695242  51.39  0.003107909    1.279    0.218
        27 -11.0115     44.5974    170.8236   1.2236027277e+02   3.5014499645e+01    0.3284903    0.2117164 -37.92    0.0018373    2.780    0.640
        28  -9.8073    159.2745    158.0631   9.5759851505e+01   1.9526109339e+01    0.3127343    0.2164844 -63.56  0.001566426    1.903    0.475
        29 -10.0143    202.5884    166.6177   8.8920495719e+01   9.7832214021e+00    0.2397376    0.2267105 -84.78 0.0003997044    1.411    0.291
        30 -10.3095    195.7183    158.7897   8.8663542139e+01   1.2271036764e+01    0.3494934    0.1880171  55.79  0.001500852    2.224    0.550
        31 -11.0561    191.8596    152.0323   8.8029264111e+01   1.4085966702e+01    0.4405194    0.2902845 -53.13  0.002041201    1.993    0.498
        32 -10.3471    204.1498    152.6635   8.5840653252e+01   1.1542958119e+01    0.2709433     0.232985  16.83  0.001232656    1.071    0.067
        33  -9.9510    248.2527    174.8723   8.2674620039e+01   5.3228299550e-01    0.2668304    0.2164498  10.88  0.001781592    1.023    0.023
        34 -11.3156    152.0577    142.6650   9.4262807286e+01   2.3741631128e+01    0.4790389    0.3110965  45.10  0.002347482    1.440    0.306
        35 -10.1105    151.9960    149.9897   9.5743613996e+01   2.2395833099e+01     0.243926     0.200203 -57.11  0.001179814    1.355    0.262
        36 -10.1738    150.3337    146.7029   9.5453842934e+01   2.3330583210e+01    0.2201541    0.1792065 -70.18 0.0006409289    1.455    0.313
        37 -10.6327    133.6089    145.5475   9.8931241589e+01   2.6782848583e+01     1.065908    0.2926987 -54.06  0.003133796    4.846    0.794
        38  -8.5191    222.3259    149.7150   8.1961722718e+01   8.4143474267e+00    0.1741417     0.136866  58.63 0.0002787426    1.576    0.365
        39  -8.7289    219.4622    149.4293   8.2402242334e+01   9.0100080325e+00    0.2362494    0.1813075  75.07 0.0007424654    2.075    0.518
        40 -10.6527    198.6717    144.5626   8.5158476407e+01   1.3886687626e+01    0.3458769    0.2673173 -82.37  0.001704778    2.131    0.531
        41  -9.9811    144.1380    145.8857   9.6647865182e+01   2.4697869975e+01    0.2204088     0.187487  75.64  0.001225673    1.296    0.228
        42  -8.9060    222.7597    145.2454   8.0937368494e+01   8.9594443957e+00    0.1852756    0.1727035  22.85 0.0006416592    1.143    0.125
        43  -9.8497    192.2848    144.1004   8.6280660728e+01   1.5266876111e+01      0.24989    0.1936865  51.72 0.0004238804    1.325    0.245
        44  -9.8478    159.4810    143.4140   9.2815169206e+01   2.2109045802e+01    0.4315401    0.2371945  63.84  0.001665109    2.771    0.639
        45 -11.0467    155.0744    137.8858   9.2606622221e+01   2.4024857351e+01    0.4659426     0.319972 -76.23  0.002064189    2.290    0.563
        46  -9.7680    228.8015    140.9625   7.8977356718e+01   8.3784334110e+00    0.2469914    0.1517453 -18.76  0.001155171    1.700    0.412
        47 -11.8633    211.0671    136.8129   8.1168636774e+01   1.2541064698e+01    0.6140756    0.4223334  21.84  0.003083825    1.577    0.366
        48 -10.5945    200.9523    135.3877   8.2716340483e+01   1.4860875701e+01    0.3205405    0.2173579 -40.05  0.001601627    1.569    0.363
        49 -10.0927    133.5636     97.9493   8.8131886958e+01   3.6369616346e+01    0.3520063    0.2811404 -84.63 0.0009262973    1.583    0.368
        50 -11.9486    123.5263    104.0293   9.2240654372e+01   3.7212885422e+01      1.14025    0.6419954 -48.19  0.003800178    1.774    0.436
        51 -10.8051    134.8793    109.2718   9.0711008765e+01   3.3806878975e+01     1.263472    0.2695513 -45.11  0.003357972    4.738    0.789
        52 -11.7225    135.7410    125.1540   9.4226582976e+01   3.0422208270e+01     1.106439    0.5320751 -61.48  0.003881233    3.233    0.691
        53 -10.2194    129.5643    115.9334   9.3611508771e+01   3.3537446726e+01    0.4893848    0.2900189 -72.23  0.001800165    2.901    0.655
        54 -11.1319    152.6570    128.5936   9.1111115729e+01   2.6278554891e+01    0.6017286    0.3875119  -8.99   0.00234045    2.908    0.656
        55 -10.4801    172.6119    127.1112   8.6454987140e+01   2.2306487212e+01    0.4945273    0.3048221  74.75  0.001840171    3.074    0.675
        56 -11.5226    159.8826    116.5927   8.6699070600e+01   2.7006000225e+01    0.5960196    0.3830816 -67.02 0.0007720045    2.397    0.583
        57  -9.9964    175.1935    115.4024   8.3120765772e+01   2.3827821663e+01    0.3173785    0.2391004  61.59 0.0009308472    1.472    0.321
        58  -9.0471    172.5050    112.4523   8.2952499731e+01   2.4959356733e+01     0.252668     0.219356 -51.49 0.0005547284    1.243    0.196
        59  -9.5598    140.9613    121.9583   9.2278439899e+01   2.9998805447e+01    0.2395279    0.1819513  86.21  0.001136726    1.756    0.430
        60 -10.9689    167.1287    114.9063   8.4705941684e+01   2.5718128559e+01    0.6273102    0.4955342  12.90  0.002210994    1.507    0.336
        61 -10.1432    166.3028    136.1125   8.9809155936e+01   2.2030339905e+01    0.3656742     0.236756 -26.39 0.0008163677    1.880    0.468
        62 -11.1877    159.5922    129.0819   8.9689967030e+01   2.4729938075e+01    0.5476482     0.413902  12.70  0.002439403    1.695    0.410
        63  -9.0455    141.4716    105.1521   8.8080335120e+01   3.3231521869e+01    0.2230473    0.1471073 -42.60   0.00101234    1.534    0.348
        64  -7.8843    156.2965    103.3339   8.4157814601e+01   3.0304331125e+01    0.1537639    0.1193382   6.81 0.0006582017    1.645    0.392
        65  -9.9937    147.2193    102.1371   8.5935364635e+01   3.2565159460e+01    0.3109476    0.2703565  17.74 0.0006490478    1.271    0.213
        66  -9.3092    165.1849    101.1244   8.1606162125e+01   2.8685625066e+01    0.2219183    0.1999452   5.91 0.0002936333    1.179    0.152
        67 -10.6858    157.2579     96.7378   8.2184343561e+01   3.1324315551e+01    0.4937025    0.3891724  32.95  0.002420347    1.338    0.252
        68 -10.0783     36.5455    215.1519   1.2704428771e+02   2.7662003056e+01    0.1591266    0.1336044 -28.70  0.001197852    2.303    0.566
        69  -9.5478     10.2177    206.4100   1.3111245890e+02   3.1794424394e+01    0.1449056   0.06380195  49.53  0.000959928    1.713    0.416
        70 -10.4971    140.4698     92.3385   8.4906699184e+01   3.5972963158e+01    0.3311504    0.3152169  87.93 0.0008844901    1.111    0.100
        71  -9.7833    200.7821    173.7087   9.0597011990e+01   9.1015793831e+00    0.2687128    0.1818265 -12.48    0.0012524    1.773    0.436
        72  -8.4417     74.5337     84.9518   1.0127074730e+02   5.0011259585e+01    0.2028683    0.1016672 -36.76 0.0008094293    2.562    0.610
        73  -8.8242    108.7391     80.9683   8.9992463871e+01   4.4949040716e+01    0.2030042    0.1781105 -47.98 -0.000275831    1.104    0.094
        74 -11.1771    109.3120     76.0262   8.8368735132e+01   4.5843985025e+01    0.4784166    0.3359999  17.46  0.001490316    1.961    0.490
        75  -9.7297    138.9939     78.3748   8.1231295584e+01   3.8985931217e+01    0.3473356    0.2590729  45.40  0.001185468    1.346    0.257
        76 -10.1805    194.5121    198.0030   9.5964335783e+01   6.8738306129e+00    0.3519954    0.3073245  57.69  0.002365576    1.389    0.280
        77 -10.2941    116.3257     76.7343   8.6625251352e+01   4.4272861314e+01     0.486425    0.2301159  30.99  0.001613545    3.371    0.703
        78  -8.7825     83.8805     76.7214   9.6164884409e+01   5.0341819639e+01    0.2659625    0.1264974  32.85  0.001073565    2.556    0.609
        79 -10.1316    108.2437     69.7628   8.6741567425e+01   4.7310964187e+01    0.2616709    0.1744553 -45.28 0.0007150231    1.456    0.313
        80  -9.3968    100.3268     65.1165   8.7580045696e+01   4.9792222203e+01    0.3046845    0.1255496 -37.13  0.001100394    2.571    0.611
        81 -10.5727    106.2259     61.6798   8.4699628405e+01   4.9290739580e+01    0.5291346    0.2081803 -48.32  0.001442513    2.771    0.639
        82  -8.4443     72.5985     58.4422   9.4346268578e+01   5.5976442113e+01    0.1353976    0.1213599 -43.72 0.0001607014    1.039    0.037
        83 -10.7415    129.2594     56.7254   7.6716414964e+01   4.5164874067e+01    0.5359339    0.2435395  61.00  0.001859949    2.856    0.650
        84 -11.6851    123.7914     52.9555   7.6820657154e+01   4.7075429612e+01     0.514595    0.4053492  -5.35  0.002355912    1.447    0.309
        85 -11.2692    102.0847     35.3823   7.6263922069e+01   5.4772542970e+01    0.5054333    0.2353339 -33.33  0.002076576    2.081    0.520
        86 -10.2601    162.3083     32.9972   6.1263354646e+01   4.0488335558e+01     0.366598    0.2192015  61.57 0.0004400645    1.635    0.388
        87 -10.9384    161.5654     27.8524   5.9625695673e+01   4.1335669591e+01    0.5863158    0.3496108  26.14  0.002395606    2.171    0.539
        88 -13.6272    247.8212     66.5676   5.8323248669e+01   1.4640129279e+01     0.889294    0.6984722  11.23  0.001998752    1.441    0.306
        89 -10.0142    191.6956    192.4031   9.5552262369e+01   8.1212430221e+00    0.4833462    0.3078778 -69.46   0.00207854    4.006    0.750
        90 -11.3202    118.5034     31.1296   7.0044287144e+01   5.1746993463e+01    0.5093524    0.2131656 -40.90  0.001905667    2.524    0.604
        91 -10.4683    124.3536     31.7549   6.8825525652e+01   5.0273249979e+01    0.2732687    0.1907418  71.54  0.001268561    1.741    0.426
        92 -10.0438    217.5130    190.4751   9.0647860023e+01   3.8787344983e+00    0.2648991    0.1054277  43.57  0.001215023    2.187    0.543
        93 -10.7922    179.2298     23.8871   5.5438829131e+01   3.7116718242e+01    0.5261869    0.4124536  77.59  0.002253614    1.302    0.232
        94 -11.6972     29.9232    173.2995   1.2557836684e+02   3.6072757633e+01    0.4361584    0.2052888  70.56  0.002434398    2.029    0.507
        95 -10.5427    102.3833     25.6536   7.2168163890e+01   5.6169421132e+01    0.2841455    0.1725868  47.46  0.001097971    1.625    0.384
        96 -11.1362    126.3708     23.5482   6.5123779010e+01   5.0886739753e+01    0.5227011    0.2851226  29.15  0.002088955    2.310    0.567
        97  -9.7751    205.1712    190.1242   9.2745309825e+01   6.0624275364e+00     0.229783    0.1557494  61.99  0.001059066    2.157    0.536
        98  -9.7311    214.3091    187.0098   9.0593544973e+01   4.8696595641e+00    0.1906806   0.09397501 -10.63 0.0007033415    4.154    0.759
        99  -9.5317    159.5313     22.3010   5.8044079753e+01   4.2538620572e+01    0.2676964    0.2466495 -53.43 0.0005182142    1.142    0.125
       100 -10.3863    130.4856     18.9912   6.2399984129e+01   5.0428325572e+01    0.3627002    0.2388824 -23.55  0.001500568    1.543    0.352
       101  -9.6164    188.8186     18.4091   5.2355974998e+01   3.5178942263e+01    0.2496128    0.1928603 -16.82 0.0005437934    1.376    0.273
       102 -13.4667     14.2150    177.1299   1.2893563521e+02   3.6811451501e+01    0.7825778    0.5580164  75.21  0.003760915    1.036    0.034
       103  -9.2038    144.0143     17.7819   5.9198929214e+01   4.7122674214e+01    0.2415799    0.2036676  -9.76 0.0004244858    1.230    0.187
       104  -8.8457    245.2088    183.5102   8.4777553139e+01   4.7696803512e-02    0.1945691    0.1592135 -63.48  0.001165981    2.339    0.573
       105 -11.0806    222.5192    177.3361   8.7410044174e+01   4.6654463719e+00    0.4378888    0.3237911 -11.43  0.002661253    1.374    0.272
       106 -10.5354    226.0396    172.5822   8.5908059754e+01   4.6496868474e+00    0.4873782    0.3984594  48.71  0.002978968    1.414    0.293
       107  -9.8139    244.3758    244.8087   9.4831154214e+01  -5.9019108740e+00     0.174207    0.1090899  36.03 0.0005600888    1.305    0.234
       108 -10.0379    138.4304    231.0604   1.1050835126e+02   1.1531425866e+01    0.2000346    0.1385476  43.53 0.0002792614    1.119    0.107
       109  -9.9551    171.3296     23.0738   5.6373817619e+01   3.9315226343e+01    0.3065046      0.23261 -34.12 0.0004736095    1.335    0.251
       110 -14.1063    241.3993     46.4807   5.3952716600e+01   1.8639638802e+01    0.6588387    0.4429392 -57.86  0.001908387    1.618    0.382
       111  -8.2573    219.9658    231.3332   9.6732115945e+01  -1.1302583291e+00    0.1901971    0.0627268  29.28 0.0007032012    4.221    0.763
       112 -11.0426    214.1523    167.6724   8.7034590367e+01   7.4660959469e+00    0.6254504     0.346008  64.01  0.002413894    3.799    0.737
       113  -8.5924     89.0202    170.2458   1.1282050497e+02   2.9380329234e+01    0.1622075    0.1377504  63.76 0.0002210218    1.038    0.037
       114  -8.2882    155.4945    169.5476   9.8625620544e+01   1.8247800641e+01    0.1343229    0.1183395  38.39 0.0001385712    1.048    0.046
       115 -12.6189     68.7680    144.8812   1.1405832627e+02   3.7478843208e+01     1.110574    0.8532724  49.73  0.005132763    1.273    0.215
