#   1 NUMBER                 Running object number                                     
#   2 MAG_AUTO               Kron-like elliptical aperture magnitude                    [mag]
#   3 X_IMAGE                Object position along x                                    [pixel]
#   4 Y_IMAGE                Object position along y                                    [pixel]
#   5 X_WORLD                Barycenter position along world x axis                     [deg]
#   6 Y_WORLD                Barycenter position along world y axis                     [deg]
#   7 A_WORLD                Profile RMS along major axis (world units)                 [deg]
#   8 B_WORLD                Profile RMS along minor axis (world units)                 [deg]
#   9 THETA_WORLD            Position angle (CCW/world-x)                               [deg]
#  10 FWHM_WORLD             FWHM assuming a gaussian core                              [deg]
#  11 ELONGATION             A_IMAGE/B_IMAGE                                           
#  12 ELLIPTICITY            1 - B_IMAGE/A_IMAGE                                       
         1 -16.3003    246.4922    112.3383   8.8538906036e+00   1.2057318463e+01     2.821169    0.7554627 -35.66    0.0115316    2.944    0.660
         2 -15.9618    248.4665    127.7310   1.1600199677e+01   9.6104442390e+00     5.251105    0.2688491 -37.43    0.0102478   11.427    0.912
         3 -14.7729    226.3686     88.0385   6.1620820026e+00   1.8787007473e+01     3.824193    0.9756336 -33.44  0.007847041    3.722    0.731
         4 -15.3447    216.6745    137.7573   1.7880102145e+01   1.2776945262e+01     3.644181     1.296677 -51.27   0.01130607    5.479    0.817
         5 -15.8122    241.8270     93.8458   5.6686859748e+00   1.5375401193e+01     2.671608     2.004196  53.52    0.0180651    1.689    0.408
         6 -10.0172    222.8228     43.2788   3.5661928633e+02   2.5564554708e+01    0.2757775    0.1734661 -68.59   0.00128111    1.548    0.354
         7 -16.1201    232.1156    177.3589   2.2955529564e+01   4.7278862485e+00     2.753892     1.999468 -51.06   0.01766346    1.942    0.485
         8 -15.4846    239.4209    161.3228   1.9038136321e+01   6.0723268298e+00     1.294184    0.5551693 -42.76  0.006564655    2.216    0.549
         9 -15.8173    230.7813    113.0458   1.0888621964e+01   1.4356509841e+01     1.238123     1.092127 -74.56  0.008601639    1.400    0.286
        10 -15.9728    232.3567    141.9498   1.6420454453e+01   9.8164839743e+00     1.185544    0.7682893 -23.58  0.007209684    1.396    0.284
        11 -15.4887    231.2186    130.9172   1.4427997548e+01   1.1621495098e+01    0.8439016     0.710629  27.23  0.005858478    1.393    0.282
        12 -15.4099    240.3528    124.6845   1.2010139158e+01   1.1194285407e+01    0.7560781    0.3932451 -39.88  0.004259707    1.548    0.354
        13 -16.2530    247.7782    149.2351   1.5705268958e+01   6.6983673719e+00     1.209978    0.6432241 -38.34   0.00724014    1.537    0.349
        14  -8.6629    196.8136    246.5728   3.9652455467e+01  -5.8582929981e-01    0.2111421    0.1503421 -38.82  0.001178995    1.747    0.428
        15 -15.6933    244.2756    137.5228   1.3980588308e+01   8.8034494691e+00    0.8443823    0.4498409 -49.49  0.004592103    2.144    0.533
        16  -8.2768    210.4090    239.2209   3.6286992806e+01  -1.0726795753e+00    0.1314201   0.09387198 -35.30 0.0005603716    1.641    0.390
        17  -9.3094    218.6552    225.9170   3.2977489695e+01  -2.6122087005e-01    0.2816107    0.2505205 -76.93  0.001940294    2.698    0.629
        18  -8.5240    206.9032    223.1804   3.4552792722e+01   1.3613431649e+00    0.1655227    0.1387297  10.90  0.001241532    1.290    0.225
        19 -10.5702    211.7402    219.9005   3.3228140370e+01   1.2628479061e+00    0.2150142    0.1750874  -6.59 0.0003144623    1.165    0.142
        20  -8.9252    201.5838    217.5045   3.4621269759e+01   2.7370730998e+00    0.2221217     0.181808  25.10 0.0008527239    1.400    0.286
        21 -10.4219    216.6506    214.4051   3.1556275046e+01   1.4499150305e+00    0.3675174    0.2329682   4.15 0.0005800893    1.442    0.306
        22 -10.9517    196.0604    212.7601   3.4875424407e+01   4.0617673472e+00     0.250499    0.2260453   1.31 0.0003103974    1.310    0.237
        23 -14.0468    231.2785    167.5485   2.1341688783e+01   6.2241178134e+00    0.6999069    0.3976859 -29.83  0.002166452    1.457    0.314
        24  -8.9883    177.6481    213.1044   3.8383647837e+01   6.2920454271e+00    0.2657713    0.2148791  46.48  0.001708696    1.697    0.411
        25  -7.9224    169.2997    213.6594   4.0114595572e+01   7.2766669949e+00    0.1100738   0.09686474  55.68 0.0007035785    1.668    0.400
        26 -10.4199    212.6175    203.8726   3.0560209188e+01   3.3499557255e+00     0.544426    0.3224488 -44.54   0.00199201    1.993    0.498
        27  -9.7698    208.5064    206.9680   3.1760484824e+01   3.4011601704e+00    0.2417367    0.2020804  30.94  0.000455272    1.514    0.340
        28  -9.5904    204.1859    205.2607   3.2236762298e+01   4.1612321229e+00    0.3997402    0.2147557 -16.45  0.001437901    2.086    0.521
        29  -8.1959    186.2419    201.9806   3.4974938410e+01   6.9103366223e+00    0.1673331    0.1542666  -1.28 0.0003181488    1.262    0.207
        30  -8.4492    167.4436    201.7322   3.8631550228e+01   9.4692045091e+00    0.2217516     0.121945 -47.94 0.0009267706    2.054    0.513
        31  -9.4021    160.3581    201.0964   3.9996160443e+01   1.0557956884e+01    0.2488807    0.1992304  -7.48  0.000339319    1.176    0.150
        32  -7.4869    145.3447    198.3309   4.2802307760e+01   1.3183754301e+01    0.1399545   0.09485123  -6.26 0.0007050399    1.756    0.431
        33  -8.4575    177.3404    197.0325   3.5880891156e+01   8.8905347843e+00    0.1769103    0.1492228 -20.97  0.001041565    1.143    0.125
        34  -9.5241      4.5536    196.3804   7.8667769944e+01   3.1060801069e+01    0.2181341    0.2003036  50.07 0.0006690801    1.168    0.144
        35  -8.2488    172.3061    196.0436   3.6718925496e+01   9.7494166901e+00    0.1767066    0.1502071 -19.13 0.0004964321    1.125    0.111
        36  -7.6977    141.0242    194.7635   4.3209893111e+01   1.4478052255e+01    0.1711773    0.1023702  31.51 0.0003341865    1.522    0.343
        37  -9.8600    185.1521    191.6565   3.3463274893e+01   8.6949441941e+00    0.3922219    0.2830235 -15.65  0.001957273    1.307    0.235
        38 -10.1048    172.6002    190.9981   3.5813482959e+01   1.0559768320e+01    0.2494801     0.235164  47.58 0.0003679804    1.398    0.285
        39 -10.3248    178.9773    189.8917   3.4356539558e+01   9.8428749905e+00     0.214835    0.1831825 -23.40 0.0002695926    1.145    0.127
        40  -9.7596    167.6430    184.6007   3.5724195582e+01   1.2389956410e+01    0.3148147    0.2154574 -47.41 0.0001520957    1.602    0.376
        41  -9.4735    245.5397    234.9085   3.0084574292e+01  -3.9483729880e+00    0.1872059    0.1451844  25.82  0.001139568    1.764    0.433
        42  -7.9310    202.4884    229.5238   3.6260284195e+01   1.0052355568e+00    0.1130971   0.08605651   0.25 0.0008100013    1.021    0.021
        43  -8.3348    163.5791    176.7827   3.5184848302e+01   1.4414969038e+01     0.310472    0.1281516 -48.09  0.001272026    2.581    0.612
        44  -8.7734    164.5545    171.2450   3.3962854986e+01   1.5283168436e+01     0.341918    0.1226272 -42.08  0.001313544    2.748    0.636
        45  -8.3193    158.3354    169.0773   3.4890585703e+01   1.6689206881e+01     0.189727    0.1702876 -24.13 0.0004101848    1.083    0.077
        46  -7.9499    143.0000    168.9850   3.8332821526e+01   1.9221878371e+01    0.2272937   0.07924147 -48.73   0.00080373    2.951    0.661
        47  -8.7562    172.4025    158.3058   2.9853790795e+01   1.6403121244e+01    0.2790468     0.125959 -45.32 0.0008573094    2.186    0.543
        48 -15.5376    218.7038    166.5996   2.3106913166e+01   8.0220434410e+00     3.029194     1.738636   0.41   0.01483186    2.603    0.616
        49  -8.7147    170.1957    155.1657   2.9678165710e+01   1.7354107849e+01    0.3433751    0.1160051  32.17  0.001087045    4.149    0.759
        50  -8.9469    158.2575    158.0629   3.2783639929e+01   1.8827786780e+01    0.2436245    0.2317031 -48.84 0.0003833297    1.172    0.147
        51  -9.3860    161.7369    156.6284   3.1744933791e+01   1.8512179925e+01    0.2544084    0.1976367  38.44 0.0003351253    1.322    0.243
        52  -8.7291    152.9816    156.2770   3.3596869483e+01   2.0087482273e+01    0.1973261     0.179175  12.80 0.0004873966    1.068    0.064
        53  -9.7006    175.1039    154.1462   2.8481394877e+01   1.6717995681e+01    0.2410425    0.2313969  80.71   0.00148986    1.304    0.233
        54  -9.1017    170.3252    150.5571   2.8717311379e+01   1.8194907599e+01    0.2518647     0.223035 -67.97 0.0004749617    1.396    0.284
        55 -14.8223    224.0838    121.9394   1.3597504772e+01   1.4075606291e+01     1.021539    0.7914367  87.52   0.00615527    1.989    0.497
        56  -9.1356    162.7555    149.9885   3.0179872396e+01   1.9618912270e+01     0.291227    0.2255407 -56.80 0.0007679914    1.477    0.323
        57  -8.9856    156.0001    150.8172   3.1817273295e+01   2.0646468800e+01    0.2362982    0.1934587 -42.33 0.0002671266    1.208    0.172
        58  -8.8397    147.9732    150.2184   3.3508798872e+01   2.2196592535e+01    0.3009069    0.1726512 -45.45  0.001319081    1.729    0.422
        59  -8.7439    176.0250    148.4769   2.7145341345e+01   1.7602995640e+01    0.1904829    0.1330351  36.67 0.0003396298    1.497    0.332
        60  -8.5671    133.1805    147.5137   3.6506718564e+01   2.5445835060e+01    0.2807634    0.2021916 -48.82 0.0008195197    1.409    0.290
        61  -8.6797    155.1678    140.9630   2.9925562942e+01   2.2767648387e+01    0.2131753    0.1988278 -23.50 0.0003737009    1.026    0.025
        62  -9.9605    166.2868    136.0238   2.6468359632e+01   2.1682575187e+01    0.4857949    0.2686244 -54.20  0.001493856    2.116    0.527
        63  -9.1651    155.8451    136.6211   2.8828672594e+01   2.3513849067e+01    0.2927754    0.1944426 -19.38  0.001088916    1.969    0.492
        64  -9.3030    150.3299    125.9979   2.7653471513e+01   2.6734987152e+01    0.2241353    0.1960364 -15.62 0.0004255472    1.227    0.185
        65 -10.3076    163.8324    123.8702   2.4238472101e+01   2.4500303511e+01     0.332031    0.2844891 -65.64 0.0005234228    1.303    0.232
        66  -8.3003    143.3313    125.3106   2.9112345547e+01   2.8270856543e+01    0.1520254    0.1182693  -2.22 0.0001989973    1.671    0.402
        67 -14.8368    205.5936    148.2710   2.1740830768e+01   1.2806459019e+01     2.380887     1.577951  16.62   0.01156592    1.869    0.465
        68  -9.5789    128.4566    127.6933   3.3362080349e+01   3.0719249807e+01    0.2755816    0.2618226 -16.29 0.0002281733    1.091    0.083
        69 -10.4657    156.7722    118.8777   2.4551381608e+01   2.6882135957e+01    0.4622453    0.2763875 -64.91  0.001832543    2.506    0.601
        70 -10.1892    147.0000    113.0064   2.5281737033e+01   3.0073963608e+01      0.35931    0.1957899 -37.21  0.001474689    1.908    0.476
        71  -9.4292    183.1454    107.8862   1.6825046062e+01   2.3667205478e+01    0.3352023    0.1829028 -40.41  0.001548195    1.651    0.394
        72  -8.6229    164.4907    113.4768   2.1648389307e+01   2.6371634402e+01    0.1439839    0.1353782 -43.33 -5.78318e-05    1.007    0.007
        73  -9.7606    176.7534    111.0939   1.8721942926e+01   2.4354758091e+01    0.2975735    0.2344703 -31.99 0.0002872708    1.228    0.185
        74  -9.0457    167.4802    110.7853   2.0404583210e+01   2.6274700496e+01    0.2494547    0.2082956  51.71 0.0007634957    1.285    0.222
        75  -9.3286    154.4574    107.3819   2.2226654020e+01   2.9632402718e+01     0.384793    0.1751409 -43.22  0.001425498    2.092    0.522
        76  -8.4852    164.5246    107.0840   2.0081554659e+01   2.7579954827e+01    0.2261074    0.1344148 -43.59  0.001020389    1.575    0.365
        77  -8.4091    170.1499    106.1836   1.8770487127e+01   2.6586705697e+01    0.2036526    0.1640047 -64.49 0.0009994765    1.350    0.259
        78  -9.5303    186.0165    111.6974   1.7219333374e+01   2.2438971404e+01    0.2137218    0.1793188 -61.36 0.0006402559    1.272    0.214
        79  -8.9107    174.2442    102.3053   1.7061360833e+01   2.6452748790e+01    0.2528188    0.1918088 -43.85 0.0009650155    1.210    0.174
        80  -9.4441    150.4074    101.0714   2.1480883236e+01   3.1740584722e+01    0.3044289    0.1773921 -53.89  0.001283459    1.839    0.456
        81  -9.3993    160.5411     97.5127   1.8454310538e+01   3.0225490716e+01    0.4082024     0.191925 -47.43  0.001619281    2.079    0.519
        82  -7.9472    167.5914     99.2423   1.7531250767e+01   2.8397484683e+01    0.2059032    0.1329547 -31.54 0.0007898526    1.618    0.382
        83 -10.0189    153.1879     96.5718   1.9707601856e+01   3.2006384051e+01    0.3690288    0.2806202  11.39  0.001178838    1.895    0.472
        84  -9.3665    170.8071     95.5300   1.5998619244e+01   2.8389571138e+01     0.278833     0.205131 -64.37 0.0006511986    1.511    0.338
        85  -9.8878    177.6840     93.1779   1.4197789699e+01   2.7355030438e+01    0.3691686    0.2734088  10.44  0.001375314    2.040    0.510
        86 -10.2504    181.5401     88.5382   1.2399910855e+01   2.7342365890e+01    0.3637002     0.303902  83.03  0.002063734    1.328    0.247
        87  -8.4658    179.3798     83.7506   1.1542997875e+01   2.8605312583e+01    0.2467788    0.1683898 -30.59 0.0006620879    1.505    0.336
        88 -10.7572    165.5334     90.5234   1.5682079496e+01   3.0423971390e+01    0.4368699    0.3830204 -17.77 0.0003217805    1.291    0.225
        89 -10.1933    142.5392     88.0884   1.9699864383e+01   3.6028303848e+01    0.3957469    0.2596732 -38.60  0.001271495    1.526    0.345
        90  -8.9474    174.2341     86.4204   1.3074818598e+01   2.9257209729e+01    0.1904467    0.1365619  74.35 0.0008511874    1.627    0.385
        91 -10.3861    157.6387     89.8172   1.7007262879e+01   3.2292944497e+01    0.3551578    0.3221742 -79.69  0.001970854    1.117    0.105
        92  -8.2978    181.7067     66.9894   6.8748139060e+00   3.0802148510e+01    0.2911432    0.1861063 -30.64  0.001445716    1.609    0.379
        93  -8.8368    179.8964     72.1025   8.4686543189e+00   3.0397566258e+01    0.3124889    0.2355309  -1.95  0.001146848    1.964    0.491
        94 -10.2034    184.2791     80.2991   9.9058073968e+00   2.8131572368e+01    0.5277067    0.3162347 -45.26  0.002597476    1.490    0.329
        95  -9.8204    183.2574     74.7367   8.6481741253e+00   2.9246616919e+01    0.3777721    0.2800705  36.95  0.001555676    1.744    0.427
        96 -10.5464    157.7784     80.7238   1.4513510999e+01   3.3908198679e+01    0.3263377    0.3054029 -64.27  0.001270968    1.012    0.012
        97  -8.9893    156.9892     75.4813   1.3206092717e+01   3.5010085859e+01    0.2624686    0.2020344 -31.52   0.00133386    1.372    0.271
        98  -9.7741    163.4055     75.2402   1.1979525860e+01   3.3576364966e+01    0.4002919    0.1445472 -31.64  0.001305799    3.340    0.701
        99 -10.1745    129.8114     78.3690   1.9816482624e+01   4.0864693473e+01    0.2830251    0.2571465 -37.59 0.0007582637    1.154    0.133
       100 -10.3427    201.7333     73.9338   5.9262593217e+00   2.5515150122e+01    0.3970454    0.2723671 -35.82  0.001591644    1.323    0.244
       101 -10.7347    208.4337     75.6989   5.5137961893e+00   2.3922172298e+01    0.4553136    0.2896617  63.99  0.001713083    1.803    0.445
       102  -8.9846    206.1615     70.9859   4.6824002555e+00   2.5067237395e+01    0.2794644    0.1333623 -52.67 0.0008999899    2.064    0.516
       103  -9.8171    197.2707     75.9633   6.9921511214e+00   2.6111500194e+01    0.3124469    0.1676992 -44.61 0.0006822947    1.607    0.378
       104  -9.8264    195.1739     66.2484   4.8848780665e+00   2.8015798163e+01    0.3752003    0.2492149  -3.30  0.001708246    2.694    0.629
       105 -10.4676    193.4669     72.0561   6.5421077629e+00   2.7497197384e+01    0.3005722    0.2616513 -37.76 0.0005502264    1.141    0.123
       106  -9.4479    150.3132     76.8009   1.4863466621e+01   3.6329852460e+01    0.2917793    0.2480258 -31.01 0.0007392606    1.259    0.206
       107 -14.7793    244.6961    170.5730   1.9941754769e+01   4.1475482567e+00    0.8315644    0.6003129   9.68  0.005181786    1.425    0.298
       108  -9.6749    170.5789     70.3452   9.4438530840e+00   3.2757452506e+01    0.2713787    0.1732526 -38.58  0.001322024    1.469    0.319
       109  -9.3079    145.6164     67.1070   1.2960242502e+01   3.9140053506e+01    0.3121561    0.1183768 -44.85  0.001104045    2.547    0.607
       110 -10.1701    201.0112     66.3068   4.1810876010e+00   2.6795151306e+01    0.3826676    0.2775889  29.92  0.001704883    2.061    0.515
       111 -13.8340    234.0551    223.9468   3.0217249808e+01  -1.5879543580e+00     2.347466      1.00492 -22.58   0.01283869    2.307    0.567
       112  -9.5182    151.0945     87.3628   1.7663814751e+01   3.4218672659e+01     0.254577    0.2037745 -30.66 0.0006953522    1.332    0.249
       113  -9.3155    130.9993     63.0167   1.4755291178e+01   4.3399057747e+01    0.1869126    0.1696442 -55.83 0.0007706365    1.084    0.077
       114  -8.4877    121.3118     63.3133   1.7117787771e+01   4.5719163690e+01    0.1499397    0.1209823  19.66 0.0007031021    1.633    0.388
       115 -10.6191    189.8848     73.8592   7.4773602414e+00   2.7970982597e+01    0.2734844    0.2334204 -30.91  0.000286996    1.219    0.179
       116 -10.0348    193.1227     60.1974   3.6313296997e+00   2.9339671636e+01     0.291124    0.1558809 -47.31  0.001416308    1.629    0.386
       117  -8.6445    184.2689     60.4083   4.8104187650e+00   3.1234119836e+01    0.3129533    0.1154888  58.43  0.001146041    2.801    0.643
       118  -9.0465    207.9758     52.8476   1.8053679476e-01   2.7265609729e+01    0.1985931    0.1609143 -55.37 0.0006525405    1.021    0.021
       119  -8.0741    193.6481     53.6875   1.9311419874e+00   3.0155185197e+01    0.1251968    0.1029831  24.52  0.000704548    1.726    0.421
       120  -9.5259    213.1352     50.1716   3.5904624230e+02   2.6581795737e+01    0.2497087    0.1678175 -39.68 0.0003691041    1.270    0.213
       121 -10.6468    219.3451     51.0081   3.5866478521e+02   2.5247145258e+01    0.4216906    0.2336586  56.78  0.002003541    2.170    0.539
       122  -9.6241    217.0120     46.5013   3.5784295588e+02   2.6290067970e+01    0.2956486    0.1499816 -34.02  0.001187151    1.732    0.423
       123  -8.4825    143.4709     52.4855   8.8833723288e+00   4.2054341428e+01    0.1460574    0.1343196 -78.50 0.0001533835    1.011    0.011
       124 -14.3352    197.9718    128.8231   1.9003375699e+01   1.7297463453e+01     2.127437     1.379839  30.23   0.01112775    1.872    0.466
       125  -8.4252    151.4937     44.5045   5.0391856810e+00   4.1258172983e+01    0.1428854    0.1290755 -76.23 6.300625e-05    1.015    0.015
