#   1 NUMBER                 Running object number                                     
#   2 MAG_AUTO               Kron-like elliptical aperture magnitude                    [mag]
#   3 X_IMAGE                Object position along x                                    [pixel]
#   4 Y_IMAGE                Object position along y                                    [pixel]
#   5 X_WORLD                Barycenter position along world x axis                     [deg]
#   6 Y_WORLD                Barycenter position along world y axis                     [deg]
#   7 A_WORLD                Profile RMS along major axis (world units)                 [deg]
#   8 B_WORLD                Profile RMS along minor axis (world units)                 [deg]
#   9 THETA_WORLD            Position angle (CCW/world-x)                               [deg]
#  10 FWHM_WORLD             FWHM assuming a gaussian core                              [deg]
#  11 ELONGATION             A_IMAGE/B_IMAGE                                           
#  12 ELLIPTICITY            1 - B_IMAGE/A_IMAGE                                       
         1 -15.6943    181.7625    102.2472   8.7013868821e+01   2.4290262205e+01     2.602401      1.79829 -33.41  0.009463001    1.411    0.291
         2 -14.5241    166.8398     74.9939   8.2402310073e+01   3.2640428164e+01     2.158717     2.054647 -86.93  0.009103123    1.079    0.074
         3 -14.3058    179.3908     33.6541   6.7588991641e+01   3.5612741298e+01     1.410098     1.068645   2.51   0.00454778    1.708    0.415
         4 -12.7391    183.4750     27.2545   6.5117930453e+01   3.5330261357e+01    0.5537063    0.4855462 -43.09  0.001265031    1.120    0.107
         5 -13.1050    203.5759     33.4724   6.4666043981e+01   2.9521798064e+01    0.7619651    0.6440013 -44.02  0.002484814    1.092    0.084
         6 -12.9281    198.4683      3.4342   5.6772784749e+01   3.4032142895e+01     1.000783    0.3911306  68.79  0.004254149    2.400    0.583
         7 -10.5937     57.7435      2.9975   8.3720746161e+01   7.1174031159e+01    0.1774527    0.1146356 -22.77 0.0008987415    1.595    0.373
         8 -11.2485     62.8962    216.9149   1.3620295474e+02   2.2053071649e+01     0.315212    0.2263002  62.15 0.0009244349    1.271    0.213
         9 -15.9717    166.7363    243.1885   1.1673482688e+02   3.9417376288e+00     5.454102       1.2477  35.51   0.02181318    3.200    0.687
        10 -19.4134     37.0007    143.9387   1.3708251363e+02   4.1229379400e+01     20.52182     2.554149 -75.26   0.04458633    8.714    0.885
        11 -11.1116     65.0880    213.7679   1.3547163559e+02   2.2387875772e+01    0.3563031    0.1729225  53.68  0.001655102    1.827    0.453
        12 -11.7311    183.8605    215.4604   1.0959470565e+02   5.2437509995e+00     0.278851    0.2595287 -86.54  0.001915371    1.871    0.465
        13  -9.4846     72.0479    213.7533   1.3386925629e+02   2.1526183113e+01    0.2977539     0.145824  62.95  0.001436626    2.327    0.570
        14  -7.7446     82.3451    212.0156   1.3133705931e+02   2.0524826233e+01    0.3589342    0.1391551  38.20  0.001463613    1.928    0.481
        15 -16.3551    128.2858    244.4143   1.2452424042e+02   8.9169891201e+00     2.287392     1.334438  35.18  0.008534901    1.251    0.201
        16  -9.8804     93.1127    207.2827   1.2835496860e+02   1.9960092935e+01     0.243028    0.1657014  58.06 0.0009993293    1.465    0.317
        17 -11.6613     12.8030    206.2107   1.4694351728e+02   2.9382137207e+01    0.3203146    0.1610582  46.02  0.001316595    1.452    0.311
        18 -10.5621      8.3199    205.6902   1.4791789664e+02   2.9869184067e+01    0.3083962    0.1368083  50.16  0.001610206    1.614    0.380
        19 -10.1832    107.3410    203.7203   1.2460274676e+02   1.8593230532e+01    0.4224901     0.248463   8.06  0.001834222    2.813    0.645
        20 -11.7422     72.4034    203.1754   1.3288535264e+02   2.3547126266e+01     0.363052    0.3078837 -49.60  0.001380346    1.506    0.336
        21  -9.8886     63.2442    203.8107   1.3513233507e+02   2.4572489382e+01    0.1858771    0.1331453  51.97 0.0006054446    1.146    0.127
        22 -12.1892    193.2903    193.4194   1.0420142384e+02   6.9427136945e+00    0.6335046    0.4392933 -49.61  0.003567619    2.108    0.526
        23 -11.8491    165.8115    194.1198   1.0994915057e+02   1.1149291012e+01    0.4975176    0.3547656  11.51  0.002571943    1.385    0.278
        24 -11.4661     80.5911    192.6075   1.2985650576e+02   2.4613096456e+01    0.6802518    0.3049804  47.66    0.0030801    1.962    0.490
        25 -11.6601     81.9936    187.8847   1.2899450283e+02   2.5408163259e+01    0.5992311    0.3659592  47.98  0.003125667    1.420    0.296
        26 -10.3612    180.0430    192.4780   1.0669419690e+02   9.1432367987e+00     0.202956    0.1877914 -48.85 0.0006302734    1.513    0.339
        27  -9.2948     92.1485    185.2251   1.2609281284e+02   2.4512088012e+01    0.1890598    0.1299948  49.85 0.0003283637    1.308    0.236
        28 -11.5090    206.1528    181.1100   9.9556214798e+01   6.7250818748e+00    0.5244965    0.3128792  24.13  0.002791915    1.543    0.352
        29 -11.1034    209.9938    178.8345   9.8424044327e+01   6.4528564621e+00    0.3247535     0.230086  31.08  0.001946152    1.326    0.246
        30  -9.5556     87.1916    183.1051   1.2710975407e+02   2.5685329196e+01    0.1958165     0.179708   8.64  0.000996712    1.266    0.210
        31 -11.4582    171.6125    181.2372   1.0651513601e+02   1.2304156162e+01    0.4639947    0.2462547  41.26  0.002054383    1.770    0.435
        32 -12.2740    170.4981    177.1866   1.0602921775e+02   1.3169051721e+01    0.4744914    0.4114371 -16.82  0.002211676    1.191    0.161
        33  -9.9223     99.0644    180.8936   1.2376222506e+02   2.4383805797e+01    0.2752925    0.1717206  33.02  0.001370729    1.418    0.295
        34 -10.2516    196.6246    175.7958   1.0039649264e+02   9.0220535328e+00    0.3738074    0.2866905  66.82  0.001947353    2.425    0.588
        35 -11.8567    196.1631    171.1754   9.9614307853e+01   9.8033824292e+00    0.6357304    0.4552967 -57.82  0.003268845    2.323    0.570
        36 -11.2614     89.2702    175.5735   1.2562426622e+02   2.7011325565e+01    0.3633508    0.2596005 -39.90  0.001160091    1.769    0.435
        37 -11.7439     92.1206    170.7280   1.2421161575e+02   2.7650551042e+01    0.4141976    0.3706964  75.90  0.001130534    1.159    0.137
        38 -10.7095    118.8827    173.7413   1.1762852781e+02   2.2690048574e+01    0.2738343    0.1727501  48.90 0.0008108947    1.550    0.355
        39 -10.9096    125.2355    172.7499   1.1586016727e+02   2.1817236389e+01    0.2542381    0.2198633   8.52  0.001019756    1.228    0.185
        40 -10.3009    137.3357    170.9995   1.1256207760e+02   2.0070120921e+01    0.1949699    0.1834627  15.91   0.00054775    1.086    0.079
        41 -11.4448    177.8265    169.7564   1.0308055940e+02   1.3155318244e+01    0.2557909    0.2228064  38.76  0.001516957    1.257    0.204
        42 -10.7131    101.5168    169.8375   1.2156030007e+02   2.6373578391e+01     0.314145    0.1549219  46.73  0.001326886    1.907    0.476
        43  -9.3889    224.2835    164.6539   9.3182171913e+01   6.2197335994e+00    0.1119325   0.09957744 -47.54 0.0002968087    1.645    0.392
        44  -9.1891    120.1468    163.8479   1.1566916831e+02   2.4543526582e+01    0.2218629    0.1782712  55.09 0.0006105867    1.281    0.219
        45 -12.6445     87.0289    156.6192   1.2359964988e+02   3.1661216161e+01    0.4809155    0.3138703 -44.70  0.001997677    1.812    0.448
        46 -10.6397     97.6475    161.7337   1.2138439662e+02   2.8800079365e+01    0.2502572    0.2251807  42.69  0.000460922    1.023    0.023
        47  -9.3752      7.5410    161.2240   1.4671480528e+02   3.9542310956e+01    0.1519129    0.1028555 -73.61 0.0006419887    1.491    0.329
        48 -11.3143    102.1554    154.8067   1.1900784758e+02   2.9634202612e+01    0.5862218    0.3814297 -34.27  0.002626268    2.020    0.505
        49  -9.3786    120.3212    156.4003   1.1430746066e+02   2.6111058592e+01    0.2133116    0.1270729  44.46 0.0009202536    1.563    0.360
        50 -10.1558    176.8306    154.6168   1.0029590666e+02   1.5931639304e+01    0.1964478    0.1267163  47.80 0.0004966764    1.676    0.403
        51 -11.8486    133.8190    144.9634   1.0851465922e+02   2.6056312180e+01     1.139858    0.2929961 -54.83  0.002613725    6.891    0.855
        52 -11.1690    174.7093    149.0915   9.9600486644e+01   1.7309863360e+01    0.2837482    0.2012649  30.92 0.0007487843    1.334    0.251
        53 -11.3821    145.4172    146.0062   1.0577141537e+02   2.3582384423e+01    0.3595821    0.2705587  51.96 0.0003326909    1.412    0.292
        54 -11.4329      6.8787    145.4700   1.4626723076e+02   4.3327636782e+01     0.364749    0.2450219 -48.86   0.00108545    1.796    0.443
        55 -11.4479    111.9005    139.4977   1.1341449938e+02   3.1438616679e+01    0.5197329    0.3005171 -33.37  0.002034094    2.379    0.580
        56 -11.5068    100.6963    139.8739   1.1676192036e+02   3.3374477655e+01    0.2921849    0.2659328  20.74  0.000471401    1.154    0.133
        57 -13.1251      5.2172    130.7264   1.4610510337e+02   4.7054540277e+01     1.345284    0.6468831 -87.00  0.006598833    1.818    0.450
        58 -10.4279    106.0921    130.8951   1.1335747431e+02   3.4536163958e+01    0.3719382    0.3200731  74.15  0.001287444    1.268    0.211
        59 -10.1845    105.6991    126.5938   1.1255828592e+02   3.5636051083e+01    0.3013907    0.2422453 -29.15 0.0007720085    1.458    0.314
        60 -12.0000    117.8801    129.9066   1.0967514817e+02   3.2510378394e+01    0.4655736    0.3942632   8.39  0.001303693    1.347    0.257
        61 -15.9682    133.5502    213.8958   1.1988754068e+02   1.2903092707e+01     4.561924     1.468743  30.98   0.01762128    2.797    0.643
        62 -10.8556     85.0283    235.7186   1.3276102013e+02   1.5948481168e+01    0.2258069    0.1713702 -84.03 0.0003976815    1.653    0.395
        63 -13.1928    165.2581     49.7740   7.4863106204e+01   3.7127952585e+01     1.068307    0.6856186 -20.43  0.002805475    1.796    0.443
        64 -11.9817    160.9326    127.7661   9.7930675353e+01   2.4077604960e+01    0.4720414    0.3716255 -70.03   0.00224437    1.731    0.422
        65 -11.8918    135.2167    122.4850   1.0311969306e+02   3.0626950630e+01    0.7209846    0.2136698 -48.06  0.002100217    3.625    0.724
        66 -12.0866    126.0905    127.8187   1.0687728250e+02   3.1343422427e+01    0.4582297     0.298435  61.11  0.001889241    1.939    0.484
        67  -9.5590     94.7432    250.6487   1.3191813610e+02   1.2339334067e+01    0.1523757   0.07534305  39.30 0.0002633758    1.423    0.297
        68 -10.7759      2.0580    112.9474   1.4627360378e+02   5.1701546293e+01     0.311132    0.2023973 -64.84  0.001011981    1.453    0.312
        69 -10.1033    112.2534    119.1466   1.0887828553e+02   3.6131658785e+01    0.2641039    0.2079362  30.72 0.0002804821    1.290    0.225
        70 -10.5580      1.2144    250.8511   1.5022415344e+02   2.2291803503e+01   0.08902097   0.04361396  46.40 0.0002938889    1.303    0.232
        71 -10.6655    134.7362    105.9018   9.9018169417e+01   3.4330901655e+01     0.495002    0.1438891 -48.10  0.001356751    3.833    0.739
        72 -10.3176    205.1980    110.4966   8.4734773646e+01   1.7861370047e+01    0.3483164    0.2296709  27.50  0.001244776    1.767    0.434
        73  -9.9059    152.5035    102.9549   9.3640552513e+01   3.0872520443e+01    0.2700089    0.2169851  65.50 0.0003646064    1.410    0.291
        74  -9.1161     83.4832     76.5141   1.0707454550e+02   5.2069987505e+01     0.153994    0.1536676  29.71 3.606861e-05    1.011    0.011
        75 -11.5548     12.9449     67.3979   1.3757360877e+02   6.3030244288e+01    0.5884483    0.3342097 -76.07  0.002104202    1.561    0.359
        76 -11.9510      6.3725     64.7501   1.4055108109e+02   6.3979632934e+01    0.5471314    0.4705155  54.89   0.00272418    1.282    0.220
        77  -9.3512    112.6689     64.9333   9.2763809525e+01   4.8201200761e+01    0.2169266    0.2057336 -52.79 0.0004129202    1.091    0.084
        78  -9.4878     13.6745     59.9680   1.3600167316e+02   6.4909166893e+01    0.1892314    0.1521456 -70.57 0.0004528137    1.103    0.094
        79 -12.8176      3.8740     45.1985   1.3915145975e+02   6.8998564731e+01    0.6716917    0.4050816  84.62  0.002533532    1.767    0.434
        80 -11.1742     92.6098    235.3133   1.3111126628e+02   1.5046088417e+01    0.2084586    0.1707118  51.42 0.0003143018    1.173    0.147
        81  -9.4481     78.5505    232.4927   1.3389755173e+02   1.7310590815e+01    0.1191724   0.09307102  38.31 -0.0002953401    1.088    0.081
        82  -7.9990     66.5713    208.5448   1.3472219852e+02   2.3219897952e+01    0.4213024    0.1956123  14.96  0.001602395    3.856    0.741
        83  -9.3125    112.7884     21.6078   7.5138532125e+01   5.5327156550e+01    0.2079853     0.140682  76.14 0.0002870291    1.579    0.367
        84 -11.4136    189.7673     14.9997   6.0792336615e+01   3.5075705546e+01    0.2457815     0.194704  87.35 0.0008229944    1.193    0.162
        85 -10.2247    165.8175     13.0246   6.2686170522e+01   4.1613793279e+01    0.2749756    0.2020425  76.71  0.001410775    1.266    0.210
        86 -11.6897     80.1760    219.8599   1.3252488343e+02   1.9347741841e+01    0.2857601    0.1766161  52.68 0.0004153321    1.419    0.295
