#   1 NUMBER                 Running object number                                     
#   2 MAG_AUTO               Kron-like elliptical aperture magnitude                    [mag]
#   3 X_IMAGE                Object position along x                                    [pixel]
#   4 Y_IMAGE                Object position along y                                    [pixel]
#   5 X_WORLD                Barycenter position along world x axis                     [deg]
#   6 Y_WORLD                Barycenter position along world y axis                     [deg]
#   7 A_WORLD                Profile RMS along major axis (world units)                 [deg]
#   8 B_WORLD                Profile RMS along minor axis (world units)                 [deg]
#   9 THETA_WORLD            Position angle (CCW/world-x)                               [deg]
#  10 FWHM_WORLD             FWHM assuming a gaussian core                              [deg]
#  11 ELONGATION             A_IMAGE/B_IMAGE                                           
#  12 ELLIPTICITY            1 - B_IMAGE/A_IMAGE                                       
         1 -11.8600    209.8022     25.1755   4.1601906529e+01   2.9691918991e+01    0.8691568    0.7090607   7.75  0.003728666    1.516    0.341
         2 -12.0109    198.5781     37.3115   4.6188979102e+01   3.0913579482e+01    0.9964086    0.9207936   8.21  0.005924154    1.235    0.190
         3  -8.2069    236.1003     10.3055   3.5731469111e+01   2.5385632138e+01    0.1932266    0.1581148 -17.20 0.0005259131    1.334    0.250
         4  -8.9193    211.8802      7.8260   3.6702983440e+01   3.1029966117e+01    0.1828278     0.176656  45.05 0.0005271737    1.237    0.192
         5  -7.5660    248.1484      4.7532   3.3732904665e+01   2.3427158371e+01     0.138138    0.1335513   3.27 0.0003584915    1.317    0.240
         6  -9.6845    235.9654      1.7670   3.3660172382e+01   2.6238331065e+01    0.3922524    0.2758404  81.58  0.001684718    1.503    0.335
         7  -9.6560    231.9941      2.0000   3.3932033560e+01   2.7068273372e+01    0.3184701    0.2035008 -89.43  0.001848489    1.600    0.375
         8  -9.5220     90.5093    233.2597   1.0898145836e+02   1.6673827457e+01    0.2847593    0.1883721  11.98  0.001253749    2.074    0.518
         9 -14.9230      3.5695    203.2092   1.2513519976e+02   3.1318818577e+01     1.128627    0.4816188 -70.37  0.006409992    2.514    0.602
        10 -14.2685     27.6623    222.2589   1.2089450950e+02   2.5610451665e+01    0.5090097    0.3534221 -38.64  0.003330013    2.449    0.592
        11 -18.2489     12.1600    237.5501   1.2438694472e+02   2.4393285750e+01     2.546196     1.836258  66.21   0.02067976    1.159    0.137
        12  -8.4768     66.1999    226.1108   1.1332481870e+02   2.0802411720e+01    0.1545199    0.1262657  43.98 0.0002701543    1.117    0.105
        13 -10.4778    112.0846    224.1614   1.0380001427e+02   1.5343024666e+01     0.470951    0.2092224  31.63  0.001216589    1.929    0.481
        14  -7.5047    243.6656    224.3233   7.9966757891e+01  -2.1132823818e+00   0.08806315   0.07879207  19.46 0.0006661746    1.709    0.415
        15 -15.2932     35.7941    233.6101   1.1978579539e+02   2.2818395866e+01    0.6298444    0.4609138  26.38  0.004650809    1.509    0.337
        16 -15.2303     39.0030    239.8100   1.1944683041e+02   2.1452065275e+01     1.422071     0.451321  23.51  0.005491364    5.080    0.803
        17  -7.4765     89.6411    221.2640   1.0812318955e+02   1.8767143560e+01    0.1239434   0.06893681  52.61 0.0006984473    1.633    0.388
        18  -7.6649     73.2869    218.3509   1.1128568468e+02   2.1316074017e+01    0.1031398   0.08846006 -14.24  0.000702274    1.663    0.399
        19  -8.3579    215.8214    215.7492   8.3137129960e+01   2.2392860689e+00    0.1803021    0.1699621   7.29  0.000749927    1.553    0.356
        20  -8.5202    153.7548    213.9821   9.4226623568e+01   1.1091630830e+01    0.1696088    0.1458939  24.15  0.001189817    1.075    0.070
        21  -8.7391     98.8068    213.9293   1.0550471695e+02   1.8828389674e+01    0.3440503    0.2419797 -13.18  0.001381566    2.344    0.573
        22  -7.9707     95.3659    211.7527   1.0601698724e+02   1.9668500185e+01    0.1943377   0.09103421  37.93 0.0007366913    1.695    0.410
        23  -7.4305     75.7922    213.2067   1.1033572502e+02   2.1930084826e+01    0.1704715    0.1325026 -13.17  0.001063854    1.979    0.495
        24  -8.0634    216.8230    233.0699   8.5496659883e+01   1.9758069257e-01    0.1448124    0.1135265  15.29  0.000347005    1.175    0.149
        25 -10.3045    235.1823    208.7816   7.8895943279e+01   5.3473075724e-01    0.2345736    0.1650106  22.48 0.0004493704    1.223    0.182
        26  -7.5022     74.4881    209.9483   1.1033999473e+02   2.2686787755e+01    0.1512406    0.1142894 -73.68 0.0009539842    1.510    0.338
        27  -7.0015    161.6632    208.3114   9.1889837999e+01   1.0780774319e+01    0.1165288   0.08795501  55.50 0.0007045039    1.686    0.407
        28  -7.3944     69.6439    208.7597   1.1129011781e+02   2.3503090248e+01    0.1072537   0.08755898   9.99 0.0004399357    1.585    0.369
        29  -9.4540    123.8643    205.9482   9.9291480787e+01   1.6698888338e+01    0.2251905    0.1791147  58.21  0.001448395    1.345    0.256
        30  -8.0689     80.9034    205.9147   1.0858324852e+02   2.2622006342e+01    0.1755994    0.1411544  51.11 0.0003050604    1.032    0.031
        31  -7.6665     62.4432    206.4568   1.1267567468e+02   2.4801010229e+01     0.143094    0.1096226 -62.03 0.0001037869    1.568    0.362
        32  -8.4751     63.7201    203.5891   1.1216905387e+02   2.5195880115e+01    0.4132216    0.1434738  45.58  0.001916866    2.262    0.558
        33  -8.4575    194.6808    198.5825   8.4150938878e+01   7.3050114998e+00    0.2297439     0.188002  88.92  0.001337279    2.617    0.618
        34  -7.7691     69.0297    197.9720   1.1050716845e+02   2.5637211136e+01    0.3090728    0.1237926  60.62  0.001260573    3.208    0.688
        35  -7.8362     63.1517    197.2985   1.1178108307e+02   2.6487420360e+01    0.2401076    0.1306015 -73.33 0.0009635395    2.005    0.501
        36  -8.7627    172.6598    196.1306   8.7915694628e+01   1.0944403887e+01    0.2133287    0.1745445  37.17  0.000574202    1.222    0.181
        37  -9.1749    152.0222    194.9083   9.1872802273e+01   1.4305172406e+01    0.1839422    0.1665561  15.18  0.000281492    1.090    0.083
        38  -7.5525    115.3756    192.2397   9.9386811858e+01   2.0364350828e+01    0.1561092    0.1220013 -79.16 0.0003172199    1.585    0.369
        39  -7.8728     90.1857    196.8311   1.0560533096e+02   2.3103156426e+01    0.1922526    0.1431583  57.60 0.0006452109    1.249    0.199
        40  -8.5607     74.6288    189.8590   1.0845655449e+02   2.6536887169e+01    0.2328583     0.184958  68.99 0.0008794123    1.194    0.163
        41  -7.4842     82.9630    186.4473   1.0614178578e+02   2.6120145923e+01    0.1907252    0.0786704  51.20 0.0008064887    2.419    0.587
        42  -9.1031     46.7265    186.0608   1.1468793732e+02   3.0667508151e+01    0.2573323    0.1702291  22.93  0.001387521    1.709    0.415
        43  -8.2987    118.1206    183.8168   9.7621345687e+01   2.1517429204e+01    0.3256211    0.1689367  26.74  0.001026759    2.109    0.526
        44  -7.6210     84.4244    180.7755   1.0515039732e+02   2.7074652683e+01    0.1612411     0.118287 -51.75 0.0005182378    1.590    0.371
        45  -9.9686     69.4334    178.9480   1.0858824785e+02   2.9455347843e+01    0.3569928    0.2699545 -38.60  0.002081472    1.772    0.436
        46  -9.6641     73.9186    173.6198   1.0690282304e+02   3.0003605342e+01    0.3084442    0.2302908 -47.63 0.0007976866    1.621    0.383
        47  -8.9766     62.2278    181.2221   1.1056759122e+02   2.9878945546e+01    0.2007941    0.1574423  29.85 0.0005551641    1.330    0.248
        48  -7.1717     58.3200    181.3121   1.1152236711e+02   3.0332806207e+01    0.1148734   0.09681247 -26.75 0.0004642423    1.649    0.394
        49  -8.8825    156.6468    230.4887   9.5787030464e+01   8.3506076566e+00    0.1789199    0.1402559 -33.14 0.0009940088    1.546    0.353
        50  -8.0460    194.0776    180.3503   8.1192361272e+01   9.9504531104e+00     0.171648    0.1375823  26.71 0.0003924025    1.140    0.123
        51  -7.9071    147.8893    180.4615   9.0493235551e+01   1.7388195134e+01    0.2052212    0.1153149  37.82  0.001011733    1.572    0.364
        52  -8.2579     39.8630    181.1037   1.1595884596e+02   3.2451361316e+01    0.1931495    0.1268608  57.52 0.0007072701    1.278    0.218
        53  -8.0228     23.4980    178.6236   1.1971926646e+02   3.4594658932e+01     0.229235    0.1269156  37.91  0.001328662    1.573    0.364
        54  -9.6652    175.4360    172.7457   8.3434856757e+01   1.4130683776e+01    0.3217538    0.2930564   1.08  0.001001038    1.087    0.080
        55  -6.9629    134.9555    175.0000   9.2461370759e+01   2.0487603266e+01    0.2124179   0.06889849  37.76 0.0004042963    2.751    0.636
        56  -7.5718     48.6143    171.7748   1.1307015462e+02   3.3517137302e+01    0.1128225   0.09601129  -7.25 0.0005408989    1.621    0.383
        57  -7.9921     37.3362    170.7747   1.1582492421e+02   3.4953369402e+01    0.2019555    0.1337619 -89.40 0.0004976452    1.425    0.298
        58  -7.6238    111.5012    168.4727   9.6923993537e+01   2.5566266574e+01    0.1360769    0.1216117  47.22 -3.410066e-05    1.019    0.018
        59  -6.9802    102.2529    168.6871   9.9217185074e+01   2.6972278447e+01    0.1316795   0.09692922  68.79 0.0002255498    1.522    0.343
        60  -7.2744     99.4704    166.9935   9.9660878556e+01   2.7754109724e+01    0.1780855     0.133379 -63.35 0.0002653243    1.448    0.309
        61  -7.0424     62.6728    167.3007   1.0905543009e+02   3.2834691277e+01    0.1399148   0.08363814  60.40 0.0003486647    1.640    0.390
        62  -8.7269     68.7228    230.8604   1.1314544938e+02   1.9699478623e+01    0.2271699    0.1311535  35.44  0.001077096    1.400    0.286
        63  -8.4683     88.8904    165.1904   1.0207123588e+02   2.9726661694e+01    0.2045609    0.1590599  56.88 0.0002418635    1.207    0.171
        64  -8.9318     82.1691    164.2902   1.0367129543e+02   3.0893259578e+01     0.237925    0.1876244 -84.14 0.0006297032    1.326    0.246
        65 -15.3184     41.0937    247.6769   1.1940180213e+02   1.9962148017e+01     1.087391    0.3141164  34.33  0.005664321    2.430    0.588
        66  -8.3668     69.1102    161.1151   1.0667446349e+02   3.3389365740e+01    0.2143362    0.1348711  61.99 0.0004891346    1.608    0.378
        67 -10.4144     89.0701    157.2405   1.0089713062e+02   3.1439908559e+01    0.5825861    0.4359989 -27.10  0.001607979    1.836    0.455
        68  -7.1378    172.2776    159.3074   8.1572378498e+01   1.6893959180e+01    0.1342781   0.09889155   1.45 0.0002861286    1.553    0.356
        69  -7.9671     50.3256    157.5742   1.1128742011e+02   3.6519663023e+01    0.2213306    0.1102595  36.45 0.0004804303    1.822    0.451
        70  -8.8567     31.2599    156.2095   1.1628755379e+02   3.8851327476e+01    0.2216361    0.1458447  42.90 0.0006599905    1.381    0.276
        71  -7.4611     33.9823    154.2400   1.1539581420e+02   3.9041726231e+01    0.1731664    0.1456409  55.95 0.0003501115    1.098    0.089
        72 -10.4684      8.7574    155.0123   1.2216706076e+02   4.1053996909e+01    0.2871075    0.2003529  32.65            0    1.472    0.321
        73  -7.3452    132.2885    154.3436   8.9518000627e+01   2.4928472518e+01     0.139953    0.1084655  -7.56 0.0007023042    1.650    0.394
        74 -10.2703     52.1008    152.4761   1.1026766994e+02   3.7496497732e+01    0.4689811      0.25519  35.94  0.001620351    1.717    0.418
        75  -8.7319     30.1071    150.9308   1.1618297790e+02   4.0189701645e+01     0.435051    0.1303623  38.39  0.001241219    2.673    0.626
        76  -8.0555     98.7938    153.2192   9.7728020157e+01   3.0824808281e+01    0.1799837    0.1617503 -22.31 0.0004259927    1.325    0.245
        77  -8.4095     69.0066    152.3954   1.0560804379e+02   3.5392410785e+01    0.2611402    0.1903815 -87.29  0.001017495    1.407    0.289
        78 -11.3855     68.3024    144.4164   1.0472734250e+02   3.7352164512e+01    0.8587007    0.4630895  60.23  0.003803358    2.099    0.524
        79  -8.1434     80.1954    151.8856   1.0248610267e+02   3.3952086663e+01    0.2056846    0.1667006  64.28 0.0003366161    1.182    0.154
        80  -7.2191    148.2732    149.6925   8.4891127512e+01   2.2957727770e+01    0.1324014    0.1113951  80.59 0.0002648785    1.546    0.353
        81  -7.7068    126.9158    147.6335   8.9565864413e+01   2.7248385498e+01    0.1971946    0.1660754  40.99  0.001080897    1.118    0.106
        82  -8.5354     25.6853    154.1714   1.1763089828e+02   3.9844857085e+01    0.3076982    0.1700068   6.20  0.001459678    2.833    0.647
        83 -10.9393      4.3322    141.3103   1.2268939146e+02   4.4536355972e+01    0.7093695     0.379209 -75.04  0.003923129    1.674    0.403
        84  -8.2321    134.0071    145.7530   8.7467155107e+01   2.6350619415e+01    0.2060525    0.1528256 -25.24 0.0007357712    1.626    0.385
        85  -8.7204     89.9823    142.4499   9.8329062726e+01   3.4642664551e+01    0.4396098    0.3523129 -26.82 0.0004702119    1.593    0.372
        86  -8.8287     86.6770    143.2971   9.9386794011e+01   3.4960287272e+01    0.4611759    0.2833327 -40.86   0.00212302    2.025    0.506
        87  -7.5766     41.8304    146.5905   1.1251903235e+02   4.0035139409e+01    0.1874191    0.1025422  43.97 0.0008893303    1.661    0.398
        88  -8.5869     30.5553    145.8070   1.1563437140e+02   4.1356498216e+01    0.3048031    0.1151559  46.26 0.0009838308    2.332    0.571
        89  -7.8124    113.0155    145.0748   9.2606163631e+01   3.0241045596e+01    0.2157128    0.1617738  69.29  0.001074889    1.575    0.365
        90  -9.1017    102.1973    142.8431   9.5059606426e+01   3.2574204137e+01    0.4931948    0.2928262 -26.81  0.001922525    2.973    0.664
        91  -8.3301     98.2104    143.2215   9.6204140550e+01   3.3147921461e+01    0.2644552    0.2211715  65.44  0.000306714    1.208    0.172
        92  -9.6170     22.0824    142.6758   1.1778286319e+02   4.2864192676e+01    0.2825432    0.2089881  77.92  0.001278723    1.161    0.139
        93  -8.0435    247.3372    143.7083   6.5319386166e+01   6.6321406881e+00      0.10827   0.09275348 -49.63 0.0004876603    1.642    0.391
        94  -8.1804     82.0549    142.0636   1.0048141372e+02   3.5947325568e+01    0.2102631    0.1935622  56.01 0.0005802628    1.043    0.042
        95  -8.4640     82.5682    137.6011   9.9606988707e+01   3.6916408643e+01    0.3448521    0.2099699  61.02 0.0008572693    1.877    0.467
        96  -9.6176     68.7524    135.6753   1.0332115577e+02   3.9376877114e+01     0.411732    0.2136769 -89.23  0.001541412    2.820    0.645
        97  -9.9052     62.4899    136.5709   1.0530550468e+02   4.0000095260e+01    0.3942393    0.3076788 -82.55  0.001630736    1.242    0.195
        98  -9.3104     35.2626    136.1080   1.1336416127e+02   4.3236139886e+01    0.3132522    0.2249946 -23.64  0.001195569    1.992    0.498
        99  -8.5721    105.0649    133.7321   9.2572514280e+01   3.4137400713e+01    0.2224902    0.2020491 -68.78 0.0003576353    1.127    0.113
       100  -7.9154    141.9447    133.7845   8.3075819894e+01   2.7278269226e+01     0.193616    0.1144767  40.56 0.0003090833    1.640    0.390
       101  -7.7573    116.9981    133.5026   8.9307593444e+01   3.2056114670e+01    0.1985357    0.1190082  61.51  0.000445733    2.216    0.549
       102  -7.9981    112.1779    132.3053   9.0350104609e+01   3.3196213620e+01    0.2595556    0.2209735 -59.44  0.001390638    1.214    0.177
       103  -9.1157     24.5712    136.9140   1.1660614038e+02   4.4033467819e+01    0.2515894    0.1627803  41.25  0.001118293    1.475    0.322
       104  -9.5796      9.8208    132.2873   1.2061460376e+02   4.6306679982e+01    0.2862405    0.1863673  -5.25  0.001577624    2.216    0.549
       105  -9.7353     20.6770    132.1404   1.1736895645e+02   4.5521076370e+01    0.3599477    0.1408224  37.89  0.001646335    2.295    0.564
       106  -8.2245     71.8631    130.7218   1.0160951017e+02   4.0137879271e+01    0.3113158     0.159604  88.90  0.001091833    3.338    0.700
       107 -10.5673     13.3574    136.0816   1.1982423774e+02   4.5139173793e+01    0.4240341    0.2721926 -43.77  0.002360591    1.961    0.490
       108  -9.1518    119.8596    128.3420   8.7464993188e+01   3.2654896621e+01    0.2644881    0.1838237  30.39 0.0006291445    1.541    0.351
       109  -7.6657    141.7080    127.4909   8.1738446583e+01   2.8598095549e+01    0.1913064    0.1390032  29.89 0.0004013648    1.456    0.313
       110  -8.4647    124.8611    127.0357   8.5866767318e+01   3.1987969037e+01    0.2323833    0.1991352  77.76 0.0006536078    1.333    0.250
       111  -9.7094     11.2972    142.6765   1.2082302504e+02   4.3723581817e+01    0.2430915    0.1407866  62.69 0.0008939024    1.510    0.338
       112  -7.8722     89.4494    124.4452   9.5209232227e+01   3.8944088833e+01    0.2548232    0.1829678  74.02 0.0005957508    1.668    0.400
       113  -9.1167     11.8779    124.8926   1.1949315812e+02   4.7959527898e+01    0.2380455     0.150213 -59.81 0.0007756539    1.592    0.372
       114  -7.9363     13.4879    121.4647   1.1873137959e+02   4.8689038472e+01    0.1656858    0.1085579  41.67 8.567176e-05    1.506    0.336
       115  -9.9899     30.0116    122.1314   1.1351739181e+02   4.7186577088e+01    0.4443441    0.1652473 -69.91  0.001854045    2.329    0.571
       116  -8.5608      5.5062    120.2455   1.2116179550e+02   4.9515111478e+01    0.3497716   0.08183772 -73.03  0.001291711    3.276    0.695
       117  -7.7880    198.1769    120.7629   6.8287667044e+01   1.8497531040e+01    0.1922973    0.1779381 -42.94 0.0003396618    1.197    0.164
       118  -8.2135    104.0847    120.3208   9.0074179509e+01   3.7376554620e+01    0.2027947    0.1801333  52.97 0.0003589427    1.106    0.096
       119  -8.7543     73.9213    227.0469   1.1182377667e+02   1.9729435941e+01    0.1703922    0.1239944  50.90  0.001186611    1.096    0.088
       120  -8.7580     77.2596    116.0554   9.7292158044e+01   4.2913910336e+01    0.2389034    0.1991423  52.50 0.0003203373    1.187    0.158
       121  -7.8073     66.1338    116.5313   1.0095087491e+02   4.4431763399e+01    0.2034778    0.1374379  36.63 0.0005307951    1.499    0.333
       122  -9.2518    109.7718    111.7695   8.6486767994e+01   3.8272950137e+01    0.3436194    0.2553721  69.90  0.001577362    1.643    0.392
       123  -7.9188     70.5397    122.0740   1.0053963485e+02   4.2437878554e+01    0.2093006     0.135729 -66.88 0.0003924947    1.513    0.339
       124  -8.6162     42.9584    110.6035   1.0771535768e+02   4.8804424671e+01    0.2694378    0.1672139 -56.34 0.0007234004    1.552    0.356
       125  -7.2871    196.4818    107.4799   6.5427701126e+01   2.0991060283e+01    0.1407546    0.1302806 -21.12 0.0001940316    1.029    0.028
       126  -8.3104    249.4591    105.6830   5.7029649165e+01   1.1229223463e+01    0.2619362    0.0762298 -41.14 0.0009580857    3.410    0.707
       127  -8.7297    136.7291    106.0702   7.7779954594e+01   3.4026420900e+01    0.2792142    0.2133088  38.63            0    1.331    0.249
       128  -7.9151     68.7456    103.9807   9.7625010004e+01   4.7180633052e+01      0.21015     0.187268 -74.08  0.001081907    1.067    0.062
       129  -7.7311      7.8323    106.2060   1.1938094392e+02   5.2851260431e+01    0.1799372    0.1309772 -59.77  0.001060452    1.350    0.259
       130  -8.6587     35.2578     97.6407   1.0846187073e+02   5.2901151484e+01    0.3444402    0.1584058  47.91 0.0009178285    2.340    0.573
       131  -7.5816     88.8188     97.1427   8.9296117154e+01   4.5575388255e+01    0.1906694    0.1721533 -18.46 0.0003122117    1.258    0.205
       132  -7.5931     90.6968     93.2831   8.7680068346e+01   4.6149421961e+01    0.1499398    0.1170702  78.22 0.0002129855    1.555    0.357
       133  -7.4210    112.5328     88.4441   7.9531539630e+01   4.2934768848e+01    0.1517729    0.1492555 -81.16 5.238786e-05    1.014    0.014
       134  -7.0384     75.6878     88.6535   9.1592760015e+01   4.9870632597e+01    0.1535597    0.1138922 -24.84 0.0007046304    1.712    0.416
       135  -7.0633    161.2994     84.7495   6.6206325843e+01   3.2653541356e+01    0.1444393    0.1180869 -79.02 0.0006878281    1.494    0.331
       136  -7.3436    157.3133     82.2825   6.6343738048e+01   3.4031328097e+01    0.1516065    0.1189226  15.47 0.0004318654    1.574    0.365
       137  -9.4820    104.2927     81.3200   7.9908244946e+01   4.6217933677e+01     0.270503    0.2453098 -81.40 0.0002611186    1.185    0.156
       138  -8.1923    200.2437     79.1699   5.7567717467e+01   2.4664277076e+01    0.3744445    0.1858228 -22.40  0.001442191    2.323    0.569
       139  -8.0287     80.4084     78.4326   8.7056723006e+01   5.1497162044e+01    0.3630975    0.2322538 -15.20  0.001371542    2.815    0.645
       140  -6.9854     95.2897     77.3158   8.1566661125e+01   4.8937822547e+01    0.1515223    0.1209185 -11.01 0.0003816323    1.593    0.372
       141  -8.3462     86.0455     70.6697   8.2622902256e+01   5.2230753229e+01    0.2395779    0.2015559 -66.05 0.0005065097    1.263    0.208
       142  -7.7597     52.5982     69.6780   9.5446508252e+01   5.7958037491e+01    0.2000827    0.1316124 -69.45 0.0006939696    1.590    0.371
       143  -7.2368    119.2116     66.0192   7.0545532136e+01   4.6097161013e+01    0.1970527    0.1235429 -39.31            0    1.583    0.368
       144  -7.0790    136.5449     64.5267   6.5554830294e+01   4.2237802577e+01    0.1521536    0.1499193 -52.00 0.0002312161    1.003    0.003
       145  -8.3296     44.8962     57.9037   9.5423506284e+01   6.1790655319e+01    0.2036017    0.1876062 -49.36  0.000393019    1.012    0.012
       146  -7.2077     26.0005     53.2079   1.0340546119e+02   6.4927441705e+01     0.152093    0.1082467  18.98 -0.000430966    1.587    0.370
       147  -9.5442    245.7701    243.2421   8.2368206850e+01  -4.1408228128e+00    0.1846413    0.1163112  15.62 0.0006221683    1.130    0.115
       148 -11.2126    189.1789     44.0981   4.9350539611e+01   3.2313453965e+01    0.4942519    0.4460137  49.47   0.00197203    1.204    0.169
       149  -7.9474    118.3016    243.3305   1.0446893580e+02   1.1627373753e+01     0.104773   0.07774207   7.40  0.000370111    1.649    0.394
       150  -8.5938     39.2669     40.8805   9.2386271103e+01   6.6416411106e+01    0.2133543    0.1970593 -43.49 0.0003982729    1.053    0.050
       151  -7.1734    130.7264     21.7030   5.1118825204e+01   5.0293381668e+01    0.1465442    0.1090473  30.09 0.0002048529    1.527    0.345
       152  -7.9333     74.4825    237.0374   1.1243520527e+02   1.8005604402e+01    0.1391569    0.1044627 -88.72 0.0005569646    1.547    0.353
       153 -10.0266     81.4529    234.7763   1.1089767063e+02   1.7540322061e+01    0.5416948    0.2226956 -50.19 0.0007864424    3.509    0.715
       154  -8.8125     85.2763    232.3784   1.0995141290e+02   1.7463458171e+01    0.1980613    0.1841438 -28.37 0.0007421335    1.462    0.316
       155  -9.6283    109.6201    234.5132   1.0531386787e+02   1.4048351528e+01    0.2438038    0.1155769  52.17  0.001092156    2.190    0.543
