#   1 NUMBER                 Running object number                                     
#   2 MAG_AUTO               Kron-like elliptical aperture magnitude                    [mag]
#   3 X_IMAGE                Object position along x                                    [pixel]
#   4 Y_IMAGE                Object position along y                                    [pixel]
#   5 X_WORLD                Barycenter position along world x axis                     [deg]
#   6 Y_WORLD                Barycenter position along world y axis                     [deg]
#   7 A_WORLD                Profile RMS along major axis (world units)                 [deg]
#   8 B_WORLD                Profile RMS along minor axis (world units)                 [deg]
#   9 THETA_WORLD            Position angle (CCW/world-x)                               [deg]
#  10 FWHM_WORLD             FWHM assuming a gaussian core                              [deg]
#  11 ELONGATION             A_IMAGE/B_IMAGE                                           
#  12 ELLIPTICITY            1 - B_IMAGE/A_IMAGE                                       
         1 -11.3678     88.3072    231.0588   1.2761445522e+02   1.3719217947e+01    0.2857752    0.1841529  75.74  0.001419823    1.767    0.434
         2 -21.2760    145.1451    163.8482   1.0267351216e+02   1.9332657866e+01      11.4932     9.998171  54.65   0.04870908    1.186    0.157
         3  -9.2048     36.0592    228.0065   1.3824027884e+02   2.1601850827e+01     0.148009    0.1172004  81.38 0.0004190323    1.016    0.016
         4 -10.5332     70.7542    224.9557   1.3067600921e+02   1.7701620278e+01    0.2275831    0.1503757  79.85  0.001182686    1.571    0.363
         5  -8.4788     67.2778    222.4662   1.3114034741e+02   1.8764395048e+01    0.1605446    0.1130066  56.98 0.0008781027    1.301    0.231
         6  -9.8778     57.0100    220.9100   1.3318353886e+02   2.0540166644e+01    0.2894002    0.1347474 -68.72  0.001332997    2.029    0.507
         7 -11.8750     53.4044    216.7184   1.3350496713e+02   2.1986629738e+01    0.2347577    0.1770086  76.91  0.000659053    1.184    0.155
         8 -11.1595    137.7776    247.7469   1.1927181936e+02   2.3054624865e+00    0.3344154    0.1758981 -52.29   0.00160123    2.123    0.529
         9  99.0000     45.2534    217.3277   1.3532112362e+02   2.2893917378e+01    0.3299475    0.1495437  46.79  0.001560431    2.048    0.512
        10 -11.6687     47.7242    213.0796   1.3434524293e+02   2.3568499155e+01     0.261438    0.2129944 -49.86  0.001324853    1.500    0.333
        11 -10.4861     40.5801    213.0567   1.3588568155e+02   2.4460824082e+01    0.1996355    0.1686466  59.61 0.0001438037    1.182    0.154
        12 -10.2353    141.1190    245.4115   1.1823083300e+02   2.2012939389e+00    0.1353592    0.1138043  -3.46 0.0002845499    1.429    0.300
        13 -10.7794     46.1983    207.9858   1.3412880605e+02   2.4958572758e+01     0.191195    0.1657579  76.17 0.0003427184    1.079    0.073
        14 -10.0359     39.2546    204.8531   1.3532523165e+02   2.6548416679e+01    0.2005468    0.1470509  82.62 0.0007874107    1.206    0.171
        15 -12.5227     35.4261    185.4937   1.3404458933e+02   3.1663578781e+01    0.7655802     0.393642 -59.56  0.002101941    1.743    0.426
        16  -8.8203     48.2598    197.2966   1.3244205932e+02   2.7261108701e+01    0.1254167   0.09660149 -48.65            0    1.503    0.335
        17 -11.5555     42.6444    195.2948   1.3350235095e+02   2.8436404255e+01    0.3305058    0.2343624 -89.68 0.0007657319    1.281    0.219
        18 -10.2874     26.2969    173.9792   1.3487862075e+02   3.5457322907e+01    0.2827437    0.1627356  45.45 0.0008684876    1.841    0.457
        19 -11.7037    158.7138    248.5163   1.1500378386e+02  -1.2575211577e+00    0.1856347    0.1689661  56.66 0.0004172008    1.202    0.168
        20 -10.4046     15.0769    167.0644   1.3681481686e+02   3.8201496004e+01    0.3376988    0.1494041 -67.66  0.001009065    1.791    0.442
        21 -11.4795     29.2813    180.8740   1.3496433869e+02   3.3460437547e+01      0.36507    0.2229176 -68.25  0.000576427    1.383    0.277
        22  -9.9129     20.9627    149.0744   1.3308592107e+02   4.2083320277e+01     0.198262    0.1559019 -65.96 0.0004126097    1.061    0.058
        23 -11.7452     26.9850    138.2072   1.2984020295e+02   4.4201953830e+01    0.3644875    0.1998551 -63.68 0.0009098244    1.500    0.333
        24  -9.6109     24.2964    131.0536   1.2947877455e+02   4.6179606261e+01    0.1838914    0.1421483 -68.88 0.0003685094    1.119    0.106
        25 -11.6465     33.1031    128.6693   1.2647309837e+02   4.5941815574e+01    0.2746126    0.2319715 -76.49 0.0004942655    1.158    0.136
        26 -11.6694     25.7581    202.4197   1.3802838836e+02   2.8650899016e+01     0.292818    0.2227755 -70.55 0.0002179096    1.224    0.183
        27 -12.4900    239.9769    114.1695   7.2900482336e+01   1.0351214626e+01    0.4372573    0.3427239 -35.87  0.001518918    1.305    0.234
        28 -11.0057     43.3062    111.9476   1.2003506884e+02   4.8859627910e+01    0.3278474    0.2123971  13.41   0.00167949    1.874    0.466
        29  -9.5630     22.4950    112.0967   1.2673396342e+02   5.0820134811e+01    0.1783944    0.1562068 -52.36 0.0005739949    1.061    0.057
        30 -11.3984    248.8139    107.4406   7.0294180455e+01   9.8947540467e+00       0.3415    0.2873071  -0.30  0.001695583    1.784    0.440
        31 -10.9551    238.6345    110.1161   7.2255355553e+01   1.1344140741e+01    0.2308424    0.1986347  79.17 0.0003693858    1.257    0.205
        32 -16.2610      9.9573    229.7469   1.4344070246e+02   2.4117944218e+01     4.473854     1.439004 -73.72    0.0205713    2.589    0.614
        33 -12.8426    180.4913    246.2288   1.1015038243e+02  -4.3494356588e+00     0.247429    0.2395133  19.15  0.001287489    1.170    0.145
        34 -10.8059     33.7683    103.7295   1.2137801201e+02   5.1727970259e+01    0.3722037    0.1941828 -29.20  0.001018206    2.304    0.566
        35 -11.1610     50.9495    102.7206   1.1543710481e+02   5.0084873392e+01    0.2687797    0.2256007 -11.70 0.0003011634    1.242    0.195
        36 -11.7133    113.4881    246.7144   1.2423998459e+02   6.4542269476e+00    0.1556516    0.1300846 -67.58 0.0005316875    1.303    0.233
        37 -11.5051    110.2054    244.5878   1.2465535166e+02   7.4080751402e+00    0.2204363    0.1676957 -53.89  0.001261292    1.474    0.322
        38 -11.2974    163.1839    245.9900   1.1368516365e+02  -1.5276833078e+00    0.2029521    0.1554881  63.04 0.0009082011    1.645    0.392
        39 -10.7714    130.9504    245.5137   1.2039524659e+02   3.8546878057e+00    0.1546779    0.1204554  35.83 0.0008759127    1.191    0.161
        40  -9.7418    219.3730     92.3775   7.1298416852e+01   1.8425797935e+01     0.182023    0.1648953   4.49 0.0003418433    1.526    0.345
        41  -9.8441     59.9377     91.0696   1.0945566663e+02   5.1463147685e+01    0.2020812    0.1809268 -28.55 0.0002863387    1.014    0.014
        42 -10.7825    190.6621    249.4051   1.0860574278e+02  -6.4681419351e+00    0.2219076    0.1563509  12.38 0.0006406544    1.457    0.314
        43 -11.1630    116.5414    243.4544   1.2316595574e+02   6.6162028901e+00    0.1974805     0.132133 -66.75 0.0008638512    1.685    0.407
        44  -9.6902     84.8389    244.2514   1.2991520523e+02   1.1420739677e+01    0.1123273   0.08259688  81.87  0.000203254    1.362    0.266
        45 -11.6621     95.4401    240.9091   1.2730794243e+02   1.0500005040e+01    0.2542295    0.1680402 -61.02  0.001370835    1.607    0.378
        46 -11.5909     77.9787     85.3394   1.0187934439e+02   4.9933383270e+01    0.3880048    0.2529991  38.07  0.001195092    1.583    0.368
        47 -11.6646     20.7569    200.4991   1.3892570713e+02   2.9628319661e+01    0.2906539    0.2161289 -81.82 0.0002312948    1.106    0.096
        48  -9.9006    199.2635    241.4346   1.0556160609e+02  -6.4577947468e+00    0.1232161    0.1041063 -15.24 0.0002029138    1.135    0.119
        49 -10.7597     62.8201     77.7153   1.0469704965e+02   5.3754776471e+01       0.2328    0.1972152 -35.90 0.0004414105    1.128    0.113
        50 -10.1100    143.5525    241.6010   1.1715115013e+02   2.5296948970e+00    0.1375741    0.1156299  56.04 0.0003824476    1.206    0.171
        51  -9.9243    164.3718    250.2241   1.1409186311e+02  -2.4758517894e+00    0.1281178    0.1263083 -81.57 0.0001872447    1.201    0.167
        52 -11.2384     86.3218     66.9767   9.3658812853e+01   5.1899100421e+01    0.3118629    0.2181518  10.48  0.001070036    1.705    0.413
        53 -11.0401    169.0806     65.9272   7.3295306188e+01   3.4229366175e+01    0.2873194    0.1908378  60.62  0.001031483    1.430    0.301
        54  -9.9786     79.1704     65.8933   9.5580590721e+01   5.3336874048e+01    0.1966795    0.1791228 -37.50  0.001200805    1.211    0.174
        55 -11.5671    137.9943     63.9136   7.8997811881e+01   4.1725845101e+01    0.2686025    0.1946307  47.67 0.0003120568    1.316    0.240
        56 -12.5999    129.5554     61.8127   8.0315543779e+01   4.3946160660e+01    0.4019234    0.3482655 -64.09 0.0008980025    1.299    0.230
        57 -10.6985     76.3669    239.2032   1.3110446393e+02   1.3745681662e+01    0.1515804    0.1253812  78.86 0.0002812231    1.081    0.075
        58 -10.4571    115.0522    237.2475   1.2264246664e+02   8.1291415900e+00    0.1855074    0.1647712 -68.59  0.000399971    1.205    0.170
        59 -11.2259    174.9552    236.6569   1.0972626723e+02  -1.7560074340e+00    0.1837142    0.1699762   6.17 0.0007673021    1.046    0.044
        60 -11.4501    108.1392     60.9731   8.5440269712e+01   4.8666403220e+01     0.351014    0.2226154 -25.17  0.001140087    1.799    0.444
        61 -10.7380    122.0319     47.9904   7.7959131557e+01   4.7614999921e+01    0.2016034    0.1830971  45.26  0.001231505    1.004    0.004
        62 -10.0907     84.2531    233.2169   1.2875072919e+02   1.3866303983e+01    0.3457238    0.1421101 -59.57  0.001343048    2.456    0.593
