#   1 NUMBER                 Running object number                                     
#   2 MAG_AUTO               Kron-like elliptical aperture magnitude                    [mag]
#   3 X_IMAGE                Object position along x                                    [pixel]
#   4 Y_IMAGE                Object position along y                                    [pixel]
#   5 X_WORLD                Barycenter position along world x axis                     [deg]
#   6 Y_WORLD                Barycenter position along world y axis                     [deg]
#   7 A_WORLD                Profile RMS along major axis (world units)                 [deg]
#   8 B_WORLD                Profile RMS along minor axis (world units)                 [deg]
#   9 THETA_WORLD            Position angle (CCW/world-x)                               [deg]
#  10 FWHM_WORLD             FWHM assuming a gaussian core                              [deg]
#  11 ELONGATION             A_IMAGE/B_IMAGE                                           
#  12 ELLIPTICITY            1 - B_IMAGE/A_IMAGE                                       
         1 -15.1517     15.4584    159.5730   1.4289275865e+02   4.0146379190e+01     10.72672     4.613663  76.98   0.04571209    3.235    0.691
         2 -13.3095    195.8200     30.0264   6.8322442470e+01   3.2809966681e+01     1.331187     1.110408  62.86  0.006618696    1.170    0.146
         3 -13.5379    211.3438     10.5909   6.1765455669e+01   3.1318007689e+01     1.286374    0.9571967  39.53  0.007208649    1.779    0.438
         4 -11.9324      2.7081      4.8298   1.1364540444e+02   7.1735988807e+01    0.4680322    0.2409612 -48.04  0.002974789    2.250    0.555
         5 -12.3105     11.5161    240.4462   1.4981092534e+02   2.3584320245e+01    0.5777939    0.2685202  75.64  0.002731696    1.782    0.439
         6 -11.8647    237.6518    248.7458   1.0958575273e+02  -1.2436394417e+01    0.5092283    0.1734833  36.15  0.002295102    2.558    0.609
         7 -11.7965    139.8720    249.2577   1.2789119476e+02   3.6483171145e+00    0.4035414    0.3160788  63.62  0.002560529    1.214    0.176
         8 -11.5024    124.3593    249.9736   1.3089561882e+02   6.1335068214e+00    0.5095844    0.1531533  42.94  0.002047515    2.734    0.634
         9 -11.2554     99.7862    249.2043   1.3535428243e+02   1.0244713842e+01    0.4076396    0.2583241  58.75  0.002441741    1.307    0.235
        10 -11.7102     96.9877    245.4830   1.3547602910e+02   1.1361562075e+01    0.5917047    0.1305242  42.72  0.002126539    3.675    0.728
        11  -9.4161     66.6836    250.1128   1.4133602971e+02   1.4994792457e+01    0.1934322    0.1216733  60.01 0.0003139691    1.243    0.195
        12 -11.2805     29.2844    248.5083   1.4746267496e+02   2.0097744257e+01    0.3897231    0.2582494  89.86  0.002700583    1.238    0.192
        13 -11.6785     34.8222    244.2626   1.4628133796e+02   2.0234465119e+01    0.4661923    0.3408045 -82.66  0.003400886    1.311    0.237
        14 -11.2148     14.6788    249.6925   1.4983164803e+02   2.1528833027e+01    0.4836384    0.1825027  39.24  0.002715186    2.716    0.632
        15 -10.8390      1.6506    242.1796   1.5143694659e+02   2.4272645622e+01     0.511014    0.1007852 -73.95  0.002267903    3.908    0.744
        16 -10.5226      2.4973    249.6653   1.5167908998e+02   2.2814677200e+01    0.2957451    0.1600147  47.86   0.00210526    1.691    0.409
        17 -10.6119      3.4865    246.4939   1.5137409123e+02   2.3292153661e+01    0.2264038    0.1560393  53.58  0.001053143    1.427    0.299
        18 -10.7149     19.4764    242.5030   1.4866455394e+02   2.2337437159e+01    0.1953143    0.1375023  74.72 0.0007547328    1.031    0.030
        19 -10.7196    234.7529    238.8772   1.0844901637e+02  -1.0722690649e+01    0.2042584    0.1707254 -48.14  0.001337516    1.688    0.408
        20 -10.2505    185.8372    238.8492   1.1759381514e+02  -2.6253178679e+00    0.1751461    0.1428958  56.00 0.0004477238    1.329    0.247
        21 -11.2385    119.7349    238.2167   1.3034483820e+02   9.0061988790e+00    0.3146875     0.175943 -68.65  0.001601408    2.155    0.536
        22  -9.2455     23.3099    236.3474   1.4765692789e+02   2.3082673845e+01   0.09717237   0.07775006 -63.38 0.0007044936    1.708    0.415
        23 -10.6187     50.4498    235.0332   1.4291689560e+02   2.0058162738e+01    0.2559687    0.1936242 -64.48  0.001694071    1.588    0.370
        24 -12.9612      9.2505    206.9241   1.4810969978e+02   3.0439353326e+01    0.9042342    0.6284054  67.17  0.004155457    1.212    0.175
        25 -10.7829    249.3502    249.1097   1.0758740700e+02  -1.4183768408e+01    0.2698357    0.1689112  21.14  0.001683874    1.382    0.276
        26 -11.2918      6.7808    227.3287   1.4982039158e+02   2.6585194764e+01    0.3606467    0.2265348  23.94   0.00227965    2.799    0.643
        27 -12.6571     33.9378    231.6565   1.4553851933e+02   2.2771734913e+01    0.2912008    0.2338047 -78.93 0.0007691323    1.361    0.266
        28  -9.7838      6.9902    215.0962   1.4904228867e+02   2.8990860140e+01    0.1688677    0.1237428  85.59 0.0005760875    1.078    0.073
        29  -8.6848    152.5173    212.9726   1.2011996080e+02   7.9345135507e+00    0.1798835    0.1388443 -54.53 0.0003533401    1.437    0.304
        30  -9.5246     34.6949    202.4991   1.4303705728e+02   2.8693135818e+01    0.1989883    0.1533177  79.59 0.0001743367    1.039    0.038
        31 -11.5221     60.7442    197.9138   1.3735270209e+02   2.6446815268e+01    0.2779659    0.2259544 -59.20 0.0005345344    1.422    0.297
        32  -9.7030    192.9769    194.8603   1.0848399414e+02   3.5713302789e+00    0.6922198    0.3356852 -64.82  0.001466079   10.428    0.904
        33 -10.3252    230.6741    231.9930   1.0800386212e+02  -9.1432216997e+00     0.249102    0.2005313 -72.35  0.001160767    2.304    0.566
        34 -11.8017     67.0241    189.7140   1.3504757899e+02   2.7414866883e+01    0.2845043    0.2278037 -62.50 0.0004301937    1.317    0.241
        35 -13.7562     39.6231    224.0764   1.4395353017e+02   2.3604346586e+01    0.7542588    0.5587672  78.41  0.002418559    1.010    0.010
        36 -10.8460     77.2066    177.0576   1.3106961762e+02   2.8844704150e+01    0.2496985    0.2157157 -77.55 0.0003786812    1.090    0.083
        37 -13.1655     63.9431    174.9747   1.3381031858e+02   3.1217512439e+01    0.5106045    0.2792008 -46.16  0.001732118    2.283    0.562
        38  -8.9772     97.5703    173.2121   1.2573002980e+02   2.6509561421e+01    0.2713614     0.162054 -47.23 0.0005468054    1.856    0.461
        39 -11.7159     84.6158    167.7508   1.2790627475e+02   2.9891277811e+01    0.6571788    0.5830852 -75.46  0.003878816    1.075    0.070
        40  -9.8031     97.5381    152.0944   1.2197264871e+02   3.1490016725e+01    0.2861001    0.2589064 -60.45 0.0008259332    1.104    0.094
        41 -12.0212     86.0961    151.1696   1.2469263280e+02   3.3591357101e+01    0.3057837    0.2480378 -47.06 0.0005866799    1.307    0.235
        42  -9.9461    228.4167    228.1733   1.0774955302e+02  -8.2388819652e+00    0.2482368    0.2101178 -60.49 0.0008804069    1.774    0.436
        43  -8.6931    100.4891    147.9630   1.2042016170e+02   3.1962123453e+01    0.2133963     0.137267 -53.86 0.0004236124    1.485    0.327
        44 -12.2579     67.4409    143.6992   1.2813745503e+02   3.8126098437e+01    0.6973763    0.4640223  69.38  0.003177471    1.790    0.441
        45  -8.3791    192.2202    144.0176   9.7843401613e+01   1.3727442141e+01    0.1924999    0.1245315 -41.80 0.0003500123    1.533    0.348
        46  -9.4918    109.3512    137.2095   1.1589096639e+02   3.2909569996e+01    0.3806053    0.2580571 -22.94  0.001591593    2.262    0.558
        47 -10.1670     54.9203    229.7412   1.4166528447e+02   2.0519638562e+01    0.3135974    0.1494443  61.89  0.001646543    1.918    0.479
        48 -10.3516     96.5623    134.3784   1.1864688919e+02   3.5859103271e+01    0.2626976     0.231685 -30.26 0.0003947945    1.282    0.220
        49  -9.6309     79.6492    131.7516   1.2264669069e+02   3.9209534022e+01    0.2480784    0.2008487  67.16 0.0004504017    1.355    0.262
        50 -10.1558     31.9793    131.9642   1.3546910421e+02   4.4983344740e+01    0.1939983    0.1621763 -73.54 0.0007730593    1.032    0.031
        51 -10.4569     55.8399    129.0705   1.2861287966e+02   4.3087617527e+01    0.2150867    0.1730871  87.69  0.001250318    1.302    0.232
        52 -11.1841     23.3775    126.9876   1.3698874060e+02   4.6895892824e+01    0.2799242    0.1995534  34.69 0.0005785046    1.690    0.408
        53  -8.9125    106.6239    123.9072   1.1359618344e+02   3.6514596545e+01    0.2003969    0.1743897 -54.05 0.0003760007    1.097    0.088
        54 -10.2840    167.8582    112.9277   9.5518092544e+01   2.5780404272e+01    0.3600906    0.2876224 -82.57  0.000863218    1.508    0.337
        55  -9.1685    203.4954    111.5161   8.7795428432e+01   1.7625353541e+01    0.1514976     0.147626 -53.91 3.829807e-05    1.037    0.035
        56 -10.3109    242.7590     92.7693   7.6787184105e+01   1.2103126680e+01    0.2433932   0.09291889 -47.17 0.0008990525    2.479    0.597
        57  -8.7127    184.3623     77.3170   8.2644719580e+01   2.8587022625e+01    0.1567253    0.1183074  24.27 0.0007041722    1.766    0.434
        58  -8.9208    157.6810     77.2984   8.8105884787e+01   3.5144336557e+01    0.1543253    0.1190057 -80.49 0.0003025065    1.617    0.382
        59  -9.3804     43.2871     67.7151   1.1857541092e+02   5.7900014636e+01    0.2166244    0.1495216  45.69 0.0009510672    1.934    0.483
        60 -11.0200    154.2657    228.6106   1.2221345993e+02   4.7106170720e+00    0.4757184    0.1179629  38.26  0.001409098    4.440    0.775
        61 -10.7582     14.6501     55.0879   1.2553362613e+02   6.2789304972e+01     0.209216    0.1651347  18.59 0.0008675769    1.515    0.340
        62  -8.9961     32.0150     62.2891   1.2107597067e+02   6.0052448529e+01    0.1597888    0.1398063 -17.40 0.0007581943    1.144    0.126
        63 -10.7241      2.6603     38.7946   1.2571337045e+02   6.6470639586e+01    0.2487741     0.122743 -45.45  0.001566799    1.468    0.319
        64 -10.3945     46.2704    248.7661   1.4469930532e+02   1.7971372936e+01    0.3036681    0.1365508  70.80  0.001415541    2.184    0.542
        65 -10.7779    198.9065    246.1577   1.1625807109e+02  -5.9487259821e+00    0.1912998    0.1581473  48.74   0.00123335    1.289    0.224
