#   1 NUMBER                 Running object number                                     
#   2 MAG_AUTO               Kron-like elliptical aperture magnitude                    [mag]
#   3 X_IMAGE                Object position along x                                    [pixel]
#   4 Y_IMAGE                Object position along y                                    [pixel]
#   5 X_WORLD                Barycenter position along world x axis                     [deg]
#   6 Y_WORLD                Barycenter position along world y axis                     [deg]
#   7 A_WORLD                Profile RMS along major axis (world units)                 [deg]
#   8 B_WORLD                Profile RMS along minor axis (world units)                 [deg]
#   9 THETA_WORLD            Position angle (CCW/world-x)                               [deg]
#  10 FWHM_WORLD             FWHM assuming a gaussian core                              [deg]
#  11 ELONGATION             A_IMAGE/B_IMAGE                                           
#  12 ELLIPTICITY            1 - B_IMAGE/A_IMAGE                                       
         1 -14.6266     68.3933    144.4133   1.1164129295e+02   3.7153171302e+01      5.08597     2.497336  68.86  0.003510426    3.392    0.705
         2 -14.2222      6.4329     19.5030   1.0352730035e+02   7.0531729679e+01     3.705091    0.5955119 -49.74    0.0147821    3.432    0.709
         3 -11.3618     42.2050      4.2394   7.8842250777e+01   6.9358884023e+01     0.317846    0.2056701 -41.32  0.001586762    1.928    0.481
         4 -14.6132    198.4360     33.4675   5.1129895257e+01   3.1180121126e+01       2.5559     1.625426  27.09   0.00884221    2.180    0.541
         5 -14.5216    210.1726     20.0399   4.5885554053e+01   2.9806089670e+01     1.653941     1.191649  14.10  0.008294732    1.907    0.475
         6 -10.2577     71.5000    230.1958   1.2079687749e+02   1.8863137176e+01    0.2350872    0.1543372  53.05 0.0005990544    1.229    0.186
         7 -16.0919     78.4917    244.0120   1.2071943692e+02   1.5555328156e+01     8.286988     2.346891  37.52   0.03471849    3.705    0.730
         8 -15.1033     47.1984    207.4383   1.2333109129e+02   2.6182653491e+01     2.315641    0.9932905  46.09  0.009143842    1.983    0.496
         9 -14.4028     54.9518    197.9375   1.2104875844e+02   2.7134514687e+01     1.141371    0.8723459  63.86  0.005589186    1.115    0.103
        10  -9.6647    107.9991    203.5446   1.1110244960e+02   1.8471294182e+01    0.1802552    0.1586704  88.74 0.0002018532    1.138    0.121
        11  -9.4641     95.9817    200.9994   1.1321020126e+02   2.0840499142e+01    0.1911097    0.1566091  68.26 0.0003661795    1.043    0.041
        12 -10.8333    204.3208    199.1322   9.1239924474e+01   2.2789298438e+00    0.2412549    0.1612115  29.06 0.0008594955    1.365    0.267
        13  -9.3342    154.3872    195.7272   1.0049380292e+02   1.1951761264e+01    0.3441703    0.2002593  76.44  0.001171691    4.532    0.779
        14  -9.0865    101.4981    194.9665   1.1132387819e+02   2.1180844393e+01    0.1817302    0.1036027  88.30 0.0008095893    2.541    0.607
        15 -16.4185      9.3212    244.1885   1.3177455131e+02   2.3598387839e+01     1.890501     1.521819  60.27    0.0168928    1.401    0.286
        16  -9.7607     96.7428    192.8508   1.1203730991e+02   2.2349242966e+01    0.2779412    0.2070051  15.35  0.001463929    2.101    0.524
        17 -16.6629      6.7233    210.7863   1.3068380703e+02   2.9788525315e+01     7.651345     1.238488 -73.78   0.03154016    4.496    0.778
        18 -10.1246     44.0614    186.5903   1.2217166183e+02   3.0769700852e+01    0.2600311    0.1209035  84.83  0.001245639    2.420    0.587
        19  -9.6310    150.7982    182.7331   9.9030861497e+01   1.5014617604e+01    0.1869061    0.1561145  71.98 0.0006213606    1.331    0.249
        20 -10.9191    208.0402    179.8873   8.6868409968e+01   4.5678137722e+00     0.628769    0.3343616  27.08  0.002727428    2.173    0.540
        21 -12.1616     69.7618    180.1002   1.1616362694e+02   2.8943131011e+01     0.427511    0.2640749 -45.62  0.001908737    2.179    0.541
        22 -11.9570     74.1383    174.7527   1.1455981690e+02   2.9499654729e+01    0.2855414    0.2254103 -57.81 0.0006399458    1.384    0.278
        23  -9.7893     99.5708    180.6647   1.0978155954e+02   2.4423677322e+01    0.2211738    0.1897269  49.26 0.0006753767    1.168    0.144
        24  -9.4975     60.3200    223.3100   1.2221498648e+02   2.1560526787e+01    0.1816596    0.1702187   9.24 0.0007498444    1.743    0.426
        25 -10.0493    143.9978    178.4988   9.9739963497e+01   1.7108210701e+01    0.2248902    0.1288115  43.77  0.001040056    1.613    0.380
        26  -9.5101    167.6069    175.4596   9.4137562042e+01   1.3159085211e+01    0.3662243    0.2356942 -78.84  0.001417976    3.241    0.691
        27 -11.3542    136.3699    171.4791   1.0015870813e+02   1.9942997182e+01    0.5598011     0.282299  31.63   0.00223044    2.465    0.594
        28 -12.4833     89.1618    157.8660   1.0870950923e+02   3.1052035727e+01     1.177921    0.6009166 -65.69  0.002625035    1.973    0.493
        29 -12.4890     82.9355    164.6493   1.1120223949e+02   3.0468270610e+01    0.6715918    0.4405605  65.70 0.0005751903    1.589    0.371
        30 -13.6624     70.9560    160.6038   1.1340306773e+02   3.3083633763e+01    0.6491123    0.5084292 -34.85   0.00182655    1.760    0.432
        31 -10.0996    174.2001    248.5456   1.0446427073e+02   4.2850248216e-01    0.2069986    0.1603334  57.91 0.0008303837    1.447    0.309
        32 -10.6405    231.6130    169.2197   8.0298249040e+01   1.8184335702e+00    0.1962915    0.1196296 -20.89 0.0009553466    1.688    0.407
        33 -10.0745    146.0053    168.4934   9.7471879946e+01   1.8717609486e+01    0.2151245     0.194563 -54.87 0.0004216933    1.168    0.144
        34 -10.8481     32.6508    165.5300   1.2259169936e+02   3.6531867370e+01    0.2358584    0.1240628 -79.83 0.0008309624    1.618    0.382
        35  -9.5596     53.7068    163.3950   1.1771725062e+02   3.4670714045e+01    0.1516599    0.1226291  27.64  0.000943117    1.600    0.375
        36  -9.9626    190.1401    160.8852   8.6486290409e+01   1.1315488107e+01    0.2108193    0.2022484 -82.04 0.0006347446    1.240    0.193
        37 -10.6206     62.3037    220.9718   1.2167032846e+02   2.1738624796e+01    0.4095051    0.1814163  76.12  0.001905832    2.965    0.663
        38 -10.5770    190.3660    155.0849   8.5182092519e+01   1.2321127599e+01     0.295031    0.2208636  50.60  0.001471145    1.390    0.281
        39 -10.9347    133.7225    143.8178   9.5341380930e+01   2.6318437387e+01     1.130928     0.264649 -53.21  0.002764068    5.614    0.822
        40 -10.5008    174.5533    148.2830   8.7000564216e+01   1.6932718763e+01    0.3840703    0.2841674 -51.30  0.001153993    1.476    0.322
        41 -10.1595     41.2387    147.2442   1.1867275988e+02   3.9752906130e+01       0.2763    0.1713245 -84.57 0.0008662851    1.452    0.311
        42 -10.8362     44.3603    144.5680   1.1758759500e+02   4.0033797097e+01    0.3108914      0.21175  49.75  0.001815835    1.524    0.344
        43 -10.2883     86.7286    145.5785   1.0725758776e+02   3.4241777786e+01    0.2704407    0.2126862  67.00 0.0006586333    1.292    0.226
        44 -12.4588     90.4802    142.2139   1.0571862220e+02   3.4436736227e+01      0.27686    0.2522834 -50.64 0.0004789232    1.184    0.156
        45 -10.9484    103.1002    141.8226   1.0246567029e+02   3.2445529634e+01    0.5776495    0.3490738 -30.08  0.002339147    2.667    0.625
        46 -10.5207    163.8162    215.0135   1.0166713396e+02   7.0047167033e+00     0.286412    0.2130082 -63.75  0.001611509    1.774    0.436
        47 -10.1992    111.9901    131.5224   9.8086993082e+01   3.3231710403e+01     0.315979    0.2488135  -0.08 0.0008420058    1.801    0.445
        48 -10.1847    105.9796    130.6843   9.9459949596e+01   3.4509751392e+01    0.3080486    0.2817945 -83.23  0.001274625    1.071    0.066
        49 -10.5262     46.8902    171.9363   1.2016595414e+02   3.3581994109e+01    0.3750739    0.2197647 -82.04  0.001678951    1.523    0.343
        50 -10.9400    135.2923    121.7344   8.9880435608e+01   3.0848123164e+01    0.7367778     0.140346 -50.29  0.001512621    7.114    0.859
        51 -10.6488    117.5607    126.2339   9.5469266809e+01   3.3394835360e+01    0.6437706    0.3166609 -58.57  0.002445617    2.279    0.561
        52 -11.0687    120.6651    122.0053   9.3675443623e+01   3.3752283101e+01    0.4837067    0.2588724 -27.02   0.00157276    3.516    0.716
        53 -10.4142     33.0275    130.5306   1.1859772805e+02   4.4445003623e+01    0.2117616    0.1390504 -73.40  0.001090523    1.239    0.193
        54 -11.2025     99.0923    128.0910   1.0071327855e+02   3.6310073545e+01    0.3210073    0.2561393 -24.49 0.0007190575    1.583    0.368
        55 -10.4456    161.0860    127.4500   8.5104876093e+01   2.4050925428e+01     0.405172    0.2575862 -60.05  0.001653506    1.996    0.499
        56 -10.3950    125.8608    127.5418   9.3648646129e+01   3.1482650075e+01    0.3078234    0.1978063 -66.93 0.0008347797    1.933    0.483
        57 -10.9718    135.5489    128.0948   9.1354754708e+01   2.9397936798e+01    0.4925628    0.1801813 -53.73  0.001524272    3.267    0.694
        58  -9.5937    164.2983    205.7554   1.0013131247e+02   8.4302548677e+00    0.1923238     0.161035 -47.85 0.0003488226    1.386    0.278
        59 -12.4192     45.9718    115.8520   1.1293117544e+02   4.6594907895e+01    0.5435324    0.2909401  46.87  0.002721623    2.124    0.529
        60 -12.3345     43.6624    109.0114   1.1240331323e+02   4.8451027234e+01    0.4080339    0.3570569 -74.08  0.001326389    1.064    0.060
        61 -12.1001    194.1390    195.0915   9.2451910943e+01   4.7423553465e+00     0.984383    0.5819108 -60.86  0.004185728    3.194    0.687
        62 -11.5480     23.7234    116.9240   1.1923836828e+02   4.8430407360e+01     0.285865    0.1702712 -70.45 0.0006953157    1.324    0.245
        63  -9.8230    108.0795    120.0529   9.6532282533e+01   3.6582916479e+01    0.2118601    0.2024371 -68.16 0.0003235045    1.010    0.010
        64 -10.3968    167.8209    112.5875   7.9771056800e+01   2.5552636862e+01    0.4053115    0.3109426 -75.79  0.001562526    1.754    0.430
        65  -9.6142    134.9976    112.5297   8.7620881418e+01   3.2923028416e+01    0.2921848    0.1551356 -39.04  0.001130494    1.945    0.486
        66 -11.4790    119.2390    109.9836   9.1068581844e+01   3.6737556377e+01    0.5515441    0.4062548 -86.84  0.002441412    1.912    0.477
        67 -10.2757    205.3605    110.2196   7.1382363298e+01   1.7230044678e+01    0.3618742    0.2294527  36.45  0.001164185    1.744    0.427
        68 -10.9658    195.1307    168.7150   8.7125718278e+01   8.9259809853e+00    0.3364303    0.3309708 -88.12 0.0008071536    1.217    0.178
        69 -10.5288    134.6881    103.5757   8.5304071034e+01   3.4923538113e+01    0.5565203    0.2007241 -41.79  0.001796892    2.746    0.636
        70 -11.6846    241.9524    101.3022   6.2874642233e+01   1.0537081852e+01    0.3064584     0.216076 -19.48   0.00151965    1.436    0.304
        71  -9.6923     86.6472     99.5801   9.7597546790e+01   4.5006606541e+01      0.22095    0.1707887  53.63 0.0006791092    1.469    0.319
        72 -10.0082    121.5169     98.8875   8.7479726916e+01   3.8724866183e+01    0.2364156    0.1474745 -45.36 0.0006678354    1.542    0.351
        73 -11.2316     52.5636     93.9882   1.0671887506e+02   5.1004782200e+01    0.4676143    0.2877851  57.41  0.002298771    2.191    0.543
        74  -9.6556    157.4487     79.9977   7.2857531937e+01   3.4395537284e+01    0.2400462    0.1532577 -36.27 0.0005009895    1.543    0.352
        75  -9.1866     58.9647     67.4835   9.7703702714e+01   5.6161923354e+01     0.178197    0.1116648  58.07 0.0008101298    2.589    0.614
        76  -8.9141    196.3252    245.2596   1.0013461573e+02  -2.6485843764e+00    0.1170846   0.07451011  21.46  0.000149639    1.556    0.357
        77  -8.8154    136.9722     35.2220   6.2603186752e+01   4.6761857014e+01    0.1878932    0.1177529  56.97 0.0003519996    1.564    0.361
        78 -10.9219     13.4110     59.7948   1.1245013843e+02   6.2099949264e+01    0.2268317    0.1925592 -70.42 0.0004237177    1.228    0.185
        79  -9.4511    170.6048     20.1910   5.1147559100e+01   4.0005548297e+01    0.1877559    0.1394686  -4.35 0.0003601293    1.577    0.366
        80 -11.1434    153.1379     48.3354   6.3649439358e+01   4.0847952602e+01    0.3747176    0.2939298 -75.66  0.001368575    1.604    0.377
        81 -10.6723    189.8078     15.1419   4.6925674220e+01   3.5556725937e+01    0.2170783    0.1830129 -65.97 0.0006811224    1.186    0.156
        82 -10.9335    151.3775     54.7334   6.6169373243e+01   4.0296150666e+01    0.3667699    0.2849847 -80.77 0.0005019457    1.679    0.404
        83 -12.4614    189.5678     39.9240   5.4329010154e+01   3.2628438176e+01    0.7842402    0.5347188  49.85  0.001184104    1.482    0.325
        84  -9.2527    155.2101     10.4895   5.0356389451e+01   4.5000625857e+01    0.1918374    0.1309797  83.98 0.0005027248    1.609    0.378
        85 -12.6683     16.7787    198.3327   1.2824985464e+02   3.1243678704e+01    0.4132468    0.1857597  58.28 0.0006181938    1.863    0.463
        86 -13.0996     18.5266    191.9888   1.2752633226e+02   3.2343104590e+01    0.3382971    0.2366128  60.53 0.0004995269    1.244    0.196
