#   1 NUMBER                 Running object number                                     
#   2 MAG_AUTO               Kron-like elliptical aperture magnitude                    [mag]
#   3 X_IMAGE                Object position along x                                    [pixel]
#   4 Y_IMAGE                Object position along y                                    [pixel]
#   5 X_WORLD                Barycenter position along world x axis                     [deg]
#   6 Y_WORLD                Barycenter position along world y axis                     [deg]
#   7 A_WORLD                Profile RMS along major axis (world units)                 [deg]
#   8 B_WORLD                Profile RMS along minor axis (world units)                 [deg]
#   9 THETA_WORLD            Position angle (CCW/world-x)                               [deg]
#  10 FWHM_WORLD             FWHM assuming a gaussian core                              [deg]
#  11 ELONGATION             A_IMAGE/B_IMAGE                                           
#  12 ELLIPTICITY            1 - B_IMAGE/A_IMAGE                                       
         1 -17.1534    243.8232    185.2969   8.2597965750e+01   2.5718550987e+00     2.393304     1.020161 -26.75   0.01307212    2.300    0.565
         2 -15.0526     68.0048    144.1816   1.1180586139e+02   3.7804109116e+01      5.52597     1.924444  55.31   0.01896795    3.981    0.749
         3 -14.3529    195.9209     34.2330   5.3888204706e+01   3.1056359776e+01     1.775595     1.229563  23.45  0.005940643    1.765    0.433
         4 -14.4701    206.5291     21.5416   4.8907756919e+01   2.9792609610e+01     1.533785      1.00028   6.93   0.00552594    1.928    0.481
         5 -11.0139     32.8085     10.6262   8.8879114929e+01   7.2379229557e+01     0.255201   0.08581162 -42.66  0.001018872    2.601    0.615
         6  -9.4891     64.1408      9.1461   7.2367781644e+01   6.7268658776e+01    0.1782151    0.1640243 -58.54 0.0006092901    1.340    0.254
         7 -10.2611     47.3422      3.3174   7.6249669690e+01   7.1278868659e+01    0.1382919   0.09340174   7.49 0.0004679546    1.714    0.417
         8 -10.7249     40.5117      3.4963   7.9940793753e+01   7.2415736822e+01    0.1310563    0.1111568 -11.49 -3.270671e-05    1.020    0.020
         9 -10.6996     61.7162      1.5418   6.8675671682e+01   6.8756713895e+01    0.2505894     0.120723  48.33 0.0005885035    2.030    0.507
        10  -9.9350    108.0243    203.6946   1.0990037553e+02   2.0858405793e+01    0.1658842     0.123465  42.30  0.000257986    1.086    0.079
        11 -16.4057     75.9209    245.8565   1.1949561385e+02   1.8626853972e+01     8.249152     1.883456  32.72   0.02534136    4.797    0.792
        12 -11.4913    209.4547    178.5057   8.6930789805e+01   8.5506198865e+00    0.3119623    0.2432764  33.13  0.001242761    1.210    0.174
        13 -10.0317    151.3612    183.1694   9.8485381204e+01   1.7455985327e+01    0.1543761    0.1191402 -60.33 0.0007975763    1.710    0.415
        14 -12.1118     72.2006    179.4611   1.1488962864e+02   3.0042484253e+01    0.3948233    0.2772852 -29.07  0.001438224    2.435    0.589
        15 -11.9790     76.1330    174.3102   1.1346420704e+02   3.0514512990e+01    0.2513768     0.235159 -21.60 0.0008350462    1.433    0.302
        16 -10.4060     99.5656    180.7059   1.0899238007e+02   2.6015042043e+01    0.2133087    0.1669555  40.41 0.0005671221    1.146    0.127
        17 -10.8167    144.1728    179.1773   9.9319274445e+01   1.9265590319e+01    0.1761485    0.1371203  54.20 0.0009652707    1.324    0.245
        18  -9.1395    166.2729    173.5989   9.3984676149e+01   1.6415725661e+01    0.1833109    0.1497997  76.18  0.000806599    1.790    0.441
        19  -9.0465    168.2734    176.6173   9.4105220101e+01   1.5626524882e+01    0.1697761    0.1559355 -71.05 0.0006288512    1.471    0.320
        20 -12.7535     90.8460    157.2748   1.0789757508e+02   3.1801845071e+01      1.47389    0.7929494 -80.61  0.002148088    2.723    0.633
        21 -12.6231     84.4410    164.3381   1.1036710527e+02   3.1324492621e+01    0.7695491    0.3449253  55.25 0.0006956333    2.434    0.589
        22 -13.7109     72.7901    160.1817   1.1262934805e+02   3.3782368547e+01    0.5372487    0.4983248 -16.03  0.002240965    1.432    0.302
        23 -16.2365     53.2962    203.4519   1.2090804462e+02   2.7940780007e+01     3.885624     2.467593  56.22   0.01837131    1.242    0.195
        24  -9.6290    155.5053    196.9833   9.9726058589e+01   1.4744339968e+01    0.1424875    0.1062092 -86.57 0.0005597358    2.399    0.583
        25 -10.5651    190.2877    160.7528   8.7085270035e+01   1.4111174921e+01    0.2105945    0.1995099 -62.57 0.0009025022    1.445    0.308
        26 -10.8990    189.6787    154.9375   8.6076151764e+01   1.5049857249e+01    0.3297535    0.2957552  71.23  0.002046139    1.535    0.349
        27 -11.4728    133.8449    144.3983   9.5580026676e+01   2.7117529750e+01    0.9131365    0.2438654 -51.98  0.002756632    4.866    0.794
        28 -11.9329     54.0067    148.1051   1.1589843245e+02   3.8730522950e+01    0.3863094    0.2913539 -82.73  0.002407309    1.256    0.204
        29 -10.1625    174.9831    149.0011   8.7716451442e+01   1.8644105916e+01    0.2094713    0.1867466  26.16 0.0006131665    1.034    0.033
        30 -12.3292     44.4469    147.9440   1.1832978253e+02   3.9868569678e+01    0.5083014    0.3210547   5.50  0.001404135    2.755    0.637
        31 -10.4055     86.8722    145.5855   1.0716546523e+02   3.4810606272e+01     0.240503    0.2019598  83.85  0.000545406    1.184    0.155
        32 -10.9034    104.4206    141.3181   1.0205459831e+02   3.2904427733e+01    0.4673863    0.3098009 -23.60  0.002131098    2.514    0.602
        33 -12.4049     91.7061    141.9331   1.0536414981e+02   3.4836967561e+01    0.2414011    0.2397745  88.02 0.0004762694    1.150    0.131
        34 -11.9550    249.4167    134.1112   7.1986171450e+01   7.2394899615e+00    0.5540674     0.237006 -26.49   0.00269182    2.084    0.520
        35 -13.4461     22.8629    194.1219   1.2651699335e+02   3.2799724234e+01    0.5595974    0.3242497  51.92 0.0005530131    1.306    0.234
        36 -10.1895    112.6402    131.4771   9.8166284618e+01   3.3507840000e+01    0.2611519    0.2218127  12.19 0.0008393166    1.411    0.291
        37 -10.2742    106.0433    130.7616   9.9706901436e+01   3.4820535220e+01    0.3009512    0.2664824  67.70  0.001177771    1.115    0.103
        38 -17.5208      5.6035    239.2069   1.3122411329e+02   2.6818283424e+01     10.77157     1.318659 -81.41   0.01612606    7.911    0.874
        39 -11.1243    100.0706    127.9606   1.0072404175e+02   3.6442826431e+01    0.3115779    0.2446107 -37.12 0.0006819597    1.492    0.330
        40 -12.8162     44.6232    128.1329   1.1609183930e+02   4.4273733137e+01    0.5424458    0.3114964  66.96  0.002710121    1.827    0.453
        41 -11.4767    135.2912    121.7038   9.0519605834e+01   3.1176539005e+01    0.6908997    0.1432902 -49.94   0.00159584    7.002    0.857
        42  -9.4937    164.0515    205.2841   9.9294838649e+01   1.2279746438e+01    0.1626111    0.1259538  34.25 0.0004346694    1.047    0.045
        43  -9.8803    125.9350    127.4182   9.4033670114e+01   3.1875156957e+01    0.2668329    0.1989047 -71.77 0.0008411689    1.676    0.403
        44 -11.8624     15.9484    122.4581   1.2370854162e+02   4.8309356949e+01    0.3424264    0.1812851  43.56  0.001918718    1.778    0.438
        45  -9.8868    108.7643    119.9515   9.6805086274e+01   3.6616246538e+01    0.1918623    0.1865937   3.43  0.000370085    1.127    0.113
        46 -11.0230    195.2728    168.8851   8.7690864802e+01   1.2125865285e+01    0.2918655    0.2519109  28.59 0.0007252189    1.138    0.121
        47 -10.2959    145.5373    168.4882   9.7320674902e+01   2.0782551017e+01    0.1298615    0.1134378  35.73 8.239927e-05    1.003    0.003
        48 -11.7721     45.4885    116.3430   1.1429093583e+02   4.6910479137e+01    0.2268454    0.2113536  56.86 0.0009061274    1.156    0.135
        49 -10.1147    167.7921    112.6318   8.1098577018e+01   2.6080570868e+01     0.352402    0.2500692 -71.86   0.00156007    2.275    0.560
        50 -11.2336    118.3819    126.3802   9.5686722900e+01   3.3505638971e+01    0.5367459    0.2677307 -39.60  0.002202457    2.389    0.581
        51 -12.1705     40.6045    108.7663   1.1471845295e+02   4.9235895527e+01    0.4805495     0.163681 -55.70  0.001942514    2.718    0.632
        52 -11.1425    118.6563    110.3961   9.2047581509e+01   3.6746807339e+01    0.5945625    0.2954592  49.75  0.002415751    2.069    0.517
        53 -12.0144     53.6575    109.8761   1.1079605862e+02   4.7465890511e+01    0.4229704    0.2844962  74.45   0.00214266    1.621    0.383
        54 -10.0563    205.6328    110.1349   7.3378375885e+01   1.8475022571e+01    0.2540524    0.1912545  36.15 0.0005911936    1.313    0.238
        55  -9.9211    134.5282    102.9488   8.6167106849e+01   3.5000035442e+01    0.2271087    0.1460215 -42.66 0.0008569231    1.580    0.367
        56 -15.0774     10.7546    206.4387   1.2938782521e+02   3.1702747277e+01    0.6383955    0.5377445  30.70  0.002356737    1.509    0.337
        57 -11.1245    241.6995    101.1572   6.5770645942e+01   1.2516132450e+01    0.2133267    0.1477005 -35.26 0.0009779986    1.407    0.289
        58 -10.3573     86.5255     99.4914   9.8518637627e+01   4.5053867915e+01    0.2713341    0.2209222  73.76   0.00143993    1.344    0.256
        59  -9.9211     53.3309     95.6787   1.0835421653e+02   5.0879964714e+01    0.1425601   0.09654237  71.33 0.0004591138    1.696    0.410
        60 -10.8290     61.8651     69.9474   9.9203120795e+01   5.5793729527e+01    0.4161712    0.2474557 -57.45  0.001620379    1.568    0.362
        61 -11.0988    155.3931     58.0256   6.8033701781e+01   3.8184920151e+01    0.4535076    0.3095699 -76.83   0.00165228    2.133    0.531
        62 -10.3918    158.3240     52.3261   6.5566536416e+01   3.8313176183e+01    0.2844118    0.2503642 -68.31 0.0005577566    1.243    0.196
        63 -10.0975    211.2102    202.4302   9.0606530399e+01   5.5157606327e+00     0.147796   0.09280492  41.67 0.0002941375    1.548    0.354
        64 -13.3691    186.4535     41.1109   5.7264094089e+01   3.2626246232e+01    0.9436516      0.64644  30.38  0.001162711    1.720    0.419
        65 -10.4260     77.7883    235.5708   1.1847919332e+02   1.9883078740e+01    0.2474748    0.1150559  49.39  0.001556634    1.624    0.384
        66 -12.4143    193.4378    193.8042   9.2275162992e+01   9.2103721009e+00    0.8521129    0.5472277 -57.92   0.00445292    3.189    0.686
        67 -10.9787     27.9282     35.8012   1.0338223888e+02   6.7823649415e+01    0.2268773    0.1787923  52.24  0.001352789    1.567    0.362
        68 -12.2809     19.9467     34.0547   1.0710484280e+02   6.8956578757e+01    0.4018805    0.2543181  49.05  0.002180343    2.035    0.509
        69  -9.7274    146.7162     20.5003   5.6258601906e+01   4.5614347487e+01    0.3668139    0.1855313 -71.62   0.00119395    3.470    0.712
        70  -9.8211    189.7039     15.0367   4.8630272699e+01   3.4719974716e+01    0.2002749    0.1809604 -27.15 0.0005879017    1.092    0.084
        71 -11.1730     70.9294    230.0839   1.1934677846e+02   2.1520964079e+01    0.3916779     0.153774  36.97  0.001614109    1.964    0.491
        72 -11.0657    162.7009    213.8035   1.0069590857e+02   1.1368229259e+01     0.340531    0.2242322 -65.00  0.001992337    2.786    0.641
        73  -9.1369     95.9394    201.0318   1.1205175337e+02   2.2984448309e+01    0.1392244    0.1111019  49.68 0.0003785378    1.006    0.006
        74 -12.5122    206.0788    180.6939   8.7891148904e+01   8.8245684773e+00    0.5686327     0.481894 -69.36  0.003599052    2.141    0.533
        75 -12.0115    204.2144    199.5009   9.1318184171e+01   6.8833621163e+00      0.33493    0.1812961  25.07  0.001916036    1.697    0.411
