#   1 NUMBER                 Running object number                                     
#   2 MAG_AUTO               Kron-like elliptical aperture magnitude                    [mag]
#   3 X_IMAGE                Object position along x                                    [pixel]
#   4 Y_IMAGE                Object position along y                                    [pixel]
#   5 X_WORLD                Barycenter position along world x axis                     [deg]
#   6 Y_WORLD                Barycenter position along world y axis                     [deg]
#   7 A_WORLD                Profile RMS along major axis (world units)                 [deg]
#   8 B_WORLD                Profile RMS along minor axis (world units)                 [deg]
#   9 THETA_WORLD            Position angle (CCW/world-x)                               [deg]
#  10 FWHM_WORLD             FWHM assuming a gaussian core                              [deg]
#  11 ELONGATION             A_IMAGE/B_IMAGE                                           
#  12 ELLIPTICITY            1 - B_IMAGE/A_IMAGE                                       
         1 -11.7818    129.5231     24.1241   6.4188926918e+01   4.9357256150e+01    0.5818326    0.4062982 -43.69  0.001941658    1.479    0.324
         2 -11.5908     60.7012     23.0499   8.2851948565e+01   6.6636924128e+01     0.577644    0.3446605 -57.03  0.002473316    2.674    0.626
         3 -11.8486     21.0804     18.7304   1.0386968382e+02   7.4247795792e+01    0.5149853    0.4332553  61.79  0.001107474    1.738    0.425
         4 -11.5527      3.9272     17.9695   1.1794626814e+02   7.6055907509e+01     0.441741    0.2720087   9.27  0.002461579    1.594    0.373
         5 -10.2129     34.7358     16.0895   9.2612006429e+01   7.2684999944e+01    0.3813198    0.2404305 -10.85   0.00163619    2.019    0.505
         6 -11.0649     64.8815     14.1835   7.6295467685e+01   6.6867125696e+01    0.5891775    0.2512109  36.57  0.002242262    2.771    0.639
         7 -11.4376     74.1559      7.0703   6.9230029758e+01   6.5428702810e+01    0.2703661    0.2329032  -2.42 0.0003260567    1.286    0.223
         8 -11.8977     70.4212     14.4610   7.4412520703e+01   6.5548194731e+01    0.3631306    0.2617477  -6.09  0.001037361    1.628    0.386
         9 -12.1980     81.1472      6.8392   6.7119962233e+01   6.3721742357e+01    0.6001375    0.3355242  41.43  0.002844466    1.756    0.430
        10 -10.6138    167.9765     14.0732   5.5926735911e+01   4.0484960611e+01     0.344783    0.1746938  40.55   0.00144808    2.903    0.656
        11  -9.7627     50.9525     11.0243   8.0400054379e+01   7.0307122449e+01    0.2987597    0.1726827  16.20 0.0009456229    2.446    0.591
        12 -10.1768    139.2659     13.0557   5.8841945183e+01   4.7955973047e+01    0.4379744    0.2030088 -68.25 0.0009682886    2.785    0.641
        13 -10.2427    100.0657     13.2204   6.5555178408e+01   5.8274652319e+01    0.2733108    0.1990934   0.23  0.001345631    1.714    0.417
        14 -10.3113     55.0846     13.1744   7.9789416631e+01   6.9163740138e+01     0.319366     0.183777 -31.15  0.001367884    1.873    0.466
        15 -10.5332     59.6033     10.3454   7.6186169721e+01   6.8507161799e+01    0.4067497    0.2134666  62.44  0.001836741    2.009    0.502
        16 -10.4482     26.4144     13.9571   9.6971318811e+01   7.4346824881e+01    0.2215531    0.1636417  -0.63 0.0003409174    1.369    0.270
        17 -10.9493    115.9259      3.1780   5.8478457427e+01   5.5003924689e+01    0.2678551    0.1999495  -0.29 0.0006501601    1.682    0.405
        18 -10.8033    118.4689     12.0710   6.1558984775e+01   5.3545842601e+01    0.2736636    0.2460395 -42.24 0.0009710891    1.218    0.179
        19 -10.7306    116.9911      8.0448   6.0229784911e+01   5.4308605151e+01     0.294382    0.2329707 -43.87  0.001003293    1.352    0.261
        20  -9.7235      5.4313     11.6530   1.1337301093e+02   7.7201102959e+01    0.1678998   0.09727506 -41.21 0.0009303409    1.524    0.344
        21 -10.0261    185.7724     11.0526   5.3543219271e+01   3.6457969308e+01    0.1944331    0.1411506 -62.80 0.0005541322    1.189    0.159
        22 -12.0948     24.4432      6.1802   9.3160742428e+01   7.5859213619e+01    0.6938542    0.4333792   3.84  0.002889566    1.978    0.495
        23 -13.0413     32.0009      2.0632   8.4786980163e+01   7.5135005669e+01    0.3173683    0.2079605  38.20 0.0006018531    1.348    0.258
        24  -9.9266    107.4455      9.7447   6.2571238128e+01   5.6675950351e+01    0.3472615     0.140396  65.05  0.001404224    2.068    0.517
        25  -9.8325      6.6392      8.1014   1.1011899264e+02   7.7765885050e+01    0.2059117    0.1543858  40.01 0.0005712511    1.669    0.401
        26  -9.8767     10.8669      9.8007   1.0714540419e+02   7.7042209897e+01    0.2045303    0.1966621  76.22 0.0005889159    1.480    0.324
        27 -12.1775     11.7844      2.5079   1.0125652803e+02   7.8187433572e+01     0.456002    0.3638682   9.27  0.001807947    1.097    0.088
        28 -11.0174     16.6474      1.7580   9.6209200579e+01   7.7668878858e+01    0.3879127    0.1951985 -47.39  0.001616658    2.449    0.592
        29 -10.5244    178.1428      9.2915   5.3672286957e+01   3.8456920863e+01     0.202315    0.1449647  63.57 0.0006351078    1.449    0.310
        30 -10.6485    127.8328      8.6111   5.8821211067e+01   5.1387321064e+01    0.2750829    0.1758226 -70.13 0.0008546212    1.647    0.393
        31 -10.6106    123.2016      7.3782   5.9025554900e+01   5.2722941612e+01    0.3540964    0.1332895  39.29  0.001155992    4.057    0.754
        32 -10.3971     91.7482      6.9925   6.4583777234e+01   6.1015562203e+01    0.3775862    0.2571015  30.07  0.001552826    1.653    0.395
        33 -10.3845    228.7105      5.8531   4.9648575259e+01   2.7555481416e+01    0.2126361    0.1362668 -75.08 0.0005600334    1.376    0.273
        34 -10.6140    146.3150      5.4087   5.5458048699e+01   4.6822795815e+01    0.3003076    0.1244105 -22.75  0.001255926    2.693    0.629
        35  -9.8815     59.7711      5.6625   7.3332052974e+01   6.8971325331e+01    0.2934982    0.1600856  64.25  0.001375321    1.869    0.465
        36  -9.1555    172.3065      5.3677   5.3049846905e+01   4.0249561128e+01    0.1285453   0.09346787  41.93 0.0007035839    1.752    0.429
        37 -10.3623    176.8375      3.9595   5.2307651524e+01   3.9272771498e+01    0.1799647    0.1628886  69.24 0.0002880901    1.252    0.201
        38  -9.8223    167.8539      2.1604   5.2490076730e+01   4.1635884084e+01    0.2027437    0.1461378 -64.03 0.0004521405    1.226    0.184
        39 -10.4152    138.3540      1.9436   5.5160194979e+01   4.9190963062e+01    0.4167007   0.09794196  62.62  0.001415977    3.211    0.689
        40 -11.4336     75.7843     15.5056   7.3146811318e+01   6.4150069810e+01    0.4768564     0.352695  -2.45  0.001672922    1.599    0.375
        41  -9.3770    249.3082    227.3094   9.0968093296e+01  -3.7875088847e+00    0.1087794   0.06043662  -2.43 0.0004367857    1.617    0.382
        42 -10.8177    250.3963    245.5941   9.3489212428e+01  -5.8128732015e+00    0.3311518    0.1088831 -30.57    0.0018617    2.749    0.636
        43 -12.5398    226.4362    245.9780   9.7309103536e+01  -3.4667292597e+00    0.6949922    0.3792414   9.86  0.004595973    1.569    0.362
        44 -10.3832      5.7549    235.3651   1.4199430008e+02   2.4241049016e+01     0.444903     0.180858  48.39  0.002158063    1.730    0.422
        45 -13.3486     20.1071    248.4296   1.3937554905e+02   2.0519670543e+01      1.44996    0.6183708  54.67  0.008240749    1.844    0.458
        46 -12.3152      5.9694    245.0033   1.4220733155e+02   2.2429393398e+01    0.5926889    0.3804211  62.26  0.002515203    1.278    0.218
        47 -10.7797      1.3885    244.8072   1.4314469837e+02   2.2859704980e+01    0.2157094   0.09577215 -83.24  0.000686152    2.426    0.588
        48 -10.0512    174.5121    219.2967   1.0277204080e+02   6.1832870542e+00    0.2694215    0.1286071  21.20  0.001290771    2.136    0.532
        49  -9.1521     41.6836    220.7009   1.3320535761e+02   2.3634851700e+01    0.1114364   0.09376176 -14.92 0.0007018718    1.613    0.380
        50 -10.7959      9.5113    216.9435   1.4058393392e+02   2.7551580427e+01    0.3136258    0.1571306  48.44  0.001116373    1.512    0.339
        51  -9.6415     38.0273    217.4994   1.3387811140e+02   2.4680452069e+01    0.1874409    0.1042018  30.39 0.0005445803    1.536    0.349
        52 -11.4598    236.1587    214.8052   9.1063162259e+01  -9.5207040896e-01    0.3614327    0.2041534   1.44  0.001607739    1.757    0.431
        53  -8.9975     73.2925    221.2700   1.2568837723e+02   1.9800969990e+01    0.1160227   0.09424476  -0.42 0.0001851647    1.512    0.339
        54 -10.4572     31.2984    215.8102   1.3539366136e+02   2.5729430654e+01    0.2658055     0.150729  29.32  0.001474946    1.545    0.353
        55  -9.6217    201.5408    215.5366   9.7053117084e+01   3.1359865693e+00    0.1214801   0.09110782   3.48 0.0008070839    1.072    0.067
        56  -9.8149    194.5361    215.4859   9.8331829827e+01   4.0518161729e+00    0.1213181   0.09492079   6.16 -2.016534e-05    1.004    0.004
        57  -9.7244    170.2958    213.3320   1.0271032292e+02   7.6667413673e+00    0.1285954   0.08496545  -1.49 0.0003263952    1.640    0.390
        58 -11.1488     21.3244    212.4106   1.3761179525e+02   2.7419373937e+01    0.3614756    0.1486565  46.72  0.001804824    1.858    0.462
        59 -10.1767    208.9685    212.0678   9.5172694839e+01   2.6546153857e+00    0.1795844    0.1373706   2.20 0.0004644749    1.020    0.020
        60  -9.1962     76.3318    212.3048   1.2409000606e+02   2.1198050043e+01    0.1258732   0.09839125  -7.60 0.0005357048    1.659    0.397
        61  -9.7516      2.2949    212.3314   1.4210672652e+02   2.9110446545e+01     0.165778    0.1478096  56.69 0.0005393482    1.180    0.152
        62 -12.0618      4.9861    207.7035   1.4132880054e+02   2.9860431977e+01    0.5804866    0.2641962  72.86  0.003013837    2.039    0.510
        63  -9.2662    184.3046    208.3821   9.9148788591e+01   6.4563292138e+00    0.1321071   0.08272265  -3.65 0.0007022787    1.786    0.440
        64 -11.5041     18.6447    202.9563   1.3781004053e+02   2.9689401388e+01    0.3604022    0.2768849 -64.71  0.001415465    1.524    0.344
        65  -9.4835    223.5869    201.7977   9.0988114470e+01   2.1681002455e+00    0.1457757   0.09895878 -38.18 0.0006289246    1.679    0.405
        66 -10.2261    175.2867    202.6764   1.0000905935e+02   8.6115665249e+00    0.2000903    0.1760501  26.44 0.0005584864    1.239    0.193
        67  -9.5908     34.3450    201.0479   1.3373732552e+02   2.8566868357e+01     0.169365    0.1451474  67.40 0.0005526342    1.104    0.095
        68  -9.4130    227.1223    196.8752   8.9580528744e+01   2.3684597447e+00    0.1656734    0.1107368  -1.96 0.0006850425    1.347    0.258
        69 -10.1917     10.9753    208.3419   1.3992040476e+02   2.9218358241e+01    0.2008092    0.1562423 -54.34  0.001075361    1.648    0.393
        70 -10.3457    215.4845    194.5261   9.1126565498e+01   4.1902272152e+00    0.2004641   0.09631991 -25.32 0.0007489549    2.106    0.525
        71 -10.7941    187.1510    190.2863   9.5563203108e+01   8.8099941397e+00    0.2498783    0.1323585 -25.62 0.0009278825    2.096    0.523
        72  -9.5235    145.5495    189.9963   1.0429452059e+02   1.5324907511e+01    0.1757893    0.1088488 -18.72 0.0003486388    2.190    0.543
        73  -9.1360      1.5266    188.4343   1.4152448699e+02   3.4347920812e+01    0.1232891       0.1003  58.90 0.0001777026    1.015    0.015
        74  -9.5872     61.6496    184.8513   1.2505650675e+02   2.9054139463e+01      0.19107     0.124361  89.58 0.0009458045    1.769    0.435
        75 -10.0446    167.2062    183.5957   9.8423866885e+01   1.2994044566e+01    0.1895521    0.1156524  24.91 0.0006871206    1.598    0.374
        76 -11.2946     16.1147    182.6802   1.3741907220e+02   3.4482825971e+01    0.4384974    0.2143995  69.21   0.00211314    1.981    0.495
        77  -9.6253      1.9748    180.3087   1.4110960837e+02   3.6170094875e+01    0.1767494     0.138993  50.73 0.0005706949    1.090    0.082
        78 -10.0424    244.4103    178.2659   8.3677734533e+01   2.6144828060e+00    0.2137611   0.09035688 -29.39   0.00111125    2.057    0.514
        79 -10.6936    224.2362    178.3462   8.6815728146e+01   5.2530803195e+00    0.2101019    0.1805689 -15.71 0.0005708216    1.185    0.156
        80  -9.6499     70.0714    177.6694   1.2187202754e+02   2.9600094527e+01    0.1953757    0.1618709  29.13 0.0004786998    1.168    0.144
        81  -9.9343     46.2133    177.4385   1.2862805257e+02   3.2676587230e+01    0.2610529    0.1938042  -4.74  0.001363145    1.789    0.441
        82  -9.0773     36.4501    178.4773   1.3149405120e+02   3.3511444222e+01     0.133835    0.1176514  57.20 0.0002753025    1.024    0.023
        83 -10.1522    200.1765    176.7860   9.0680682671e+01   8.9522753712e+00    0.1807833    0.1314835  -1.91 0.0006179472    1.348    0.258
        84 -11.0790     18.2338    172.9830   1.3626278923e+02   3.6590587734e+01    0.4593932    0.1520051  54.35  0.001774256    2.858    0.650
        85  -9.4245     75.0580    170.9603   1.1957418799e+02   3.0474432042e+01     0.226519    0.1705965 -21.37  0.001118732    1.759    0.431
        86  -9.8424     12.1827    168.8326   1.3774449449e+02   3.8098424301e+01    0.1706025    0.1439992 -58.69 0.0004605559    1.350    0.259
        87  -9.6011      4.6783    168.6920   1.3987784421e+02   3.8707778987e+01    0.1223353   0.09175485 -44.59 0.0003142594    1.643    0.391
        88 -11.1128     50.8178    164.5512   1.2592221529e+02   3.5254724895e+01    0.5377008    0.2850716 -58.56  0.002437701    1.960    0.490
        89 -11.4706     44.5570    162.7293   1.2761903219e+02   3.6446760073e+01    0.4000574    0.2294638 -63.88  0.001743166    1.772    0.436
        90 -10.0655     47.7630    159.9911   1.2633132167e+02   3.6753621603e+01    0.2903778     0.215513 -57.74  0.001531603    1.438    0.305
        91 -11.8325     36.8735    158.2899   1.2952118982e+02   3.8406881492e+01    0.4432729     0.218305 -69.83 0.0005408797    1.995    0.499
        92  -9.7986     67.1786    165.1464   1.2108842008e+02   3.2978519559e+01    0.2097799    0.1545686  58.02 0.0007890853    1.341    0.254
        93  -9.6231    200.5485    162.7521   8.7953663605e+01   1.1088214788e+01     0.163859    0.1166117 -42.93 0.0004743897    1.508    0.337
        94  -9.9009    238.4633    158.8399   8.1025932944e+01   5.9859751027e+00    0.2167449    0.1236698  16.18 0.0009618661    2.273    0.560
        95  -9.0343    147.6694    156.3396   9.7617176681e+01   2.1419027269e+01    0.1438832    0.1162156  77.21 0.0007051745    1.741    0.426
        96 -11.3306     22.3674    156.4054   1.3385965512e+02   4.0299248011e+01    0.4891189     0.361097  28.84  0.002686303    1.351    0.260
        97 -10.2749     12.0592    153.2183   1.3682918453e+02   4.1953264286e+01    0.3150576    0.1759029   3.91  0.001437364    2.319    0.569
        98 -10.3035    178.2335    151.5278   8.9953833113e+01   1.6751343170e+01    0.2435329    0.1838868 -35.43 0.0006207071    1.295    0.228
        99 -10.2137     41.3685    146.3638   1.2676471680e+02   4.0949917850e+01    0.2354398     0.189875  61.01 0.0002618627    1.177    0.150
       100  -9.9013     17.6536    146.7821   1.3458553248e+02   4.3139079908e+01    0.3144624    0.1812976 -26.27   0.00141084    2.490    0.598
       101 -10.0419     12.9671    147.0186   1.3611703097e+02   4.3448399145e+01    0.2316285    0.1949643  66.12  0.000369205    1.061    0.057
       102 -10.7824     11.6828    143.7188   1.3629673296e+02   4.4384336041e+01    0.3225227    0.2064755 -45.28 0.0007415704    1.798    0.444
       103  -9.9467    207.0319    146.0698   8.3487712637e+01   1.2669493930e+01    0.1981217    0.1751582 -12.78 0.0006426908    1.021    0.020
       104 -10.4567     24.2393    142.9648   1.3208552083e+02   4.3555196538e+01    0.4032233     0.215043 -32.31 0.0009769469    2.696    0.629
       105  -9.3024    220.3244    143.7149   8.0840356629e+01   1.0861646848e+01    0.1143956   0.09763815 -62.72 0.0004306587    1.601    0.375
       106 -10.4579     49.3512    141.7756   1.2350980401e+02   4.1193929298e+01    0.2782199    0.2163327 -34.61  0.001419178    1.523    0.343
       107  -9.7246    240.1125    140.8348   7.7353945725e+01   8.2393291850e+00    0.1620539    0.1230048  -4.35 0.0005112077    1.313    0.238
       108 -10.4649     19.6217    139.7971   1.3334267252e+02   4.4771374580e+01    0.1986593    0.1656565  49.67 0.0006289323    1.139    0.122
       109 -10.2081     56.1050    137.9261   1.2065989427e+02   4.1323124632e+01    0.3826547      0.24157  76.60  0.001664825    1.944    0.486
       110  -9.4570    236.5488    138.5001   7.7393746915e+01   9.0988344123e+00     0.122334   0.09936748 -19.85 -1.448652e-05    1.031    0.030
       111  -9.5771     88.0880    137.8676   1.1016058996e+02   3.6442127552e+01    0.2002835    0.1767704  -1.13 0.0004009713    1.292    0.226
       112 -10.8356      2.7909    136.4416   1.3875313376e+02   4.6836803626e+01    0.3117791    0.1537616 -76.49  0.001202441    1.831    0.454
       113  -8.9064    143.7086    137.3277   9.4522228627e+01   2.6016896702e+01    0.1459248    0.1200878  87.45  0.000597971    1.621    0.383
       114 -10.6136      9.2404    136.7561   1.3660541454e+02   4.6341410754e+01    0.2226842    0.1898606 -52.94 0.0003170611    1.271    0.213
       115 -10.5199     21.3671    135.9155   1.3238435612e+02   4.5632049091e+01    0.2748097    0.2071769  51.77  0.001056119    1.261    0.207
       116  -9.0699    138.3187    135.3395   9.5401587104e+01   2.7503172706e+01    0.1560005    0.1181551  -2.51  0.000704944    1.710    0.415
       117  -9.2882    250.3086    134.3031   7.4732305334e+01   7.6493962351e+00    0.1156927   0.07965547  -4.88 0.0005552264    1.605    0.377
       118 -10.1524    106.9976    133.2529   1.0344623267e+02   3.4123077560e+01    0.2565337    0.2337991 -46.65 0.0009462785    1.148    0.129
       119  -9.9082     79.7845    132.9810   1.1185979010e+02   3.9048098709e+01    0.2244693    0.2034266 -22.61 0.0004784458    1.238    0.193
       120  -9.5523     53.3450    132.8487   1.2080825793e+02   4.3002477435e+01    0.2173763    0.1227844 -55.06  0.000937897    1.778    0.438
       121 -11.7527     37.4793    130.5107   1.2607854269e+02   4.5503635651e+01    0.4523748    0.3916077 -41.73  0.002024102    1.266    0.210
       122 -11.1904     33.2512    125.9397   1.2699946633e+02   4.7148462100e+01    0.3257075    0.2165253  39.20 0.0003426572    1.461    0.316
       123 -10.4507     73.9559    129.6868   1.1315215205e+02   4.0823038970e+01    0.3249331    0.2237032 -61.19  0.001035104    1.489    0.328
       124  -9.1329      6.6244    126.2546   1.3673374829e+02   4.9225614339e+01    0.1427528   0.08387534  51.59 0.0006965006    1.650    0.394
       125 -11.0550      2.4124    123.5976   1.3805273811e+02   5.0160205706e+01    0.5407344    0.1725717 -67.64  0.001966272    2.646    0.622
       126  -9.5389    219.5757    124.4891   7.6989685542e+01   1.3886507326e+01    0.1279902    0.1097481 -27.43 0.0002166483    1.019    0.018
       127 -12.8339     14.9769    109.1436   1.3193526089e+02   5.3160493831e+01    0.7043909    0.5475251  59.42 0.0007622766    1.296    0.228
       128 -11.6704     23.3428    107.4389   1.2831179100e+02   5.2964189707e+01    0.4487698    0.2911144  45.65   0.00178705    1.575    0.365
       129 -11.3366     10.5577    122.3918   1.3498683963e+02   4.9980133734e+01    0.3600433    0.2700482 -43.33  0.001484283    1.448    0.309
       130 -11.9287     16.8681    115.7984   1.3194297282e+02   5.1268700255e+01    0.4184509    0.2776671 -70.87  0.002159675    1.389    0.280
       131  -9.0460    227.3010    131.7110   7.7353059167e+01   1.1523199562e+01    0.1156954   0.09248832 -57.11 0.0003688086    1.562    0.360
       132 -10.9593     20.3239    121.8025   1.3129431412e+02   4.9417187063e+01    0.2687062    0.1627632 -25.57  0.001227356    2.138    0.532
       133  -9.4324     32.9765    118.9725   1.2613858279e+02   4.9017192325e+01    0.1743837    0.1563237 -81.07 0.0004224885    1.065    0.061
       134 -10.0352    249.5346    118.5082   7.1741507575e+01   9.8971771824e+00    0.1190046    0.0953684 -30.90 4.635599e-05    1.029    0.029
       135  -9.6007    220.4505    116.9863   7.5264320188e+01   1.4867064959e+01    0.1955404    0.1100509 -36.65 0.0004617188    1.542    0.352
       136 -10.9108     51.0482    116.4856   1.1883167688e+02   4.7578281748e+01    0.3330627    0.2033579 -61.86            0    1.597    0.374
       137  -9.5600     86.4108    116.5071   1.0611584922e+02   4.1987108618e+01    0.1526354    0.1494779  63.45 0.0008037559    1.016    0.016
       138  -9.8744     72.1915    116.2207   1.1097849780e+02   4.4522172864e+01    0.2597172    0.1014935  42.97 0.0008790139    2.524    0.604
       139  -9.2600    214.1788    115.6035   7.5885912544e+01   1.6192992375e+01    0.1651336    0.1192959  34.15 0.0005012054    1.582    0.368
       140 -10.2282     35.1429    114.1911   1.2458191275e+02   5.0059747250e+01    0.2905589     0.194764 -71.94 0.0009674276    1.443    0.307
       141 -12.0491     35.4167    108.3247   1.2351869447e+02   5.1581583328e+01    0.4909539    0.2978547  67.65   0.00133912    1.994    0.498
       142  -9.2294    166.4418    115.5457   8.4286962793e+01   2.5607137946e+01    0.1429611    0.1389855 -29.68 0.0001076454    1.018    0.018
       143  -9.1311    223.3589    111.7380   7.3726351531e+01   1.5140376412e+01    0.1211963   0.09420814 -66.52 0.0006980055    1.629    0.386
       144 -10.7052     55.6100    109.5622   1.1572241423e+02   4.8762705106e+01    0.3751132    0.2476519 -13.25  0.001156697    2.209    0.547
       145  -9.9280     91.3852    107.9452   1.0234971542e+02   4.3125759870e+01    0.2170203    0.1940752 -52.25 0.0004404908    1.148    0.129
       146  -9.0738    103.6615    107.7272   9.8330744306e+01   4.0720951973e+01    0.1565893    0.1249619   3.87 0.0002593692    1.606    0.378
       147 -10.7504      6.2394    105.9771   1.3513998451e+02   5.4540655732e+01    0.3395515    0.2235985 -61.36 0.0007150025    1.400    0.286
       148 -10.8045      2.4487    105.3406   1.3662113382e+02   5.4904315290e+01    0.2464713     0.202671 -66.75 0.0005795222    1.129    0.114
       149 -12.8700      2.8350    100.4418   1.3601844469e+02   5.6162061388e+01    0.3075906    0.2763763  86.48 0.0004535398    1.050    0.047
       150 -11.0976      1.4645     95.5231   1.3613468729e+02   5.7504766387e+01    0.4151037    0.1554287 -67.77 0.0005143106    2.219    0.549
       151 -10.1364     62.8090    106.1710   1.1220337119e+02   4.8572309815e+01    0.2121755    0.1746533 -31.37 0.0005316002    1.350    0.259
       152 -10.5875    243.4326    104.7200   6.9686383173e+01   1.2738116077e+01    0.1660172    0.1001364 -25.62 0.0007893766    1.546    0.353
       153  -9.9556    223.3160    104.0153   7.2060289530e+01   1.6287820032e+01    0.1838199    0.1398717 -36.34 0.0004131687    1.132    0.117
       154 -10.7614    249.0638    112.0010   7.0501518845e+01   1.0849867582e+01    0.1874865    0.1467747 -32.16 0.0006586079    1.032    0.031
       155 -10.8699    247.8469    102.1642   6.8656407195e+01   1.2370652921e+01    0.1853253    0.1421051 -48.10 0.0009217631    1.254    0.202
       156 -10.8104     35.7110    101.4416   1.2218343152e+02   5.3363046336e+01    0.3898928    0.2244248  48.18  0.001571363    1.864    0.463
       157  -9.8171    119.7682    101.4249   9.1859957819e+01   3.8670507551e+01    0.2244952    0.1461842  34.43 0.0009413824    1.673    0.402
       158 -10.2596     91.5035    100.9559   1.0046889971e+02   4.4758495377e+01    0.2349691    0.1555375 -50.65 0.0008366862    1.549    0.354
       159  -9.5393    145.4928    100.4960   8.5026365504e+01   3.3061809812e+01     0.150125    0.1476317  89.88 0.0008105659    1.019    0.019
       160 -10.9792     62.1672     98.6500   1.1067237085e+02   5.0579547102e+01    0.3660093    0.3157426  18.64 0.0009354848    1.221    0.181
       161 -10.4269     66.6203     97.5192   1.0863436684e+02   5.0145187714e+01    0.4330244    0.1939112 -45.06  0.001568307    2.407    0.585
       162 -11.6787     20.8529     97.7415   1.2794854499e+02   5.5726343904e+01    0.5493748    0.3240457  74.23  0.002272964    2.005    0.501
       163  -9.1829     50.5574     99.4444   1.1556418718e+02   5.2077901090e+01    0.1459606    0.1418454 -43.31 2.598592e-05    1.041    0.040
       164  -9.4726     57.7276     96.5658   1.1194813829e+02   5.1787965976e+01    0.2139152    0.1353052  42.79 0.0009433887    1.593    0.372
       165  -9.4474    249.5257     95.4944   6.7114100840e+01   1.2992455094e+01    0.1196074   0.09594239 -36.58 -5.128107e-05    1.011    0.010
       166 -11.0080     31.6162     93.1818   1.2240264467e+02   5.5950988211e+01    0.3805043    0.2138897 -81.22  0.001315003    2.016    0.504
       167 -11.5671     25.5222     91.6840   1.2486739270e+02   5.6920431487e+01    0.3863139    0.2733222  21.53 0.0001795252    1.484    0.326
       168 -10.9939     22.9157     87.0303   1.2522751752e+02   5.8356960353e+01    0.3030936    0.2349004 -56.10 0.0003820915    1.202    0.168
       169  -9.6263    162.6116     92.1953   7.9112948932e+01   3.0701547793e+01    0.2043753    0.1394126 -25.78  0.000465112    1.664    0.399
       170 -10.8941    103.9432     91.2646   9.3652958548e+01   4.4359813631e+01    0.4458301    0.2303677 -47.62 0.0007634498    2.000    0.500
       171 -11.4017     30.2578     66.7471   1.1696561283e+02   6.2787595292e+01    0.6748849    0.3452806 -32.69  0.002332705    2.347    0.574
       172 -10.6668     48.2958     90.0357   1.1433063761e+02   5.4791114001e+01    0.4905318    0.2373998 -47.43  0.001587288    2.075    0.518
       173 -11.6012     42.5202     82.2089   1.1497617628e+02   5.7524362535e+01     1.067525    0.3711261  45.25  0.003430297    3.554    0.719
       174 -10.9252     37.9207     69.7277   1.1382968652e+02   6.1181706606e+01    0.6542174    0.4565067  65.76   0.00309663    1.914    0.478
       175 -11.2828     10.6068     90.8747   1.3153635708e+02   5.8239894241e+01    0.4280144    0.2611158  20.57  0.001835461    1.742    0.426
       176 -10.1707     15.1612     83.7877   1.2835002740e+02   5.9789031804e+01     0.310558    0.2222066 -49.97  0.001668499    1.310    0.237
       177 -12.4153     21.4248     77.7306   1.2415634830e+02   6.0873860463e+01    0.5069113    0.4291449 -86.91  0.001024639    1.230    0.187
       178 -10.9914      4.4370     86.0816   1.3377365108e+02   5.9815467476e+01    0.4806062    0.2834714 -73.39  0.002436266    1.513    0.339
       179 -12.7459     13.2348     77.7817   1.2828584799e+02   6.1462666540e+01    0.5327573    0.3123254 -45.80  0.001138197    1.613    0.380
       180 -11.3058      3.1593     79.1630   1.3352056155e+02   6.1654049360e+01    0.3448745    0.3267899  45.96  0.001177981    1.155    0.134
       181 -11.4992      7.6717     73.8459   1.3047090020e+02   6.2793551569e+01     0.464253    0.2677824 -11.71  0.002253741    1.989    0.497
       182 -10.6390    158.0017     90.1777   7.9499599745e+01   3.2120650681e+01    0.2726028    0.2157142 -39.81  0.001380369    1.249    0.199
       183 -10.7169     95.9504     90.5302   9.6017406958e+01   4.6240378770e+01    0.4357499    0.2620702  19.63  0.001550999    2.720    0.632
       184 -10.6225     66.5044     85.7465   1.0548330184e+02   5.3047161996e+01    0.4063405    0.2777026 -26.32  0.001130473    1.866    0.464
       185 -10.4113    112.2692     85.7689   8.9473839497e+01   4.3665820453e+01    0.3460667    0.2440488  68.35  0.001255064    1.715    0.417
       186 -10.2903    167.3658     84.1826   7.6050672654e+01   3.1001470162e+01    0.3904498     0.236036  78.33   0.00159407    2.384    0.581
       187 -10.3885    117.9675     82.8384   8.6946703789e+01   4.2942425690e+01    0.2802273    0.2264684 -40.28  0.000909564    1.284    0.221
       188  -9.5535     87.8693     83.4015   9.6626874742e+01   4.9523205327e+01    0.2063693    0.1894316 -79.64  0.000415604    1.180    0.153
       189  -9.8489     29.8409     81.8239   1.2088539769e+02   5.9061324302e+01    0.2438914    0.2043531  37.49  0.001332317    1.247    0.198
       190  -8.9468    146.6539     81.3267   7.9410862062e+01   3.6384636938e+01    0.1598713    0.1167945 -77.52 0.0007050193    1.748    0.428
       191  -9.6984     70.5202     79.4831   1.0197386312e+02   5.3810672696e+01    0.1517985    0.1461482   1.43 0.0001095583    1.053    0.051
       192 -10.2240    150.6346     77.6848   7.7511079969e+01   3.6071786050e+01    0.2773285    0.2381155 -61.19   0.00144936    1.184    0.155
       193 -10.6388     92.4919     77.4663   9.3120016619e+01   4.9836489140e+01    0.3339075    0.2641828  37.54  0.001182235    1.258    0.205
       194 -10.8062     89.7848     75.0149   9.3249019025e+01   5.0942553714e+01    0.3199177    0.2268007  -4.86  0.001311196    2.199    0.545
       195 -12.1693     58.0215     74.1825   1.0561137276e+02   5.7220892109e+01    0.5946144     0.398633  58.76 0.0004309721    1.890    0.471
       196 -12.1153     62.6545     71.6457   1.0275560243e+02   5.7022633523e+01    0.3794996    0.3324181  63.54 0.0005288264    1.275    0.216
       197  -9.7881    122.2226     76.2159   8.3725406322e+01   4.3224160504e+01    0.2157781     0.180013  83.43 0.0006930257    1.338    0.253
       198 -12.5585     44.7081     75.3593   1.1210595468e+02   5.8933711017e+01    0.3388584    0.2900743  63.07  0.000336774    1.321    0.243
       199 -10.9929    138.8184     74.9220   7.9253698963e+01   3.9428495667e+01    0.2577046    0.2337695 -85.16 0.0003489128    1.127    0.113
       200 -10.8242    108.9928     74.6832   8.6937604781e+01   4.6670378812e+01    0.2953947    0.2580972  66.70  0.001493955    1.166    0.143
       201  -9.7193    145.5335     73.8725   7.7461567396e+01   3.7972010909e+01    0.2306337    0.1474436 -37.98  0.001028132    1.582    0.368
       202 -10.1593    102.3556     73.0893   8.8433911304e+01   4.8531117525e+01    0.3301652    0.1995968  62.65  0.001315483    1.984    0.496
       203  -9.6351    128.8131     71.7759   8.0640279113e+01   4.2445222994e+01    0.2070222    0.1735972 -78.44 0.0002194261    1.321    0.243
       204 -10.2099     83.9619     72.3198   9.4431868236e+01   5.2754117853e+01    0.2129701    0.1877311  42.25 0.0002979217    1.098    0.089
       205 -11.6064     76.4668     71.1549   9.6880136469e+01   5.4540253966e+01    0.5846181     0.402419  55.84  0.002134056    1.617    0.382
       206  -9.5453    161.0842     69.8029   7.3212042197e+01   3.4869433055e+01    0.1888642    0.1709744  22.07 0.0003483956    1.293    0.226
       207 -11.8855     94.4491     68.2798   8.9352557210e+01   5.1297995448e+01    0.4360525    0.3067957 -34.58  0.001994788    1.550    0.355
       208  -9.0788     68.7112     66.7163   9.8482821326e+01   5.7015529767e+01    0.2021281    0.1234184  38.99 0.0002379335    1.598    0.374
       209 -11.4691     50.7756     68.0718   1.0699394002e+02   5.9797585123e+01    0.5051945    0.3309184 -13.12  0.002022076    2.167    0.538
       210 -10.9620     51.1722     63.3002   1.0520481885e+02   6.0831011273e+01    0.3943128    0.2456109 -36.64  0.001234364    1.730    0.422
       211  -9.6181    145.5433     68.9628   7.5983852601e+01   3.8808480311e+01    0.2042548    0.1366075  -4.07 0.0008084763    2.495    0.599
       212 -10.7512    122.9667     68.3327   8.0997404582e+01   4.4504156905e+01    0.2775055    0.2027734 -54.91 0.0005801854    1.480    0.325
       213 -12.3860     17.4982     67.2423   1.2397531368e+02   6.3829136241e+01    0.6365799    0.3504384  -8.94  0.001149404    2.234    0.552
       214 -10.6437     19.9025     61.5374   1.2127230422e+02   6.5044297078e+01    0.5741352    0.2239666  43.58  0.002148571    3.188    0.686
       215 -10.4369    102.9964     67.9820   8.6500865064e+01   4.9386194494e+01    0.2467564    0.1898243  17.51  0.000908446    1.660    0.398
       216 -10.5214      6.6658     67.7296   1.2998758172e+02   6.4391161137e+01    0.2111368     0.191528 -20.45 0.0005161528    1.133    0.117
       217 -12.0326      3.7836     64.6766   1.3105652655e+02   6.5292228391e+01    0.3417698    0.3139524  65.08 0.0004860102    1.201    0.168
       218 -12.2210     60.9392     60.7328   9.9709285205e+01   5.9747127287e+01     1.004278    0.6133477  23.90  0.004335889    1.919    0.479
       219  -9.3239    160.4283     66.3993   7.2352474024e+01   3.5572696635e+01    0.1452649    0.1335002 -77.65 1.062565e-05    1.047    0.045
       220  -9.4836    128.6640     66.7191   7.9058068113e+01   4.3382100056e+01    0.1540314    0.1178863  26.71 0.0002774846    1.617    0.382
       221  -9.7202     68.7017     69.9751   9.9617379672e+01   5.6302516513e+01    0.2543848    0.1827146 -45.93 0.0002723164    1.417    0.294
       222 -10.7153     77.2365     63.7086   9.3945284518e+01   5.5960120170e+01    0.3924772    0.3251241 -39.00  0.001099286    1.252    0.201
       223 -11.1924     84.4471     61.6463   9.0461548805e+01   5.4841252730e+01    0.5646347     0.336828  45.91   0.00244318    1.606    0.377
       224 -10.2817     86.5485     56.9383   8.7932158091e+01   5.5282664572e+01    0.3275883    0.2630621   7.96 0.0009095987    1.530    0.347
       225 -11.3111     87.2148     52.6045   8.6015244079e+01   5.5930679231e+01    0.3736149    0.2821565 -55.33  0.001012298    1.511    0.338
       226  -9.9663     41.9447     64.5773   1.1022084038e+02   6.1890569641e+01     0.221782     0.196204 -79.64 0.0008973416    1.284    0.221
       227  -9.6967    215.9176     64.3022   6.3972049428e+01   2.3365781414e+01    0.1714308    0.1533432 -83.55 0.0006043764    1.161    0.139
       228 -10.4983     11.0412     62.7191   1.2659380274e+02   6.5395864707e+01    0.2090508    0.1773791 -65.30 0.0003975294    1.114    0.102
       229  -9.5901    201.2598     62.0150   6.5122500669e+01   2.6764536441e+01    0.1822491    0.1543389 -48.63 0.0002874451    1.055    0.052
       230 -10.6666     45.3715     50.4679   1.0340231920e+02   6.4557185739e+01     0.395689    0.2357726 -37.53  0.001824708    1.751    0.429
       231 -11.3581     29.5064     60.8444   1.1568398053e+02   6.4291679942e+01    0.7861921    0.2766913  15.89  0.002547494    3.944    0.746
       232 -12.7377     37.3068     51.2072   1.0809061429e+02   6.5565571100e+01    0.8456112     0.659844 -29.72  0.003279346    1.275    0.215
       233 -10.9699      5.6503     58.2685   1.2881404762e+02   6.6791128187e+01    0.3878318     0.264057 -77.04  0.002125551    1.449    0.310
       234 -11.5716      5.2694     51.7311   1.2767602036e+02   6.8398831114e+01    0.4261202    0.2716116 -38.53 0.0009130629    1.439    0.305
       235 -10.5100      4.5719     47.1267   1.2706734150e+02   6.9533276098e+01    0.4266599    0.1695161 -37.21  0.001819367    2.420    0.587
       236 -10.5000      6.9954     41.2742   1.2389703353e+02   7.0773228284e+01    0.3054242    0.1488153 -57.57  0.000769285    1.758    0.431
       237 -10.4056     47.8488     58.2686   1.0506981099e+02   6.2477354105e+01    0.2634024    0.2378914  58.84  0.001473078    1.260    0.207
       238 -10.2070     43.9507     57.0554   1.0663359188e+02   6.3332838929e+01    0.2131754    0.1986482 -14.91 0.0003398847    1.023    0.023
       239 -10.2942    129.1534     56.3969   7.5541777489e+01   4.4996534642e+01    0.2794786    0.2218548  -5.30 0.0009977748    1.631    0.387
       240 -10.3674    123.0461     56.6011   7.7044400409e+01   4.6510511538e+01    0.2884603    0.2278772 -62.33 0.0008790345    1.380    0.276
       241 -12.3408    128.3819     50.4365   7.3693476210e+01   4.6132168552e+01    0.4894499    0.3659216   8.41 0.0004903527    1.891    0.471
       242  -9.5339     22.6949     57.7725   1.1865081334e+02   6.5707950394e+01    0.2093019   0.09174366  33.27  0.000875721    2.313    0.568
       243  -9.4170     96.0254     52.9934   8.3234461650e+01   5.3799682997e+01    0.2103385    0.1789712 -79.30 0.0003958184    1.369    0.269
       244 -10.6585     75.4079     55.7488   9.1653049914e+01   5.7938589977e+01     0.263691    0.2366617   5.78 0.0004195679    1.182    0.154
       245  -9.9747     61.8468     54.4309   9.6889992360e+01   6.0902160500e+01    0.2934061    0.2026088 -66.07  0.001319783    1.964    0.491
       246  -9.8749    116.6859     53.3088   7.7472075464e+01   4.8656668444e+01    0.3381859    0.1881259 -56.13  0.001301361    2.291    0.563
       247  -9.7219    119.9951     53.0000   7.6536367753e+01   4.7869627542e+01    0.2908333    0.1731943  47.51 0.0003201337    1.660    0.397
       248 -10.7927     12.6337     51.6996   1.2304283123e+02   6.7970100699e+01    0.2988655     0.228286 -81.59  0.001692522    1.452    0.311
       249 -11.1527     69.8636     50.3507   9.1742626786e+01   6.0131931931e+01    0.4417306    0.3441054 -89.16  0.002105679    1.871    0.465
       250 -11.2968    104.0158     47.6386   7.8777544907e+01   5.2752178579e+01    0.5943224    0.2324456 -38.53  0.002136825    2.642    0.622
       251 -10.1911    220.9153     48.9328   5.9889744988e+01   2.4349739421e+01    0.1856185    0.1536573 -52.72  0.000300759    1.009    0.009
       252 -11.5279    152.6650     47.8669   6.8161883614e+01   4.0291887134e+01    0.7005853    0.2532256  59.12  0.002360115    2.542    0.607
       253 -10.8061     99.8434     55.7367   8.3079607955e+01   5.2402924853e+01    0.4511019    0.1966662  56.44  0.001619152    2.351    0.575
       254  -9.6742    114.4429     48.4939   7.6302428692e+01   4.9995367804e+01    0.3225549    0.1433363  59.10  0.001203957    2.154    0.536
       255  -9.1849    120.3601     47.2640   7.4410208092e+01   4.8675515423e+01    0.2012456    0.1355416 -45.03 0.0006468894    1.553    0.356
       256 -10.3073     78.7110     47.3989   8.6992856080e+01   5.8782509008e+01    0.2058536    0.1326399  39.57 0.0009307943    1.521    0.343
       257  -9.2748     62.2904     47.3367   9.3777619179e+01   6.2223341266e+01    0.1946144    0.1390799 -50.25  0.000400799    1.538    0.350
       258 -10.7247     59.4577     45.3506   9.4227154238e+01   6.3148836996e+01    0.3049355    0.2161304  26.97    0.0014999    1.464    0.317
       259 -10.9709     11.4998     44.2309   1.2168061131e+02   6.9801929317e+01    0.4330532    0.2200756 -45.56  0.001442685    1.735    0.424
       260 -10.1167    142.7517     45.7417   6.9230059961e+01   4.3126773504e+01    0.2977749    0.2111292 -62.06 0.0008293453    1.510    0.338
       261 -11.3752     86.1933     44.8664   8.3237540595e+01   5.7514561922e+01    0.3988896    0.2142597 -25.26  0.001567286    2.435    0.589
       262  -9.2891     18.4991     46.4429   1.1776852458e+02   6.8740768809e+01    0.1296449    0.1226441 -26.24 5.261858e-05    1.070    0.066
       263  -9.2389    233.4315     45.4939   5.8028663935e+01   2.2288877206e+01    0.1205244   0.09925184 -49.22 7.547888e-05    1.040    0.038
       264  -9.8585     51.2635     44.9572   9.8054968516e+01   6.4720368016e+01    0.2131238    0.1799886  -5.86 0.0002806891    1.229    0.186
       265 -11.1278     52.0104     40.8158   9.5839751055e+01   6.5390840414e+01    0.3036391    0.2601042 -86.49 0.0004880379    1.600    0.375
       266  -9.3135    175.2238     43.9773   6.3659306179e+01   3.5214157458e+01    0.1815149     0.108603 -34.16 0.0008678316    1.639    0.390
       267 -10.3568    122.2226     42.9657   7.2436951712e+01   4.8834533985e+01    0.3917672    0.2439949 -55.18  0.001729176    1.835    0.455
       268 -10.8286     42.4535     39.4790   1.0034816462e+02   6.7268164794e+01    0.6710318    0.4156982 -51.79  0.003263894    1.759    0.432
       269 -10.5483    184.0627     41.6035   6.1908925498e+01   3.3404860333e+01    0.2442885    0.1642709 -46.81 0.0006416967    1.358    0.264
       270  -9.7994    110.5399     41.8454   7.4805441570e+01   5.2003202678e+01    0.2404757    0.1938583  87.90 0.0005407105    1.351    0.260
       271 -11.5163    102.7628     36.0830   7.4564022560e+01   5.4817227203e+01    0.6086299    0.3345774  35.27  0.002436158    2.302    0.566
       272 -11.1901     97.5315     41.0135   7.8035650343e+01   5.5401583105e+01    0.3796467    0.2742983  49.58 0.0006841974    1.289    0.224
       273 -11.2200     96.9949     36.9865   7.6538085635e+01   5.6137595077e+01    0.3070291    0.2705951  64.01 0.0003581192    1.079    0.073
       274 -11.3042     98.0180     31.7973   7.4077863216e+01   5.6612710156e+01    0.3596635    0.2572408  39.98 0.0003726916    1.430    0.301
       275 -10.4130    101.0392     28.6572   7.1954016181e+01   5.6259996496e+01    0.2651014    0.2247217  87.09 0.0003872749    1.233    0.189
       276 -10.8359     68.7008     38.6636   8.7148508518e+01   6.2481058554e+01    0.4153035     0.247721  -8.78  0.001559221    3.061    0.673
       277 -12.8920     24.9902     35.7988   1.0948736337e+02   7.0423098251e+01    0.7341635    0.5437051  30.70   0.00225148    1.385    0.278
       278 -12.0163     20.5446     37.5369   1.1321593068e+02   7.0534664904e+01     0.394191    0.3091536 -82.42  0.001799931    1.688    0.408
       279  -9.3879    220.4285     41.5188   5.8221250018e+01   2.5361256501e+01    0.1253177     0.103068 -54.23 7.733086e-05    1.010    0.010
       280  -9.7216    226.1991     40.1583   5.7427953458e+01   2.4351829060e+01    0.1726775    0.1164947 -56.60 0.0005939157    1.278    0.218
       281  -9.3818    215.5314     40.5464   5.8422666835e+01   2.6497052925e+01    0.1263095    0.1059389 -57.18 0.0001226715    1.007    0.007
       282 -10.6825     89.2573     39.1615   7.9816687947e+01   5.7707152345e+01    0.3412077    0.2280157 -39.36  0.001021695    1.600    0.375
       283  -9.8332     73.5996     31.4653   8.1835398855e+01   6.2551355190e+01    0.2389478    0.2102211  71.27 -1.261467e-05    1.256    0.204
       284  -9.9937     85.0034     35.1958   7.9491603613e+01   5.9331496274e+01    0.3124386    0.1775167  58.12 0.0006642807    1.707    0.414
       285 -12.1126     81.6146     38.0548   8.1917212315e+01   5.9691133033e+01    0.5816404    0.3864512 -47.73  0.001514848    1.708    0.414
       286 -10.8586     78.0370     32.6636   8.0757214643e+01   6.1352010573e+01      0.48528    0.3086163  -7.64  0.002093596    2.302    0.566
       287  -9.5578     61.9252     37.7453   8.9662007772e+01   6.4050155392e+01    0.1909934    0.1724231  32.57 0.0002860139    1.039    0.038
       288 -10.8831     10.0276     25.2170   1.1594005557e+02   7.4106811772e+01    0.2939162    0.1999645 -10.45  0.001228996    1.446    0.308
       289 -10.9785     10.5760     34.6803   1.1922408482e+02   7.2029302806e+01    0.3829487    0.2332214  -3.07  0.001075253    1.732    0.423
       290 -10.2470      3.2268     36.9837   1.2536615794e+02   7.1961559858e+01    0.2783415       0.1901 -31.86  0.001090876    1.327    0.247
       291 -11.2019      6.4029     30.5440   1.2091554326e+02   7.3225589613e+01    0.4765206    0.2327354 -35.88  0.001444468    1.909    0.476
       292 -10.8545    150.6980     34.4309   6.4262691328e+01   4.2588994732e+01    0.2670733    0.1723315  71.53 0.0007096597    1.461    0.315
       293  -8.8098    127.3540     36.2846   6.8953018719e+01   4.8427263103e+01    0.1522535    0.1052609  38.41 0.0003033989    1.665    0.399
       294  -9.4783     57.3146     35.3095   9.0644807309e+01   6.5392582728e+01     0.144758    0.1063519   8.70 0.0007029768    1.631    0.387
       295  -9.8121    205.8311     33.6226   5.7620615223e+01   2.9409952408e+01    0.1746417    0.1080984 -84.81 0.0004214207    1.676    0.403
       296 -10.4112    129.9050     32.8872   6.7250323851e+01   4.8200760022e+01    0.2225226    0.2018902 -80.87 0.0009985212    1.069    0.065
       297  -9.4227     60.4320     33.5366   8.8330606184e+01   6.5069630694e+01    0.1395316    0.1308781  28.49 0.0001091433    1.047    0.045
       298 -10.6981     18.3422     31.4278   1.1224808920e+02   7.2056371471e+01    0.4201922    0.2408931  31.75  0.002153913    1.792    0.442
       299  -9.7306     21.2536     28.3049   1.0871792422e+02   7.2386965776e+01    0.1761381    0.1551813   9.89  0.001103658    1.114    0.102
       300 -11.3016    177.9440     30.7627   5.9638056956e+01   3.6203087841e+01      0.46203    0.2172538 -57.01  0.001981996    2.232    0.552
       301  -9.7195    145.1447     32.1388   6.4379674165e+01   4.4310486043e+01    0.1946926    0.1528921 -72.21  0.000291567    1.261    0.207
       302  -9.9331     56.2718     30.9832   8.9011017758e+01   6.6330431304e+01    0.2805308    0.1732544 -28.06  0.001328906    1.804    0.446
       303 -10.7019     42.5481     31.8264   9.6644676932e+01   6.8704052663e+01    0.2329199    0.1825474  35.43 0.0005177389    1.240    0.193
       304 -10.2209    139.8848     29.3555   6.4290740502e+01   4.6020805715e+01    0.3782654     0.209329  -7.86  0.001493172    2.915    0.657
       305 -10.1153     49.7046     31.3343   9.2479574339e+01   6.7530314412e+01    0.2622336    0.1834067  59.16  0.000734626    1.853    0.460
       306 -10.9174     50.6970     27.9365   9.0211400650e+01   6.7917261217e+01    0.2561426    0.2187245   4.70 0.0002356608    1.161    0.138
       307 -10.0613    119.8140     28.3891   6.7567680875e+01   5.1412664321e+01    0.3348901    0.2095085  28.42  0.001031932    2.198    0.545
       308  -9.3576    249.7017     38.3369   5.5307975093e+01   2.0090116943e+01     0.124564   0.06446072 -54.63 0.0005851692    1.656    0.396
       309  -9.8437     79.8380     26.0870   7.7039362305e+01   6.1861645699e+01    0.2070749    0.1875836 -87.38 0.0006186404    1.250    0.200
       310 -10.2685    153.6646     28.8129   6.2058870252e+01   4.2509017435e+01    0.2313114    0.1895822  88.14 0.0005848533    1.119    0.106
       311 -11.4231    214.0817     26.8430   5.5310246010e+01   2.8400278066e+01    0.3765076    0.1817137 -56.76  0.001068921    1.897    0.473
       312 -10.0335    247.9514     27.2783   5.3140712180e+01   2.1637462597e+01    0.1536805    0.1205991 -61.11 0.0003371694    1.090    0.082
       313 -10.1297    135.2480     22.4777   6.2669099317e+01   4.8032888848e+01    0.5080197    0.3551697  81.98  0.002594832    1.351    0.260
       314 -10.5261    181.4301    248.0674   1.0550241754e+02   1.3451711221e+00    0.3534713    0.1410614 -28.61  0.001692118    3.263    0.694
       315 -10.9541    129.2944     19.3249   6.2497017448e+01   4.9946527380e+01    0.3216995    0.2181341   4.58  0.001510849    2.089    0.521
       316 -10.9694     70.0854     26.1716   8.0602777640e+01   6.4122035257e+01    0.4726346    0.2439473  52.92  0.002077952    1.791    0.442
       317  -9.9471     24.9186     26.9634   1.0543333808e+02   7.2214868870e+01    0.1975168    0.1733082  -6.41 0.0005142139    1.009    0.009
       318  -9.9365    146.0336     26.0340   6.2246038051e+01   4.4806450580e+01    0.2087974    0.1840474 -84.39            0    1.029    0.028
       319 -10.6712     86.7028     24.3523   7.4040655166e+01   6.0418921118e+01    0.5760308    0.3190625  86.50  0.002039528    3.400    0.706
       320 -11.2640     85.0205     20.3834   7.2684241177e+01   6.1323637841e+01    0.6156456    0.3156959  43.63  0.002668057    1.906    0.475
       321  -9.8868    147.6752    245.6590   1.1179632884e+02   5.8656000133e+00    0.1224911   0.07881995   1.50 0.0006469456    1.730    0.422
       322 -10.8022     65.4155     21.2296   7.9905006607e+01   6.5855726054e+01    0.3374463    0.2194108  44.23 0.0009276219    1.390    0.281
       323  -9.2182     16.5341     26.5623   1.1141919026e+02   7.3242054372e+01    0.1295687    0.1114722 -16.75 0.0001159047    1.014    0.014
       324  -9.8382    237.4783     25.4610   5.3391303793e+01   2.3803692390e+01     0.118424   0.09210656 -54.82 6.398214e-05    1.003    0.003
       325 -10.4908    197.1724     25.1315   5.6261083781e+01   3.2322699178e+01    0.1757444    0.1672814 -66.80 0.0004091171    1.184    0.155
       326 -10.2957    173.5468     24.2628   5.8288383849e+01   3.8023529907e+01    0.2432697    0.1677642  77.39 0.0006537043    1.363    0.266
       327  -9.7744     93.5308     23.9993   7.1927139451e+01   5.8755776207e+01    0.2064912    0.1440836 -28.28  0.001027868    1.581    0.368
       328  -9.9616     54.1455     23.8202   8.6286571096e+01   6.7890003760e+01    0.2460957    0.1717774  37.50 0.0007193955    1.323    0.244
       329  -9.3421     97.4409     23.4932   7.0671274420e+01   5.7823075186e+01    0.1450985    0.1292127  52.15 0.0001406662    1.055    0.052
       330  -9.2100     36.0502     22.7744   9.5726617023e+01   7.1372555906e+01    0.2426489    0.1401138  28.91  0.001184538    1.714    0.416
       331 -11.9612     74.5055    238.4832   1.2689849708e+02   1.6412737118e+01    0.4590349    0.3674547  74.41  0.002910105    1.415    0.293
       332  -9.7247     15.1749     14.1862   1.0600728851e+02   7.5779583607e+01     0.150146    0.1479684  13.86 0.0004102843    1.323    0.244
       333  -9.8713    120.3080     21.4669   6.4846872507e+01   5.2089529512e+01    0.2537382    0.1764568  -1.20 0.0009527559    1.934    0.483
       334 -10.2518     45.4105     20.5904   8.8976675385e+01   7.0085104671e+01    0.3064371    0.1572185  47.91  0.001018326    1.945    0.486
       335 -10.9072     10.1709     15.4576   1.1108359663e+02   7.6055513646e+01    0.2513395    0.1743033 -12.36 0.0006111974    1.380    0.276
       336  -9.8517      8.2009     20.9625   1.1556016644e+02   7.5131095646e+01    0.2244185    0.1701181 -54.71 0.0007732452    1.338    0.253
       337  -9.4440    115.5234    244.5282   1.1840901298e+02   1.0190554808e+01     0.123798   0.09538595  27.14 0.0002721736    1.027    0.026
       338 -10.3544    162.0059     20.0099   5.8308416101e+01   4.1369352847e+01    0.2055186    0.1784677 -78.93 0.0003228768    1.008    0.008
       339  -9.5592    113.4940     20.4665   6.5769460533e+01   5.3997079908e+01    0.1444916     0.128458  82.53 6.117526e-05    1.057    0.054
       340 -10.3965    226.9133     19.0193   5.2639501067e+01   2.6582675443e+01    0.2120443     0.147523  88.94 0.0006754533    1.420    0.296
       341 -10.1017    109.6085    242.9557   1.1952319913e+02   1.1209770114e+01    0.2675852    0.1394025  48.18  0.001072552    1.965    0.491
       342  -9.9976    217.5752     16.4849   5.2650810728e+01   2.8778187884e+01    0.2118834    0.1050836  71.04  0.001123378    2.054    0.513
       343  -9.8629    108.1582     17.5258   6.5663944586e+01   5.5717316628e+01    0.2223353    0.1282071  67.53  0.001019505    1.556    0.357
       344  -9.4292     63.3667    243.7853   1.2979020946e+02   1.6783992595e+01    0.1376939    0.1089215 -55.68 0.0004544233    1.640    0.390
       345 -11.2963     37.6592    242.8343   1.3538458913e+02   1.9791017808e+01    0.4377096    0.1455726  28.95  0.002040776    2.365    0.577
       346 -11.0341     35.6895    239.6632   1.3565498472e+02   2.0582296391e+01    0.2908398    0.1976293 -25.76  0.001688248    2.465    0.594
       347 -10.8706    156.4979    241.0652   1.0943120129e+02   5.3940285362e+00    0.1555832    0.1157457 -36.37  0.001034347    1.594    0.373
       348  -9.6772    169.6463     18.3328   5.6995591522e+01   3.9631016115e+01    0.1512064   0.08448116 -63.13 0.0007045312    1.786    0.440
       349  -9.6734     46.9794    241.4815   1.3326423894e+02   1.9046366318e+01     0.174235   0.09514046  30.41 0.0003247292    1.487    0.327
       350  -9.7853     49.8396     15.3008   8.3545409464e+01   6.9983740522e+01    0.2095287    0.1680819  59.38  0.001189278    1.407    0.289
       351  -9.2275     50.3213    240.3117   1.3245266161e+02   1.8894447185e+01     0.108073   0.08854292  -6.58 0.0005434872    1.651    0.394
       352 -10.4074    195.7090    238.3482   1.0153036883e+02   8.7024065904e-01    0.2307315    0.1522601   8.11  0.001539957    1.252    0.202
       353 -10.4911     31.6183    237.4203   1.3644210977e+02   2.1419841653e+01    0.2618752    0.1589407  58.27 0.0009983572    1.407    0.289
       354 -10.4142     29.1757    232.8936   1.3676901784e+02   2.2528951628e+01    0.2928393    0.1532767  45.90  0.001236693    1.433    0.302
       355  -9.9801     72.6134    250.0850   1.2822406863e+02   1.4601062826e+01    0.1966937    0.1467906   4.93  0.001260252    1.650    0.394
       356 -10.3813    160.0231    235.9689   1.0805002170e+02   5.6716590877e+00    0.1939533    0.1240513   2.48  0.000649965    1.673    0.402
       357 -10.3021     30.7817     12.9091   9.3210945757e+01   7.3834185355e+01    0.2077329    0.1676111  21.54 0.0004359392    1.108    0.098
       358 -11.8968     27.9079    247.1926   1.3768489370e+02   1.9986856225e+01    0.4178191    0.2599235  78.04  0.002741487    1.659    0.397
       359 -10.2032    177.5454    234.9520   1.0445244867e+02   3.5552829437e+00    0.2263524    0.1349975  15.04 0.0009715054    1.497    0.332
       360 -11.2743    153.4956    234.0347   1.0912217129e+02   6.8172360441e+00    0.2486576    0.1822408 -20.63  0.001063469    1.488    0.328
       361  -9.4527    167.0000    233.9281   1.0637503680e+02   5.0549050038e+00    0.1693589   0.06698433 -44.17 0.0005819496    2.959    0.662
       362  -9.6438    142.3224    232.2983   1.1122806068e+02   8.5813746997e+00    0.1247691   0.08390012   3.47 0.0002395961    1.624    0.384
       363 -10.1360     88.9164    241.1666   1.2390380540e+02   1.4153691084e+01    0.2120191    0.1462977 -24.70  0.001225493    2.094    0.522
       364  -9.8034     24.0629    232.3143   1.3788538614e+02   2.3145082815e+01    0.1663918    0.1221398  44.67 0.0005561043    1.049    0.047
       365  -9.7613     79.9168    231.4920   1.2506274608e+02   1.7019760025e+01    0.1939035   0.09952649  33.08  0.000439794    1.523    0.344
       366 -10.8838      5.5135    227.1803   1.4181454383e+02   2.5842162135e+01    0.4933286    0.1427064  60.88   0.00218577    2.957    0.662
       367 -10.1719    190.5160    227.2347   1.0087488126e+02   2.9592210755e+00    0.3208751    0.1085142 -40.22  0.001476382    3.196    0.687
       368  -9.3943    140.2375    227.3847   1.1103135253e+02   9.6471408297e+00    0.1812788   0.09557671  37.56 0.0009410969    1.623    0.384
       369 -10.0272    129.7743    226.8510   1.1324042701e+02   1.1180616775e+01    0.2637956    0.1326849  47.75  0.001250183    2.257    0.557
       370  -9.9172     87.5169    227.4906   1.2292406418e+02   1.6788519211e+01    0.1291733    0.1035661  35.94 0.0008103725    1.006    0.006
       371 -10.3347     66.6632    226.7264   1.2773487984e+02   1.9561245591e+01    0.3263106    0.1582134  43.05   0.00105092    1.640    0.390
       372 -10.6254    120.0548    226.4937   1.1535720754e+02   1.2584778280e+01     0.194237    0.1042448  31.39 0.0004185881    1.501    0.334
       373 -10.3783    115.7514    225.7216   1.1623413805e+02   1.3312376581e+01    0.1669999    0.1111494 -77.94 0.0005492177    2.373    0.579
       374  -9.9539    181.0000    224.9523   1.0234512361e+02   4.4998776746e+00    0.1727994   0.06541317 -41.67 0.0008003493    2.928    0.658
       375  -9.2119    156.4351    224.4718   1.0720474459e+02   7.8751786934e+00    0.1267197   0.09939212  13.11 0.0001834332    1.074    0.069
       376 -10.6422    123.5978    221.5083   1.1393698966e+02   1.2955553185e+01    0.5065396    0.2299078  38.08  0.002412877    1.830    0.453
       377  -9.1369     80.6441    223.3349   1.2413197518e+02   1.8462968110e+01    0.1404458   0.07848262  53.44 0.0007042858    1.798    0.444
       378  -9.7074     13.3900    221.7496   1.3986683979e+02   2.6231309034e+01    0.1427124    0.1031021 -76.79 0.0005658178    1.559    0.359
       379  -9.7420    141.9599    220.7269   1.0976017748e+02   1.0493653185e+01    0.1930141    0.1382355  27.01  0.001152353    1.144    0.126
       380  -9.4859    250.4925    219.4626   8.9588405017e+01  -3.0448317517e+00    0.1079245   0.07541858  -3.94 3.443436e-05    1.023    0.023
