#   1 NUMBER                 Running object number                                     
#   2 MAG_AUTO               Kron-like elliptical aperture magnitude                    [mag]
#   3 X_IMAGE                Object position along x                                    [pixel]
#   4 Y_IMAGE                Object position along y                                    [pixel]
#   5 X_WORLD                Barycenter position along world x axis                     [deg]
#   6 Y_WORLD                Barycenter position along world y axis                     [deg]
#   7 A_WORLD                Profile RMS along major axis (world units)                 [deg]
#   8 B_WORLD                Profile RMS along minor axis (world units)                 [deg]
#   9 THETA_WORLD            Position angle (CCW/world-x)                               [deg]
#  10 FWHM_WORLD             FWHM assuming a gaussian core                              [deg]
#  11 ELONGATION             A_IMAGE/B_IMAGE                                           
#  12 ELLIPTICITY            1 - B_IMAGE/A_IMAGE                                       
         1 -13.3513    189.4794     26.2160   7.4294030010e+01   3.4558639382e+01     1.389336     1.254832  71.67  0.006164066    1.074    0.069
         2 -13.5221    202.9746      7.7893   6.7129199018e+01   3.3027408866e+01     1.627609     1.053535  43.72  0.008049991    1.693    0.409
         3  -8.6633     32.6521     25.3176   1.1652778368e+02   6.7079114021e+01      0.10523   0.09303718 -76.54 0.0007048269    1.729    0.422
         4 -11.6702    139.8887    249.3053   1.3323960567e+02   7.6208946153e+00     0.416923    0.2570782  60.27  0.002706408    1.551    0.355
         5  -9.7169     67.1021    250.5538   1.4503623469e+02   1.7709426746e+01    0.1890024   0.06928626  47.64  0.001098452    1.994    0.498
         6 -14.0890      3.4481     24.9793   1.2949879260e+02   6.9430671331e+01     8.588889    0.3687414 -57.75   0.02303525    7.962    0.874
         7 -13.4796      9.1848    206.7517   1.5163188256e+02   3.1531119132e+01     1.345937    0.6401714  88.35  0.004022039    1.682    0.406
         8  -9.8296     95.4511    240.3814   1.3972177133e+02   1.5504681068e+01    0.2263598    0.1031125 -68.02  0.001299537    2.581    0.613
         9 -10.8068     11.1704    239.0366   1.5280699101e+02   2.5809032182e+01    0.3495251    0.1314594  66.63  0.002224935    2.062    0.515
        10  -9.2699     34.7258    229.6535   1.4877709105e+02   2.4921239793e+01    0.2229375     0.109717  65.14 0.0009644058    1.586    0.369
        11 -12.6021     43.0390    236.1319   1.4785356464e+02   2.2906523363e+01    0.3898369     0.289107 -50.58 0.0007985922    2.329    0.571
        12 -13.6605     48.6934    227.7561   1.4642338347e+02   2.3653691681e+01    0.8965794    0.6895417 -84.87  0.003530988    1.327    0.246
        13  -9.3243    238.0000    246.9991   1.1690255836e+02  -7.3072811143e+00    0.1471184   0.05980566 -30.40 0.0007236135    2.921    0.658
        14 -10.6648    173.1036    222.0784   1.2416045485e+02   6.0135612376e+00    0.2529904    0.1903785  37.04  0.001228736    1.131    0.116
        15  -8.2956     27.6839    221.7182   1.4944288711e+02   2.7040045673e+01   0.08314222   0.07424706 -80.34 0.0002713214    1.578    0.366
        16 -12.8765      2.6940    230.1416   1.5368610263e+02   2.8074956229e+01     2.665167    0.2035744 -75.42  0.009668374    7.488    0.866
        17  -8.4883     47.2627    249.3610   1.4798040530e+02   2.0296529275e+01   0.08086137   0.07193894 -80.21 0.0002753273    1.635    0.388
        18  -8.8963    152.6371    213.0456   1.2658290296e+02   1.0848992322e+01     0.153982    0.1455643  57.11 0.0003579109    1.144    0.126
        19 -12.2326     26.9319    203.4058   1.4846851585e+02   3.0406177620e+01    0.4018123    0.1674679  56.15  0.001152895    1.958    0.489
        20 -11.2633     67.4824    200.8271   1.4101322209e+02   2.6154530375e+01     0.273618    0.2051572 -55.06   0.00112524    1.725    0.420
        21  -9.6569    191.9146    192.7372   1.1608555545e+02   6.9403049564e+00     0.413903    0.2357885 -64.70  0.001578235    4.289    0.767
        22 -11.5572     72.9318    192.5914   1.3916724385e+02   2.7003766854e+01    0.2467124    0.2028385 -73.63 0.0005568877    1.290    0.225
        23  -8.4419    106.2954    181.7468   1.3120233243e+02   2.4186660003e+01    0.1266003   0.08648545  69.53  0.000255346    1.491    0.329
        24 -10.7575     82.0739    179.6135   1.3588450651e+02   2.8297897037e+01    0.2281506    0.1901837  80.11 0.0003841274    1.021    0.021
        25 -13.0574     69.4273    177.7222   1.3824318889e+02   3.0427970242e+01    0.4421049    0.2687792 -46.50  0.001850752    2.276    0.561
        26 -11.6385     88.6779    170.1379   1.3327720789e+02   2.9265097056e+01     0.552363    0.4941485 -73.90  0.003654135    1.188    0.158
        27  -8.6005    196.2178    159.8188   1.0896228658e+02   1.1314214943e+01    0.2214161    0.1564754 -87.40 0.0009387376    2.759    0.637
        28 -11.5209    185.4021    238.6971   1.2433256822e+02   1.7837317787e+00    0.3884859     0.292542 -74.52  0.002468994    2.245    0.555
        29  -9.7721    100.5757    153.5051   1.2813672576e+02   3.0903642234e+01     0.267641    0.2448655 -83.14 0.0008735711    1.069    0.064
        30 -11.7705     89.4878    152.9627   1.3057338045e+02   3.2771029814e+01    0.2529275    0.2346536 -44.05 0.0006316265    1.322    0.244
        31  -9.2987    235.5094    150.5007   9.9793948407e+01   4.8587812448e+00    0.1380299    0.1219972   5.35 0.0008106231    1.002    0.002
        32 -12.3491     66.9423    143.6115   1.3437423687e+02   3.8022101644e+01    0.7345427    0.4336378  66.20  0.003773574    1.910    0.477
        33 -11.7848     56.9488    130.9836   1.3489540079e+02   4.2094371779e+01    0.5968581    0.3526475 -77.50  0.003168298    1.624    0.384
        34 -12.7359     29.4520    140.9420   1.4275131438e+02   4.2825397536e+01     0.604855    0.3425372 -61.44  0.002962612    1.586    0.370
        35  -9.6026    111.0641    137.8594   1.2285656890e+02   3.2490911332e+01    0.3602136    0.2466794 -19.86  0.001319816    2.577    0.612
        36 -10.4741     98.8154    135.5036   1.2535043297e+02   3.5100346543e+01    0.2559899    0.2360644 -28.87 0.0007198519    1.312    0.238
        37  -8.2150    192.2955    144.2779   1.0637251110e+02   1.4776975050e+01    0.1440856    0.1097188  13.62 0.0002390516    1.531    0.347
        38 -11.0767     32.8858    131.3895   1.4083988754e+02   4.4596426305e+01    0.3210689    0.1447078 -73.82  0.001632352    1.884    0.469
        39  -8.3761     71.6640    125.2963   1.3024534073e+02   4.1487378009e+01    0.1355668   0.09405489  76.89 0.0003528594    1.650    0.394
        40  -9.5866    175.7266    138.7829   1.0849438967e+02   1.9331053461e+01    0.4738697    0.3078517  86.71  0.001096532    3.250    0.692
        41  -8.8604    103.1871    149.1411   1.2679538757e+02   3.1407639437e+01    0.1940814      0.17973 -45.64 0.0004759993    1.252    0.201
        42  -9.9751    168.1228    113.1779   1.0392222187e+02   2.5881544164e+01    0.3614767    0.2900724 -84.03  0.001083423    1.609    0.379
        43  -9.3553    203.4674    111.5429   9.6347472707e+01   1.7982845075e+01    0.2642323    0.1455249 -22.08 0.0007449866    2.209    0.547
        44  -8.9779    108.0355    124.6483   1.2088326704e+02   3.5910719097e+01    0.1839539    0.1723987  54.72 0.0003769599    1.113    0.101
        45  -9.4895     33.0000    108.9874   1.3772877034e+02   4.9588685783e+01    0.2094039   0.05715217 -66.51 0.0007765524    2.956    0.662
        46  -8.6062    125.7957     99.1552   1.1019535397e+02   3.8003711521e+01    0.1879374    0.1719351  -2.92 0.0005244992    1.213    0.175
        47  -8.3966    184.5267     77.4881   9.0669262977e+01   2.8418567525e+01    0.1544853    0.1493948   4.56 8.196947e-06    1.040    0.039
        48  -9.1853    155.5101     75.4538   9.6101600775e+01   3.5948074501e+01    0.1530776    0.1503266  -4.61 9.128169e-05    1.004    0.004
        49 -11.4104      8.8210     54.1930   1.3520051345e+02   6.3344803607e+01    0.3377195     0.220988   8.41   0.00155991    1.988    0.497
        50  -9.0514    174.3191    249.6317   1.2758823291e+02   2.2132216636e+00    0.1097649   0.07723586  65.66 9.187846e-05    1.788    0.441
        51 -10.2781     81.8871    249.1015   1.4262534577e+02   1.6018179333e+01    0.2094501    0.1050741  60.29   0.00105118    1.628    0.386
        52 -15.0441     25.5858    173.9554   1.4662679406e+02   3.6251105965e+01     9.202127     3.305743  66.46   0.04069667    3.397    0.706
