#   1 NUMBER                 Running object number                                     
#   2 MAG_AUTO               Kron-like elliptical aperture magnitude                    [mag]
#   3 X_IMAGE                Object position along x                                    [pixel]
#   4 Y_IMAGE                Object position along y                                    [pixel]
#   5 X_WORLD                Barycenter position along world x axis                     [deg]
#   6 Y_WORLD                Barycenter position along world y axis                     [deg]
#   7 A_WORLD                Profile RMS along major axis (world units)                 [deg]
#   8 B_WORLD                Profile RMS along minor axis (world units)                 [deg]
#   9 THETA_WORLD            Position angle (CCW/world-x)                               [deg]
#  10 FWHM_WORLD             FWHM assuming a gaussian core                              [deg]
#  11 ELONGATION             A_IMAGE/B_IMAGE                                           
#  12 ELLIPTICITY            1 - B_IMAGE/A_IMAGE                                       
         1 -14.0138      5.2527    183.8008   1.4804099596e+02   3.5732833163e+01     6.118019     1.250566 -70.95   0.02511715    3.413    0.707
         2 -10.8937    196.9951     25.0469   6.8207650109e+01   3.3187731029e+01     0.498358    0.4191858  14.60  0.002145743    1.582    0.368
         3 -12.8730    206.5707     16.8216   6.4977246351e+01   3.1802684880e+01     1.976762     1.220151  28.80  0.009143759    2.712    0.631
         4  -8.9083    233.1987     10.4642   6.0792101713e+01   2.6225098436e+01     0.236276    0.2011542 -47.52  0.001102261    1.279    0.218
         5 -10.4106    138.9185     34.8601   8.0841600232e+01   4.6216253001e+01    0.2172415    0.2090545  -5.27  0.001323093    1.105    0.095
         6  -9.5170     28.5065    249.8020   1.4857375766e+02   2.0216913025e+01    0.1915799    0.1375144  70.64 0.0006099462    1.090    0.083
         7 -10.7025     10.7008    240.5484   1.5079047888e+02   2.3876371144e+01    0.3830055    0.1726795  76.30  0.002337727    1.843    0.457
         8 -10.7353      5.4001    249.3474   1.5204791385e+02   2.2824690940e+01    0.6318613    0.1950704  45.61  0.003632188    2.560    0.609
         9 -10.5007      6.7452    242.4663   1.5149697973e+02   2.3932318747e+01    0.3800304    0.1350215 -88.50  0.002033286    2.549    0.608
        10  -9.5025    245.6273    245.5908   1.0940131949e+02  -1.2898099828e+01     0.242405   0.08264276  29.70 0.0009604837    3.398    0.706
        11  -9.7511     20.0574    243.6911   1.4952102229e+02   2.2291168168e+01    0.2168086    0.1190841 -88.52 0.0004898279    1.459    0.315
        12  -9.1357     37.6517    243.8208   1.4672929239e+02   2.0231214744e+01    0.1476075   0.08070155  89.84 0.0003823796    1.574    0.365
        13  -8.8936     31.0342    243.9612   1.4780503286e+02   2.0993011494e+01    0.1893997   0.09189107  71.21  0.001132549    1.746    0.427
        14  -8.7176    237.3227    241.6663   1.1019999131e+02  -1.1158835097e+01    0.1059483   0.09556015  64.01 0.0007050373    1.706    0.414
        15  -7.7103    118.6201    241.7038   1.3230036668e+02   8.9016530389e+00    0.1171583   0.09645125  18.55 0.0002736555    1.757    0.431
        16  -9.4377     52.2138    238.0205   1.4386782239e+02   1.9496479468e+01    0.2470151     0.143937  77.88 0.0007682963    1.497    0.332
        17  -8.7227     22.0751    237.2048   1.4880701829e+02   2.3277693073e+01    0.1728142      0.12618 -69.74 0.0007450731    1.592    0.372
        18  -9.4120    245.4878    232.5030   1.0718562099e+02  -1.1235107921e+01    0.1224484    0.0990405  11.81 0.0008105634    1.002    0.002
        19 -10.2223    124.2871    232.1940   1.3004663136e+02   9.6740685689e+00    0.3058019    0.1535206  45.20  0.001507633    1.707    0.414
        20  -8.9097     91.9736    249.3193   1.3796293481e+02   1.1773344555e+01    0.1714055    0.1253929  58.30 0.0004734178    1.094    0.086
        21  -8.2595    239.5432    191.4943   1.0058033354e+02  -4.3340071177e+00     0.132804    0.1186812  -0.50 9.839984e-05    1.024    0.023
        22 -10.7690     70.2122    185.7777   1.3504036212e+02   2.7943907806e+01    0.2858559    0.2358359 -66.13 0.0004194081    1.250    0.200
        23  -9.3091     54.1035    230.5715   1.4292143933e+02   2.0688978978e+01    0.4246761    0.1797259  69.78  0.001947384    2.766    0.639
        24 -10.1352     79.6368    174.1106   1.3133970490e+02   2.9225293244e+01    0.2657717    0.2289251 -74.04  0.000385441    1.111    0.100
        25 -12.2904     66.9142    171.3872   1.3383377081e+02   3.1681133789e+01    0.4926571     0.274957 -46.85  0.001792036    2.156    0.536
        26 -11.6745     85.2649    165.0415   1.2862610742e+02   3.0467703663e+01     1.446976    0.6863405  62.23  0.002522312    3.073    0.675
        27 -11.8563     67.6076    144.7830   1.2955078241e+02   3.7809058679e+01    0.9990853    0.6042093  79.45  0.002779836    2.255    0.557
        28 -12.3419     10.2895    207.1837   1.4881321665e+02   3.0404263301e+01     1.738326     1.009728 -38.14  0.002918465    4.359    0.771
        29  -9.1298     99.2161    149.9474   1.2255984882e+02   3.1732802669e+01    0.3095501    0.2529993 -34.42 0.0008064777    1.465    0.317
        30  -8.3348    102.0079    146.0070   1.2108848150e+02   3.2176733191e+01    0.2259689    0.1769572 -25.41 0.0007684838    1.694    0.410
        31 -11.1046     87.9858    148.9562   1.2517370955e+02   3.3818439515e+01     0.299387    0.2445746 -49.85 0.0004669619    1.259    0.206
        32  -8.8675    120.0386    149.0410   1.1722711349e+02   2.8165890139e+01    0.2138529    0.2018793 -80.12 -0.001877172    1.015    0.015
        33  -9.0570     38.7103    147.7341   1.3713113063e+02   4.0591894426e+01     0.298733     0.102234  53.80  0.001063476    4.337    0.769
        34 -10.1108     26.0913    146.1743   1.3992825545e+02   4.2194217502e+01    0.2846525    0.1181195 -54.96  0.001380137    2.134    0.531
        35  -8.2030    185.2374    140.9686   1.0030480097e+02   1.6026766199e+01    0.2039359    0.1926133 -38.37 0.0002544513    1.061    0.057
        36  -8.2935     28.8811    230.2497   1.4723260921e+02   2.3842693761e+01    0.1506919    0.1109887  71.92 0.0003848602    1.091    0.084
        37  -8.7342    110.1741    136.1387   1.1694749446e+02   3.3020097545e+01    0.2899773    0.2231106 -15.39  0.001148524    1.849    0.459
        38 -10.4586    231.5019    133.9660   8.9684999952e+01   7.1921285027e+00    0.2583917    0.2435941  55.62 0.0003212438    1.142    0.124
        39  -8.7446    117.9119    133.9434   1.1447985172e+02   3.2067220126e+01    0.2162202    0.2059961 -66.83            0    1.023    0.022
        40  -9.5494     97.6475    132.9200   1.1949967798e+02   3.6000674567e+01    0.2581572    0.2260846 -19.39  0.000554154    1.381    0.276
        41 -10.6394     56.3984    128.9221   1.2967292220e+02   4.2975399712e+01     0.504277     0.237516 -71.19  0.002141712    2.307    0.566
        42  -7.6385    178.4305    118.5112   9.6290826807e+01   2.2218831870e+01    0.1562513    0.1513382 -67.11 3.392094e-05    1.017    0.016
        43  -8.9713     42.4773    117.4583   1.3138722232e+02   4.7186929130e+01    0.1298514    0.1065695 -58.43 0.0008081602    1.055    0.052
        44  -9.6289    110.0931    225.2560   1.3191276021e+02   1.3380517925e+01    0.2723408    0.1960896  57.69  0.001602132    1.186    0.157
        45  -8.2753    107.0649    123.2729   1.1484412560e+02   3.6568231603e+01    0.1946094    0.1799239  57.87 0.0003063107    1.126    0.112
        46  -9.1741    249.3768    115.1121   8.2443584309e+01   6.8202222405e+00    0.2307676    0.2039539  70.41 0.0002994937    1.261    0.207
        47  -7.6827    234.7074    114.6968   8.4684732260e+01   1.0005223948e+01    0.1409807    0.1145085   3.39 0.0002888985    1.573    0.364
        48  -9.9281    167.5203    113.1587   9.7315571683e+01   2.5884360578e+01    0.3908638    0.3110568 -84.14 0.0009997075    1.535    0.349
        49  -9.9300    173.8282    204.0799   1.1577674957e+02   5.8384381972e+00    0.2192547    0.1938504  39.63  0.000294337    1.041    0.039
        50 -11.6307     39.1254    225.2731   1.4511456814e+02   2.3617407004e+01    0.2894826    0.2366562 -82.52 0.0007110198    1.305    0.234
        51  -8.6135    156.8094     78.5711   9.0255911894e+01   3.5190226850e+01    0.2111879    0.1468688  65.71 0.0005759886    1.583    0.368
        52  -7.9703    150.1460     73.8140   9.0376129911e+01   3.7631514163e+01    0.2015794     0.173013  17.64            0    1.314    0.239
        53  -8.6628    187.1364     71.0337   8.1989975385e+01   2.9038887809e+01    0.2121371    0.2043188 -83.52 0.0002586835    1.025    0.024
        54  -9.7551    242.5736     59.0005   7.0597430144e+01   1.7593842297e+01    0.2379489    0.1892812  71.66 0.0003943753    1.272    0.214
        55  -8.2816    128.1642     58.1495   9.0825679702e+01   4.5338189245e+01    0.2051735    0.1810874  20.10 0.0003008557    1.144    0.126
        56  -8.2497    246.8760     54.8457   6.9146299945e+01   1.7248445586e+01    0.1858987    0.1838625 -72.36 0.0004167036    1.255    0.203
        57 -13.8636     47.8188    214.3321   1.4262811006e+02   2.4762176861e+01     3.955058     1.381142  48.53   0.01559113    2.483    0.597
        58  -9.4693    184.5247     44.1943   7.5119227438e+01   3.3818089655e+01    0.2890947    0.1630605  47.35 0.0008294043    1.848    0.459
        59 -11.2874    190.1639     37.5645   7.2444009825e+01   3.3307812618e+01    0.8784911    0.6436512 -77.26  0.004556775    1.466    0.318
        60  -8.6624     45.6335    248.9419   1.4579305074e+02   1.8300405766e+01    0.2345689   0.09682696  58.08  0.001291858    1.974    0.494
        61  -8.9352     40.8341    247.0780   1.4643924024e+02   1.9240261494e+01    0.1808764    0.1075427  70.99 0.0006355629    1.302    0.232
        62  -9.1988    189.4907     16.0305   6.6858783626e+01   3.6067333716e+01    0.1883369    0.1332282 -31.01  0.001032713    1.590    0.371
        63  -8.8923    107.8563    245.3277   1.3469910491e+02   1.0007869460e+01    0.2026946     0.150011  83.45 0.0008148935    1.340    0.254
        64 -10.5711     64.9222    192.8789   1.3703761039e+02   2.7100674393e+01    0.3355092    0.2450376 -46.59  0.001387255    1.801    0.445
        65  -8.0232    156.3213     37.2972   7.8100345188e+01   4.1741168642e+01    0.1453714    0.1017517  32.67 0.0004431609    1.619    0.382
