#   1 NUMBER                 Running object number                                     
#   2 MAG_AUTO               Kron-like elliptical aperture magnitude                    [mag]
#   3 X_IMAGE                Object position along x                                    [pixel]
#   4 Y_IMAGE                Object position along y                                    [pixel]
#   5 X_WORLD                Barycenter position along world x axis                     [deg]
#   6 Y_WORLD                Barycenter position along world y axis                     [deg]
#   7 A_WORLD                Profile RMS along major axis (world units)                 [deg]
#   8 B_WORLD                Profile RMS along minor axis (world units)                 [deg]
#   9 THETA_WORLD            Position angle (CCW/world-x)                               [deg]
#  10 FWHM_WORLD             FWHM assuming a gaussian core                              [deg]
#  11 ELONGATION             A_IMAGE/B_IMAGE                                           
#  12 ELLIPTICITY            1 - B_IMAGE/A_IMAGE                                       
         1 -13.3757    247.8453     57.7473   7.0786173251e+01   1.6201128816e+01     1.750348    0.3732997 -32.82  0.005457214    3.897    0.743
         2 -14.6215    162.6243     47.3296   8.0525185877e+01   3.8636231763e+01     2.203635     1.472647  23.43  0.007026657    1.970    0.492
         3 -13.6165    179.4771     24.5975   7.0625985511e+01   3.7245806966e+01    0.5844544    0.5588557  63.33  0.001114903    1.058    0.055
         4 -13.9126    175.7381     31.5135   7.3293614454e+01   3.7384389249e+01    0.8801327    0.7923608 -86.26  0.002692519    1.108    0.098
         5 -12.8213    189.7629     14.8147   6.6382333200e+01   3.5680686228e+01     0.330619    0.2803237 -47.06 0.0009971453    1.192    0.161
         6 -11.6026     64.2068      7.7694   9.0452017682e+01   6.5501319408e+01    0.2678925    0.1614657  46.67 0.0006377983    1.722    0.419
         7 -13.2093    193.1272      2.4863   6.2519112463e+01   3.6045222511e+01    0.8394101    0.3378338  72.47  0.003492316    2.266    0.559
         8 -11.6247    157.3301    218.7493   1.2186799847e+02   8.1759650790e+00    0.2196122     0.161385 -75.78  0.001259246    1.932    0.483
         9 -11.0606    159.1526    250.1434   1.2570411551e+02   3.2419787758e+00    0.1726158    0.1335195  30.32 0.0005094018    1.226    0.185
        10 -11.6900    207.6713    185.3887   1.0660052621e+02   4.4335513875e+00    0.3372525    0.2619419  14.91 0.0009284745    1.274    0.215
        11 -11.8613     99.4124    180.5583   1.2819340724e+02   2.5079112616e+01    0.2641318    0.2333805  57.39 0.0006066513    1.099    0.090
        12 -11.2722    198.2703    177.5312   1.0686498093e+02   7.4495384097e+00    0.3821085    0.2769041 -56.44   0.00144892    1.824    0.452
        13 -11.6840    126.0018    172.6920   1.2107427018e+02   2.2172508163e+01     0.329217    0.2654868  75.37  0.001819393    1.314    0.239
        14 -12.9571    113.7009    195.7553   1.2729185952e+02   1.9680194702e+01    0.7043179    0.4259214  22.69  0.003207054    2.647    0.622
        15 -12.6092    136.8787    171.2060   1.1840595800e+02   2.0471631382e+01    0.6479106    0.3393376  44.17  0.002889576    1.784    0.439
        16 -10.3108     18.7470    218.6745   1.4773554353e+02   2.7853875690e+01    0.1186073    0.1078433  85.20 0.0005067389    1.461    0.316
        17 -10.4752    135.9962    196.9813   1.2286058355e+02   1.5638111210e+01    0.2194849    0.1519939  72.78  0.001136102    1.784    0.439
        18 -11.6847    144.9490    168.5414   1.1614271643e+02   1.9473052616e+01    0.3298153    0.2590394  37.47 0.0008883266    1.255    0.203
        19 -12.2493     19.8283    213.7807   1.4727161138e+02   2.8658910360e+01    0.2588985    0.1467215  43.12  0.001330918    1.681    0.405
        20 -10.3713    165.3657    208.1903   1.1872634483e+02   8.4837673810e+00    0.2362579    0.1604779  40.95 0.0006252715    1.269    0.212
        21 -11.7906     99.9364    163.2695   1.2543119763e+02   2.8693000880e+01    0.2543039    0.2215002 -63.23 0.0002246428    1.177    0.150
        22 -13.7617     12.6286    205.9198   1.4808693045e+02   3.0864900863e+01    0.5347637    0.2495122  34.89   0.00325151    2.341    0.573
        23 -10.2701    145.3098    178.5348   1.1787900083e+02   1.7442932246e+01    0.1927101    0.1271895  34.21 0.0009425805    1.562    0.360
        24 -10.2782     12.4378    160.1508   1.4504452341e+02   4.0253254811e+01     0.227228    0.1412798  62.53  0.001039706    1.470    0.320
        25 -12.8565    104.2799    155.5708   1.2310247209e+02   2.9658684419e+01     0.632839    0.4151071 -41.10  0.003072959    1.832    0.454
        26 -11.4978    164.5182    157.5335   1.0970469664e+02   1.7752257221e+01     0.258478    0.2466569  35.08 0.0006451386    1.012    0.012
        27 -10.1226    110.4849    158.0018   1.2206098089e+02   2.8053574890e+01    0.2032517    0.1351529 -58.03 0.0005745085    1.512    0.339
        28  -9.7008    144.3284    156.6494   1.1397654795e+02   2.1998631152e+01    0.1517208    0.1133904  83.32 0.0007048257    1.765    0.433
        29 -10.3864     22.5479    204.6686   1.4623234919e+02   3.0127919007e+01    0.1302838   0.07990089  51.91 0.0001084452    1.415    0.293
        30 -12.0743    133.7537    144.9283   1.1401088604e+02   2.6548369219e+01     1.041975    0.2646525 -53.52  0.002725549    5.097    0.804
        31 -11.7553    112.3859    150.2000   1.2017602305e+02   2.9429678203e+01    0.3779274    0.2863892 -16.28  0.001820625    2.010    0.502
        32 -10.2237     98.2212    150.2606   1.2362506433e+02   3.1860729922e+01    0.2011839    0.1555278  78.66   0.00106614    1.377    0.274
        33 -10.9916    130.1997    206.3155   1.2540106396e+02   1.4929339735e+01    0.1730406     0.165272  77.80  0.001155362    1.141    0.124
        34 -10.9558    174.1844    149.2212   1.0586317350e+02   1.7347150894e+01    0.3566392    0.2000924  42.75 0.0009568739    1.735    0.424
        35 -11.3749     91.5857    148.0708   1.2486761160e+02   3.3436103355e+01    0.2847469    0.1942743  49.76 0.0006598879    1.459    0.315
        36 -11.8873    144.6619    145.8227   1.1165521840e+02   2.4170775734e+01     0.393675    0.2830624  78.13  0.001780123    1.899    0.473
        37 -10.5166      3.4207    146.6602   1.4594630490e+02   4.3893611709e+01    0.1626642    0.1362908  25.19 0.0006306074    1.622    0.383
        38 -11.4479    120.2894    205.0843   1.2722254595e+02   1.6816337147e+01    0.2173835    0.1766065  22.86 0.0007802921    1.530    0.347
        39 -12.4214    112.9111    140.3096   1.1810581678e+02   3.1529845571e+01    0.5037018    0.3351477 -33.99  0.002305231    1.918    0.479
        40 -12.5597    102.3568    140.7807   1.2083579859e+02   3.3297987287e+01     0.291017    0.2672706  64.52 0.0004541263    1.075    0.070
        41 -11.1743     20.5762    135.9766   1.4088502377e+02   4.4911994171e+01    0.1851655    0.1635439  64.48 0.0002984765    1.241    0.194
        42 -10.9343    150.7852    134.8841   1.0781029651e+02   2.5171989944e+01    0.3047719    0.2021983  73.45  0.001240593    2.239    0.553
        43 -11.7172    118.7494    130.4807   1.1455380213e+02   3.2626483541e+01    0.3595342    0.3318515  -3.34  0.000938856    1.266    0.210
        44 -12.1005    106.3461    128.7139   1.1734071670e+02   3.5327310653e+01    0.6346047    0.2886744 -47.94  0.002515806    2.170    0.539
        45 -13.1621    245.0948    119.4928   8.5873266652e+01   7.5477836110e+00    0.9024429    0.7260205   9.37  0.004491613    1.355    0.262
        46 -11.4640    160.1993    128.1901   1.0408467771e+02   2.4508549168e+01    0.4077013    0.2890009 -31.74  0.001876508    1.535    0.349
        47 -12.0440    135.3822    122.2413   1.0848804698e+02   3.1092079729e+01    0.7123508    0.1418222 -47.36  0.001750416    5.124    0.805
        48 -13.5383    195.2123    194.9174   1.1072149910e+02   5.2339680504e+00     1.017057    0.7770486 -85.37  0.004862684    2.330    0.571
        49 -11.6574    124.9058    127.2040   1.1226427798e+02   3.2149816499e+01     0.356457    0.2674369  69.72  0.001266599    1.578    0.366
        50 -11.3795    180.1054    193.5880   1.1340415383e+02   8.2186692346e+00    0.4661078    0.2813148 -65.13   0.00201238    3.005    0.667
        51 -10.7834    112.8591    119.5683   1.1357552069e+02   3.6181279857e+01     0.270972    0.2369052 -46.89 0.0005708325    1.134    0.118
        52 -12.3141    103.9553    193.6625   1.2903810937e+02   2.1678562254e+01    0.3959633    0.2921657  31.53  0.002217757    1.564    0.361
        53 -11.3492    167.8654    113.4500   9.8695726238e+01   2.5723099182e+01    0.3852387    0.3023919  75.69  0.001247778    1.561    0.359
        54 -10.5638      2.5888    112.5812   1.4294204542e+02   5.1499685820e+01    0.1920726    0.1406174 -48.39 0.0006642261    1.457    0.314
        55 -10.6093    205.4201    110.1713   9.0299594828e+01   1.7646876282e+01    0.3253736    0.2123372  41.40  0.000986175    1.614    0.380
        56 -10.7862     89.3308    108.9267   1.1749387301e+02   4.2771507906e+01    0.2051436      0.17244 -52.72 0.0005335314    1.112    0.101
        57 -11.2128    134.5350    104.0917   1.0405728939e+02   3.5125638206e+01    0.4755541    0.1474393 -45.33   0.00145013    3.195    0.687
        58 -12.2955    109.3306    189.3198   1.2730516039e+02   2.1672716054e+01    0.3491257    0.2591547  -6.26  0.001729894    2.522    0.603
        59 -13.6558    249.2499     90.2886   7.8405697433e+01   1.1171054820e+01     2.073333    0.3306732 -32.59  0.005171884    5.808    0.828
        60  -9.7913    148.4843     78.4584   9.3289503633e+01   3.7007467867e+01    0.1520106    0.1503813   4.24 0.0001783065    1.007    0.007
        61 -11.6788    211.9446    181.4919   1.0505301603e+02   4.2476013142e+00    0.3264642    0.2453485  14.37   0.00109225    1.354    0.261
        62  -9.5636    224.0013    184.2131   1.0338524006e+02   1.6517173250e+00    0.1669951   0.09762011  40.52 0.0008438558    1.609    0.378
        63 -19.7631     51.0941    165.9075   1.3706161127e+02   3.5056394823e+01     18.54607     5.197041 -70.77   0.06808599    3.608    0.723
        64 -10.9161    176.9673    243.9214   1.2176806154e+02   1.2594471566e+00    0.1746521     0.130395  62.69  0.000703651    1.670    0.401
        65 -11.6099    182.2043    241.1876   1.2046854258e+02   7.8437161935e-01    0.2439406    0.1947383 -61.79  0.001008145    1.811    0.448
        66 -10.0593     13.5130     59.9247   1.3084061495e+02   6.2433289788e+01    0.1764391   0.09437565 -61.28 0.0004042248    1.495    0.331
        67 -11.5787    197.1313    226.6119   1.1566408010e+02   2.9981733511e-01    0.2651086    0.1305534  30.82  0.001318875    1.959    0.489
        68 -11.6324    187.0761    221.0335   1.1662820952e+02   2.7529195616e+00    0.1959535    0.1658299  33.72  0.001297253    1.043    0.041
        69 -10.2733    158.4671    193.9757   1.1778993426e+02   1.2141960242e+01    0.1847719    0.1345869 -52.03 0.0007447033    1.563    0.360
