#   1 NUMBER                 Running object number                                     
#   2 MAG_AUTO               Kron-like elliptical aperture magnitude                    [mag]
#   3 X_IMAGE                Object position along x                                    [pixel]
#   4 Y_IMAGE                Object position along y                                    [pixel]
#   5 X_WORLD                Barycenter position along world x axis                     [deg]
#   6 Y_WORLD                Barycenter position along world y axis                     [deg]
#   7 A_WORLD                Profile RMS along major axis (world units)                 [deg]
#   8 B_WORLD                Profile RMS along minor axis (world units)                 [deg]
#   9 THETA_WORLD            Position angle (CCW/world-x)                               [deg]
#  10 FWHM_WORLD             FWHM assuming a gaussian core                              [deg]
#  11 ELONGATION             A_IMAGE/B_IMAGE                                           
#  12 ELLIPTICITY            1 - B_IMAGE/A_IMAGE                                       
         1 -12.6288    201.2018     39.0388   4.5311563439e+01   2.9367976979e+01     1.276029     1.066151  17.35  0.007216623    1.485    0.327
         2 -12.5046    212.6941     27.1715   4.0953114001e+01   2.8088369361e+01    0.9721755    0.7787697  23.70  0.004664512    1.622    0.384
         3 -10.7537     12.4083     11.6095   9.4050564455e+01   7.5467725823e+01    0.3733481    0.1573388 -50.80  0.001797472    2.019    0.505
         4 -10.0174     16.9787      6.5168   8.7451987178e+01   7.5972943182e+01    0.2373675    0.1481965 -18.51  0.001295618    1.740    0.425
         5 -10.7343    239.0035      4.3017   3.3432986150e+01   2.4682655187e+01    0.5119426    0.4167801  62.80   0.00344028    1.474    0.321
         6 -10.3515    234.9891      3.4963   3.3455065625e+01   2.5603650583e+01    0.4217894    0.2372703 -66.96  0.001858691    1.672    0.402
         7 -10.6398    159.9934    226.6710   9.3268882378e+01   8.0574976430e+00    0.4292973    0.1726619  33.32   0.00214341    2.012    0.503
         8  -9.8976    117.0353    249.2918   1.0400871226e+02   1.0715429913e+01    0.2651744    0.1655844 -66.31  0.001746841    2.313    0.568
         9 -10.8679     27.7828    214.9290   1.1955381238e+02   2.7108884637e+01    0.5779166    0.2501997  69.00  0.003097198    2.229    0.551
        10 -11.7997     24.8389    226.1381   1.2065244558e+02   2.5346276731e+01     1.046801    0.3543126  58.99  0.005333163    2.481    0.597
        11 -12.2167     41.8047    201.1918   1.1572818748e+02   2.8289655180e+01     1.066463    0.5938969  73.73  0.003684856    1.781    0.439
        12 -12.4373     52.2342    190.7789   1.1255134210e+02   2.9207327749e+01     2.496899     1.211442  84.10   0.01185066    2.536    0.606
        13 -14.7033      3.6405    183.5016   1.2356481573e+02   3.5568069633e+01     10.25554     0.879509 -78.36   0.02943092    7.707    0.870
        14  -8.9145    109.8334    201.3009   1.0035443289e+02   1.9380815822e+01    0.1929655    0.1645776  89.27 0.0003788845    1.386    0.278
        15  -8.1139     30.0044    202.0000   1.1841928765e+02   2.9378272897e+01    0.1529935    0.1386417 -33.04 0.0006196679    1.588    0.370
        16  -8.5005     24.6049    202.3547   1.1963270363e+02   2.9847571625e+01    0.2106459     0.122807  32.06  0.001119412    1.587    0.370
        17  -9.2599     62.1664    200.6021   1.1105880868e+02   2.6028320315e+01    0.3580913    0.1628233 -69.53  0.001808989    2.424    0.587
        18  -7.7688     65.6739    194.6764   1.0972608299e+02   2.6765498055e+01    0.3163124    0.2290314 -14.37  0.001730126    2.316    0.568
        19  -8.0645     99.8189    180.8211   1.0003346126e+02   2.4781594093e+01    0.1867584    0.1358542  55.14 0.0004986097    1.314    0.239
        20 -11.3047     11.4021    188.6850   1.2197829527e+02   3.3839309285e+01    0.2879533    0.2353256  43.99 0.0004885106    1.216    0.178
        21  -8.1809    143.8503    179.8794   8.9750712304e+01   1.7857226541e+01    0.2709719    0.1671935  60.16  0.001250461    2.291    0.564
        22 -10.5022     67.2791    175.4465   1.0740821983e+02   3.0562334543e+01    0.4631316    0.2786587 -42.27  0.001768094    2.318    0.569
        23 -10.3629     71.9661    170.4930   1.0564842122e+02   3.1005942326e+01    0.3037797    0.2655399 -42.72  0.001181801    1.407    0.290
        24  -8.8740     41.8879    179.2190   1.1412929354e+02   3.2834788881e+01    0.1882941    0.1549971  57.76 0.0004019279    1.029    0.028
        25 -13.3767      8.8360    207.0142   1.2322833697e+02   3.0402519509e+01     1.787578     1.084612 -47.85   0.01082889    2.577    0.612
        26  -9.5382    103.7528    172.1580   9.7861150844e+01   2.5926553434e+01    0.2912982    0.1838807  27.60  0.001444922    1.652    0.395
        27  -9.5260     98.7273    170.5606   9.8870712451e+01   2.7048693955e+01    0.3387726    0.1159467  37.73  0.001114431    2.527    0.604
        28  -8.3371     34.0864    171.4887   1.1549522485e+02   3.5366829464e+01    0.1794748    0.1114677  33.74 0.0006496867    1.524    0.344
        29  -8.2370    136.5340    169.4931   8.9646637581e+01   2.0992803783e+01    0.1371785    0.1226518  26.83 5.565164e-05    1.050    0.048
        30 -11.1014     87.5006    154.8365   9.9433791159e+01   3.2203669230e+01    0.8294145    0.5517839 -49.32  0.004197848    1.681    0.405
        31 -11.9670     58.9096    132.6840   1.0428227129e+02   4.1560691255e+01     1.150154    0.5623195  89.73  0.004241487    3.108    0.678
        32 -10.9951     80.9111    161.3895   1.0214461286e+02   3.1739282701e+01    0.6197893      0.33595  53.38 0.0004052239    1.852    0.460
        33 -11.9786     68.8538    156.8280   1.0477115837e+02   3.4490745300e+01     0.639899    0.4842381   5.14  0.001379732    1.822    0.451
        34  -9.6844     32.6319    156.7754   1.1470881822e+02   3.8856411710e+01    0.3097614    0.1822311  56.00  0.001665467    1.518    0.341
        35  -8.9329     82.9405    142.6870   9.8760246670e+01   3.5686927514e+01    0.2410557    0.1974922 -82.53 0.0004043628    1.261    0.207
        36  -9.5014    101.6556    140.0394   9.3073010501e+01   3.3198365715e+01    0.4769804    0.3196309 -25.16  0.002091684    2.258    0.557
        37  -8.3269    132.5004    141.4847   8.5351248518e+01   2.7231317050e+01    0.1447057    0.1363222  44.96 -6.570699e-05    1.029    0.028
        38 -10.4610     89.1022    139.7522   9.6514018254e+01   3.5382797660e+01    0.2871321    0.2664928 -26.27 0.0005229972    1.257    0.205
        39  -9.0920     34.3915    139.2319   1.1256912795e+02   4.2842035583e+01    0.2652693    0.1807318  52.69 0.0006933173    1.351    0.260
        40  -9.6427     25.4856    137.2174   1.1504583917e+02   4.4197842219e+01    0.3485098    0.1410088  34.11  0.001342459    2.254    0.556
        41  -8.8105    105.6845    130.7745   9.0144149973e+01   3.4565551472e+01     0.308235    0.2599262 -77.53  0.001448433    1.287    0.223
        42  -8.9254    111.3595    130.2213   8.8469905103e+01   3.3640089052e+01    0.2838245    0.2335122   4.30  0.001007284    1.527    0.345
        43  -9.6046     66.8709    127.2139   1.0094578568e+02   4.1797019138e+01    0.4192765    0.1690049 -73.35   0.00142123    3.312    0.698
        44 -14.4327     38.8015    248.6244   1.1890487104e+02   2.0100594874e+01     8.813582      2.73967  22.50   0.02538234    9.334    0.893
        45  -8.7853     98.3897    126.2989   9.1282887933e+01   3.6905039184e+01     0.285769    0.2272662 -12.43  0.000973825    1.698    0.411
        46  -9.8962     32.6297    118.8367   1.1080728694e+02   4.8058146269e+01    0.4249905    0.1064418 -69.32    0.0014377    3.402    0.706
        47  -7.9299    107.7025    119.0835   8.7050423117e+01   3.6827846168e+01    0.1953363    0.1888499 -49.04 0.0002733705    1.080    0.074
        48  -8.9180    134.6286    112.9891   7.8376448997e+01   3.2685297192e+01    0.3516204    0.1445906 -44.67  0.001253905    2.481    0.597
        49  -9.0459     33.2112    108.8673   1.0927510618e+02   5.0513301926e+01    0.4741054    0.0935359 -69.48  0.001395584    4.350    0.770
        50 -10.3582     17.5337    110.2248   1.1497295473e+02   5.1554481315e+01     0.327693     0.229644  77.25  0.001227073    1.335    0.251
        51 -10.7277     22.6440    107.6510   1.1287660779e+02   5.1790901666e+01    0.4529457    0.2463043 -65.15  0.002130834    1.637    0.389
        52  -8.2036    205.9828    110.3028   6.3048016690e+01   1.8059691250e+01    0.1884278    0.1730024  18.33 0.0004466232    1.108    0.097
        53 -12.0830     68.5260    144.3978   1.0314998349e+02   3.7428182561e+01    0.9658908    0.5935162  61.91  0.002905205    1.748    0.428
        54  -8.2114     32.5542    100.4809   1.0826456820e+02   5.2704980939e+01    0.1366657     0.121369 -88.19 8.944127e-05    1.024    0.024
        55  -8.9638    240.3290     91.9956   5.3889532434e+01   1.4073462916e+01    0.2104313   0.09920569 -10.63 0.0007049986    4.314    0.768
        56  -8.2924    234.5111     84.9754   5.2994400989e+01   1.6107445550e+01    0.1810425    0.1068095  -5.41 0.0008091754    2.446    0.591
        57 -14.9373      7.4483    241.7589   1.2451135735e+02   2.4277197824e+01     12.99536     1.345544 -83.17   0.01688721   11.077    0.910
        58  -7.4331     70.3024     81.6838   8.9777322273e+01   5.2398648063e+01    0.1495537    0.1144794  78.59 0.0003690248    1.619    0.382
        59  -8.1669     54.2154     65.2560   9.1407983453e+01   5.8814332401e+01     0.190689    0.1642215  79.56 0.0003434458    1.334    0.250
        60  -8.3758     92.1769    216.5905   1.0588743375e+02   1.9154682360e+01    0.1824083    0.1426114  62.66 0.0005512126    1.269    0.212
        61 -11.9420    191.7221     45.9016   4.8377935588e+01   3.0759197963e+01    0.9089472    0.6420817  22.54  0.003362695    1.943    0.485
        62  -9.2288     59.3984    231.0126   1.1391829619e+02   2.0763087331e+01    0.2166784    0.1834394  85.93 0.0008942427    1.326    0.246
        63  -9.2002     53.1324    230.2052   1.1514046206e+02   2.1622478273e+01    0.2343178    0.1453547  75.14  0.001136754    1.649    0.394
        64  -9.3680    141.4304     46.6399   5.6830772692e+01   4.3408573316e+01    0.3122748    0.2387782 -76.12  0.000792685    1.509    0.337
        65 -11.4029     57.6482    240.7489   1.1487678024e+02   1.9327849170e+01     0.303072    0.2020561  58.05   0.00049815    1.256    0.204
        66  -8.2400    144.6943     41.6886   5.4469735663e+01   4.3293882569e+01    0.2066447    0.1656329 -67.10  0.001023383    1.333    0.250
        67  -8.0751     77.4743    226.1462   1.0984470413e+02   1.9411729344e+01    0.1439075    0.1129879 -76.60  0.001005014    1.519    0.342
        68  -8.6869     33.0000     12.9572   8.0057495206e+01   7.2752504227e+01    0.2095833   0.06826111 -43.59  0.000511387    2.923    0.658
        69  -8.5035     44.4197    229.9654   1.1689159824e+02   2.2633495768e+01    0.2094671    0.1069015  49.20  0.001286477    1.454    0.312
        70 -10.1263     49.3421    216.7915   1.1508863376e+02   2.4456500192e+01    0.5150518    0.2759132  59.08  0.003033306    1.634    0.388
        71  -8.7852     33.5458    226.9859   1.1893670159e+02   2.4315124417e+01    0.1602823    0.1432821  74.73 0.0007240501    1.288    0.223
