#   1 NUMBER                 Running object number                                     
#   2 MAG_AUTO               Kron-like elliptical aperture magnitude                    [mag]
#   3 X_IMAGE                Object position along x                                    [pixel]
#   4 Y_IMAGE                Object position along y                                    [pixel]
#   5 X_WORLD                Barycenter position along world x axis                     [deg]
#   6 Y_WORLD                Barycenter position along world y axis                     [deg]
#   7 A_WORLD                Profile RMS along major axis (world units)                 [deg]
#   8 B_WORLD                Profile RMS along minor axis (world units)                 [deg]
#   9 THETA_WORLD            Position angle (CCW/world-x)                               [deg]
#  10 FWHM_WORLD             FWHM assuming a gaussian core                              [deg]
#  11 ELONGATION             A_IMAGE/B_IMAGE                                           
#  12 ELLIPTICITY            1 - B_IMAGE/A_IMAGE                                       
         1 -12.7086    246.0758     40.8642   5.1854466357e+01   1.8187298599e+01     1.762913    0.5294017 -44.75  0.006014458    3.169    0.684
         2 -12.0042    215.5198      6.2274   4.6001692350e+01   2.9828496991e+01    0.5529908    0.4265538 -47.53   0.00222244    1.255    0.203
         3 -13.5605    225.1409     13.6571   4.7026829340e+01   2.6602616716e+01     2.037812    0.9754955 -69.45  0.005841632    2.790    0.642
         4 -12.5615    244.6174     29.5808   4.9157433453e+01   1.9963318922e+01     1.027492    0.6089871 -63.99  0.003722643    1.853    0.460
         5 -12.0967    245.3002     20.5745   4.6833769301e+01   2.0881111660e+01    0.8367611    0.6049573 -70.64  0.003418543    1.371    0.270
         6 -12.6092    232.7159      4.9118   4.4042365768e+01   2.5657328673e+01      1.51419     0.709523 -63.98  0.006321738    2.471    0.595
         7 -12.3346    242.9975      7.7688   4.3872209272e+01   2.2866152035e+01     1.317869    0.4047087 -49.36  0.004756889    3.222    0.690
         8 -12.1688    247.7126      4.1716   4.2615284715e+01   2.2131744097e+01    0.8575038    0.4020921 -41.83  0.003452259    1.857    0.462
         9 -11.5458    227.1138     30.5804   5.1330131128e+01   2.4119806859e+01    0.8824626    0.2559706 -39.11  0.003047284    2.951    0.661
        10 -10.1936    194.7562     20.7679   5.2589234564e+01   3.3653422720e+01    0.3915243    0.3180257  -0.80  0.001110741    1.431    0.301
        11 -12.6429    213.7289     28.1544   5.2276114196e+01   2.7821499067e+01    0.9923053    0.3958514 -33.20  0.001058026    2.317    0.568
        12 -10.9999    161.7818     10.4887   5.4119022859e+01   4.3457624505e+01    0.3995547    0.2971644 -36.67  0.001645391    1.419    0.295
        13 -11.3279    105.7603     13.6198   6.6865351857e+01   5.6748588784e+01    0.2736225    0.2408251 -22.56 0.0002956945    1.191    0.160
        14 -10.9296    126.5038     10.8929   6.0804871526e+01   5.2299143570e+01    0.3361597    0.2836907  59.23 0.0007116311    1.196    0.164
        15 -10.1652    201.1152     10.2563   4.8690895201e+01   3.3134526002e+01    0.2515998    0.1955011 -41.61 0.0005432648    1.290    0.225
        16 -10.5073    186.5145      9.9468   5.0391954862e+01   3.7002932887e+01    0.3282024    0.1140144 -31.57  0.001210943    2.711    0.631
        17  -8.9037    118.9993     10.0166   6.2117444758e+01   5.4161075272e+01    0.1682906    0.1480251   1.14 0.0006275226    1.109    0.098
        18  -9.8792     56.1102     10.3750   8.1465360462e+01   6.6296573080e+01    0.2912513    0.1392818  37.13  0.001268528    2.175    0.540
        19 -10.6767     15.7034      6.6316   9.7833870100e+01   7.1518995757e+01    0.3829922    0.1936045 -56.37  0.002008694    2.706    0.630
        20  -9.5144     73.0151      7.0966   7.3691654329e+01   6.3966179608e+01    0.1968361     0.164132   5.51 0.0006508594    1.020    0.020
        21  -9.4906    176.5556      5.7771   5.0402369912e+01   4.0041447390e+01    0.1976193    0.1237917 -39.21 0.0009398836    1.657    0.397
        22 -10.0084    110.9210      5.5345   6.2137679534e+01   5.6463132154e+01    0.3496416     0.232353  47.23  0.001851074    1.368    0.269
        23 -10.5045    202.2817      3.4470   4.6601969070e+01   3.3516086482e+01    0.2913322    0.1875559 -68.71   0.00141411    1.670    0.401
        24 -10.0814    183.6286      2.7163   4.8531625461e+01   3.8468175408e+01    0.3857765    0.1784724 -56.17  0.001477029    2.750    0.636
        25 -10.9847    127.6233      1.9242   5.7027846480e+01   5.2890948158e+01    0.3093192      0.22552  76.62 0.0009301308    1.548    0.354
        26  -9.6847      6.9086      2.1286   1.0030265496e+02   7.2912953922e+01    0.1437622    0.1244446  55.04  0.001078149    2.083    0.520
        27  -8.9348      1.2413      1.9896   1.0328380983e+02   7.3308118614e+01    0.1429875   0.06819572 -47.76 0.0008789058    1.592    0.372
        28  -9.7893    174.1428    207.7660   1.0251040614e+02   7.2603550186e+00    0.2495326     0.180685 -65.77   0.00125565    1.941    0.485
        29 -10.5659    126.5348    249.5132   1.1613575113e+02   9.0091970461e+00    0.2331983    0.1664568  70.76 0.0009544198    1.400    0.286
        30 -10.3371    115.7341    249.4710   1.1790096529e+02   1.0632496055e+01    0.2063732    0.1698269  70.74 0.0007915483    1.183    0.154
        31 -10.4789    145.4553    201.6116   1.0699391785e+02   1.3350341379e+01    0.8206277    0.4635638  88.13  0.002825997    5.260    0.810
        32  -9.4315     11.2547    216.5439   1.3244959486e+02   2.9150436807e+01    0.2106167   0.09039488  35.97  0.001285566    2.640    0.621
        33 -10.5635    123.8693    203.7353   1.1141554417e+02   1.6680325510e+01     0.352411    0.1794863 -56.29   0.00135432    2.225    0.551
        34  -9.9461    126.1338    198.5332   1.1028829179e+02   1.7224466425e+01    0.2744321    0.2124842  72.51  0.001662889    1.272    0.214
        35 -10.0937    213.5698    198.7384   9.3817783672e+01   1.4586327757e+00    0.2539693    0.2266035  -8.49  0.001684952    1.199    0.166
        36  -9.3920    202.2603    198.5811   9.5830380003e+01   3.5219270923e+00      0.19388    0.1045163  35.34 0.0009598779    1.681    0.405
        37 -11.0120    197.2804    208.9953   9.8480613724e+01   2.9596225365e+00    0.2714255    0.1754349 -32.86  0.001558511    1.820    0.451
        38 -10.0350    206.2308    189.4985   9.3489233784e+01   4.0953763390e+00    0.3105203    0.2321606 -53.87  0.001630084    1.814    0.449
        39 -10.7463    129.7485    189.1940   1.0825521321e+02   1.8302265488e+01    0.3847201    0.2610594  87.05  0.001077799    1.908    0.476
        40 -10.2140    124.4534    182.7422   1.0836815243e+02   2.0435955607e+01    0.3332689    0.1900392 -71.24  0.001575123    2.262    0.558
        41 -10.0131    192.2832    186.8005   9.5598330701e+01   7.1240120958e+00    0.4435166    0.1983468 -47.70   0.00188795    2.817    0.645
        42  -9.5491    158.5291    189.0150   1.0250819742e+02   1.3134286397e+01    0.1857865    0.1331693 -48.68 0.0007820475    1.590    0.371
        43  -9.7576     61.3366    185.5843   1.2143574654e+02   2.9434661722e+01     0.214117    0.1545018  89.10 0.0006309387    1.182    0.154
        44 -11.1484    222.3866    183.8509   8.9507150582e+01   1.9040878205e+00    0.2655195     0.161265 -15.50  0.001324497    1.979    0.495
        45  -9.7783    204.7888    181.2908   9.2230141346e+01   5.5834179041e+00    0.2672023    0.2083198  22.07  0.001437471    1.234    0.190
        46  -8.8538    229.9634    177.2603   8.6883561862e+01   1.4222202321e+00    0.1877494    0.1534967  25.05 0.0007866853    1.072    0.067
        47 -10.2709     43.8728    172.8053   1.2365174003e+02   3.4132501471e+01    0.2347734    0.1816926  57.96 0.0007147087    1.252    0.201
        48 -10.6266    229.4432    167.9181   8.5096590143e+01   2.8418244985e+00    0.3475445    0.2808151  30.63 0.0009873837    1.131    0.116
        49 -11.9390    220.5019    165.6057   8.6225685863e+01   4.9083299589e+00    0.6446885    0.5587719 -52.42   0.00263996    1.465    0.318
        50  -9.9606    150.3879    167.8123   1.0049818019e+02   1.8516039565e+01    0.4191802    0.1352987 -50.70  0.001448715    3.504    0.715
        51  -8.6569     51.3233    168.3200   1.2168912983e+02   3.4205630975e+01    0.1092691   0.08754771 -48.46 0.0007045309    1.674    0.403
        52 -10.0584    163.2715    166.7031   9.7608812214e+01   1.6193569431e+01    0.2858691    0.2195668  80.81  0.000949313    1.687    0.407
        53 -10.4768     69.9716    169.8565   1.1796876119e+02   3.1525198432e+01    0.4091827    0.2162388 -79.25  0.001304238    1.943    0.485
        54 -11.1488    245.2909    162.1036   8.1150171846e+01   6.8145972343e-01    0.5189475    0.3169279   6.08  0.002477386    2.052    0.513
        55 -10.4696    190.4911    163.8964   9.1559620702e+01   1.1194295105e+01    0.2389512    0.2363475 -10.80 0.0003618594    1.119    0.106
        56  -9.4232    110.8228    166.8238   1.0879231049e+02   2.5939993494e+01    0.1885829    0.1436955  75.73 0.0004495373    1.326    0.246
        57 -11.5341    249.0811    155.0093   7.9014012147e+01   9.5914593887e-01    0.5797438    0.2015608 -32.06  0.002268605    2.769    0.639
        58  -9.0637    101.3691    156.2338   1.0919012648e+02   2.9739705755e+01    0.1866351    0.1199548 -72.07 0.0006520841    1.629    0.386
        59 -10.0525     49.9037    148.9713   1.1981977845e+02   3.8524506076e+01    0.2916324    0.1681377 -85.79  0.001116839    1.657    0.397
        60  -9.6801     87.9834    169.6547   1.1412406581e+02   2.9003757164e+01    0.2420763    0.1725042 -80.69 0.0006846092    1.353    0.261
        61  -8.8077    137.5973    143.8264   9.8661134946e+01   2.5795940787e+01    0.2034665    0.1355033 -62.93 0.0009425217    1.694    0.410
        62  -9.3152      4.3670    134.6836   1.2855398901e+02   4.5853236232e+01    0.1183176   0.06355116  69.86 0.0007038179    1.777    0.437
        63 -10.8115    208.1525    130.9731   8.0862639638e+01   1.3068690085e+01    0.5487427    0.2815433 -45.30  0.002223349    2.144    0.534
        64  -9.0030    140.3697    133.1998   9.5764299245e+01   2.7450774132e+01    0.2093577    0.1371575 -58.10 0.0009445468    1.656    0.396
        65  -8.9809    192.7740    131.8134   8.4063277503e+01   1.6337899485e+01    0.1913657    0.1759338 -79.22  0.000321569    1.271    0.214
        66  -9.2850     24.6839    130.3392   1.2347210801e+02   4.5188775165e+01    0.1865591    0.1097626  73.44    0.0009018    1.723    0.419
        67 -10.2430    155.5961    125.6902   9.0546046080e+01   2.5777284071e+01    0.3709256    0.2525034 -58.17  0.001668198    1.671    0.402
        68 -10.5867     74.6936    125.5995   1.1037521242e+02   4.0618505268e+01     0.399022    0.2214371 -58.41  0.001274468    1.615    0.381
        69  -8.8599    171.5013    126.0104   8.7104471212e+01   2.2192381413e+01    0.2235162    0.1502131 -39.72 0.0005186526    1.518    0.341
        70  -9.1427    132.4947    122.9890   9.5317595902e+01   3.1214360932e+01    0.2087591    0.1287989 -72.12 0.0008090034    2.423    0.587
        71 -10.2380    119.6493    121.8262   9.8197845451e+01   3.3998240147e+01    0.4019071    0.2383299 -50.19  0.001262783    1.647    0.393
        72  -9.3023     98.1263    122.7822   1.0383478326e+02   3.7651676552e+01    0.2970853    0.1518428  60.40  0.001147292    2.764    0.638
        73  -9.0995    140.0341    122.5256   9.3404786075e+01   2.9758890400e+01    0.2142887     0.129406  69.01 0.0008094577    2.495    0.599
        74  -9.6269     82.4733    121.1413   1.0753995296e+02   4.0505793903e+01     0.220866    0.1742189  78.37 0.0005548146    1.349    0.259
        75  -9.3546    227.5922    118.4167   7.4308317170e+01   1.0859136320e+01    0.2973087    0.1075425 -45.16 0.0009571185    3.329    0.700
        76  -9.8887    244.9788    111.9742   6.9868897406e+01   8.1034686822e+00    0.3454947    0.2056591 -56.45  0.001447456    2.449    0.592
        77 -11.8982    249.9477    112.5649   6.9234602342e+01   6.9679338943e+00     1.117499    0.2257067 -36.53  0.003263556    4.158    0.759
        78 -11.4194    247.2632     98.1986   6.6160753724e+01   9.7031874050e+00    0.6064299    0.2424243 -43.01  0.002268419    2.549    0.608
        79 -10.1040    192.7088    111.5761   7.9083288961e+01   2.0015207924e+01    0.3091098    0.2648568 -80.01 0.0008407508    1.423    0.297
        80 -12.2620    184.0433    104.8427   7.9081419164e+01   2.3301446080e+01    0.6006635    0.4717943 -82.16 0.0007560258    1.690    0.408
        81 -10.3131    136.2656    108.6078   9.0891868872e+01   3.3485719488e+01    0.3613379    0.2611335  85.18  0.001235151    1.981    0.495
        82  -9.9792    174.9546    107.1451   8.1598680986e+01   2.5027417171e+01    0.2468904    0.2216873 -35.30 0.0003332712    1.113    0.102
        83  -9.5776    237.6964    103.3485   6.8915344639e+01   1.1015414553e+01    0.2555059     0.192971  86.59  0.001228717    1.882    0.469
        84 -11.2761     47.1789    102.9444   1.1367608642e+02   4.9190443114e+01    0.3788282    0.2394984 -73.78  0.001063818    1.455    0.313
        85  -8.9666     73.1507    102.1800   1.0616750843e+02   4.6168984286e+01    0.3144598    0.1402548  58.18  0.001067754    4.162    0.760
        86 -10.7867    132.0319     99.0451   8.9431047578e+01   3.6393687210e+01    0.3817485      0.29037 -82.90  0.001041667    1.752    0.429
        87 -10.0970    119.3117     99.9586   9.2948140458e+01   3.8818930651e+01    0.2191616    0.1912563 -49.57 0.0008736003    1.101    0.092
        88  -9.4506    227.1707     98.7872   6.9481093832e+01   1.4120122382e+01    0.2700231    0.1833756 -41.35 0.0008668253    1.446    0.308
        89  -9.7233    235.1439     95.2919   6.7299795907e+01   1.2847264251e+01    0.2958077    0.1729393 -53.36  0.001235556    2.118    0.528
        90 -10.6904    149.3263     93.9436   8.3780486226e+01   3.3600703196e+01    0.3445882    0.2677098 -51.71 0.0004844008    1.331    0.248
        91 -10.4857    115.5096     94.7595   9.2568065179e+01   4.0684161775e+01    0.2614799    0.2279816 -32.77   0.00138906    1.171    0.146
        92 -10.6584    214.1885     92.8034   7.0134438201e+01   1.8154544523e+01    0.4631288    0.2431836 -47.53  0.001816944    2.097    0.523
        93 -10.1920    213.1366     87.4801   6.8896459941e+01   1.9287703143e+01    0.3868367    0.2519281 -50.34   0.00170264    1.677    0.404
        94  -9.3186    210.1165     93.9214   7.1150442403e+01   1.8947327647e+01    0.2223355    0.2005461 -61.87  0.001158151    1.207    0.171
        95 -10.8193    249.8262     90.4645   6.3876478972e+01   1.0304176190e+01    0.4238174    0.1639501 -26.26   0.00151197    2.736    0.635
        96  -9.5182    157.9338     92.1786   8.1274472310e+01   3.1938089388e+01    0.2441818     0.216391 -80.56 0.0007510562    1.280    0.219
        97  -9.3422     15.9625     92.5318   1.2086121064e+02   5.4274129060e+01    0.1499088   0.08458888 -29.52 0.0008092988    2.505    0.601
        98  -9.1530    200.7204     86.3642   7.0806287582e+01   2.2520041294e+01    0.2191709    0.2072421  55.93 0.0005908011    1.087    0.080
        99 -11.1403    196.5594     82.3716   7.0465038442e+01   2.4232156684e+01    0.5259036    0.3292544 -50.01  0.000791006    1.750    0.429
       100 -11.5488    242.7789     80.3620   6.2355736937e+01   1.3390753827e+01    0.5816796    0.2030364 -42.08  0.001869013    2.754    0.637
       101 -10.5768    119.3330     82.3242   8.8015538734e+01   4.2518442109e+01    0.3434553    0.2475282 -39.65 0.0009094065    1.339    0.253
       102 -10.1199    122.2856     80.3421   8.6632140757e+01   4.2306780369e+01    0.3030985    0.2519835 -65.03  0.000724294    1.352    0.261
       103 -10.8525    147.1934     80.5706   8.0397110363e+01   3.6705251152e+01    0.4542804    0.3268746 -29.34  0.001393866    1.447    0.309
       104  -9.3375     16.9388     79.1308   1.1839407801e+02   5.7161662312e+01    0.1751756    0.1355509 -83.70 0.0005845687    1.253    0.202
       105 -11.0035    249.6928     75.1847   6.0088145922e+01   1.2586789635e+01    0.3823406    0.2419911 -38.78  0.001153762    1.436    0.303
       106 -10.2129    216.8410     74.4682   6.4750052914e+01   2.0474214238e+01    0.2954555     0.216521 -29.61  0.001416494    1.329    0.248
       107 -10.0906    164.3945     78.7112   7.5900937659e+01   3.2907538945e+01    0.3932584    0.2645604 -83.77  0.001502067    2.473    0.596
       108  -8.8745    225.3205     74.6502   6.3460956951e+01   1.8371801766e+01    0.1592444    0.1099143 -61.58 0.0007048445    1.742    0.426
       109 -10.0504    174.1903     72.6564   7.2010043150e+01   3.1534905743e+01    0.4720363    0.2821006 -14.72  0.001782439    2.317    0.568
       110 -11.0613    183.2910     71.5566   6.9867665397e+01   2.9412871943e+01    0.4049399    0.3817697 -55.93    0.0007852    1.087    0.080
       111 -11.3342    165.5830     69.7822   7.2936502808e+01   3.4199244465e+01    0.7126361    0.2606035 -35.74  0.002237167    2.666    0.625
       112  -9.9040    151.2933     71.9318   7.6785015885e+01   3.7338401879e+01    0.2912153    0.2578178  81.55 0.0006964783    1.278    0.217
       113 -12.0116    206.7608     68.7432   6.4819377757e+01   2.3894712177e+01     0.552073    0.4231417  89.69  0.001279788    1.580    0.367
       114  -9.8040    238.6432     69.9644   6.0271942590e+01   1.5894806870e+01    0.2150304    0.1779363 -36.77  0.001150241    1.121    0.108
       115 -10.6276    142.0359     68.6086   7.7933320409e+01   4.0151301860e+01    0.3929212    0.3120053 -63.37  0.001636082    1.492    0.330
       116 -10.6483    249.9256     66.6124   5.7904147253e+01   1.3768816021e+01    0.2663588    0.2290039 -23.03 0.0005133378    1.135    0.119
       117 -11.1710    185.5907     62.4754   6.6721108014e+01   3.0311994127e+01    0.3409838    0.2859075 -27.81 0.0001145309    1.201    0.167
       118 -11.0029     47.6489     62.9980   1.0453558630e+02   5.7969433691e+01    0.3007571     0.222427 -62.29 0.0005725352    1.311    0.237
       119 -10.7504     51.3206     55.8958   1.0117529714e+02   5.9025934378e+01    0.4531138    0.3244397 -14.41  0.002612015    1.637    0.389
       120 -10.3120    122.1470     61.9428   8.0825568385e+01   4.5882720276e+01    0.3303343    0.2362161 -55.48 0.0009685265    1.629    0.386
       121  -9.7044    161.5112     61.4659   7.1204770195e+01   3.6639437306e+01    0.2783319    0.1541206 -19.12  0.001027878    2.328    0.570
       122  -8.8402      8.8023     62.6079   1.1799711707e+02   6.1238156239e+01    0.1317256    0.1035562  42.69 0.0006732523    1.648    0.393
       123 -11.0083    171.4227     59.3298   6.8481389801e+01   3.4467999541e+01    0.5820161     0.367208 -73.06  0.001402529    2.565    0.610
       124 -11.1321    167.3228     50.2773   6.6417740635e+01   3.6944493118e+01    0.5606683    0.2740912 -27.52 0.0008615533    2.153    0.536
       125  -8.8940    112.3043     61.6606   8.3435555719e+01   4.8016871871e+01    0.1469053    0.1166905 -72.08 0.0005604455    1.675    0.403
       126 -10.0483    197.9549     58.9049   6.3472506302e+01   2.7674311234e+01    0.4069642    0.2035218 -37.09  0.001132059    1.918    0.479
       127  -9.9182    134.5167     57.5073   7.6135412090e+01   4.3882643165e+01    0.2376606    0.1361586 -44.87 8.442735e-05    1.827    0.453
       128  -9.1471     24.4278     60.2197   1.1199679688e+02   6.0705485823e+01    0.1638751   0.09846066 -69.43 0.0006733708    1.592    0.372
       129 -10.1343     18.5753     59.3175   1.1387097163e+02   6.1321632131e+01    0.2783486    0.1785078 -78.79  0.001664958    1.704    0.413
       130 -11.8464    107.7486     57.1788   8.3208440368e+01   4.9771501709e+01    0.2993311    0.2691249 -22.14 0.0002840929    1.044    0.043
       131 -10.6386    227.3398     56.2221   5.8213174621e+01   2.0621423810e+01    0.3785636    0.2278467 -46.06 0.0009256999    1.632    0.387
       132  -9.7713     78.0340     57.4937   9.2504385693e+01   5.5052099577e+01    0.2842051    0.1603775 -59.68 0.0008987829    2.363    0.577
       133 -11.9679    177.5928     52.9874   6.5302813483e+01   3.3868941057e+01     0.437208    0.3454356 -71.64  0.000580743    1.491    0.329
       134 -12.5968    214.0502    238.6603   1.0014002644e+02  -3.5333428532e+00    0.7815912    0.7306413 -63.34  0.005314722    1.639    0.390
       135 -11.5290    209.5308    223.7133   9.8661056443e+01  -1.0586602375e+00    0.6643778    0.4265973 -49.66  0.003748829    2.293    0.564
       136 -10.1656    100.5993    244.7817   1.1995038476e+02   1.3535565287e+01     0.142058   0.09186529 -89.15 0.0009578578    1.716    0.417
       137 -11.4009    176.3856    240.3546   1.0671857371e+02   2.3535425516e+00    0.3966915    0.3361169  85.22   0.00158283    1.602    0.376
       138 -10.2806     79.5669    243.2676   1.2323577573e+02   1.6692915362e+01    0.1768268   0.09378499 -78.86 0.0008543782    2.069    0.517
       139 -10.6735    122.0991    241.0750   1.1602852169e+02   1.0905642967e+01    0.1800394    0.1435029  88.57 0.0009082965    1.373    0.272
       140 -10.8159    149.6161    204.1776   1.0657252702e+02   1.2189153693e+01    0.5072482    0.2418036 -50.93   0.00246968    2.471    0.595
       141 -12.4072    248.6653    221.6716   9.1773684206e+01  -7.1454674342e+00    0.9880531     0.355285 -28.17  0.004737986    3.108    0.678
       142 -11.0388    121.2893     49.3290   7.6693038102e+01   4.8279141898e+01    0.5234681    0.3289622  66.44  0.002088829    2.158    0.537
       143  -9.9133     73.4414     50.3216   9.1592274152e+01   5.7145473453e+01    0.1994607    0.1665407  66.33 0.0005835149    1.671    0.401
       144 -10.2311    235.1897     48.1346   5.5021138037e+01   1.9828699215e+01    0.2713121    0.2067201  87.10  0.001206695    1.441    0.306
       145 -11.0611    228.0338     45.0882   5.5119517133e+01   2.2002313134e+01    0.7568255    0.3142751 -50.53  0.002240997    2.779    0.640
       146 -11.0861    225.2395     36.4729   5.3143732448e+01   2.3841958248e+01    0.5361704    0.2481691 -35.66   0.00222617    1.980    0.495
       147  -9.4073    176.8548    230.1818   1.0528274206e+02   3.6031139226e+00    0.1858431    0.1426955  54.92  0.001234716    1.286    0.222
       148  -9.8467    202.3466     45.6597   5.8884908519e+01   2.8475342263e+01    0.3362336    0.2114496 -75.57  0.001357898    2.174    0.540
       149 -10.7225    188.7303     44.9229   6.0838189915e+01   3.2142042015e+01     0.311022    0.2456615 -47.70 0.0003794093    1.292    0.226
       150 -12.4075    146.6987     39.9488   6.7225345511e+01   4.3725600912e+01    0.7110417    0.4650209 -68.71  0.001368299    2.336    0.572
       151 -11.2572     73.3027     42.7452   8.8897509135e+01   5.8562252910e+01     0.272883    0.2334615 -22.38 0.0005104333    1.016    0.015
       152 -11.8074    194.4194     37.6733   5.7727300210e+01   3.1642768776e+01    0.7415842    0.3913902 -49.02  0.002313881    2.076    0.518
       153 -11.6647    152.2295    222.5800   1.0862562845e+02   8.8329130555e+00    0.5926247     0.463845  80.60  0.003861281    1.534    0.348
       154 -11.3199    190.1514     31.8194   5.6600231969e+01   3.3530906835e+01    0.6490649    0.3248492 -15.86   0.00230146    2.537    0.606
       155 -10.3509    194.5264     30.4956   5.5548027519e+01   3.2543789108e+01    0.3160244     0.264962 -57.35 0.0009080572    1.218    0.179
       156 -11.2098    195.8423     26.4905   5.4156497691e+01   3.2691264782e+01    0.7752034    0.3878221  76.33  0.003055073    2.258    0.557
       157  -9.4493    163.4705     42.5221   6.4639520622e+01   3.9089521733e+01    0.1513877    0.1454053  31.34 2.798965e-05    1.028    0.027
       158 -10.7169    188.7446     38.9640   5.9010657775e+01   3.2963835880e+01    0.3137987    0.2567569   4.04  0.000616835    1.413    0.292
       159 -11.1121     96.2982     39.2746   8.0069675475e+01   5.5130464406e+01    0.2820074    0.2537665 -20.35 0.0003729894    1.063    0.059
       160  -9.7962     89.6421     38.2765   8.1754894298e+01   5.6548430634e+01    0.2618576    0.2200584 -69.02 0.0008341469    1.673    0.402
       161 -10.7214    173.3515     36.1980   6.0729570238e+01   3.7392047932e+01    0.4926764    0.3822171  84.47  0.001440829    1.440    0.305
       162 -11.1838    180.0522     36.0089   5.9516970372e+01   3.5653077339e+01    0.3715763    0.3389079 -39.64 0.0004923036    1.114    0.102
       163  -9.9139    182.7086     32.7000   5.8036559447e+01   3.5385046496e+01    0.2729386    0.2137635  23.21 0.0006841733    1.468    0.319
       164 -10.6804    163.1602     36.8872   6.2823490107e+01   3.9960855623e+01    0.4583735    0.3118698  84.47  0.001687957    1.863    0.463
       165 -10.0590    200.3858     35.3540   5.6146891437e+01   3.0381583965e+01    0.2562026    0.2390725 -60.35 0.0004551235    1.057    0.054
       166  -9.8079    236.4606    223.7052   9.4109987825e+01  -5.4527094278e+00    0.2506525    0.1106382 -28.03  0.001301622    2.599    0.615
       167 -10.7461    208.4877     27.0110   5.2615175347e+01   2.9317169700e+01    0.3040199    0.2488862  -7.16  0.000626474    1.402    0.287
       168  -9.7948    117.9567     29.6556   7.0218697877e+01   5.2027247017e+01    0.2529498    0.2021945 -33.70 0.0004746759    1.282    0.220
       169  -9.9017    109.7967     30.0000   7.2515470529e+01   5.3778809413e+01    0.2264368    0.1536561 -53.24 0.0007369404    1.949    0.487
       170  -9.5833    103.8132     28.2995   7.3500289659e+01   5.5287871095e+01    0.2015285    0.1797626  74.62  0.000692124    1.435    0.303
       171  -9.2307    176.7642     25.5635   5.6721243206e+01   3.7847055347e+01    0.1967696    0.1405409  81.03  0.000397159    1.513    0.339
       172  -9.8159    116.4815     24.8558   6.8708522464e+01   5.3002585732e+01    0.2324745    0.1926805  46.44 0.0003489772    1.193    0.162
       173  -9.8008    127.3791     23.8810   6.5677059953e+01   5.0604641340e+01     0.239557    0.2013088  66.11 0.0007100074    1.302    0.232
       174 -10.6172    183.8683     21.4587   5.4330192605e+01   3.6451714364e+01    0.2516577    0.2425922 -23.93 0.0002848122    1.092    0.084
       175 -10.4167     73.2980     21.3307   8.0170163721e+01   6.2044060774e+01    0.2881804     0.248892 -69.61  0.001148438    1.804    0.446
       176  -9.7926    123.4774     19.4865   6.4875779919e+01   5.2060945442e+01    0.2379948     0.186547 -61.06 0.0006438926    1.654    0.395
       177  -9.7572    111.1160     20.1703   6.8198556727e+01   5.4795487547e+01    0.3079468    0.1833959  85.89  0.001079668    4.097    0.756
       178  -9.7350     23.6401     18.1339   9.9018837886e+01   6.8934926281e+01    0.2049969    0.1520208  -5.21 0.0009372765    1.356    0.263
       179  -9.1591     59.3162     17.1286   8.3400692334e+01   6.4868732128e+01    0.1791035    0.1368835 -24.21 0.0006845761    1.136    0.120
       180 -10.9491    164.2660     15.8749   5.5546318288e+01   4.2246213784e+01    0.4095778     0.238098  78.65  0.001194065    1.957    0.489
       181  -9.6192    193.6138    223.7696   1.0143338113e+02   1.6183468377e+00    0.1424181    0.1168616 -51.26 0.0008108022    1.629    0.386
       182 -10.1094    180.9686    222.6407   1.0349614622e+02   3.9270180101e+00    0.2907333     0.237951  56.86  0.001273286    1.285    0.222
       183  -9.8647    177.0969    219.0842   1.0366988371e+02   5.0883442188e+00    0.2192256    0.1973509 -73.12 0.0007020613    1.431    0.301
       184 -10.6165    119.9341    217.9912   1.1390014796e+02   1.4879154086e+01    0.2730988    0.2066054  79.00 0.0007770241    1.344    0.256
       185 -11.6392     35.5004    215.6743   1.2849168959e+02   2.6799085365e+01    0.3460221    0.3215115  89.59  0.001623009    1.564    0.361
       186 -10.2654    222.0723    213.9805   9.4938147729e+01  -1.9778878777e+00     0.302784    0.2670365  -9.30  0.001572535    1.259    0.206
       187 -11.5701    219.9745    207.0511   9.4132125243e+01  -7.5846523232e-01    0.6809852     0.349229 -20.87  0.003312115    2.577    0.612
       188 -11.7208    228.8839    208.1379   9.2778826128e+01  -2.4159281151e+00    0.9526941    0.2849474 -34.93  0.003901275    3.730    0.732
       189  -9.6392    234.0529    212.0240   9.2566498258e+01  -3.7430582744e+00    0.2767749    0.2305881  56.62  0.001410175    1.661    0.398
       190 -11.7714    232.7418    195.4468   8.9858232503e+01  -1.4969354572e+00    0.7447285    0.3581558 -36.02  0.003508182    2.294    0.564
       191 -11.3429    236.1894    188.3905   8.7950338699e+01  -1.1946558374e+00    0.7064524    0.3737361 -25.34  0.003581917    2.021    0.505
       192 -10.1888    184.6279    209.8425   1.0090788816e+02   5.0856021183e+00    0.2809124    0.2495938 -63.37  0.001285629    1.452    0.311
       193  -9.9291    100.7835    232.6117   1.1881178690e+02   1.5412960522e+01    0.1676559   0.07940387  52.22 0.0009457808    1.666    0.400
       194 -12.0262    248.7390    198.1994   8.7657027628e+01  -4.5461353118e+00    0.8681471    0.4481323 -28.84  0.004109865    2.004    0.501
       195 -11.4401    247.7213    181.6603   8.4697206214e+01  -2.3490962769e+00    0.8673784    0.5031978 -48.73  0.004146603    2.778    0.640
