#   1 NUMBER                 Running object number                                     
#   2 MAG_AUTO               Kron-like elliptical aperture magnitude                    [mag]
#   3 X_IMAGE                Object position along x                                    [pixel]
#   4 Y_IMAGE                Object position along y                                    [pixel]
#   5 X_WORLD                Barycenter position along world x axis                     [deg]
#   6 Y_WORLD                Barycenter position along world y axis                     [deg]
#   7 A_WORLD                Profile RMS along major axis (world units)                 [deg]
#   8 B_WORLD                Profile RMS along minor axis (world units)                 [deg]
#   9 THETA_WORLD            Position angle (CCW/world-x)                               [deg]
#  10 FWHM_WORLD             FWHM assuming a gaussian core                              [deg]
#  11 ELONGATION             A_IMAGE/B_IMAGE                                           
#  12 ELLIPTICITY            1 - B_IMAGE/A_IMAGE                                       
         1 -14.0599    210.9176      9.2006   4.0661620192e+01   2.9716594036e+01     2.782563     1.487278  36.49   0.01156763    2.322    0.569
         2 -13.3423    173.1059     53.7092   5.9827388976e+01   3.4508676585e+01     2.070898      1.31444  19.69  0.005855432    2.215    0.549
         3 -13.4564    188.0058     39.6855   5.2935851085e+01   3.2481235251e+01       1.0981     1.004686 -19.93  0.003669665    1.084    0.078
         4  -9.3229    167.8882    231.1510   9.6631976739e+01   1.0049025579e+01    0.1485354    0.1083769  44.70 0.0004099999    1.142    0.125
         5 -12.7336    246.4871    243.5878   8.6464539447e+01  -1.8185001876e+00    0.7886556    0.5182202   1.92  0.006713461    1.484    0.326
         6 -19.4906     26.9551    146.8757   1.1591772560e+02   4.2725972865e+01     16.53477     4.380773 -80.63   0.06780771    3.770    0.735
         7 -10.2942     39.2595    212.7208   1.1720238495e+02   2.9577991908e+01    0.1678267   0.08997663  45.46 0.0004594754    1.387    0.279
         8 -10.9816     44.1957    210.9304   1.1623451899e+02   2.9325060067e+01    0.2154371    0.1745424 -87.20  0.001159794    1.436    0.304
         9  -9.7340    184.5947    212.2101   9.1652084225e+01   9.5934789209e+00     0.132754   0.09895761  -9.38 0.0009550928    1.691    0.409
        10 -10.9446     68.0965    207.1756   1.1166999553e+02   2.7127725921e+01    0.2240958    0.1238594  46.31 0.0004622232    1.349    0.259
        11  -9.9857     72.8885    205.6483   1.1067716532e+02   2.6769585393e+01    0.2506147    0.1598914  31.74  0.001674229    1.796    0.443
        12  -9.9097     75.1627    249.6124   1.1312635241e+02   2.0218397107e+01    0.2011892   0.08846475 -61.37  0.001380444    3.129    0.680
        13 -11.2152     59.6305    203.3356   1.1297085902e+02   2.8771499189e+01    0.2192404    0.1989208  -2.68  0.001392816    1.898    0.473
        14  -8.8555     87.8309    202.3711   1.0763644952e+02   2.5330738258e+01    0.1504182   0.08746265  35.30 0.0009324714    1.706    0.414
        15 -10.8506    193.1340    195.1982   8.7892802755e+01   1.0122816478e+01    0.6472371    0.3876191 -63.55  0.002892074    5.002    0.800
        16 -10.1600     62.8409    221.0332   1.1351143542e+02   2.5637180616e+01     0.277135    0.1014874  57.20  0.001575072    2.250    0.556
        17  -9.3343    204.9859    199.3339   8.6574486791e+01   7.7908285616e+00    0.1941151   0.06309026  31.40 0.0006637024    4.324    0.769
        18 -11.3371    150.7370    196.1676   9.5352587057e+01   1.6857447571e+01    0.2862639     0.237948 -88.22  0.002043922    1.596    0.373
        19 -11.4418     62.2167    196.1567   1.1198688018e+02   2.9638448515e+01    0.2504844    0.2095393 -39.74  0.001229537    2.006    0.502
        20  -9.1490     82.5803    195.3131   1.0801420949e+02   2.7165511372e+01    0.2426822    0.1319278  68.85  0.001437966    1.921    0.479
        21  -8.6508    159.3460    194.6716   9.3617808672e+01   1.5669710936e+01    0.1157659   0.08052415  64.38 0.0007050189    1.752    0.429
        22  -8.4769     78.2965    193.2561   1.0866133298e+02   2.8074344592e+01   0.09356812   0.08127885  31.82  0.000224793    1.498    0.332
        23  -9.8365    156.6851    190.0642   9.3467411005e+01   1.6716453202e+01     0.153605    0.1342587  34.61 0.0004208327    1.132    0.117
        24 -10.7552    151.0594    188.6990   9.4303486355e+01   1.7826880766e+01    0.2587774    0.1566587 -70.63  0.001348122    3.007    0.667
        25 -10.8562    141.2085    187.9064   9.6018005243e+01   1.9547239697e+01    0.2078869    0.1730526 -46.28  0.001468449    1.522    0.343
        26  -9.9901    238.7364    185.6034   7.9233322581e+01   3.8631247815e+00    0.1486566   0.09182459  46.05 0.0006282769    1.625    0.384
        27 -10.8550    151.6909    181.5385   9.3187874326e+01   1.8731917448e+01    0.3605941    0.2110305 -70.47  0.001736162    3.344    0.701
        28 -10.9435     99.2785    180.7990   1.0328937693e+02   2.7218089702e+01    0.2437857    0.2042215  41.76 0.0006567457    1.257    0.204
        29  -9.8093    189.1272    178.4434   8.5995393223e+01   1.2754089821e+01    0.3037419    0.2094496  64.21  0.001034462    2.031    0.508
        30  -9.7851    187.7958    173.2316   8.5376981170e+01   1.3632751523e+01    0.2910661    0.2177282 -69.80  0.001686446    2.327    0.570
        31  -9.8426    240.4836    169.4401   7.6224449740e+01   5.1137237793e+00    0.1169987     0.090285  19.90 3.559104e-05    1.009    0.009
        32 -11.9463    249.4031    229.6221   8.4247909913e+01  -1.2261891800e+00    0.4712501    0.1894021 -27.81  0.003017956    2.959    0.662
        33  -9.7415    243.6603    173.6818   7.6498874407e+01   4.2013753792e+00    0.1225149    0.0694313  18.92 0.0007049241    1.710    0.415
        34  -9.1721      2.2974    161.7624   1.2217410621e+02   4.1996458933e+01    0.1593053   0.09515602  50.49 0.0003510542    1.336    0.251
        35 -10.9776     92.1284    158.0746   1.0208753800e+02   3.2328008297e+01    0.2262825     0.205229  64.57 0.0003584037    1.154    0.133
        36 -11.9430     97.6873    151.4479   9.9962585005e+01   3.2716111244e+01    0.4886605    0.4298398 -11.12  0.003111393    1.693    0.409
        37  -9.3732    148.5559    154.8957   8.9635590631e+01   2.3332139844e+01    0.2902239     0.176823  86.75  0.001094771    4.233    0.764
        38 -11.0595    133.5052    143.5074   9.0787926067e+01   2.8022729893e+01    0.9020922    0.2594791 -55.89  0.002678634    5.820    0.828
        39  -9.7545    187.6689    152.3260   8.1724763711e+01   1.6398764260e+01    0.1870914    0.1548426  82.46 0.0009929888    1.727    0.421
        40 -10.1856    113.4268    151.3846   9.6455189741e+01   3.0155495052e+01    0.3268286    0.1814939  65.93  0.001347458    2.291    0.563
        41  -9.6040    174.5414    148.8117   8.3480607957e+01   1.9388586339e+01    0.2543958    0.2103151  87.59 0.0009593867    1.662    0.398
        42  -9.8848     92.1063    147.0904   1.0062246087e+02   3.4425714346e+01    0.2642228     0.148258  54.51  0.001383602    1.624    0.384
        43  -9.9935    143.6613    145.1363   8.8928527140e+01   2.5850336087e+01    0.2486686    0.1215026 -55.23  0.001097556    2.596    0.615
        44  -8.9109    114.3237    143.6569   9.5034411750e+01   3.1430266304e+01    0.1372029   0.09294406  73.80 0.0007050639    1.732    0.423
        45 -11.6121    108.4299    138.3183   9.5499633698e+01   3.3460144348e+01    0.5866996    0.3470031 -44.55  0.002949189    2.087    0.521
        46 -10.8238    106.0062    130.8019   9.4787381536e+01   3.5347394274e+01    0.3489482    0.2895647  85.64  0.001185855    1.204    0.170
        47  -8.9180     77.1713    225.6380   1.1132681724e+02   2.3225244624e+01   0.09272158    0.0566852  70.61 0.0006598082    1.545    0.353
        48 -11.8583     97.0774    137.3542   9.8008887875e+01   3.5548064689e+01     0.293135    0.2346672  66.06 0.0002785616    1.123    0.110
        49 -10.0481    135.7288    130.3443   8.7848587934e+01   2.9958675692e+01    0.4300316    0.1556691 -47.66  0.001647307    3.031    0.670
        50 -10.2303    115.4371    128.8806   9.2201465611e+01   3.4050591527e+01    0.2678444    0.2489722 -17.86 0.0006068148    1.361    0.265
        51  -9.5947    161.1729    127.6804   8.1896730933e+01   2.5332999133e+01    0.2867193    0.2204013 -78.28  0.001490095    1.800    0.444
        52 -10.5253    103.2702    124.6578   9.4351975481e+01   3.7052305694e+01    0.2632681    0.2322884   7.54 0.0006954102    1.540    0.351
        53  -9.9335    134.9195    121.2212   8.6173621352e+01   3.1791999472e+01    0.5620422    0.1267329 -49.48  0.001580771    5.253    0.810
        54 -10.1347    120.4753    123.0232   8.9886480110e+01   3.4254640499e+01    0.3690034    0.2571426 -14.86  0.001649951    2.693    0.629
        55  -8.9269    151.4084    118.2275   8.1890025034e+01   2.8961162466e+01    0.1912844    0.1323777 -55.67 0.0008451581    1.671    0.402
        56  -9.5033    110.6305    118.1506   9.1292043728e+01   3.7051261319e+01    0.2166905    0.1705106  59.51 0.0003434515    1.196    0.164
        57  -9.9821    231.1638    113.7166   6.6447201050e+01   1.2843779631e+01     0.256216    0.1987584  29.20 0.0007315169    1.202    0.168
        58  -9.8102    167.7447    112.7910   7.7256466934e+01   2.6398656774e+01    0.3422359    0.2665004 -77.90  0.001281475    1.748    0.428
        59  -9.5295    134.6699    112.0298   8.4226485253e+01   3.3561116896e+01    0.3922796    0.1293444 -44.13  0.001354914    3.246    0.692
        60  -9.7065    134.6378    106.0103   8.2842328199e+01   3.4704850389e+01    0.3998368    0.1378996 -44.97   0.00139842    3.036    0.671
        61 -11.6311    119.1041    109.9496   8.7475594116e+01   3.7087759961e+01    0.5070716    0.4332145  80.83  0.002157313    1.200    0.166
        62  -9.7303    205.3925    110.0870   6.9683150156e+01   1.8635999791e+01    0.2991686    0.1936809  43.83 0.0008550156    1.464    0.317
        63 -10.9228     56.4648    213.2151   1.1416789441e+02   2.7576949550e+01    0.2038213    0.1231152  56.84 0.0006932189    1.180    0.153
        64  -8.4653    166.2904     93.6573   7.2806739390e+01   2.9891048514e+01    0.1478605    0.1148765 -72.57 0.0006273207    1.652    0.395
        65 -12.9363     50.1999    207.9933   1.1499152884e+02   2.9121303753e+01    0.3870971    0.1491285  54.84  0.002296185    1.929    0.482
        66  -9.1208    184.7926     84.7946   6.6888374130e+01   2.6946743163e+01    0.2025089     0.176877 -75.50  0.001070469    1.347    0.258
        67  -8.4847    153.6633     81.7262   7.2188410409e+01   3.4881145905e+01    0.1517987    0.1149532  23.51 0.0004130398    1.605    0.377
        68 -11.0712     71.9714    245.2266   1.1338929398e+02   2.1164028008e+01    0.1817072    0.1396985 -85.32  0.001637937    1.584    0.369
        69 -12.6535    192.6664     33.7026   5.0373133289e+01   3.1973745796e+01    0.6108108    0.5692503  45.78   0.00126947    1.103    0.094
        70  -8.5970     84.0000    244.9358   1.1143984290e+02   1.9759644205e+01    0.1146027   0.05388846 -69.82 0.0007786892    2.780    0.640
