#   1 NUMBER                 Running object number                                     
#   2 MAG_AUTO               Kron-like elliptical aperture magnitude                    [mag]
#   3 X_IMAGE                Object position along x                                    [pixel]
#   4 Y_IMAGE                Object position along y                                    [pixel]
#   5 X_WORLD                Barycenter position along world x axis                     [deg]
#   6 Y_WORLD                Barycenter position along world y axis                     [deg]
#   7 A_WORLD                Profile RMS along major axis (world units)                 [deg]
#   8 B_WORLD                Profile RMS along minor axis (world units)                 [deg]
#   9 THETA_WORLD            Position angle (CCW/world-x)                               [deg]
#  10 FWHM_WORLD             FWHM assuming a gaussian core                              [deg]
#  11 ELONGATION             A_IMAGE/B_IMAGE                                           
#  12 ELLIPTICITY            1 - B_IMAGE/A_IMAGE                                       
         1 -10.8149     30.1918     24.2107   8.4259704065e+01   6.8673057536e+01    0.8547845    0.1614919 -41.83  0.002928098    4.480    0.777
         2  -9.8877     29.8028     17.1683   8.1204538176e+01   6.9792309600e+01    0.3870253    0.1831138 -27.81  0.001336083    1.989    0.497
         3 -10.5270     81.0967     26.4880   6.4018423413e+01   6.0451573979e+01    0.6746715    0.4894393  82.96  0.003243946    2.707    0.631
         4 -11.1800     57.3381     14.0358   6.7070372140e+01   6.6272961915e+01    0.6928433    0.3765474   8.18  0.003216021    2.421    0.587
         5 -11.7885    111.7506     19.3170   5.2468075819e+01   5.4738711342e+01    0.4791158    0.3513041  45.48  0.002699511    1.202    0.168
         6  -9.7785     92.3242     10.1698   5.3714805894e+01   5.9939156259e+01    0.4312786    0.1522108  58.15  0.001166403    2.665    0.625
         7  -9.5702     85.6024      9.0359   5.5098341203e+01   6.1459893768e+01    0.2066083    0.1676279  59.39 0.0008523167    1.341    0.254
         8 -10.5474     86.6180     16.1451   5.7867207353e+01   6.0545749396e+01    0.6709144    0.2800246 -40.30   0.00260992    3.052    0.672
         9 -11.1562    150.0145     18.4654   4.4667757768e+01   4.5683410951e+01    0.3047486    0.2830938  -5.55   0.00045352    1.220    0.180
        10 -10.9471    155.1069     14.5751   4.2671539910e+01   4.4822274582e+01    0.7567439    0.3882062  -7.48    0.0032172    2.963    0.662
        11  -9.4489    158.5668      7.2476   3.9977164684e+01   4.4659445626e+01     0.236273    0.1809813  46.81  0.000427937    1.325    0.245
        12 -10.8438    101.7857     16.5475   5.3840368719e+01   5.7263568316e+01    0.5172961    0.3389376  21.45  0.001640455    1.650    0.394
        13  -9.8762     23.1050     15.8871   8.4110671007e+01   7.0721245696e+01    0.2838149    0.2427937  15.44  0.001792338    1.398    0.285
        14 -10.1296     10.7864     15.2130   9.0675911990e+01   7.1961484455e+01      0.31555    0.2314589  -8.14  0.002244464    1.148    0.129
        15 -10.6181    186.0065     13.5065   3.8362202054e+01   3.7400185791e+01     0.306972    0.2570413 -85.85 0.0009956907    1.069    0.064
        16 -11.2995    181.5690     13.2352   3.8798233154e+01   3.8495974079e+01    0.7799961     0.336479  46.93  0.001918362    2.698    0.629
        17 -12.0657    122.2464     11.2806   4.7227233527e+01   5.3077346083e+01    0.6937182    0.2850063  55.64  0.001063968    1.993    0.498
        18 -11.2605    127.2777      4.8748   4.4020274002e+01   5.2434263042e+01    0.3994598    0.2403535  52.40 0.0003876507    1.419    0.295
        19  -9.7458    216.5402      7.7351   3.3990159979e+01   3.0882766707e+01    0.2993628    0.1937743 -51.11  0.001080604    1.401    0.286
        20 -10.8617    211.1834     10.7052   3.5138224383e+01   3.1786953920e+01    0.3879799    0.2841475 -60.99  0.001656112    1.231    0.187
        21 -10.4150    212.5508      5.4076   3.3788044413e+01   3.2016336929e+01    0.3015903    0.2203266 -30.96  0.001873177    1.520    0.342
        22 -10.6268     47.3332      9.2022   6.8865447330e+01   6.8450604719e+01    0.4242851     0.255535   3.55  0.001516515    1.745    0.427
        23  -8.7742     23.6832      2.5683   7.6938858088e+01   7.2492590475e+01    0.2828831    0.1164459  26.22  0.001442313    2.416    0.586
        24 -11.0865      4.7640      3.4512   8.8626703442e+01   7.4245150714e+01     0.589805    0.3401609   7.85  0.002923512    1.623    0.384
        25  -9.9891     17.7580      3.5896   8.0832228979e+01   7.3025978079e+01    0.3591186    0.2713448   5.86  0.002129626    1.163    0.140
        26 -10.0580     19.1819     11.0306   8.3894901226e+01   7.1842139283e+01    0.2529646    0.1730723  -3.50 0.0007531247    1.232    0.188
        27  -9.8624     16.2022      8.3783   8.4250240536e+01   7.2521323721e+01    0.2367112    0.1532481  22.85 0.0008880552    1.562    0.360
        28 -10.1990     12.7474      7.0099   8.5570144188e+01   7.3045779908e+01    0.2983029    0.1666117 -32.33  0.001382696    1.471    0.320
        29  -8.4976    236.0013     10.7745   3.3129157625e+01   2.6312376871e+01     0.185763   0.09994779 -55.96  0.001025633    1.622    0.383
        30  -8.9135    250.5239      9.5007   3.1845819416e+01   2.3444395889e+01    0.1179018   0.09241089 -66.89 3.969875e-05    1.005    0.005
        31  -9.8028     25.3611      7.5054   7.8688265542e+01   7.1659420220e+01    0.2432756    0.1563716 -31.52 0.0009421225    1.467    0.318
        32  -9.0669    102.4978      7.6972   5.0138328396e+01   5.7935123258e+01    0.2957321    0.1634271  28.62  0.001323074    1.958    0.489
        33 -10.0210     78.5694      6.6085   5.6102420707e+01   6.3117348848e+01    0.3448137    0.2624345  31.02  0.002060591    1.102    0.092
        34 -10.4506    107.1562      4.7501   4.7921986422e+01   5.7132413315e+01    0.4928098    0.2844233 -47.61  0.002449687    2.311    0.567
        35  -9.1777    102.0316      1.5280   4.7783104370e+01   5.8540902552e+01    0.2253215      0.16597  71.12  0.000554604    1.425    0.298
        36  -8.3764     71.3597      6.2870   5.8243807686e+01   6.4562498166e+01    0.1354266   0.07734738  26.84 0.0003484701    1.683    0.406
        37  -8.9621    200.1484      4.0023   3.4530142850e+01   3.4995976574e+01    0.3224779   0.08458475 -41.41  0.001272803    3.221    0.690
        38 -10.6692     90.2978      3.4157   5.1390996556e+01   6.0960630666e+01    0.3152726    0.2693014  59.24  0.001208749    1.233    0.189
        39 -10.8070     84.7122      1.3497   5.1979216729e+01   6.2307082562e+01    0.3897987    0.1706523  64.12 0.0004344902    2.562    0.610
        40  -9.0171     65.0090      5.3580   5.9970569817e+01   6.5845748147e+01    0.2086021    0.1515446 -11.55   0.00111518    1.355    0.262
        41  -9.8728     64.3046      1.3852   5.8275434636e+01   6.6341196897e+01    0.2323575    0.1058341  50.83 0.0006586223    2.010    0.502
        42 -10.2263     38.6802      4.9885   7.0605914261e+01   7.0230292293e+01    0.2705814    0.1489843  37.99  0.001019842    1.760    0.432
        43  -9.3004     41.1128      1.4293   6.7559879172e+01   7.0262573692e+01    0.2827515    0.1248604  44.42  0.001449933    2.299    0.565
        44  -8.8329     69.5632      2.2643   5.6928913185e+01   6.5271338091e+01    0.1563712    0.1053712   3.61 0.0004157478    1.474    0.321
        45  -9.4711     54.7651      1.8680   6.2028625332e+01   6.8005814060e+01    0.2294185    0.1309488  39.07  0.000701252    1.505    0.335
        46  -8.6513    241.8461      2.1418   3.0930502263e+01   2.5997116710e+01    0.1434862    0.1309581  79.89  0.000796764    1.316    0.240
        47  -8.6917     30.4018      2.1814   7.3160147895e+01   7.1697556065e+01     0.153726   0.09677399 -34.80 0.0009515845    1.772    0.436
        48  -8.6165    228.9740      1.5062   3.1665431326e+01   2.8779799565e+01    0.1726844    0.1023387  82.80 0.0005726298    1.522    0.343
        49  -8.6914    195.0753      1.5253   3.4384427873e+01   3.6410284132e+01     0.197444    0.1085426  77.75  0.001037276    1.613    0.380
        50  -8.8748     66.8666     12.8759   6.2892275054e+01   6.4736097225e+01    0.1937217    0.1406396  20.37 0.0002899689    1.210    0.174
        51 -10.2417     64.4198    110.1690   9.7444700325e+01   4.6789041479e+01    0.4396348    0.3166423 -11.64  0.001809603    1.782    0.439
        52 -10.8453     62.2262    105.1632   9.7027961426e+01   4.8289279733e+01    0.5568914    0.3747293 -37.15  0.002754358    1.503    0.334
        53  -9.0455     28.0716    110.2670   1.0946970798e+02   5.0653780188e+01    0.2935612    0.1041018 -46.33  0.001008683    2.648    0.622
        54 -10.8109     20.7564    109.7968   1.1177807141e+02   5.1332596903e+01     0.374206     0.259544  51.39  0.001394809    1.703    0.413
        55  -8.9029    128.4470    109.4424   7.7732686636e+01   3.5723270007e+01    0.3394701    0.2294808  21.00  0.001402708    1.937    0.484
        56 -10.3952      7.1815    108.8117   1.1599341840e+02   5.2440712965e+01    0.2934818    0.2544823 -48.30  0.001161666    1.188    0.158
        57  -8.8005    100.3061    109.0500   8.5748649484e+01   4.1374337367e+01    0.2183742    0.1886795 -45.11 0.0006351615    1.108    0.098
        58  -8.3899     42.7148    108.3077   1.0426179185e+02   4.9789529419e+01    0.1317215    0.1010351  78.18 0.0004913001    1.568    0.362
        59 -10.6488     11.2611    114.8422   1.1550909366e+02   5.0748588791e+01      0.26781    0.1865323 -51.04 0.0007255124    1.308    0.236
        60 -10.7526     80.1008    103.7808   9.0755994791e+01   4.6046313111e+01    0.3872428    0.3318414   7.11  0.001171734    1.282    0.220
        61  -9.9454      8.1976    103.1442   1.1488923588e+02   5.3738211777e+01    0.3112026    0.2311139 -39.37  0.001968539    1.358    0.264
        62  -9.6166    108.2287    103.1934   8.1786534702e+01   4.1221743510e+01    0.3628924    0.2149464  32.11 0.0006982145    1.875    0.467
        63 -10.0882     17.4535    104.0146   1.1195596829e+02   5.2960440664e+01    0.2883093     0.229573 -10.49  0.001456624    1.497    0.332
        64  -9.1399     57.0785    102.8856   9.8244185841e+01   4.9490281535e+01     0.244874    0.1861148  19.47   0.00111983    1.485    0.327
        65 -10.1658     45.2082    101.9283   1.0210742539e+02   5.1078755531e+01    0.2751743    0.2299405  60.50 0.0005492783    1.424    0.298
        66 -10.6019     53.4346     98.7823   9.8549842530e+01   5.0911951289e+01    0.5283729    0.2334089 -52.83  0.002239618    1.927    0.481
        67 -10.0005     69.1130     96.8624   9.2649406494e+01   4.9317956149e+01    0.3927159    0.2131743 -54.72  0.001062662    1.728    0.421
        68  -8.2827    102.6649     98.3301   8.2112832413e+01   4.3377821875e+01    0.1543078    0.1232814  86.42 0.0007052104    1.728    0.421
        69 -10.3395     16.4794     95.4762   1.1087676733e+02   5.5064291768e+01    0.2862987    0.2284232  63.67  0.001313924    1.509    0.337
        70 -10.1916     35.7667     94.6456   1.0387458315e+02   5.3754041863e+01    0.5004016    0.2195397 -33.65  0.001988439    2.881    0.653
        71  -9.9835     35.3282     89.7550   1.0297003231e+02   5.4947810715e+01    0.3773018    0.1926952   9.45  0.001698612    2.623    0.619
        72  -9.6307     79.4665     94.5217   8.8509204096e+01   4.8294562963e+01    0.3213198    0.2485923 -19.60  0.001620427    1.423    0.297
        73  -8.7582    132.0532     93.6919   7.2335118932e+01   3.8304280989e+01    0.2188106    0.1967703  40.92 0.0004461801    1.121    0.108
        74  -9.9623    116.4888     93.5187   7.6605035170e+01   4.1678293098e+01    0.2786687     0.253332 -89.22   0.00143683    1.292    0.226
        75  -8.4252      1.3504     94.1698   1.1590357101e+02   5.6205970064e+01    0.1757546   0.09670146 -80.69 0.0009370065    1.688    0.408
        76 -10.4167     87.7678     90.4543   8.4596959960e+01   4.7830038306e+01    0.6159765     0.391843 -71.36  0.001495518    2.524    0.604
        77  -8.6156    125.5072     91.5052   7.3466977766e+01   4.0186555005e+01    0.1536915    0.1499187 -12.25 0.0008106201    1.008    0.008
        78  -8.4472     73.5062     92.5833   9.0002636161e+01   4.9661121427e+01    0.1441045    0.1326009 -31.14 0.0002310139    1.015    0.015
        79  -8.4871     52.2715     91.6801   9.7253518927e+01   5.2723752008e+01    0.1307299    0.1067125  85.99 0.0002351402    1.566    0.362
        80  -8.7662    139.5578     89.0021   6.9011782405e+01   3.7563905239e+01    0.2331253    0.1506736 -40.02 0.0005500998    1.537    0.349
        81 -10.2720    120.3200     87.6463   7.3763799910e+01   4.2094219055e+01    0.3586232    0.3551359  -9.24 0.0005502295    1.047    0.045
        82 -10.1829    126.2385     86.7388   7.1844618682e+01   4.0996056919e+01    0.4693052     0.317123  82.47  0.001158828    2.700    0.630
        83  -9.9173    109.4327     88.2455   7.7115415564e+01   4.4234597200e+01    0.2848091    0.1446657 -40.23 0.0008090364    1.951    0.487
        84  -8.5721     62.5363     89.4687   9.3001311516e+01   5.1939684763e+01    0.1444557     0.124876 -33.26 0.0001796134    1.064    0.060
        85  -9.7518     56.8557     89.1040   9.4944594749e+01   5.2762691921e+01    0.1996065    0.1881916  83.94 0.0009154178    1.256    0.204
        86  -9.7033     47.9021     88.9935   9.8174672906e+01   5.3849482176e+01    0.2047415    0.1770015 -41.50 0.0003366976    1.016    0.016
        87 -11.0109    131.6040     86.7126   7.0393101845e+01   3.9812670421e+01    0.2861935    0.2647573 -25.10 0.0003338531    1.076    0.071
        88 -10.3576     30.2525     85.2265   1.0384664447e+02   5.6449533225e+01       0.6012    0.2701624  13.50  0.002647272    2.865    0.651
        89  -9.4430     81.8797     84.8174   8.4913856243e+01   5.0065081304e+01    0.2588586      0.20286 -50.78 0.0003306207    1.276    0.216
        90  -9.8336     80.0383     80.9708   8.4386132989e+01   5.1199534424e+01    0.2133003    0.1956701 -25.11  0.001204243    1.012    0.012
        91 -10.2445     76.0774     83.2781   8.6458189499e+01   5.1342026170e+01    0.2606971    0.2549402 -21.69  0.000397223    1.112    0.101
        92 -10.0506     71.5122     83.1328   8.8023572069e+01   5.2079662094e+01    0.3058408     0.269996  86.51  0.001688515    1.467    0.319
        93  -8.0560    166.5415     85.5118   6.1728051275e+01   3.1916842393e+01    0.1513525    0.1474185 -61.48 0.0001058868    1.023    0.023
        94  -8.6086    139.2471     83.6994   6.7515964036e+01   3.8666104413e+01    0.2461602     0.129074 -28.13 0.0006951287    2.347    0.574
        95 -10.5015    112.9891     81.3343   7.3940730608e+01   4.4918800969e+01    0.3931664    0.2675194 -33.05  0.001759903    1.499    0.333
        96  -9.3805    108.3401     81.2831   7.5307870075e+01   4.5888510211e+01    0.2919045    0.2176289   7.22 0.0008873545    1.674    0.403
        97 -11.2265    104.5106     78.7310   7.5670553794e+01   4.7175141579e+01    0.5116735    0.3762535 -32.17   0.00108191    1.358    0.264
        98 -10.5653    107.6575     75.6843   7.3737649158e+01   4.7138489685e+01    0.6139922    0.3339681 -16.47  0.001981826    3.657    0.727
        99  -9.3931     48.8987     77.2291   9.4706300622e+01   5.6403980345e+01    0.3966094    0.1399936 -45.87  0.001494748    2.430    0.588
       100 -10.2054     55.1424     80.5589   9.3265401871e+01   5.4912197397e+01    0.3492274    0.2326502 -40.46  0.001213007    1.347    0.257
       101 -10.4153     55.2981     74.9177   9.1583723483e+01   5.6130982107e+01    0.5622709     0.377572 -14.33  0.002516498    1.747    0.428
       102 -10.1624     97.0327     80.9404   7.8714144214e+01   4.8184954104e+01    0.2706421    0.2264757 -36.92 0.0003001184    1.152    0.132
       103 -10.6711     98.8253     76.1552   7.6624866778e+01   4.8811495432e+01    0.4863326    0.4195833 -76.88  0.001057454    1.500    0.333
       104 -11.7790     97.3071     69.3582   7.4878952275e+01   5.0432965406e+01    0.4092335    0.3309176 -30.54 0.0004772053    1.203    0.169
       105 -10.5565    101.2734     67.7061   7.3070776691e+01   4.9958031983e+01    0.3666933     0.248703 -59.08 0.0005733643    1.982    0.495
       106  -8.4656     65.4707     80.5846   8.9450758364e+01   5.3524573594e+01    0.1394318    0.1276844 -29.58 0.0001095229    1.037    0.036
       107  -8.6618     22.4240     80.5327   1.0579073598e+02   5.8145402712e+01    0.1302121    0.1040478 -49.18 -4.435432e-05    1.020    0.019
       108  -9.7613      7.0462     80.0172   1.1156870973e+02   5.9210451176e+01    0.2728454    0.1558092 -60.40 0.0009556586    1.351    0.260
       109  -9.6164      4.7947     75.6177   1.1161945925e+02   6.0320599528e+01     0.265193    0.1492873 -60.66  0.001219611    1.366    0.268
       110  -9.3404      2.0147     73.0250   1.1222168372e+02   6.1030455804e+01     0.184902    0.1574956 -27.98 0.0003882042    1.238    0.192
       111  -8.7207    154.9388     79.4796   6.2526618949e+01   3.5774416965e+01    0.2277427    0.1493296  52.25 0.0003477859    1.522    0.343
       112  -8.8316     29.1174     77.7738   1.0255716713e+02   5.8250976573e+01    0.1870852    0.1282774 -30.26  0.001054711    1.413    0.292
       113 -11.3205     76.1073     75.1292   8.3949507039e+01   5.3074384801e+01    0.6853076    0.3322389  28.84  0.002185537    2.372    0.578
       114  -8.9858     15.9479     86.4237   1.0943275486e+02   5.7225282897e+01    0.1955463    0.1362023 -62.09 3.115051e-05    1.182    0.154
       115 -10.0217     45.3969     73.2281   9.4942186002e+01   5.7680383500e+01    0.4574415    0.1926786 -52.51  0.001891553    2.060    0.515
       116  -8.2628    130.7373     74.9896   6.7025433089e+01   4.2252344482e+01     0.187742    0.1312851 -36.72 0.0002868899    1.439    0.305
       117  -8.6913     45.5637     83.5247   9.7664454767e+01   5.5364609958e+01    0.1375087    0.1165408 -40.87 5.888242e-05    1.017    0.017
       118 -10.0023    152.2387     73.2799   6.1292629639e+01   3.7521168936e+01    0.3357796    0.2206206 -30.04  0.001501411    1.616    0.381
       119  -8.8619     30.8077     72.7973   1.0064811457e+02   5.9221239747e+01    0.1602352    0.1449318 -77.16 0.0004533277    1.309    0.236
       120  -8.5906    103.5744     72.5325   7.3960193231e+01   4.8580139925e+01    0.1474932    0.1390067  -7.67 4.822863e-05    1.012    0.012
       121 -11.1160    137.0946     69.5073   6.3690519030e+01   4.1769039312e+01    0.4465436    0.2753469  46.14  0.000393498    1.593    0.372
       122  -9.2904    142.7968     68.8206   6.2101869241e+01   4.0544930598e+01    0.2249683    0.2010535  17.61 0.0004638445    1.191    0.160
       123 -10.2321     64.3059     70.6215   8.6839662725e+01   5.5818256467e+01     0.356608    0.2431262  39.78  0.001146436    1.640    0.390
       124 -10.2235     59.6061     66.3242   8.7255262669e+01   5.7367710098e+01    0.3767836    0.2419573 -22.57 0.0006294118    1.700    0.412
       125  -8.7997     39.0089     71.4812   9.6994008459e+01   5.8739735451e+01    0.1768714    0.1280622  12.72 0.0004314323    1.516    0.340
       126  -9.4834     17.7563     70.0917   1.0528374981e+02   6.0822912370e+01    0.2996196    0.1544216 -55.45  0.001226841    1.526    0.345
       127  -8.7133     76.8911     70.2200   8.2087252574e+01   5.3951930640e+01    0.2009521    0.1555489  -4.20 0.0007794605    1.399    0.285
       128  -8.7393     51.8333     69.7773   9.1385685922e+01   5.7666769808e+01    0.1682845    0.1531759 -59.51 0.0004340757    1.268    0.211
       129  -9.0496    119.3321     69.0915   6.8206924032e+01   4.5887709826e+01    0.2702253    0.1929782  37.80 0.0008800001    1.404    0.288
       130  -8.4008     34.4421     69.4652   9.8286550246e+01   5.9624164609e+01    0.1317498    0.1092808 -38.72 0.0001722253    1.006    0.006
       131 -10.7482     92.1333     64.6133   7.4949909976e+01   5.2325015603e+01     0.652364    0.4456438  -9.41  0.003013424    1.846    0.458
       132 -10.9648     95.6885     57.4777   7.1292260886e+01   5.2916042587e+01    0.6142995    0.5107475  20.01  0.003039766    1.177    0.151
       133  -8.8230     88.3156     60.6899   7.4856392861e+01   5.3767669630e+01    0.2131134     0.198749 -46.75 0.0006307786    1.231    0.187
       134  -8.5461    194.5231     67.5233   5.1568845686e+01   2.8302247693e+01    0.1415447    0.1365614 -66.65 0.0001050342    1.039    0.038
       135  -8.5488    159.0000     66.9944   5.7951583322e+01   3.6959292924e+01    0.2440895    0.0848299 -34.98 0.0007989443    2.918    0.657
       136  -9.7922     70.7853     66.4039   8.3041625958e+01   5.5699603381e+01    0.2919524    0.2190835 -15.92   0.00130638    1.377    0.274
       137  -9.2695     67.3430     62.8155   8.3116295513e+01   5.6941746022e+01    0.3359802    0.1875478 -42.38 0.0007345045    1.670    0.401
       138  -9.6119     70.9354     62.0095   8.1490379730e+01   5.6536705736e+01    0.3752557    0.2119128  51.80 0.0007785879    2.536    0.606
       139  -9.2589    110.9695     65.9280   6.9541949816e+01   4.8272564880e+01    0.2096984    0.1970847 -77.39 0.0002850924    1.258    0.205
       140  -9.9949    107.8886     62.6270   6.9330245837e+01   4.9513734794e+01     0.726471    0.2402659  52.01  0.002288527    3.528    0.717
       141  -8.6140     49.0594     65.4948   9.1166130859e+01   5.8903974071e+01    0.1820984    0.1294622  22.79 0.0006603432    1.499    0.333
       142 -10.6521     43.6732     63.3482   9.2692847491e+01   5.9975929772e+01    0.3675114    0.3058013 -42.79  0.001831182    1.129    0.114
       143 -10.0025     32.4209     64.1690   9.7635257745e+01   6.0951315714e+01    0.3073302    0.1976392 -40.64   0.00108084    1.300    0.231
       144 -10.8295      3.4036     59.9060   1.0897413742e+02   6.3853303523e+01    0.5073557     0.212162 -65.52   0.00114225    2.043    0.511
       145 -11.5448      7.9779     56.6072   1.0619410168e+02   6.4331178649e+01    0.2286268    0.1723652 -35.84 0.0001889054    1.120    0.107
       146  -8.4260    187.2935     63.6956   5.1729208045e+01   3.0625470548e+01    0.1479223    0.1066019 -68.20 0.0004407645    1.577    0.366
       147  -9.0319     17.0217     63.1409   1.0389718884e+02   6.2392015695e+01    0.1771199    0.1447318  76.91  0.000928097    1.698    0.411
       148  -8.2708    172.4808     62.5035   5.3994328103e+01   3.4399917296e+01    0.1456138    0.1396632 -83.12 0.0001307858    1.016    0.016
       149  -8.7570    141.5343     61.4538   6.0084128031e+01   4.2078733725e+01    0.1473309    0.1417953  36.42 8.982497e-05    1.016    0.015
       150  -9.4330    121.7628     60.0429   6.4542510193e+01   4.6917940203e+01    0.3675669    0.2308268  22.09  0.001190218    2.166    0.538
       151  -8.9694     51.2163     59.9764   8.8502802546e+01   5.9762382468e+01    0.2949658    0.1834262  44.63  0.001349315    2.075    0.518
       152 -10.7212     59.1550     57.8342   8.4569658830e+01   5.9116713454e+01    0.5115901     0.366553   0.26  0.002033324    1.515    0.340
       153 -11.6110    150.2702     56.8371   5.6697066816e+01   4.0704317059e+01    0.6341859    0.3963987 -52.60  0.002820194    1.853    0.460
       154  -9.7583     34.6567     57.7377   9.4748844979e+01   6.2080471857e+01    0.2134709    0.1810243 -37.41 0.0002932489    1.090    0.083
       155  -9.6371    199.9450     56.4136   4.7823249848e+01   2.8708825058e+01    0.3323902    0.2310285  28.05   0.00157859    2.060    0.515
       156  -9.2913    159.9161     57.0429   5.4788190803e+01   3.8318084852e+01    0.2949061    0.2172985  24.29  0.001082558    1.700    0.412
       157  -9.8871    162.5143     52.1533   5.2822585945e+01   3.8411162162e+01    0.4430192    0.2375763 -37.22  0.001926825    1.877    0.467
       158  -9.3629     69.1549     57.5846   8.0602846254e+01   5.7660294876e+01    0.2333428    0.1760121 -21.62 0.0006665224    1.267    0.211
       159  -9.2059    222.7440     56.3204   4.4746345542e+01   2.3492846485e+01    0.2413375    0.1688248  55.63  0.001303147    1.554    0.356
       160  -9.1420    112.0664     55.9011   6.5792438752e+01   4.9759192702e+01    0.2188246    0.2045613  21.94 0.0005197523    1.014    0.014
       161  -8.8447    105.6869     56.0362   6.7692567464e+01   5.1108876005e+01    0.1990174    0.1823964  14.38 0.0008488408    1.023    0.022
       162  -9.1908     26.3402     56.4351   9.7987943973e+01   6.3107828259e+01    0.2468577    0.1166812  24.20  0.001226789    2.320    0.569
       163  -8.7847     22.2486     55.9883   9.9671354087e+01   6.3530857924e+01    0.3218002    0.1021126 -47.44  0.001021387    2.347    0.574
       164  -9.0284    125.9722     55.2514   6.1832542635e+01   4.6734218244e+01    0.2019534    0.1874998  42.47 0.0003733005    1.044    0.042
       165 -10.8981     80.9744     53.5455   7.4811291328e+01   5.6387077347e+01    0.7855907    0.4191512 -20.48  0.003167772    2.565    0.610
       166  -9.6128    206.5198     53.9641   4.6270407313e+01   2.7522792143e+01    0.3610111    0.2376791 -58.51  0.001063687    1.547    0.354
       167  -9.1846    207.3361     50.3195   4.5240966087e+01   2.7849251724e+01    0.2322295      0.19964 -70.07 0.0008549676    1.083    0.077
       168  -9.1474    200.9732     48.9728   4.5752842797e+01   2.9528452227e+01    0.6317799    0.3029138 -60.93  0.002430792    2.825    0.646
       169  -9.6832    174.1158     51.7350   5.0620109950e+01   3.5621759824e+01    0.4003046    0.1787003 -31.52  0.001585942    2.339    0.573
       170  -9.3560    136.5320     52.2494   5.8272549220e+01   4.4716587795e+01    0.3289481    0.2475674 -19.67  0.001648235    1.467    0.318
       171  -9.7308     29.1017     52.6909   9.5598027732e+01   6.3628749866e+01    0.2164808    0.1454122 -39.00 0.0003533115    1.220    0.180
       172 -10.1595    114.0559     50.4602   6.3327443378e+01   5.0187264379e+01    0.6494482    0.2810291  53.70  0.001767955    2.349    0.574
       173 -10.5017    106.1009     50.3653   6.5545679536e+01   5.1939836277e+01    0.3870414    0.3032503  64.89  0.001472452    1.538    0.350
       174  -7.6430     44.4704     52.4843   8.8766502474e+01   6.2061199822e+01     0.372724    0.2910105  74.67  0.001813186    2.376    0.579
       175  -9.1926     42.7055     45.3560   8.6962238606e+01   6.3613604467e+01    0.2372885    0.1572291 -38.11  0.001347666    1.327    0.246
       176  -9.8712     49.0289     49.4868   8.5745002115e+01   6.2066090627e+01    0.2416834    0.1736992 -21.39 0.0004448054    1.281    0.219
       177 -10.2207     45.9978     47.2483   8.6222497765e+01   6.2863986349e+01    0.3620399    0.2228354  11.94 0.0002041032    1.801    0.445
       178  -9.5462    126.4675     50.3615   6.0052176285e+01   4.7374469050e+01    0.2840374    0.2230046  10.64  0.000148796    1.463    0.316
       179  -9.3797     92.0597     51.1267   7.0157494024e+01   5.4707723211e+01    0.3648293    0.1892752  51.97  0.001320456    2.190    0.543
       180  -9.5393     17.6839     50.6897   1.0017911647e+02   6.4957732544e+01    0.3395055    0.1363614   8.00   0.00148167    3.282    0.695
       181  -9.7558    212.4433     49.5227   4.4382955281e+01   2.6780239894e+01    0.3124312    0.2167743  88.64  0.001640911    1.542    0.351
       182  -8.4736     73.4750     50.4045   7.6349043120e+01   5.8244258240e+01    0.1369001    0.1208843  -0.39  0.000237629    1.019    0.019
       183 -10.1483     55.7072     42.3328   8.0203234217e+01   6.2429918828e+01    0.4125031    0.2651026  -6.50  0.001112531    1.785    0.440
       184  -9.2909     55.3169     49.9733   8.3292698546e+01   6.1133705674e+01    0.2389233    0.1544133 -25.06 0.0007995793    1.503    0.335
       185 -10.1537     59.4572     47.0799   8.0512189689e+01   6.1057360268e+01    0.3936349    0.2540891 -24.38  0.002069941    1.516    0.340
       186 -10.7910      5.7212     48.3646   1.0508849802e+02   6.6166666231e+01    0.2744383    0.1519481 -37.95 0.0001731295    1.449    0.310
       187  -9.3519     10.6684     47.7431   1.0258733527e+02   6.6016839659e+01    0.2182973    0.1664906  48.22 0.0008992932    1.904    0.475
       188  -9.2529    122.1175     48.8801   6.0639249596e+01   4.8603291893e+01    0.2125543    0.1951308 -70.48 0.0006253766    1.268    0.212
       189  -9.8826     26.0801     48.1516   9.5499442778e+01   6.4800029386e+01    0.3196887    0.1888276  17.11  0.001366243    1.823    0.452
       190  -8.5762    233.3058     48.6491   4.1734018854e+01   2.2256653959e+01    0.1418782      0.08425 -61.81 0.0007042022    1.707    0.414
       191  -9.3374    169.8138     47.9646   5.0271497817e+01   3.7214779874e+01     0.259865    0.1935379  61.88 0.0007263991    1.286    0.223
       192  -8.7296     95.8931     48.1524   6.7827178194e+01   5.4420935266e+01    0.2070722    0.2009502  86.30  0.001229734    1.273    0.215
       193  -9.4262     34.4374     46.6216   9.1137905627e+01   6.4298796212e+01    0.2517799    0.2049252 -70.62  0.001522231    1.777    0.437
       194 -10.0013    153.8256     46.2893   5.2697302532e+01   4.1384892207e+01    0.4798013     0.191806  44.39  0.001299355    2.762    0.638
       195 -10.5633    142.7446     44.1907   5.4271558258e+01   4.4384296055e+01    0.4935557    0.3697692   2.14  0.002124864    1.670    0.401
       196 -10.6128    166.6695     43.3078   4.9448386953e+01   3.8629356109e+01    0.5000586    0.2866399  68.83  0.002255753    1.778    0.438
       197 -10.8248    108.9006     43.5193   6.2257061160e+01   5.2367444811e+01     0.280442    0.2700974  48.57 0.0003897123    1.134    0.118
       198  -8.9975      1.3572     45.0238   1.0625828407e+02   6.7059022481e+01    0.1640652   0.09073037 -59.06 0.0009577275    1.505    0.335
       199  -9.1337     76.3278     44.2896   7.2955073996e+01   5.8771793744e+01    0.1408152   0.09775276   6.48 0.0001958322    1.617    0.382
       200  -9.0558     19.8692     43.5003   9.6882758759e+01   6.6222984130e+01    0.1820483    0.1625117 -47.95  0.001269108    1.294    0.227
       201  -8.5498     10.5609     43.4357   1.0135990029e+02   6.6886459235e+01    0.1223646   0.09066892 -35.80            0    1.044    0.042
       202  -8.6595     69.4201     44.0296   7.5415317092e+01   6.0005220581e+01    0.3765629    0.1990127 -14.12  0.001465237    3.030    0.670
       203 -10.3259     36.3025     39.7954   8.7757475866e+01   6.5360598560e+01    0.4180152    0.1999028 -43.88   0.00130965    1.848    0.459
       204 -10.6639     33.4417     35.0676   8.7248643493e+01   6.6510084028e+01    0.3539963    0.2073936 -30.28 0.0004679416    1.493    0.330
       205  -8.8382    107.1632    246.8211   1.0766121139e+02   9.5593374091e+00    0.1540626    0.1394067  16.45 0.0005629692    1.313    0.239
       206  -8.2331    195.6717    229.6951   8.7404567005e+01  -1.1562119351e+00    0.1319045    0.0875409   4.86 0.0006208366    1.651    0.394
       207  -8.5065    148.5929     37.5549   5.0964567561e+01   4.3838866074e+01    0.2000855    0.1618674 -66.91 0.0001262257    1.394    0.283
       208 -10.0536     63.0279     40.8676   7.6640560931e+01   6.1564353336e+01    0.3266342    0.1772119  39.96  0.001356936    1.907    0.476
       209  -9.6164     62.1156     36.8439   7.5361766156e+01   6.2353961793e+01    0.2907009    0.1894696  -9.94  0.001516971    1.670    0.401
       210  -9.5183     28.0164     41.0689   9.2134155021e+01   6.5980721520e+01    0.1874221    0.1445223 -24.02            0    1.052    0.050
       211 -10.2891    112.3269     38.9865   5.9664685830e+01   5.2244142804e+01    0.3172696    0.2703599 -59.58  0.001516085    1.445    0.308
       212  -9.8761     48.5341     37.1406   8.1174700677e+01   6.4310992408e+01    0.3042012    0.2231783 -61.73   0.00163628    2.242    0.554
       213  -8.9547      2.9181     39.3742   1.0390232557e+02   6.8113832897e+01      0.22882    0.1048243  12.23  0.001242659    2.433    0.589
       214  -8.7563    225.9619     38.1840   4.0112046675e+01   2.5249144169e+01    0.1699383   0.09409042  71.50 0.0004822067    1.819    0.450
       215  -8.8633    181.9827     38.2936   4.5588160643e+01   3.5527160514e+01     0.184101    0.1654744  82.33 0.0003092888    1.038    0.037
       216  -9.0769    162.0356     37.5122   4.8517094613e+01   4.0532749632e+01    0.2141506    0.1857094 -33.01 0.0006352964    1.228    0.186
       217  -8.2126    157.6250     38.6820   4.9643435462e+01   4.1471235971e+01    0.1521329    0.1009594  33.31 0.0005108624    1.804    0.446
       218  -8.8419    132.9524     38.4736   5.4485975288e+01   4.7515683756e+01    0.2267447    0.1311613  56.64  0.001037536    1.609    0.378
       219 -12.3129     75.9157    218.8462   1.1115181053e+02   1.9382714697e+01    0.9717067    0.6350502  51.48  0.005576678    1.344    0.256
       220 -10.9841     81.8230     36.7937   6.8035435625e+01   5.8910145469e+01    0.5852175    0.3488531  26.74 0.0006215025    1.786    0.440
       221 -11.2856     78.9282     31.4478   6.6837452950e+01   6.0212598590e+01    0.3681067    0.3201962 -14.77 0.0005499793    1.152    0.132
       222  -9.9766    127.3853     36.4435   5.5041045393e+01   4.9104165087e+01     0.278743    0.2564393  53.77  0.001166608    1.055    0.052
       223 -10.0491     68.0941     35.7248   7.2561952965e+01   6.1541527107e+01    0.3262788    0.2605985 -54.83  0.001853055    1.782    0.439
       224  -9.3607    215.7608     34.9996   4.0454706438e+01   2.7945130346e+01     0.215934    0.1747911  85.13  0.000507782    1.168    0.144
       225  -9.6212    193.0674     33.8073   4.2855321965e+01   3.3409763019e+01    0.4089259    0.2014614  44.15  0.001724837    2.567    0.610
       226  -8.8375    106.7328     35.0742   5.9716715437e+01   5.4013109813e+01    0.1856471    0.1647254  16.25 0.0001998968    1.073    0.068
       227 -11.3112    237.9227     32.1991   3.7593460745e+01   2.3413927273e+01    0.5820978    0.3601842 -82.69  0.003224303    1.667    0.400
       228 -10.4213    237.4011     26.2428   3.6339562586e+01   2.4251749571e+01    0.3005894    0.2173226 -42.35 0.0008838861    1.293    0.226
       229 -10.4000    239.3470     22.4572   3.5358075601e+01   2.4288140030e+01    0.3168118    0.2138028 -63.69  0.001003272    1.290    0.225
       230 -10.2275    110.0553     29.3283   5.6668917671e+01   5.3998103813e+01    0.3373491    0.2677935  53.75  0.001628608    1.208    0.172
       231  -9.6597    114.5795     32.2278   5.6600834898e+01   5.2616430865e+01    0.2507787      0.21714  53.42 0.0002790819    1.127    0.113
       232  -9.9198    119.6995     26.9173   5.3427718570e+01   5.2071187393e+01    0.6154281    0.2411155  44.42  0.002419254    2.434    0.589
       233  -7.4654     37.4357     32.4321   8.4273418805e+01   6.6505193318e+01    0.1267282   0.09913967 -13.67 7.168444e-05    1.045    0.043
       234  -8.4906    143.5345     31.4358   4.9965835171e+01   4.5835503327e+01    0.1403546     0.125589  48.88 4.797011e-05    1.061    0.057
       235 -10.2041     55.5071     26.0245   7.3401685917e+01   6.5012372923e+01    0.3852245    0.2114618  -5.02  0.001729131    2.586    0.613
       236 -10.3004     43.0460     29.1684   8.0266950626e+01   6.6333233489e+01    0.2747667    0.1781762 -33.33 0.0002415073    1.407    0.289
       237 -10.9375     47.8931     28.3395   7.7715193681e+01   6.5801799483e+01    0.3919986    0.2756886  42.76 0.0005261585    1.761    0.432
       238  -9.1003    198.0850     29.8697   4.1209139264e+01   3.2693211297e+01    0.2465308     0.164834  50.45 0.0005949997    1.632    0.387
       239  -8.3546    201.2928     29.3180   4.0690029034e+01   3.2000669880e+01    0.1751593    0.1251418  57.96 0.0002584698    1.430    0.301
       240  -8.9534    124.8564     30.1966   5.3426162717e+01   5.0477252524e+01    0.1963073    0.1843667  78.08 0.0006069972    1.151    0.131
       241  -9.9876     65.0380     29.9746   7.1301929130e+01   6.2903774251e+01    0.2472903    0.1764502 -42.92  0.001387091    1.685    0.407
       242  -8.6804     21.2088     29.8739   9.1236245672e+01   6.8626425425e+01     0.262074    0.1213273 -40.17  0.001114275    1.759    0.432
       243  -9.2534     21.4948     26.4809   8.9702416216e+01   6.9183950176e+01    0.3779365    0.1615736 -32.50  0.001871559    2.122    0.529
       244  -9.4869    215.8623     28.3263   3.8850428995e+01   2.8743933794e+01    0.2292039    0.1849755 -28.67 0.0006120401    1.398    0.285
       245 -10.4369    182.1950     27.2329   4.2516484724e+01   3.6827718456e+01    0.5412221    0.2928871  44.29  0.001596111    2.163    0.538
       246  -9.9599     15.4134     28.4351   9.3688402903e+01   6.9365711274e+01    0.3687457    0.1753104 -20.64  0.001849995    2.305    0.566
       247 -10.1278    206.7405     25.9824   3.9247695152e+01   3.1120759639e+01    0.2898704    0.2325862 -29.76  0.001744087    1.386    0.279
       248  -9.6812    227.2799     23.1371   3.6547661452e+01   2.6806548163e+01    0.3226603    0.1974855 -85.09  0.001769497    1.633    0.388
       249  -8.9679     98.7084     23.9555   5.7613724389e+01   5.7135422410e+01    0.1806391    0.1656702   1.15 0.0005860872    1.118    0.105
       250  -8.7986    137.2715     32.9431   5.1704407560e+01   4.7176319408e+01    0.1771996    0.1699557  34.86 0.0002956277    1.058    0.055
       251  -9.7580    179.1689     22.9766   4.1747280699e+01   3.8047911286e+01    0.2722619    0.2001466  72.08 0.0008376861    1.244    0.196
       252 -10.2921    163.9354     22.2087   4.3650775124e+01   4.1866603908e+01    0.4978049    0.1879362  55.78  0.001902437    2.316    0.568
       253  -9.6559     50.6160     21.9851   7.3643321840e+01   6.6326403263e+01    0.2258848    0.2031566  -0.92 0.0009790998    1.239    0.193
       254 -11.3422     69.0360    217.5302   1.1248881884e+02   2.0578660467e+01    0.4600423    0.3349341  77.44  0.001270799    1.312    0.238
       255  -9.2269      8.4028     22.9393   9.5318248469e+01   7.0846604492e+01    0.1970804    0.1433328  27.74  0.001339163    1.729    0.422
       256  -9.0529    218.2336     21.7833   3.7076511377e+01   2.8975790592e+01    0.1616126    0.1406433  58.86 0.0004881308    1.321    0.243
       257  -9.7262    141.9540     20.7933   4.6784779633e+01   4.7414998283e+01    0.2982738    0.2404746 -65.63  0.001693004    1.402    0.287
       258  -9.4374     91.2170    214.5887   1.0734797210e+02   1.8112881721e+01    0.3110729    0.1201689  34.07  0.001274909    2.521    0.603
       259  -8.5922    132.5554    210.7712   9.7634761716e+01   1.2415938861e+01    0.1706191    0.1343987 -71.60 0.0004808883    1.515    0.340
       260  -7.9199    155.2916    214.6796   9.3268776596e+01   7.8778326763e+00    0.1300654     0.103908  67.40 0.0002726584    1.606    0.377
       261  -9.4638      1.3699    185.2045   1.2436435379e+02   3.4834893885e+01     0.328243   0.08783843 -77.21   0.00137503    2.999    0.667
       262  -9.7977      1.6518     21.4741   9.8550538037e+01   7.1527645529e+01    0.2315066    0.1279336 -54.20 0.0007809856    1.704    0.413
       263  -9.3758    222.4084     20.3789   3.6364244746e+01   2.8201657126e+01    0.2113976    0.2072007 -78.06 0.0008230928    1.255    0.203
       264  -9.3819    205.9776     21.0782   3.8126072621e+01   3.1862083773e+01    0.1876986    0.1610961 -82.09  0.000285474    1.018    0.018
       265  -9.9249     14.0608    173.6858   1.2075517987e+02   3.6435422830e+01    0.2352829    0.1586079 -46.16  0.001111097    1.819    0.450
       266 -10.1498      6.3348    168.2640   1.2212715963e+02   3.8305301246e+01    0.3077091    0.1543412  52.92  0.001428043    1.941    0.485
       267 -10.8575      7.1204    163.5602   1.2158361719e+02   3.9341934120e+01    0.2345586    0.2083441  -0.81 0.0008439183    1.546    0.353
       268  -9.5535     26.1608    158.0621   1.1638286793e+02   3.9092537029e+01    0.1837197    0.1495772 -63.12 0.0003656923    1.206    0.171
       269  -9.1346     69.1991     19.4468   6.5073097722e+01   6.3558277175e+01    0.2206248    0.1598645 -20.19 0.0005871391    1.360    0.265
       270  -9.3686    119.0606     18.7832   5.0610002443e+01   5.3103564708e+01    0.2302358    0.1790251  76.61  0.001070161    1.417    0.295
       271  -9.6577    236.0042     16.9423   3.4445438281e+01   2.5630650385e+01     0.186418    0.1543798 -70.07 0.0005191962    1.023    0.023
       272 -10.9164      8.9636    155.8248   1.2050164434e+02   4.1028415311e+01    0.2422402    0.2142798 -10.39 0.0008379954    1.526    0.345
       273  -8.9779     77.0200     16.5936   6.1080406817e+01   6.2417033209e+01    0.2664387    0.1371629  37.96  0.001316154    1.751    0.429
       274  -8.4598     78.0464     13.0001   5.9143552218e+01   6.2600303140e+01    0.1556164     0.154463  60.85 0.0004887612    1.338    0.252
       275  -9.6809     39.1122     16.1190   7.6086506367e+01   6.8771454562e+01    0.2497582    0.1511856  28.30  0.000903284    1.558    0.358
       276 -11.2394      2.8564    153.0930   1.2178483837e+02   4.2101488090e+01    0.4297244    0.2375746 -58.10  0.001808057    1.680    0.405
       277 -10.5323     25.3188    151.9609   1.1594703105e+02   4.0646677275e+01    0.4471228    0.2080997 -86.80  0.001458586    2.256    0.557
       278 -10.9349     20.6152    153.6323   1.1734845448e+02   4.0643122143e+01    0.2982641    0.1786399 -59.64   0.00139033    1.514    0.339
       279  -9.0632     32.0334    147.4962   1.1363298309e+02   4.1131865463e+01    0.1697185    0.1305174  30.41 0.0004069021    1.500    0.333
       280 -10.4510     11.6275    145.0690   1.1883298008e+02   4.3406694368e+01    0.2311687    0.1859844  45.77 0.0002955909    1.384    0.278
       281 -10.6785      3.9504    141.7987   1.2054087265e+02   4.4710745191e+01    0.3185875    0.2601203  34.53  0.002171763    1.466    0.318
       282  -9.9116     36.5995    141.6986   1.1161939712e+02   4.2128175353e+01    0.2780233    0.1832081 -41.55 0.0008520971    1.696    0.410
       283 -10.0685     21.9047    141.9636   1.1574048434e+02   4.3373837392e+01    0.2195945    0.1757218  50.28 0.0004526319    1.354    0.261
       284 -10.9856     16.1981    141.0289   1.1719374576e+02   4.4048043439e+01    0.3565592    0.1938518  47.74  0.001881259    1.985    0.496
       285  -8.4084     44.6647    141.6912   1.0933221229e+02   4.1307829950e+01    0.1387464   0.09481236 -38.84 0.0007042641    1.676    0.403
       286 -10.6281     29.2563    138.2884   1.1324228943e+02   4.3653375618e+01    0.3091444    0.2506376 -33.76 0.0009189375    1.444    0.308
       287 -10.2525     16.1241    132.0266   1.1619873531e+02   4.6245394241e+01    0.2529774    0.1535402  83.74  0.001345032    1.690    0.408
       288  -8.7040     35.9824    132.2243   1.1045917137e+02   4.4538752422e+01    0.1564779    0.1119102  27.02 0.0007770352    1.620    0.383
       289  -9.9549     41.0519    130.9306   1.0875755430e+02   4.4363759235e+01    0.3015012    0.1440617  54.80  0.001239231    2.756    0.637
       290  -8.6764     80.1001    129.4200   9.6699801620e+01   3.9826803320e+01    0.2053328    0.1465349  30.58 0.0005148391    1.524    0.344
       291 -12.5356    227.1102    135.3930   6.2682871861e+01   9.5134987053e+00    0.6919987     0.494479  49.54  0.003623437    1.593    0.372
       292  -9.0867    151.3011     41.3981   5.1659066976e+01   4.2672063187e+01    0.2780458    0.1697657  87.13  0.001152455    2.332    0.571
       293 -12.3648    230.8048    123.9293   5.9475187830e+01   1.0812186620e+01    0.8188379     0.424852 -47.80  0.003588123    1.955    0.488
       294 -10.5056     28.5570    124.8800   1.1160355923e+02   4.7024844982e+01    0.4826356     0.198876 -53.49  0.001609267    2.063    0.515
       295 -10.5277      5.2814    125.9411   1.1860852756e+02   4.8433049491e+01    0.3966587    0.1710018 -47.01  0.001906735    2.307    0.566
       296 -10.2942     48.5035    125.4717   1.0558929371e+02   4.4938180566e+01    0.3413318    0.2774184   0.43  0.001344329    1.508    0.337
       297  -9.4473     23.5962    125.2031   1.1314490829e+02   4.7351497009e+01     0.219163     0.171365 -89.41 0.0006421095    1.224    0.183
       298 -10.8342     14.5212    122.4282   1.1549504609e+02   4.8696619671e+01    0.3500932    0.1906198 -35.00  0.001766354    2.205    0.546
       299  -9.4861     93.9882    122.7763   9.1057639773e+01   3.9225817387e+01    0.2509573    0.2049836 -55.14 0.0005223379    1.176    0.149
       300  -8.5874     78.1678    123.1795   9.5955943269e+01   4.1657480253e+01    0.1920212    0.1676333  81.29  0.000304082    1.272    0.214
       301  -8.8121     73.4895    121.9109   9.7128329470e+01   4.2656334285e+01    0.2149304    0.1357228 -58.53 0.0003094668    1.475    0.322
       302  -9.9867     61.5466    120.5266   1.0058155452e+02   4.4619145141e+01    0.3071382    0.2472176  -0.19 0.0008584497    1.505    0.336
       303 -10.1567     57.6672    117.7910   1.0126132478e+02   4.5781140752e+01    0.3081189    0.2430157  61.46   0.00163417    1.470    0.320
       304  -9.2684     70.0619    118.6490   9.7499432946e+01   4.3945281448e+01    0.2528647    0.1923316 -69.09 0.0008729297    1.328    0.247
       305  -9.4075     98.3823    117.1931   8.8399371859e+01   3.9803788984e+01    0.2354227     0.207724  12.79 0.0005140596    1.237    0.192
       306 -10.4158     25.6482    116.2725   1.1121374367e+02   4.9381037990e+01    0.3250249    0.2039056  39.48  0.001765873    1.820    0.451
       307  -9.2115    144.0759     14.2723   4.4303918962e+01   4.7550824881e+01    0.2061523    0.1570937  47.00 0.0006518721    1.251    0.201
       308 -10.0622     39.1918    115.1033   1.0669252521e+02   4.8472690453e+01     0.358616    0.2308185  74.25  0.001735773    2.054    0.513
       309  -9.1276      1.7791    115.9926   1.1853626938e+02   5.1014540246e+01    0.2312456    0.1375429 -68.16 0.0003933895    1.301    0.231
       310  -9.9769      2.1663    111.9488   1.1795058032e+02   5.1960034931e+01    0.2343202    0.1692405  78.14  0.001005931    1.436    0.303
       311  -9.7479     32.3721    113.5366   1.0862267554e+02   4.9488765651e+01    0.2494017    0.1909955  36.29 0.0009974694    1.499    0.333
       312  -9.7422     45.8715    113.0762   1.0414606095e+02   4.8292851632e+01     0.233308    0.1994819 -21.74  0.001174912    1.293    0.227
       313  -9.9423     49.9519    111.6104   1.0251780412e+02   4.8207793662e+01    0.2617618    0.1889097 -70.34 0.0006006206    1.347    0.258
