#   1 NUMBER                 Running object number                                     
#   2 MAG_AUTO               Kron-like elliptical aperture magnitude                    [mag]
#   3 X_IMAGE                Object position along x                                    [pixel]
#   4 Y_IMAGE                Object position along y                                    [pixel]
#   5 X_WORLD                Barycenter position along world x axis                     [deg]
#   6 Y_WORLD                Barycenter position along world y axis                     [deg]
#   7 A_WORLD                Profile RMS along major axis (world units)                 [deg]
#   8 B_WORLD                Profile RMS along minor axis (world units)                 [deg]
#   9 THETA_WORLD            Position angle (CCW/world-x)                               [deg]
#  10 FWHM_WORLD             FWHM assuming a gaussian core                              [deg]
#  11 ELONGATION             A_IMAGE/B_IMAGE                                           
#  12 ELLIPTICITY            1 - B_IMAGE/A_IMAGE                                       
         1 -11.2297     40.2108     18.6883   6.8392321520e+01   6.7464650337e+01    0.3832367    0.2643241 -46.46  0.002293522    2.051    0.512
         2 -12.8934    199.9285      6.5566   2.7809270148e+01   3.4978255117e+01    0.6244426    0.2850873 -40.86  0.003223263    2.098    0.523
         3 -11.0766     33.0494     19.5120   7.2095399758e+01   6.8267772905e+01    0.2241922    0.1858564  12.28 0.0004707435    1.233    0.189
         4 -12.9770    189.6009      4.8585   2.8420199996e+01   3.7482943988e+01    0.3038161    0.2269784  76.18  0.000565564    1.159    0.137
         5 -10.7728    127.1585      5.9543   3.7120333124e+01   5.1932251609e+01    0.2136738    0.1591932  64.07 0.0004593175    1.159    0.137
         6  -9.3736     71.7023      1.3212   4.8446815578e+01   6.4149322056e+01    0.1043569   0.09504899 -71.95 0.0002538035    1.620    0.383
         7 -10.6578     28.5639      1.4478   6.5650124451e+01   7.1115445180e+01    0.1945618   0.09439518  33.98 0.0006027222    1.882    0.469
         8 -11.2885    149.3700    222.8699   8.6987779279e+01   6.4304933527e+00    0.5494771    0.3087941 -63.57  0.002448723    2.554    0.608
         9 -11.3480     70.0048    249.0540   1.0698690424e+02   1.3192642501e+01     0.337817    0.2551247  15.60  0.001139416    1.842    0.457
        10  -9.8355     37.0312    251.0000   1.1343959063e+02   1.6851722734e+01    0.1748668   0.05594794  34.53 0.0007918059    2.869    0.651
        11 -10.2408     98.0156    220.7045   9.8085642993e+01   1.5002805023e+01     0.194813    0.1581375  44.68 0.0007304635    1.120    0.107
        12 -12.7012     23.1384    218.3778   1.1394089560e+02   2.5014869371e+01    0.3840279    0.2308083  66.29  0.001112545    1.444    0.307
        13 -10.6665    236.9572    210.4583   6.7077984669e+01  -5.0890123709e+00    0.3582931    0.2447527 -19.93  0.001416155    1.304    0.233
        14 -11.9432    239.3813    216.3934   6.7715775688e+01  -6.3302419386e+00    0.4309724    0.4072954  20.63  0.003011452    1.460    0.315
        15 -10.9506    179.6192    217.2861   7.9570712075e+01   2.5284704541e+00    0.2629751     0.253484 -58.03 0.0007832833    1.297    0.229
        16  -9.9850     43.3174    217.6680   1.0972062225e+02   2.2976910391e+01    0.1349143   0.07664356  65.73  0.000704752    1.689    0.408
        17 -10.0342    111.8076    215.6030   9.4299145354e+01   1.3962380414e+01    0.2513942    0.1020292 -54.76  0.001016443    2.595    0.615
        18  -9.5341    213.2956    211.6682   7.1739227546e+01  -1.8186240751e+00    0.1156167    0.1080761 -87.95 0.0004007647    1.639    0.390
        19 -10.7247     18.9533    203.2385   1.1373002039e+02   2.8756556979e+01    0.3547525    0.1548067  59.44  0.001727485    2.230    0.552
        20 -11.2536      4.0465    202.8133   1.1679753241e+02   3.0193297519e+01    0.2580523    0.1929597  74.75 0.0007312687    1.075    0.070
        21 -11.0669    235.0488    215.7678   6.8386323149e+01  -5.6400979559e+00    0.4255616    0.2954844 -56.82  0.002261238    2.471    0.595
        22 -11.0329     35.6941    222.6081   1.1170272535e+02   2.2771989057e+01    0.2798523    0.1671263  80.83  0.001105663    1.567    0.362
        23  -9.7042    124.3064    197.6832   8.8670257110e+01   1.5800101077e+01    0.1459282    0.1089572  70.06  0.000439417    1.629    0.386
        24 -10.3156    112.2418    196.2788   9.1330146216e+01   1.8124910628e+01    0.2216361    0.1210147 -70.58 0.0008966833    2.386    0.581
        25  -9.8177    215.2375    194.2406   6.8100938321e+01   8.4988423014e-01    0.2092718    0.1044857 -49.68 0.0008877048    2.446    0.591
        26 -11.1761    161.3139    193.5769   7.9332437242e+01   1.0214011844e+01     0.416624    0.2671157  45.05  0.001966967    1.587    0.370
        27 -10.1076    120.7114    187.9596   8.7907137339e+01   1.8594048205e+01    0.2712562     0.144566  65.00 0.0008984022    3.525    0.716
        28 -10.1977     94.6818    187.0247   9.4189837793e+01   2.3080773341e+01    0.2334558    0.1166114 -84.78 0.0007049186    4.332    0.769
        29 -10.0867    108.6670    185.3504   9.0439172561e+01   2.1227531765e+01    0.1558005    0.1093213  71.60 0.0007047327    1.777    0.437
        30 -12.3961     45.3633    182.3212   1.0579759664e+02   3.0887284142e+01    0.4476006    0.2286671  70.87   0.00193387    2.444    0.591
        31 -10.6664    147.3737    179.5488   7.9911818225e+01   1.5728348447e+01     0.295958    0.1395661 -63.17 0.0009560754    3.481    0.713
        32 -10.6045    191.6664    177.3636   6.9513065428e+01   8.0109836370e+00    0.3624229      0.17055 -45.60  0.001471136    2.130    0.531
        33 -10.4700    101.0035    175.9918   9.0806093745e+01   2.4708822021e+01    0.2034827    0.1965527  81.38            0    1.011    0.011
        34 -10.2125    159.3752    175.1854   7.6222791763e+01   1.4445851343e+01    0.2137426    0.1414721 -58.18 0.0007033653    1.749    0.428
        35 -11.5956    120.6180    172.2750   8.5116177938e+01   2.2251661724e+01    0.4936889    0.2808267 -42.99   0.00164873    1.886    0.470
        36  -9.8746    226.7912    180.2561   6.3174192862e+01   1.4362966168e+00    0.1867843    0.1718188  59.78 0.0006099238    1.470    0.320
        37 -10.3258    175.6478    170.9919   7.1661629996e+01   1.2264051715e+01    0.3482245    0.1367512 -44.72  0.001246566    2.512    0.602
        38  -9.9518    206.0207    170.2643   6.5117244368e+01   6.7993047347e+00    0.2416513    0.1586629 -74.76 0.0008930476    3.562    0.719
        39 -12.4651     53.5691    168.9839   1.0209728188e+02   3.3194218428e+01    0.6809035    0.4158094  51.13  0.003388989    1.692    0.409
        40 -12.6318     54.9934    164.0065   1.0104341760e+02   3.4260540831e+01    0.9983628    0.6050479  66.03  0.004324102    1.942    0.485
        41 -10.1667    138.3885    164.2088   7.9044417509e+01   2.0868629021e+01    0.2234282    0.1459491 -61.95 0.0009539388    1.764    0.433
        42 -10.4925     79.3351    163.0119   9.4339403723e+01   3.1257349873e+01    0.2409048    0.1182878 -85.50  0.000705074    4.350    0.770
        43 -11.4191     15.7032    159.5163   1.1077078916e+02   3.9312380257e+01    0.3878136    0.1825307 -65.76  0.001491285    1.738    0.425
        44 -10.3148    105.4742    157.9835   8.6348429191e+01   2.8340772350e+01    0.3159584    0.1736634  66.82  0.001034783    3.416    0.707
        45 -10.4103    218.7431    156.2561   5.9725812742e+01   7.1559415199e+00    0.2705832     0.216133 -31.12 0.0009511838    1.130    0.115
        46 -10.2186    170.6766    156.9412   6.9780425625e+01   1.6192903901e+01    0.2209588    0.1973388 -40.32 0.0008326429    1.100    0.091
        47 -10.6046    234.8477    154.4681   5.6477837865e+01   4.6602426070e+00    0.2653588    0.2074576 -55.74  0.001476424    1.483    0.326
        48 -11.6755    118.8498    153.8969   8.1941915020e+01   2.6955349079e+01    0.4600001    0.2096257 -59.14  0.001623042    2.499    0.600
        49 -11.5782     95.0275    161.0698   8.9752033731e+01   2.9323256029e+01    0.6719085     0.334367  56.14  0.002440796    2.739    0.635
        50 -10.2324    242.5189    151.4991   5.4575871179e+01   3.8904455400e+00    0.1354691    0.1154211 -30.56 0.0002065513    1.021    0.021
        51 -10.7742    189.9152    149.8272   6.4006845342e+01   1.3866094598e+01    0.4523236    0.2996204 -69.54    0.0018467    2.428    0.588
        52 -11.5678    107.7765    145.9887   8.3286088210e+01   3.0876218196e+01    0.6119043    0.2968414  63.42  0.001533191    5.816    0.828
        53 -10.2191    192.0000    165.4898   6.6975262097e+01   1.0301867535e+01    0.3309853   0.08013882 -43.57 0.0009395458    3.974    0.748
        54 -10.3660    148.2068    144.8065   7.2386553682e+01   2.3386811856e+01    0.2598076    0.1749015  87.35 0.0009441331    2.789    0.641
        55 -11.2724    125.9575    144.3836   7.8001266635e+01   2.7893892375e+01    0.4337754    0.3024023  82.18  0.001743369    2.258    0.557
        56 -10.6342     55.1768    145.0203   9.8130218388e+01   3.9011830796e+01    0.2400811    0.1514105  83.49  0.001078029    2.017    0.504
        57 -10.8676    248.2452    143.3943   5.1987521362e+01   4.3401040207e+00    0.2307753     0.202006 -46.79 0.0005413103    1.177    0.151
        58 -10.5908     87.5955    143.7926   8.8531510571e+01   3.4811778876e+01    0.2187173     0.140669 -70.24 0.0009519293    1.721    0.419
        59 -11.1097     21.3187    138.9545   1.0697341844e+02   4.3909118953e+01     0.364407    0.2445845  21.68  0.001273069    1.793    0.442
        60 -10.3510      1.3697    136.1984   1.1221957496e+02   4.5962198466e+01    0.1798967   0.09710795 -85.59 0.0006131448    1.657    0.397
        61 -10.8432     82.6997    132.3321   8.7620724107e+01   3.8434232960e+01    0.2492786    0.2095606  86.00 0.0009925696    1.351    0.260
        62 -11.5798     97.8828    126.6538   8.1836010810e+01   3.7337297314e+01    0.5301194    0.3458118 -77.16  0.001626003    2.196    0.545
        63 -10.4010    131.3952    130.6103   7.3359802467e+01   3.0053547224e+01    0.3192241    0.1431852 -60.50 0.0009576659    3.419    0.708
        64 -10.1050    117.3205    125.6428   7.5992831166e+01   3.4000922383e+01    0.1618527    0.1249156  86.21 0.0007045097    1.761    0.432
        65 -10.7024     58.8956    123.7535   9.3182994992e+01   4.3900019791e+01    0.3874612    0.2066073 -81.47  0.001433861    2.949    0.661
        66 -11.4821     43.2918    123.2897   9.8017558885e+01   4.5797941244e+01     0.579838    0.3142536  67.01  0.002287098    3.073    0.675
        67 -10.2373    189.1260    124.3441   5.8289070610e+01   1.9188920517e+01    0.2085654    0.1954402  61.25  0.001031171    1.145    0.127
        68 -10.7481     28.7839    123.2023   1.0254512941e+02   4.7190282544e+01    0.2274813    0.1218363  67.26 0.0009536188    2.804    0.643
        69 -10.7556    158.0244    121.0665   6.4305926983e+01   2.6576734886e+01    0.2526632     0.197091 -84.29 0.0008822245    1.714    0.417
        70 -10.4992    248.6921    120.3478   4.7126096104e+01   8.2198190783e+00    0.1361566   0.09408326 -62.46 0.0005976552    1.705    0.413
        71 -10.2851     98.3067    120.3016   8.0205778708e+01   3.8793302279e+01    0.1545627    0.1180645 -17.11 0.0003673273    1.598    0.374
        72 -10.4994      2.8302    117.3377   1.0970655381e+02   5.0416805275e+01    0.3790394    0.1343405  89.46  0.001182348    5.135    0.805
        73 -11.3801    153.1856    115.5533   6.4064184164e+01   2.8809190838e+01    0.3110102    0.1165356 -46.27  0.001010695    2.661    0.624
        74 -10.9401    108.5704    113.0039   7.5335854398e+01   3.8627906638e+01    0.6005938    0.2653257 -60.20  0.001884597    3.317    0.699
        75 -11.0725     92.3162    112.5731   8.0128635974e+01   4.1671149128e+01    0.4552651    0.2690728 -67.87  0.001598233    2.296    0.564
        76 -10.7995     78.7352    112.5078   8.4390405622e+01   4.3895358370e+01     0.483098    0.2852266 -84.29  0.001635025    3.629    0.724
        77 -11.3757     13.7488    109.6260   1.0522554586e+02   5.1623581868e+01    0.4934187    0.1896194 -76.50  0.001985039    2.748    0.636
        78 -10.4751    139.7943    105.2086   6.4670296486e+01   3.3936973456e+01    0.2614875    0.1752752 -87.43 0.0009500128    2.788    0.641
        79 -11.3117    150.3268    103.1709   6.1510459442e+01   3.2035509885e+01    0.4098913    0.1246299 -49.89   0.00109594    4.174    0.760
        80 -11.4962     45.0940    102.2360   9.3271493701e+01   5.0744251567e+01    0.5735759     0.309834  71.27  0.001831168    5.079    0.803
        81 -11.0148      6.8234    102.4936   1.0642563936e+02   5.3734407778e+01    0.3696193    0.1656633 -79.96  0.001665196    2.358    0.576
        82 -11.7172    128.5553    102.1423   6.6789033628e+01   3.7009804751e+01    0.4833352    0.3096911 -70.16  0.001844064    2.488    0.598
        83 -12.1674     63.7166    101.4824   8.6681991768e+01   4.8678237564e+01    0.4536279    0.3109208 -62.87 0.0006064656    1.513    0.339
        84 -12.0412    111.0191    100.6815   7.1327212072e+01   4.0926441184e+01    0.5598493    0.3225997  61.76  0.002050414    2.734    0.634
        85 -10.7059     94.3505     96.8721   7.5350092104e+01   4.4910566969e+01    0.3110457    0.1386299 -55.38  0.001100502    2.619    0.618
        86 -10.4630     44.5445     94.5253   9.1729343037e+01   5.2617761321e+01    0.1372895     0.119192 -43.72 2.693714e-05    1.007    0.007
        87 -10.8497     34.3690     89.3787   9.4246886778e+01   5.4816481028e+01    0.3738819    0.1596199 -67.45  0.001494462    2.678    0.627
        88 -10.2952     79.7929     87.8673   7.7572380111e+01   4.9374411348e+01    0.2178749    0.1844794 -20.74 0.0003497304    1.160    0.138
        89 -10.8162     85.9263     86.7673   7.5200049663e+01   4.8586149589e+01    0.2757827    0.2002615 -77.46   0.00123521    2.149    0.535
        90 -10.6904     48.8087     85.2158   8.7881117965e+01   5.4269420637e+01     0.220961    0.1454222  69.99 0.0009567296    2.843    0.648
        91 -11.2147    104.3147     83.2208   6.8296129949e+01   4.5928324483e+01    0.3631175    0.2311101 -64.92   0.00147475    2.389    0.581
        92  -9.4438    214.7275     81.6514   4.3558094642e+01   2.1521753174e+01    0.1320516    0.1099556  -0.46 0.0004652467    1.627    0.385
        93 -10.4254     24.1927     80.7957   9.6131538278e+01   5.7622457267e+01    0.2060345    0.1282487  67.43 0.0009538099    2.850    0.649
        94 -10.2152     87.6550     79.6910   7.2515114739e+01   4.9760693590e+01    0.1519814    0.1099473  -4.98 0.0007044481    1.700    0.412
        95 -10.3113    203.8751     75.9333   4.3854544498e+01   2.4852458542e+01    0.2089084    0.1864305 -66.30   0.00045033    1.041    0.040
        96 -10.7119    103.0796     75.8341   6.6408285920e+01   4.7628745411e+01    0.2251741    0.2087688  75.60   0.00123799    1.286    0.223
        97 -10.9116    249.5136     74.0568   3.7312852698e+01   1.5619616736e+01    0.2029416    0.1085637 -41.12  0.001036217    1.602    0.376
        98 -11.4012     81.9219     72.3643   7.2164411967e+01   5.2225011674e+01    0.4690847    0.2389124 -59.66  0.001687453    3.326    0.699
        99 -10.5691     51.0126     69.2453   8.2555619340e+01   5.7432765095e+01    0.4572176    0.1999789 -64.21  0.001429535    4.950    0.798
       100  -9.8326    178.9215     69.8718   4.6501665509e+01   3.1580240745e+01    0.1926489    0.1597448 -83.56 0.0003291001    1.278    0.218
       101 -12.0016     40.0811     66.8166   8.6184406380e+01   5.9188906421e+01     0.672388    0.4132191  65.53  0.002612969    4.320    0.768
       102 -10.8021     38.3260     59.3296   8.4640975918e+01   6.0886227120e+01    0.2948608    0.1274458 -25.79  0.001099864    3.417    0.707
       103 -11.7308      7.6002     65.1407   9.9203480999e+01   6.2126484558e+01    0.3777775    0.2479895  32.00  0.001967552    1.902    0.474
       104 -12.0792     25.3860     58.3979   8.9872603256e+01   6.2304170638e+01    0.5140173    0.3185681 -72.38  0.002601513    2.400    0.583
       105 -11.2235     20.5958     51.3296   8.9884541026e+01   6.4096458419e+01    0.5139657    0.1961962 -49.03  0.002448888    2.075    0.518
       106 -10.2427    217.1302     60.0515   3.8200990026e+01   2.4409702152e+01    0.1975758    0.1699445 -72.79 0.0005452845    1.050    0.048
       107 -10.3979    249.2982     59.6524   3.4361950931e+01   1.7806681959e+01    0.1345951   0.07888573 -62.81 0.0004578281    1.681    0.405
       108 -11.0884     62.5188     72.5346   7.9165540606e+01   5.5233191695e+01    0.6228865    0.1260904 -49.31  0.001782288    4.632    0.784
       109 -11.7280     30.6783     50.6958   8.5177480512e+01   6.3333993489e+01    0.4233182    0.2703107 -74.70  0.001973903    3.157    0.683
       110 -12.8962      9.7054     49.1486   9.4205096174e+01   6.5285014719e+01    0.3792801    0.2364495 -24.11  0.001202649    1.440    0.305
       111 -11.0192    236.6797     45.7971   3.2787963802e+01   2.2292640684e+01    0.2442252    0.2112685  64.64  0.001615022    1.340    0.254
       112 -10.5390    142.2685     41.5174   4.5460427596e+01   4.4524783929e+01    0.3353395    0.1452777 -58.66 0.0009039328    6.070    0.835
       113 -10.3485     57.5180     41.2786   7.0369088654e+01   6.1690702013e+01    0.2279655    0.1194539 -43.08 0.0007878802    2.000    0.500
       114 -11.4520     73.8091     32.5898   6.0832155891e+01   6.0311305936e+01    0.3464804    0.2555107  78.13  0.001691058    2.776    0.640
       115 -11.9354      2.0038     28.4454   9.1547795022e+01   6.9602642559e+01    0.4243114    0.1586225 -53.59  0.002172326    2.292    0.564
       116  -9.6573    179.8140     26.3454   3.4906564297e+01   3.7474448474e+01    0.1754099    0.1067074  60.43 0.0002429492    1.513    0.339
       117 -10.4629     36.8757     25.8987   7.3061573538e+01   6.6875548338e+01    0.2960564    0.1481404  21.98  0.001538511    2.031    0.508
       118  -9.9004    136.8598     20.8406   4.0102314456e+01   4.8264972299e+01     0.171292    0.1454453 -85.37   0.00025224    1.273    0.214
       119 -11.7061     19.5401    248.7238   1.1648139477e+02   1.9190319346e+01     0.312705    0.1199146  34.03  0.001639322    2.518    0.603
       120 -12.1042    215.2235    241.8360   7.6569689772e+01  -6.7925452415e+00    0.3566923    0.2829868 -56.13  0.002203422    2.026    0.506
       121 -11.3820      4.8836    245.0370   1.1888220903e+02   2.1358675584e+01    0.2289853    0.1172186 -89.81  0.001430151    1.674    0.403
       122 -10.7165    123.1149     17.3500   4.1648420447e+01   5.1811925532e+01    0.3323109    0.1397373  60.43 0.0008545747    2.077    0.519
       123 -10.5582    150.0231     16.5218   3.6538301095e+01   4.5603372794e+01    0.2368588    0.1858714  11.54  0.001382181    1.621    0.383
       124 -12.6005     17.1887    241.4663   1.1650819664e+02   2.0849255364e+01    0.3327595    0.2232075  63.98 0.0006475275    1.158    0.137
       125 -12.4561     20.8796    238.5431   1.1566238002e+02   2.1053611468e+01    0.6921666    0.2504232  62.00  0.002976186    2.683    0.627
       126 -11.2692     36.5823    240.4200   1.1281934252e+02   1.8979955031e+01    0.3290694    0.1511242  42.20  0.001463372    1.834    0.455
