#   1 NUMBER                 Running object number                                     
#   2 MAG_AUTO               Kron-like elliptical aperture magnitude                    [mag]
#   3 X_IMAGE                Object position along x                                    [pixel]
#   4 Y_IMAGE                Object position along y                                    [pixel]
#   5 X_WORLD                Barycenter position along world x axis                     [deg]
#   6 Y_WORLD                Barycenter position along world y axis                     [deg]
#   7 A_WORLD                Profile RMS along major axis (world units)                 [deg]
#   8 B_WORLD                Profile RMS along minor axis (world units)                 [deg]
#   9 THETA_WORLD            Position angle (CCW/world-x)                               [deg]
#  10 FWHM_WORLD             FWHM assuming a gaussian core                              [deg]
#  11 ELONGATION             A_IMAGE/B_IMAGE                                           
#  12 ELLIPTICITY            1 - B_IMAGE/A_IMAGE                                       
         1 -10.9533    103.1361     29.7745   7.5896560388e+01   5.3686295045e+01    0.4908605    0.3293259  72.64  0.002630711    1.932    0.482
         2 -12.3777     42.6033     20.1961   9.1174763008e+01   6.5313724226e+01    0.5884143    0.2978232  32.24  0.002026225    1.752    0.429
         3 -12.5313    216.1208     14.5459   5.4647000487e+01   3.0497550930e+01    0.4700485    0.4547501  67.59  0.003460667    1.467    0.318
         4 -13.3169    187.2195      7.0624   5.5922232289e+01   3.7499846274e+01    0.9045709    0.4075338 -78.41  0.003967222    3.028    0.670
         5 -11.3562     54.6296      2.7945   7.9821333416e+01   6.5213625927e+01    0.3907898    0.2765562 -64.61  0.002092885    3.740    0.733
         6 -10.6623     56.4742      9.5194   8.1914901982e+01   6.4325830949e+01    0.2320593    0.1680967  34.17 0.0008017516    1.160    0.138
         7 -11.7641     59.0073      7.2490   8.0186709000e+01   6.4114665804e+01    0.3191083    0.2017726  46.60  0.001416583    1.468    0.319
         8 -10.0473    109.0940      8.4894   6.7753203341e+01   5.4508420424e+01    0.1817436    0.1003152  59.53 0.0004649477    1.520    0.342
         9 -11.8948     44.1137      8.3154   8.5755118437e+01   6.6351521885e+01    0.2493433    0.2048614  17.65 0.0009875671    1.157    0.136
        10  -9.7552    152.9711      4.0257   5.9256702436e+01   4.5351942515e+01    0.1440877    0.1163161  73.66 0.0003303883    1.006    0.006
        11 -11.8900    166.8457      2.0739   5.7051444981e+01   4.2450735822e+01     0.501958    0.1540919  70.02  0.002140393    2.705    0.630
        12 -11.2073    226.7957    221.6958   9.5683883766e+01  -7.2494247921e+00    0.2236348    0.1720337 -64.63  0.001227765    2.044    0.511
        13  -9.7276     83.5010    220.4999   1.2636893861e+02   1.6639593308e+01    0.1407549     0.121125  73.27 -0.0003098266    1.050    0.048
        14 -10.3335    239.1145    213.1134   9.1832319303e+01  -7.5642152622e+00    0.4063925     0.161153 -52.50  0.001403759    4.343    0.770
        15 -11.1133    223.5611    213.8188   9.4842229160e+01  -5.4051087728e+00    0.3248675    0.2051704 -22.16  0.001669178    1.655    0.396
        16 -10.6188    233.1934    211.3942   9.2590636049e+01  -6.4159608321e+00    0.1707774    0.1210539  43.79 0.0008112592    1.705    0.414
        17 -10.6940    116.0228    209.4876   1.1728613187e+02   1.3894859429e+01     0.346471    0.1863988 -63.78  0.001452646    2.066    0.516
        18 -10.1752     56.3323    205.6665   1.3065263329e+02   2.4026984065e+01    0.1475692   0.09121823  70.54 0.0007052224    1.730    0.422
        19 -10.5916     48.8775    201.3107   1.3183800954e+02   2.6043775389e+01    0.3331094     0.165512 -79.41  0.001468967    2.080    0.519
        20 -10.2281     41.5515    201.2577   1.3350111406e+02   2.6959389382e+01    0.3060361    0.1080075 -65.24  0.001242488    2.431    0.589
        21 -11.0705      4.9886    199.5237   1.4130552394e+02   3.1200797038e+01    0.3468602    0.1709935  56.98  0.001156852    2.000    0.500
        22 -10.1607    149.3038    198.6592   1.0763339263e+02   1.0401721309e+01    0.1512482    0.1178143  81.07 0.0004446884    1.678    0.404
        23 -12.3449    160.3978    192.1659   1.0385235849e+02   9.7838458180e+00    0.7361634    0.5527546  78.85  0.002859037    1.884    0.469
        24 -10.0270    109.9659    186.4934   1.1483282476e+02   2.0416849003e+01    0.2265868    0.1170696  58.18 0.0008100045    2.605    0.616
        25 -10.2930    183.3797    183.0323   9.6939548564e+01   7.4487381673e+00    0.4073493    0.1738911 -43.35  0.001523647    2.266    0.559
        26 -10.7158    224.3856    183.2529   8.8786205205e+01   9.7831389222e-02    0.2012762    0.1200134 -49.65 0.0009518131    1.688    0.407
        27  -9.9978     66.3119    194.6556   1.2688425255e+02   2.5341371026e+01      0.15074   0.09863227  73.62 0.0007046222    1.706    0.414
        28  -9.9676    191.6757    178.3312   9.4220061945e+01   6.8890467285e+00    0.1472553    0.1185408 -86.05 0.0007050446    1.704    0.413
        29  -9.6152    129.0026    177.7596   1.0846319446e+02   1.9069100075e+01    0.2060243    0.1299299  39.88 0.0008821757    1.607    0.378
        30 -11.5399     34.8048    173.8051   1.3181605828e+02   3.4473960769e+01    0.4171627    0.2205204 -78.92  0.001937693    1.833    0.454
        31 -10.2630     44.7805    172.3776   1.2911179322e+02   3.3700360858e+01    0.3052044    0.1432135  81.74 0.0009587974    4.320    0.769
        32 -11.8601    121.0059    167.6425   1.0843943101e+02   2.3034649518e+01     0.629416    0.1440552 -53.62  0.001608815    4.426    0.774
        33  -9.8812     88.3778    168.1804   1.1704009294e+02   2.8641913213e+01    0.2242767    0.1375958 -71.35 0.0009490497    1.787    0.440
        34 -11.4033     55.4902    167.2197   1.2557698293e+02   3.3679357074e+01    0.5251262    0.2689912 -81.77   0.00205981    2.512    0.602
        35 -10.1203    138.3834    163.6020   1.0323283518e+02   2.0657358081e+01    0.3181531    0.1432678 -62.96 0.0009576968    3.384    0.704
        36 -11.5776    106.5897    158.0675   1.1022575151e+02   2.8060937332e+01    0.7141814    0.4422674  70.18  0.002705756    2.509    0.601
        37  -9.9865     92.9695    160.6569   1.1439109138e+02   2.9783133596e+01    0.2559948    0.1012745  54.47 0.0007046567    4.350    0.770
        38 -10.6989     23.3244    159.9780   1.3294554167e+02   3.9066431313e+01     0.197185     0.148954 -72.11 0.0007502224    1.094    0.086
        39 -10.8186    167.8479    157.5354   9.4939244474e+01   1.6113125010e+01    0.3686948    0.2558315  70.06  0.001467578    1.992    0.498
        40 -11.4562    119.2091    156.9697   1.0667330975e+02   2.5992734806e+01    0.4577138    0.3095424  50.70  0.002022679    1.572    0.364
        41 -10.4733    218.3716    156.3910   8.4394050740e+01   6.4175669350e+00    0.3686836    0.1212276 -47.72  0.001245245    2.909    0.656
        42  -9.5257      6.6919    156.2998   1.3674346110e+02   4.1375995176e+01    0.1262904   0.08357444  73.81 0.0006221064    1.597    0.374
        43  -9.8388     68.3368    154.6657   1.1998489431e+02   3.5123092040e+01    0.1537392    0.1086948  75.33 0.0007051959    1.744    0.427
        44  -9.6719     40.6180    152.8835   1.2733116576e+02   3.9073462318e+01    0.1970771    0.1181142 -78.28 0.0007932627    1.694    0.410
        45  -9.8167     23.4695    153.5463   1.3205507198e+02   4.0641839905e+01    0.1332666    0.1106015 -74.88 0.0001052995    1.026    0.025
        46 -10.4311    189.5993    149.9163   8.8564380230e+01   1.3346762059e+01    0.3151901    0.1842687 -56.47  0.001303188    1.873    0.466
        47  -9.7632    162.3140    150.6422   9.4657072215e+01   1.8812670868e+01    0.1628372    0.1238097 -85.38 0.0007043816    1.746    0.427
        48 -10.9721    107.2279    145.6772   1.0740435339e+02   3.1010632111e+01    0.5808452    0.3411118  73.59  0.001880976    3.541    0.718
        49 -10.2845     55.8044    146.1871   1.2196052950e+02   3.8950348912e+01    0.2504395    0.1425295  71.10 0.0009577067    2.909    0.656
        50 -10.5367    148.4830    144.5212   9.6512126307e+01   2.3099626860e+01    0.3668544    0.2224893 -74.59  0.001268068    2.860    0.650
        51  -9.8338    124.5006    143.0051   1.0219158824e+02   2.8354171565e+01    0.2296709    0.1390046 -73.88 0.0008106702    2.601    0.616
        52  -9.8850    181.8352    141.9921   8.8398185091e+01   1.6649717520e+01    0.2600161    0.1730952 -70.23  0.001073799    2.031    0.508
        53 -10.8048     82.8453    130.9947   1.1101240065e+02   3.8823839097e+01    0.4528683    0.1992524 -60.27  0.001632761    2.468    0.595
        54 -11.9290     98.3924    127.8443   1.0577588359e+02   3.6934761838e+01    0.9917532     0.590232 -88.73  0.002944269    4.557    0.781
        55 -10.6679     58.7817    124.4365   1.1679608081e+02   4.3926431673e+01    0.3466351    0.1979526 -77.67  0.001383596    2.580    0.612
        56 -11.2312     43.4044    123.0785   1.2125380913e+02   4.6108591277e+01    0.5716547    0.3267855 -88.00  0.002277144    2.986    0.665
        57 -11.4957     27.5236    121.3335   1.2582477592e+02   4.8118168548e+01    0.7098444    0.3538887  86.98  0.002295863    5.002    0.800
        58 -10.4637     72.1178    121.1276   1.1197214424e+02   4.2853564550e+01    0.3602447    0.2343818  74.98  0.001458393    2.683    0.627
        59 -11.3959     15.5680    120.4129   1.2932387842e+02   4.9326530020e+01     0.416593    0.2511179 -30.03  0.002224461    1.876    0.467
        60 -11.8064    193.6261    118.5203   8.0652072129e+01   1.9044715245e+01    0.5450253    0.4349106  88.73  0.002758491    1.439    0.305
        61 -11.2523    141.0000    118.0383   9.1938178809e+01   3.0669059640e+01    0.3810182    0.2024594 -50.20  0.001494723    1.899    0.473
        62 -10.0416    130.3216    118.6462   9.4780290870e+01   3.2807073736e+01    0.1619899    0.1235658 -87.31 0.0007046939    1.755    0.430
        63 -10.6314      2.3293    115.9626   1.3262836222e+02   5.1260061652e+01    0.3694628    0.1705383 -86.89   0.00154064    3.119    0.679
        64 -10.0280     71.2827    115.3733   1.1087734500e+02   4.4328734992e+01    0.1536428    0.1033615 -27.98  0.000661323    1.706    0.414
        65 -10.6356    108.0019    112.0014   9.9092277059e+01   3.8791422935e+01     0.529659    0.1996352 -55.35  0.001635065    3.383    0.704
        66 -10.8585     78.6652    112.4425   1.0787933774e+02   4.3871683828e+01    0.4578558    0.2872998 -81.26  0.001741518    2.986    0.665
        67 -12.0726    159.7445    110.3126   8.5609422812e+01   2.8185433966e+01    0.7824956    0.3916223 -58.89   0.00275868    2.684    0.627
        68 -10.2144     92.2130    111.9862   1.0366199766e+02   4.1709698883e+01    0.4411348    0.2376393 -69.55  0.001461706    3.511    0.715
        69 -11.5061     14.1644    109.5694   1.2788701175e+02   5.1949102966e+01    0.5941024    0.3118004 -75.06  0.002890389    2.060    0.515
        70 -10.8591    174.4328    111.1698   8.2688303509e+01   2.4733233605e+01    0.3763354     0.260781 -53.38   0.00123201    1.427    0.299
        71 -12.5869    141.1532    103.3831   8.8131685580e+01   3.3733127389e+01    0.7631752    0.4769121 -55.19  0.003291991    1.749    0.428
        72 -11.9104     44.4698    101.1250   1.1614120522e+02   5.1078671149e+01    0.6443611    0.3943233 -82.69   0.00272932    2.927    0.658
        73 -12.0329    127.7960    101.3190   9.0912595643e+01   3.7047223999e+01    0.5025946    0.2839894 -55.50  0.002029375    2.050    0.512
        74 -11.4140    107.2177     98.2975   9.5651308228e+01   4.1883180090e+01    0.5970871    0.3534551 -63.83  0.002349178    2.487    0.598
        75 -10.8491     82.0754    100.6465   1.0377887442e+02   4.5941725185e+01    0.2401823    0.2005603 -56.63 0.0007848411    1.261    0.207
        76 -10.7901     63.0638     95.6690   1.0856128954e+02   4.9920696453e+01    0.4612038    0.2531801 -75.38  0.001394171    5.382    0.814
        77 -12.7924    170.3832     91.0899   7.8551342557e+01   2.9540794814e+01    0.4239496     0.356209 -68.67  0.001094406    1.203    0.169
        78 -12.7553    112.5345    101.7663   9.5109257836e+01   4.0108719012e+01     1.367334     0.218202  43.75  0.003106136    6.331    0.842
        79 -10.7907     34.1514     88.3905   1.1661246270e+02   5.4936841700e+01     0.335537    0.1771403 -61.17  0.001615014    1.986    0.496
        80 -11.7932     42.3479     87.8592   1.1358694081e+02   5.4184049655e+01    0.7880712    0.3810951   8.41  0.002549469    3.329    0.700
        81 -10.4482     45.4768     81.9444   1.1090452256e+02   5.5042896368e+01    0.2503864    0.1820348 -68.01  0.000838963    1.811    0.448
        82 -11.6370     87.5600     87.3738   9.8390542331e+01   4.7753615031e+01    0.4887792    0.3042682  53.32  0.002229145    1.999    0.500
        83 -10.9551      6.9768     84.8384   1.2548712272e+02   5.7875406552e+01    0.2049763    0.1042173 -28.84 0.0007439905    2.005    0.501
        84 -10.8658    104.5707     83.5791   9.2244621330e+01   4.5315480287e+01    0.3767568    0.2712221 -83.70  0.001657568    2.383    0.580
        85 -11.1874     82.2006     73.2203   9.5866469795e+01   5.1363740457e+01    0.3297449    0.2222235 -72.30  0.001406753    2.931    0.659
        86 -10.1404    116.3569     73.6585   8.6123288545e+01   4.4710021085e+01     0.146146    0.1135105 -86.02 0.0007037966    1.821    0.451
        87 -12.4471    223.8089     70.6073   6.5209681207e+01   2.1228138613e+01    0.2922965    0.2323563  82.88 0.0005585778    1.208    0.172
        88 -10.8074     24.0120     80.2052   1.1823107481e+02   5.7578998171e+01    0.2850646    0.1713855 -73.17  0.001407297    2.425    0.588
        89 -10.9217     62.4277     70.2923   1.0152172402e+02   5.5050248943e+01    0.2531468    0.1162484 -40.06 0.0009122513    2.068    0.516
        90 -10.4546     51.8052     70.6549   1.0538477494e+02   5.6451477881e+01    0.2227926    0.1792088 -35.49  0.001286484    1.157    0.136
        91 -10.0756    195.8006     68.3679   6.8628185968e+01   2.7674553618e+01    0.1970648    0.1182809  53.49 0.0009570315    1.729    0.421
        92 -12.0506     20.7759     52.7307   1.1181533571e+02   6.3065865524e+01    0.8761255    0.4438032 -58.26  0.004397094    2.604    0.616
        93 -11.0273     39.4899     53.0309   1.0442411877e+02   6.1079751808e+01    0.3751584    0.1829397 -33.77  0.001449693    1.913    0.477
        94 -13.5667     29.8036     59.8203   1.1037398217e+02   6.0962604871e+01     1.228288    0.7813281  27.34  0.004236445    1.684    0.406
        95 -10.2009    245.6700     66.2942   6.1753975067e+01   1.7481859571e+01    0.1319469   0.08008438 -71.10 0.0002733061    1.632    0.387
        96 -11.1141    237.5111     63.4957   6.2112467090e+01   1.9527185656e+01    0.1290072     0.103966 -70.16 -1.285352e-05    1.004    0.004
        97 -10.3254    105.7124     62.9195   8.5742225857e+01   4.8684501358e+01    0.1844058    0.1751451  -8.16 0.0003827451    1.074    0.069
        98 -11.5282     19.5207     59.2685   1.1429611744e+02   6.2012166336e+01    0.3044097    0.2135485   2.32  0.001192035    1.413    0.292
        99 -10.0871    100.5076     60.9997   8.6586953126e+01   5.0028065390e+01    0.1832536     0.116643 -60.63  0.000809681    2.471    0.595
       100 -10.4524     72.7857     58.4651   9.4239420750e+01   5.5469927233e+01    0.3027967    0.1798304 -55.90  0.001389771    2.599    0.615
       101 -11.2489      9.5196     57.2802   1.1777888663e+02   6.3149008036e+01    0.4598953    0.3672146  66.87  0.002968455    2.207    0.547
       102 -10.2576     54.1532     54.4972   9.9394364877e+01   5.8949958523e+01    0.2409593    0.1632142 -54.25  0.001310118    2.017    0.504
       103 -10.3368    161.9878     53.4625   7.0526518671e+01   3.7671073854e+01    0.2148414    0.1245352  61.35 0.0008531054    1.599    0.375
       104 -12.5271    149.4066     51.9903   7.2455620955e+01   4.0771330415e+01    0.3219919    0.2390367  56.65  0.000389282    1.237    0.192
       105 -10.4120     82.1708     46.9188   8.7397559504e+01   5.5591741035e+01    0.1823809    0.1780318  63.30 0.0006083233    1.303    0.233
       106 -10.6618    157.0128     45.0103   6.9199753828e+01   3.9981343106e+01    0.2503811    0.1702706  62.42 0.0004990435    1.328    0.247
       107 -11.2552     74.7949     43.3827   8.8500781501e+01   5.7384618934e+01    0.2677745    0.1899654  26.68   0.00110385    1.302    0.232
       108 -11.6275     68.1067     41.4529   9.0012155062e+01   5.8775910061e+01    0.4672456    0.2870846  56.65 0.0004756529    2.401    0.583
       109 -11.7196      7.0448     43.1451   1.1461834069e+02   6.5799615843e+01    0.4017223    0.2616681  31.33  0.002593151    1.935    0.483
       110 -11.9262     41.7338     37.7266   9.8222971200e+01   6.3168648259e+01     0.681749    0.3036934  23.62  0.002201601    2.474    0.596
       111 -11.0560     47.3192     35.8260   9.5375639189e+01   6.2690749773e+01    0.4170537    0.1924611  19.52  0.001728957    2.904    0.656
       112 -10.5579     83.2114     38.3611   8.4170167226e+01   5.6548901654e+01    0.3569789    0.1776249  56.22  0.001622463    2.480    0.597
       113  -9.9220    205.7285     34.9828   5.9884150856e+01   3.0267709218e+01    0.1688564    0.1391264 -75.27 0.0002884835    1.061    0.057
       114 -11.1125    120.1450     34.3426   7.3394854339e+01   4.9582526547e+01    0.2891098    0.2135224  56.67 0.0006948534    1.215    0.177
       115 -10.3258     74.0570     32.9205   8.5058136637e+01   5.8868337709e+01    0.3219166    0.2003399  65.73  0.001531023    2.910    0.656
       116 -11.2068    219.2227    247.9728   1.0174568585e+02  -1.0453860243e+01     0.214347    0.1558057  41.87  0.001287967    1.629    0.386
       117  -9.8153     32.6665    242.2860   1.3923854493e+02   1.8674970839e+01    0.1296791   0.07204536  65.83 0.0006478078    1.622    0.384
       118 -11.9418     22.6632    239.0345   1.4088392861e+02   2.0528864149e+01     0.644305    0.2089463  65.19  0.002232722    4.609    0.783
       119 -10.9803    240.0030     20.5532   5.3723262673e+01   2.4917159223e+01    0.2254849    0.1616636 -88.32 0.0004901879    1.145    0.126
       120 -10.4084    134.1757     17.8969   6.5828191594e+01   4.8258759524e+01     0.183541    0.1542389  83.42 0.0004809308    1.198    0.165
       121 -12.3296    203.0749     21.0090   5.7227880767e+01   3.2547166082e+01    0.3413382    0.1780017  83.60  0.001787122    1.844    0.458
       122 -10.3211      8.7581    240.4086   1.4354603197e+02   2.1737751468e+01     0.138586    0.1108801  29.53 0.0009564203    1.718    0.418
       123 -11.0258     61.9478    236.2062   1.3285410894e+02   1.6232234797e+01    0.4256932    0.2673835 -79.98  0.002322473    1.560    0.359
       124 -10.9262     12.7759    227.3565   1.4189847885e+02   2.4135056475e+01    0.2390543    0.1668922 -87.67  0.000510544    1.155    0.134
       125  -9.9600    104.3992    225.6206   1.2238379973e+02   1.2188195771e+01    0.2583121     0.134879 -66.04  0.001124553    2.134    0.531
       126 -11.0892     95.7010    224.9317   1.2423068646e+02   1.3737019965e+01     0.346495    0.2007899  58.12  0.001601371    1.835    0.455
       127 -10.1159    185.0001    223.1507   1.0426836004e+02  -9.6926509030e-01    0.2588329    0.1789791  31.54   0.00105965    1.398    0.285
       128 -10.6035    149.3850    223.2176   1.1195811408e+02   5.0881837430e+00    0.1953048    0.1360159 -64.19 0.0009516994    1.715    0.417
