#   1 NUMBER                 Running object number                                     
#   2 MAG_AUTO               Kron-like elliptical aperture magnitude                    [mag]
#   3 X_IMAGE                Object position along x                                    [pixel]
#   4 Y_IMAGE                Object position along y                                    [pixel]
#   5 X_WORLD                Barycenter position along world x axis                     [deg]
#   6 Y_WORLD                Barycenter position along world y axis                     [deg]
#   7 A_WORLD                Profile RMS along major axis (world units)                 [deg]
#   8 B_WORLD                Profile RMS along minor axis (world units)                 [deg]
#   9 THETA_WORLD            Position angle (CCW/world-x)                               [deg]
#  10 FWHM_WORLD             FWHM assuming a gaussian core                              [deg]
#  11 ELONGATION             A_IMAGE/B_IMAGE                                           
#  12 ELLIPTICITY            1 - B_IMAGE/A_IMAGE                                       
         1 -16.0672    138.8501    110.9021   1.0725580171e+02   3.2992575384e+01     4.203248      3.09617 -79.29    0.0201037    1.960    0.490
         2 -15.1299    139.7929     70.8624   9.6038492930e+01   4.0297478377e+01     2.488475     1.819769  16.16   0.01153477    1.676    0.404
         3 -16.0036     30.7008     91.4296   1.3219176107e+02   5.2924285217e+01     3.555233     2.219511 -88.12   0.02102818    1.553    0.356
         4 -15.0876     67.2237     48.6360   1.1003913865e+02   5.8241771018e+01     2.312462     1.804059  44.18   0.01344916    1.517    0.341
         5 -13.1265    125.3910     44.0384   9.0445351940e+01   4.8176619965e+01    0.9884202    0.6231539 -40.79  0.004474346    1.588    0.370
         6 -12.1825    128.4558     55.7203   9.3869315056e+01   4.5515762060e+01    0.8375439    0.3785485  49.80  0.003214465    2.288    0.563
         7 -11.8112    203.6295    226.6075   1.1537132072e+02   4.5632852993e+00    0.4324434    0.2976482   4.41  0.003074913    1.655    0.396
         8 -12.4447     12.1634    228.6882   1.4609105233e+02   2.8714394559e+01    0.4301341    0.1878662  54.36  0.003326284    1.547    0.353
         9 -10.4681    181.6879    223.0865   1.1842350829e+02   8.2367593368e+00    0.1992335    0.1223261  45.90   0.00122598    1.356    0.263
        10 -10.9917    188.0569    222.6028   1.1732800085e+02   7.3248772114e+00     0.265011   0.08206064  42.89  0.001262745    2.453    0.592
        11 -11.4764    140.2563    216.4888   1.2452159474e+02   1.5261737820e+01    0.2363787    0.1833045   1.87  0.001645632    1.927    0.481
        12 -10.8750    177.4270    216.0621   1.1821272991e+02   9.6893059396e+00    0.2932678    0.1993231  38.99  0.002030516    1.128    0.114
        13 -11.1065    108.0132    212.2297   1.2959538603e+02   2.0447043850e+01    0.4098452    0.2366482 -52.81  0.002699138    2.191    0.544
        14 -12.5974    151.1631    210.2735   1.2192026862e+02   1.4452569149e+01    0.7427858    0.3556975  52.12  0.004080397    1.995    0.499
        15 -11.5177    123.5520    206.8293   1.2632604842e+02   1.9050824387e+01     0.330299    0.1976563 -34.02 4.556624e-05    2.903    0.655
        16 -15.3385     72.5836    193.4884   1.3413971662e+02   2.8006498013e+01     2.218595     1.265359  58.75   0.01461064    1.502    0.334
        17 -10.0857     21.7616    206.5797   1.4374905612e+02   3.1249925541e+01    0.1373943   0.06048815  49.80 0.0009547573    1.686    0.407
        18 -13.7927     94.0486    191.3501   1.2999270307e+02   2.5607435740e+01     1.203325    0.8206393  80.36  0.008063249    1.559    0.359
        19 -10.4054    152.4447    199.5070   1.2031454052e+02   1.5713756970e+01    0.2696756    0.1853558 -11.08  0.001561873    2.440    0.590
        20 -10.9830    189.3040    198.5230   1.1373181461e+02   9.8909636457e+00    0.2317961    0.1816519  49.02  0.001583783    1.317    0.241
        21 -10.1624    163.0238    196.9938   1.1809109991e+02   1.4368867214e+01    0.1851665    0.1297306  18.41  0.001045324    1.694    0.410
        22 -11.0788    114.0151    192.8311   1.2645758068e+02   2.2566099973e+01    0.3230626    0.2120672  80.30  0.001968414    1.936    0.483
        23 -12.3514    194.7343    191.1554   1.1165410340e+02   9.8880304260e+00    0.7606885    0.2448325  42.59  0.003323274    2.536    0.606
        24 -12.9373    205.0972    185.6402   1.0896939011e+02   8.8059919193e+00    0.7149024    0.3991699  30.15  0.003962245    1.623    0.384
        25 -11.8393     36.9939    189.4840   1.4024886420e+02   3.2637237968e+01    0.3850287     0.176979 -72.22  0.002482557    2.069    0.517
        26 -12.2426    140.8165    185.2073   1.2048596262e+02   1.9653356662e+01    0.7038674    0.3106351 -41.99  0.003435436    2.918    0.657
        27 -12.8850      8.3172    187.6806   1.4515387138e+02   3.5563833787e+01      0.45595     0.354999  27.00  0.003893188    1.825    0.452
        28 -10.7360    122.3736    187.3425   1.2423451973e+02   2.2198538239e+01    0.2930302    0.2091542  82.74   0.00183936    1.735    0.424
        29 -10.6651    121.7420    181.7829   1.2363933902e+02   2.3192420659e+01    0.3271975    0.1612709  34.90  0.001667209    2.111    0.526
        30 -11.3734    180.3944    206.6733   1.1643832964e+02   1.0341915208e+01    0.4153713    0.2192635 -22.65  0.002163445    3.062    0.673
        31 -10.7089    160.8383    184.4939   1.1666064674e+02   1.6473646434e+01    0.3924287      0.20278 -35.61  0.002035548    2.491    0.599
        32 -10.7314    162.4691    164.9689   1.1319114529e+02   1.9110367418e+01    0.2872846    0.2180152  67.97  0.001653119    1.658    0.397
        33 -11.9567    167.5309    179.9095   1.1471410160e+02   1.5999642927e+01    0.5407376    0.4260359 -60.70  0.003432822    1.687    0.407
        34 -11.3667    168.3283    170.6891   1.1305049831e+02   1.7204873443e+01    0.4864384    0.3785484 -88.07  0.002796032    2.000    0.500
        35 -11.2030    130.6312    184.2388   1.2227172942e+02   2.1419715154e+01    0.3732958    0.1860118  44.43  0.002011989    1.696    0.410
        36 -12.4705    195.9259    173.7805   1.0852329317e+02   1.1878634793e+01    0.4756262    0.2625648 -27.39  0.002500549    2.112    0.527
        37 -10.2395    152.1704    184.2293   1.1822528595e+02   1.7952612026e+01    0.1972953    0.1259539   9.51 0.0009543165    2.847    0.649
        38 -11.5003    174.7624    202.0982   1.1675722051e+02   1.1808456456e+01    0.2964469    0.2529326  12.97   0.00216997    1.238    0.192
        39 -12.7542     19.2672    178.0473   1.4276178943e+02   3.6312694693e+01    0.4649219     0.186314 -78.93  0.002837667    2.176    0.540
        40 -11.8571    180.4831    199.8284   1.1544208205e+02   1.1168798573e+01    0.4482243     0.214436  50.71  0.002324659    2.083    0.520
        41 -12.2114    197.6602    182.4852   1.0972215392e+02   1.0463095011e+01    0.3241414    0.2675942   1.71  0.002185604    1.233    0.189
        42 -10.7470    182.2253    175.4097   1.1127451914e+02   1.4080185200e+01    0.2929778    0.2350058 -39.25  0.001880919    1.476    0.323
        43 -11.3840    100.0975    175.2798   1.2702952480e+02   2.7503044638e+01    0.3835162    0.1958242  60.77            0    2.210    0.547
        44 -10.7287    218.5932    205.2712   1.0990215566e+02   4.4211960649e+00    0.2465558    0.1505446  28.05   0.00156871    1.335    0.251
        45 -10.5141    116.7184    170.1541   1.2305363000e+02   2.5923861701e+01    0.2886427    0.1961979 -50.38   0.00174917    1.675    0.403
        46 -11.8838     25.9170    169.3244   1.4100818522e+02   3.7298927972e+01    0.3692518    0.2206532  43.25  0.002638939    1.589    0.371
        47 -10.8808    104.4862    170.4807   1.2555219988e+02   2.7712314687e+01    0.5735524    0.1349989  39.12  0.002059954    4.037    0.752
        48 -10.7974    102.1097    167.3066   1.2561878189e+02   2.8627195164e+01    0.2671061    0.2248954 -31.42   0.00177325    1.622    0.383
        49 -11.0782    141.9519    169.0104   1.1786658563e+02   2.2029668073e+01    0.3893406    0.1904836  42.30   0.00193871    1.802    0.445
        50 -11.2904    148.8883    166.8909   1.1616254706e+02   2.1190102816e+01    0.5531813    0.2254854  46.31  0.002475553    2.196    0.545
        51 -11.2287    125.1209    167.7994   1.2103036006e+02   2.5004948629e+01    0.4561673    0.2727929  26.68  0.002326395    2.197    0.545
        52 -10.9564     48.8562    167.8402   1.3643367279e+02   3.5295794725e+01    0.2900426    0.2026716 -86.82  0.002073239    1.263    0.208
        53 -12.2474    175.6828    163.2237   1.1035208495e+02   1.6992046974e+01     0.783607    0.4790119  20.05  0.003847171    2.119    0.528
        54 -13.2265    199.5270    161.5915   1.0563976655e+02   1.2843096605e+01    0.7928785     0.564693  26.47  0.004612834    1.280    0.219
        55 -10.5892     89.7869    163.8442   1.2770265513e+02   3.1014674994e+01    0.2520472    0.1787157 -85.30  0.001337452    1.474    0.322
        56 -11.9445     59.7022    161.3362   1.3363851307e+02   3.5314632115e+01    0.5607516    0.3401845  51.50  0.003586499    1.473    0.321
        57 -10.4143    224.5564    162.1782   1.0139299564e+02   8.2055071061e+00    0.4593837    0.1766652 -17.46  0.001585548    4.563    0.781
        58 -10.9105    209.7552    162.8241   1.0405915341e+02   1.0805897913e+01    0.2863835    0.2000191  17.97  0.001645752    1.389    0.280
        59 -11.8842    151.0790    160.4263   1.1464364014e+02   2.1856569282e+01    0.4647566    0.3503175 -22.51  0.002692729    1.672    0.402
        60 -11.2150    157.0226    156.6715   1.1279713300e+02   2.1404798447e+01     0.483828    0.2613366 -45.52  0.002402565    2.075    0.518
        61 -10.1522    113.6951    159.9401   1.2220434710e+02   2.8203217774e+01    0.1706676    0.1555113  85.39 0.0008243528    1.096    0.088
        62 -13.4033     19.7892    154.4770   1.4123627980e+02   4.0642520479e+01     0.625502    0.4066407  78.30  0.004394011    1.227    0.185
        63 -13.4190     11.5335    145.2538   1.4232377460e+02   4.3109591314e+01    0.7263303    0.7017084 -62.96  0.006364187    1.469    0.319
        64 -10.8031     91.8634    158.1048   1.2653128229e+02   3.1797606430e+01    0.2828083    0.1438845  47.98  0.001498898    1.800    0.444
        65 -12.3389    188.2969    154.5599   1.0634557360e+02   1.5919390290e+01    0.3848831    0.2524885 -43.68  0.002062715    1.800    0.444
        66 -11.2679    233.4141    154.2760   9.8346224537e+01   7.5410936120e+00    0.2897226    0.1680733 -32.88  0.001540912    1.868    0.465
        67 -11.6946    173.8404    154.4750   1.0908285455e+02   1.8651662001e+01    0.3642698    0.2202487  42.04  0.001821439    1.479    0.324
        68 -11.5995    179.1672    153.0718   1.0778642234e+02   1.7863846687e+01    0.3606765     0.204271 -37.36  0.001804057    1.938    0.484
        69 -10.3437    145.5585    154.9606   1.1480652702e+02   2.3744825044e+01    0.2594042    0.1697729  57.08  0.001373482    1.627    0.385
        70 -11.9400      3.3197    152.8465   1.4443182322e+02   4.2260002091e+01      0.30765     0.213576 -83.65   0.00223888    1.216    0.178
        71 -11.7912    200.3049    150.4949   1.0331767514e+02   1.4212911863e+01    0.2866958     0.246484 -66.77  0.001686879    1.707    0.414
        72 -10.6752    126.6775    150.6811   1.1800307483e+02   2.7769839958e+01    0.3035542    0.2390542 -49.51  0.001834507    1.377    0.274
        73 -10.5418    161.8879    147.9665   1.1019788837e+02   2.1928169038e+01    0.3168041     0.265679  76.22  0.001682183    1.491    0.329
        74 -11.3134    138.4554    145.2157   1.1453344437e+02   2.6706516094e+01    0.5803072    0.4380923 -32.35  0.003285148    1.552    0.356
        75 -12.3484    116.5449    146.0449   1.1940553774e+02   3.0312848312e+01    0.6776181    0.5577329  53.09   0.00421354    1.133    0.118
        76 -12.4761    105.4188    144.3747   1.2158185458e+02   3.2410364363e+01    0.7225071    0.5311314 -58.17   0.00431482    1.397    0.284
        77 -11.9849    198.5154    143.2926   1.0215868873e+02   1.5572997139e+01    0.4467279    0.2610231 -30.61  0.002224332    1.803    0.445
        78 -10.7055     53.0248    142.6447   1.3309944597e+02   3.9752513729e+01    0.2981413    0.1727748  63.64  0.001745381    1.717    0.418
        79 -10.4854     28.8079    140.1414   1.3823424424e+02   4.2686161400e+01    0.1783454    0.1221846  76.05  0.001090083    1.239    0.193
        80 -10.9245    204.6283    139.3474   1.0019799634e+02   1.4927514773e+01    0.1910365    0.1706845 -79.66  0.001107538    1.630    0.387
        81 -11.6755    178.5004    138.9867   1.0506787292e+02   2.0165977607e+01    0.4736664    0.2187928  55.08  0.001883562    2.626    0.619
        82 -12.7448    153.4613     89.9646   9.8481732485e+01   3.3812628035e+01     1.096873    0.7541614  70.10  0.004840778    2.010    0.502
        83 -14.0476    104.0757     75.8273   1.0695382409e+02   4.6639131850e+01     1.914818     1.545514 -77.12   0.01006841    1.534    0.348
        84 -12.3931    120.4760    242.5090   1.3032680768e+02   1.4676533860e+01     0.283619    0.2013649 -35.81  0.002155383    2.327    0.570
        85 -10.3465    168.3670    236.7051   1.2219769105e+02   8.7023955749e+00    0.2644361   0.09736532  42.35  0.001457937    1.985    0.496
        86 -11.9998    189.0328    131.1282   1.0131035873e+02   1.9269684979e+01    0.5180237    0.3951514  59.66  0.002751434    1.549    0.354
        87 -10.7515    234.1375    127.2421   9.2403680972e+01   1.0685815555e+01    0.2403641    0.2031431  65.13  0.001385918    1.638    0.390
        88 -11.0095    218.8279    127.2581   9.4981709878e+01   1.3743101440e+01    0.3958727    0.1281236  40.99  0.001410975    3.009    0.668
        89 -10.5035     52.7376    133.5523   1.3211146622e+02   4.1650271513e+01    0.2358199    0.1883304 -85.06  0.001410275    1.073    0.068
        90 -10.8078    211.1069    124.6937   9.5746893128e+01   1.5673375505e+01    0.2420899    0.2040765 -54.63  0.001340628    1.588    0.370
        91 -10.5736    209.1695    119.9935   9.4989910093e+01   1.6739669144e+01       0.4075    0.2773624  -5.12  0.002013534    1.612    0.380
        92 -14.1394    185.0487    112.4469   9.7701578073e+01   2.3032957625e+01     1.625873     1.290385   7.71  0.008530242    1.333    0.250
        93 -11.6860     99.2030    117.0209   1.1817628112e+02   3.8886359915e+01    0.5885528    0.4044893 -39.11   0.00311296    1.669    0.401
        94 -11.2481     66.1840    117.3061   1.2656253439e+02   4.3512812617e+01    0.4536612    0.2286639 -61.18  0.002317136    1.783    0.439
        95 -12.4896      6.5431    118.0470   1.4151034500e+02   4.8988647280e+01    0.4845008    0.2812869  37.59  0.003278057    1.890    0.471
        96 -12.2551      7.0868    110.9936   1.4080512565e+02   5.0434206424e+01    0.5267657    0.2862093  43.92  0.003410001    1.918    0.479
        97 -10.5922     86.6467    117.4279   1.2139621750e+02   4.0719121125e+01    0.2486929     0.149881 -56.99 0.0009137067    1.570    0.363
        98 -10.7190    144.5740    234.9158   1.2579480505e+02   1.2308860316e+01    0.1923076     0.138316  58.08  0.001467559    1.349    0.259
        99 -10.8465    106.4007    109.9489   1.1491209180e+02   3.9168827984e+01    0.2939521    0.2021515 -33.63   0.00147943    1.741    0.425
       100 -11.1561     85.4417    109.2620   1.2015591228e+02   4.2630888230e+01    0.3853882    0.2926179 -66.19   0.00222948    1.249    0.199
       101 -12.2145     63.2599    108.9946   1.2595782550e+02   4.5670769302e+01    0.7673927    0.3999479  46.82  0.003935744    2.030    0.507
       102 -13.9207     47.1538     84.3197   1.2607104220e+02   5.2952545697e+01     1.351162    0.6412144 -65.11   0.00667269    1.819    0.450
       103 -10.6432    236.9944    104.5040   8.6545829270e+01   1.2974440557e+01    0.2768195    0.1224317  46.40  0.001164757    2.197    0.545
       104 -11.6944    168.7943     99.2772   9.7656168174e+01   2.8779230687e+01    0.7189337     0.463929 -23.52  0.003259647    1.696    0.410
       105 -12.0946    170.4664     91.1872   9.5114110791e+01   2.9774835629e+01     0.663223    0.4929253 -29.05  0.003257112    1.335    0.251
       106 -12.5589    209.5279     96.0851   8.8941087564e+01   2.0085149386e+01    0.5811072    0.4930452 -38.99  0.003146368    1.294    0.227
       107 -10.2342     77.1498     95.0962   1.1948983419e+02   4.6885457901e+01    0.2063673    0.1719469 -42.23   0.00123318    1.250    0.200
       108 -10.5772    198.8336    121.7809   9.7305472110e+01   1.8650672249e+01    0.3530583    0.2071974 -21.91  0.001616802    1.845    0.458
       109 -11.5112     94.7523     88.0453   1.1289301355e+02   4.5714244337e+01    0.6109295    0.3165226 -52.17  0.002749985    1.815    0.449
       110 -11.6195     80.6458     86.2648   1.1648014388e+02   4.8302320677e+01    0.7248943    0.4929917   6.38  0.003455399    2.414    0.586
       111 -10.8502     44.1400    131.7803   1.3391717180e+02   4.2932989086e+01    0.3239682    0.2140613  79.34  0.001990532    1.427    0.299
       112 -12.1908    197.0882     80.6113   8.6928952155e+01   2.5220949487e+01    0.5954474    0.3683912  34.36   0.00261714    1.715    0.417
       113 -10.2763    187.0975     79.9166   8.8586026609e+01   2.7704411494e+01     0.291348    0.2087119 -20.13  0.001374273    1.393    0.282
       114 -10.6246    203.1781     84.0078   8.6793794467e+01   2.3286721787e+01    0.3521178    0.3408257 -50.77  0.001982663    1.202    0.168
       115 -11.2376     62.1784     72.8263   1.1882258296e+02   5.3770628607e+01    0.3895797    0.2147095  36.83  0.001964602    2.066    0.516
       116 -12.2803     57.0000     67.1442   1.1907272331e+02   5.5655222950e+01    0.4520888    0.2996006  59.89  0.002390547    2.019    0.505
       117 -11.1025    220.0690    110.0668   9.0679889717e+01   1.5817386403e+01    0.3710611    0.2376857   1.38  0.001728041    1.798    0.444
       118 -11.1619     71.4192    134.2886   1.2782792891e+02   3.9273693976e+01    0.3507311    0.3139347  73.98  0.002432354    1.073    0.068
       119 -13.2329    172.1831     63.6468   8.6588134205e+01   3.3837520262e+01      1.32621    0.7222107  68.02  0.004979717    2.505    0.601
       120 -11.5731    115.5757    231.3220   1.3012096034e+02   1.6759272984e+01    0.3948227    0.2794574  -5.23  0.002385279    3.433    0.709
       121 -12.3451    134.0106     52.5050   9.1347440844e+01   4.4807000938e+01    0.6073553    0.4592177 -58.20  0.002879337    1.634    0.388
       122 -10.5472    196.1496    132.3329   1.0022633188e+02   1.7638798465e+01    0.2422324    0.1851861 -11.05  0.001070624    1.357    0.263
       123 -10.5429    113.0946     42.2890   9.3074513709e+01   5.1178177935e+01    0.3519713    0.2082021 -17.98   0.00147501    1.991    0.498
       124 -12.9098      6.1282     50.4420   1.3350418911e+02   6.3708241442e+01    0.9454865    0.3691966 -46.81  0.004892248    2.253    0.556
       125 -13.1955     84.1934     49.9167   1.0470325481e+02   5.5336645624e+01     1.013394    0.6957816 -69.40  0.004733115    2.191    0.544
       126 -11.6339     72.9116    229.9649   1.3685907693e+02   2.2307381288e+01    0.2695363    0.1496345 -66.78  0.001991654    2.102    0.524
       127 -12.0049    184.0969    133.4127   1.0277205734e+02   1.9919586456e+01    0.4342427    0.2911098  -7.25   0.00209074    1.905    0.475
