#   1 NUMBER                 Running object number                                     
#   2 MAG_AUTO               Kron-like elliptical aperture magnitude                    [mag]
#   3 X_IMAGE                Object position along x                                    [pixel]
#   4 Y_IMAGE                Object position along y                                    [pixel]
#   5 X_WORLD                Barycenter position along world x axis                     [deg]
#   6 Y_WORLD                Barycenter position along world y axis                     [deg]
#   7 A_WORLD                Profile RMS along major axis (world units)                 [deg]
#   8 B_WORLD                Profile RMS along minor axis (world units)                 [deg]
#   9 THETA_WORLD            Position angle (CCW/world-x)                               [deg]
#  10 FWHM_WORLD             FWHM assuming a gaussian core                              [deg]
#  11 ELONGATION             A_IMAGE/B_IMAGE                                           
#  12 ELLIPTICITY            1 - B_IMAGE/A_IMAGE                                       
         1 -10.7387     36.5227      9.7338   1.1003303608e+02   7.1317901498e+01    0.9328437    0.5408556 -40.15  0.002831062    1.515    0.340
         2 -10.2894     10.3802     18.8052   1.2998257537e+02   7.2094988734e+01     1.453161    0.4084115 -32.90  0.004172295    6.969    0.857
         3 -10.6291     18.9570      6.5975   1.1916584512e+02   7.3897187401e+01    0.9306293    0.6926588  81.88   0.00458433    2.519    0.603
         4 -11.0713     24.2340     31.7839   1.2654156862e+02   6.8254139664e+01     1.708337    0.4150465 -48.16  0.003447866    3.172    0.685
         5  -9.4696      2.1677     14.3622   1.3369549464e+02   7.3501590081e+01    0.4564773    0.2004963 -76.89  0.002116267    2.695    0.629
         6 -10.3619      5.0389      4.6282   1.2796008979e+02   7.5369579447e+01    0.4812803    0.4079199 -21.92  0.001435635    1.177    0.150
         7 -10.1688     69.4136     40.5483   1.0883200498e+02   6.0559118626e+01      1.10904    0.3941328 -45.06  0.004115532    2.632    0.620
         8  -9.4581    100.9010     32.7501   9.4511760784e+01   5.5690272564e+01    0.7057196    0.2905407 -36.10  0.001832231    2.353    0.575
         9  -9.2598    103.1666     21.8092   8.9082147643e+01   5.6814964479e+01    0.5825945    0.3020569 -44.08  0.001486677    2.161    0.537
        10  -8.4749    104.5765     14.4233   8.5329349042e+01   5.7455969421e+01    0.3971381    0.2284279   3.22  0.001591999    2.454    0.592
        11  -9.5431     63.1408     21.3677   1.0297481666e+02   6.5183737954e+01     0.480276    0.3042244 -51.28  0.000881814    1.854    0.461
        12  -9.9844     64.3096     13.5097   9.8468505041e+01   6.6253013622e+01    0.5615543    0.3535131 -25.38  0.002673573    1.547    0.354
        13  -8.9349     46.4873     20.4664   1.1025692056e+02   6.8000681471e+01    0.4857701    0.1974869 -35.78  0.001979224    2.543    0.607
        14 -10.0919     51.3556     14.1547   1.0466390056e+02   6.8383150123e+01    0.8502845    0.5110795   5.62  0.003792839    2.593    0.614
        15  -9.7056    151.5812     27.8336   8.0451546681e+01   4.3792450256e+01     0.579213    0.2365935 -36.73  0.002137364    2.369    0.578
        16  -9.0644     96.5766      4.3671   8.2631372307e+01   6.0544719345e+01    0.4672728    0.2534108 -39.47   0.00181566    2.005    0.501
        17  -8.6235     95.7763     16.8000   8.8929267368e+01   5.9218032977e+01    0.3189237    0.2405552 -22.49 0.0006454868    1.309    0.236
        18  -8.5215     97.2790     11.6915   8.6045794274e+01   5.9529397645e+01    0.4024888    0.2482964  -0.96  0.001789447    1.997    0.499
        19  -9.6205    118.8330     20.8044   8.4552340390e+01   5.3144142391e+01    0.5283029    0.2694119 -23.77  0.001448552    2.034    0.508
        20  -8.9205    110.3451      6.7559   8.0334294874e+01   5.6924008291e+01    0.4479117     0.227519  -6.91  0.001769481    2.475    0.596
        21  -8.9540    112.2757     15.5246   8.3853712049e+01   5.5439818469e+01    0.3845555     0.218831 -34.64 0.0007266983    1.769    0.435
        22  -9.1236    113.8585     10.1471   8.1066886149e+01   5.5673776874e+01    0.4264407    0.2487712  29.30 0.0004979962    1.977    0.494
        23  -8.3253     77.2622      6.3277   8.9597022712e+01   6.4680942442e+01    0.3465917    0.1977766 -17.55 0.0009508624    1.838    0.456
        24  -8.8108     78.3669      2.8733   8.7322706561e+01   6.4864636847e+01    0.3227016    0.2371971 -32.63  0.001007023    1.397    0.284
        25  -9.2698     73.5018     19.5912   9.7883113789e+01   6.3556540100e+01    0.3665908    0.2304134 -46.18  0.001131657    1.761    0.432
        26  -9.0559     73.4805     14.0104   9.5065601540e+01   6.4411880072e+01    0.5412797    0.2658543 -13.69  0.001954101    3.306    0.697
        27  -9.8330    131.4475     17.2797   8.0294773687e+01   5.0353807264e+01    0.5144376    0.2979093  71.43  0.001937441    1.895    0.472
        28  -9.9357    131.9124      7.2608   7.6092749598e+01   5.1318511588e+01    0.5733995     0.396938  -3.20  0.002349553    1.603    0.376
        29  -9.5006     85.1025     12.9973   9.0425804789e+01   6.2121122667e+01    0.4272177    0.2584882 -52.10  0.001299612    2.249    0.555
        30  -7.6654     80.4908     12.4675   9.1719132481e+01   6.3185764211e+01    0.2957786    0.1553887 -42.02  0.001298236    2.082    0.520
        31 -10.0090    124.6641      6.0942   7.6974805052e+01   5.3333606761e+01    0.5622246    0.5063103 -47.70  0.003155975    1.199    0.166
        32  -8.6251     72.0393      8.4734   9.2663932675e+01   6.5484367317e+01    0.2879351    0.1806613 -10.44 0.0009120934    1.786    0.440
        33  -8.5415     67.9982      9.2246   9.4641361740e+01   6.6184792677e+01    0.3221614    0.2199274 -59.05  0.001545656    2.269    0.559
        34  -8.1890    101.9339      7.9664   8.2980289954e+01   5.8860764511e+01    0.2793484    0.1837055 -36.01 0.0007265726    1.583    0.368
        35  -8.7518    104.3749      2.2971   7.9631458223e+01   5.8867566044e+01     0.519109    0.2487348  44.58  0.002191779    1.983    0.496
        36  -8.1221     84.9900      6.1886   8.6953087007e+01   6.3013586283e+01    0.3944578    0.2566252   4.46  0.001892046    1.784    0.440
        37  -8.3740     88.8740      2.4975   8.3828912085e+01   6.2553951963e+01    0.4011985    0.3122716  14.02  0.001976144    1.278    0.217
        38  -7.3142    143.3670      5.2262   7.3321074035e+01   4.8471013296e+01    0.1977149    0.1260773 -34.45  0.000376585    1.595    0.373
        39  -8.9750    115.0934      3.8357   7.7933062015e+01   5.6023941051e+01    0.3709708    0.1984917 -24.18  0.001183862    1.879    0.468
        40  -9.5829     63.9194      3.0200   9.2758545790e+01   6.7824131811e+01    0.3858811     0.253052 -46.44  0.001909493    1.873    0.466
        41  -8.2513    136.7843      1.5904   7.2924745792e+01   5.0562053940e+01    0.1957662    0.1358647  84.66 0.0007772323    1.562    0.360
        42 -10.5799    108.4304    101.0976   1.1456206133e+02   4.0721624529e+01     1.074328     0.786258 -82.26  0.005084873    1.828    0.453
        43 -11.6711    194.9907    248.2350   1.2105728276e+02   2.8436638637e+00      1.28644      0.29608  44.06  0.004979698    4.675    0.786
        44 -10.1133     91.9936    113.1364   1.2190494144e+02   4.0991500985e+01    0.5790319    0.3812794  79.46  0.001572418    2.166    0.538
        45 -10.5131    246.1696    114.6697   8.9570140604e+01   1.0136247722e+01    0.2854595    0.2192977  29.48 0.0004114111    1.285    0.222
        46  -7.4762      1.1839    116.0220   1.4886324323e+02   5.0338986210e+01    0.1576203   0.07209136 -81.83 0.0005183502    1.792    0.442
        47  -8.0885    152.5453    115.5364   1.0690640240e+02   2.8980108159e+01    0.1439815    0.1373462  27.29 0.0001602015    1.007    0.007
        48  -9.6619     14.0788    111.7549   1.4483200389e+02   5.0462439605e+01     0.466188    0.2428067 -86.95  0.002022149    1.689    0.408
        49  -8.6733     13.9719    105.0577   1.4425331455e+02   5.2008110232e+01    0.1759493    0.1696312 -13.62 0.0006667564    1.320    0.242
        50  -7.9948     63.4856     81.9898   1.2396182420e+02   5.2423011272e+01    0.3639857    0.1935635 -72.23    0.0011154    2.317    0.568
        51 -10.0930     65.5962    111.0156   1.2921339214e+02   4.5405722081e+01    0.4730946    0.3305648  60.64  0.001322035    1.508    0.337
        52  -9.8703     58.0394    109.6984   1.3127153085e+02   4.6681930633e+01    0.6193337     0.422231 -41.11  0.003174384    1.736    0.424
        53  -9.7206     64.9169    102.9372   1.2794513167e+02   4.7363124342e+01    0.5647004    0.5012524  73.90  0.003437479    1.107    0.096
        54 -10.6090     62.9620     94.7074   1.2694502989e+02   4.9537981831e+01     1.039892    0.4138385 -58.68  0.002796225    2.284    0.562
        55  -8.0472    158.8231    112.0228   1.0465250686e+02   2.8300588054e+01    0.2112743     0.196988 -76.40 0.0004378363    1.243    0.196
        56  -9.4404     35.7252    111.0174   1.3826173184e+02   4.8826620490e+01    0.3084562    0.3061493  73.52  0.001999772    1.211    0.174
        57  -9.5135     34.0327    107.4972   1.3832892674e+02   4.9806330456e+01    0.3011489     0.216647  13.72  0.001696744    1.782    0.439
        58 -10.7841     20.5646    100.7949   1.4174633464e+02   5.2516883817e+01      1.21863     0.492377  78.60  0.003337947    3.440    0.709
        59 -10.0098     19.7930     85.1929   1.4006868369e+02   5.6240100734e+01    0.9990255    0.2759458 -64.60  0.003576552    2.690    0.628
        60 -10.3993     25.5840     78.0049   1.3688805778e+02   5.7496944970e+01    0.7721595    0.3859507  82.59  0.002079337    2.666    0.625
        61 -10.5472     32.1485     64.1789   1.3167227854e+02   6.0195857802e+01     1.294382     0.574961 -32.92  0.005059015    3.470    0.712
        62  -9.9425     34.3450     90.6632   1.3581288565e+02   5.3736441245e+01    0.5667383    0.2573809 -87.73  0.001794143    2.899    0.655
        63 -10.1478     36.4428     81.2807   1.3346497958e+02   5.5759535836e+01     1.087861    0.5160366 -22.32  0.003515878    5.657    0.823
        64  -8.9009    149.8717    110.1277   1.0621593262e+02   3.0543254700e+01    0.2148951    0.2010172 -86.66 0.0004540942    1.214    0.176
        65 -10.1466     78.1461    113.1076   1.2588135701e+02   4.3161383801e+01    0.5007301    0.3064921 -87.90  0.001854076    2.252    0.556
        66 -10.8372     44.8107    102.6514   1.3425010525e+02   4.9857906354e+01    0.8820617    0.4062698  69.04  0.003273376    3.665    0.727
        67  -9.0640     39.8898    107.1019   1.3645963202e+02   4.9328375361e+01    0.2927141    0.1565851 -74.00 0.0009217326    1.717    0.417
        68  -9.3319    139.3040    104.5418   1.0733767842e+02   3.3833252632e+01    0.3588638    0.2727947 -60.23 0.0006813283    1.531    0.347
        69  -9.0728    139.8248     99.7929   1.0599507679e+02   3.4641095763e+01     0.395633      0.24968  26.22  0.001618534    2.046    0.511
        70  -7.8660     78.0084    105.2157   1.2437284431e+02   4.4974578526e+01    0.2936032    0.1968467 -22.67  0.001331634    2.351    0.575
        71  -9.9506    149.3659    102.5005   1.0441995216e+02   3.2073987730e+01    0.6140187    0.2686533 -39.76  0.001183052    2.343    0.573
        72  -9.3539      6.1634    103.4933   1.4651190353e+02   5.2875725929e+01    0.3949916    0.1945377  67.55  0.001567496    2.010    0.503
        73  -8.2911    165.9426    103.8942   1.0107553297e+02   2.8205589512e+01    0.2440151    0.2054234 -34.87 0.0004571044    1.207    0.171
        74  -8.2236     73.7005    103.0273   1.2523986941e+02   4.6113106988e+01    0.1965949    0.1606914 -63.88 0.0004171795    1.168    0.144
        75  -7.9779    191.9085    101.8030   9.5357652100e+01   2.2850205227e+01    0.2164389    0.1816769  14.60 0.0003230991    1.201    0.167
        76  -8.4235    158.8664    101.2972   1.0195007787e+02   3.0219981065e+01    0.2371619    0.2009424 -49.99 0.0004429568    1.277    0.217
        77  -9.4354     81.3687    100.2119   1.2229343970e+02   4.5596512961e+01    0.4086896    0.2712013 -87.32  0.001083379    2.034    0.508
        78  -8.2350     82.3145     94.2576   1.2065379472e+02   4.6796321475e+01    0.3467427      0.24085   1.44  0.001557087    2.344    0.573
        79  -8.4296    244.9816    101.0000   8.6635819948e+01   1.2041119188e+01    0.1973587   0.07374528  53.52 0.0008023574    2.942    0.660
        80  -9.4186     94.2989     97.2414   1.1770598894e+02   4.4122337167e+01    0.3161313    0.2567993 -83.41 0.0005695848    1.394    0.283
        81  -9.2583    248.3521     95.1413   8.4821452784e+01   1.2121100102e+01     0.331951    0.2440681 -79.66  0.001290781    2.317    0.568
        82  -8.6694    164.4855     94.5798   9.8953094642e+01   3.0154226750e+01    0.2802806    0.2348414 -53.14 0.0007129164    1.326    0.246
        83  -9.5309    138.5779     92.1067   1.0425092196e+02   3.6390320684e+01     0.650327    0.3512286 -36.72  0.001710685    1.936    0.483
        84  -8.6692     92.8871    103.6605   1.1961378779e+02   4.2942991504e+01    0.5589458    0.3217964  15.13  0.002028452    3.477    0.712
        85 -10.0638      4.3379     89.7882   1.4590657300e+02   5.6143187616e+01    0.5689331    0.2338883  78.07  0.001973313    2.671    0.626
        86  -9.4308      4.9685     79.5240   1.4466097910e+02   5.8500760171e+01     0.585025    0.2230056 -47.87  0.002576774    2.692    0.629
        87  -7.3561    195.5626     96.4780   9.3334153693e+01   2.2870531477e+01    0.1432848    0.1336439  -1.80 0.0001147443    1.012    0.012
        88  -8.9683    157.7149     91.0254   9.9466913866e+01   3.2313885237e+01    0.4608634    0.2038844 -31.67  0.001667783    2.524    0.604
        89  -8.6016     95.8967     90.8625   1.1564444534e+02   4.5243938428e+01    0.4218911    0.2894108  -8.14   0.00177904    2.502    0.600
        90  -9.4881    111.1878     89.3732   1.1076985364e+02   4.2673970597e+01    0.8552542    0.5093753  19.69  0.003198581    2.895    0.655
        91 -10.5615     55.0675     70.9313   1.2428229044e+02   5.6101213080e+01    0.6938614    0.4327858  60.05  0.001224506    2.109    0.526
        92  -9.2383     54.8137     63.1081   1.2228774773e+02   5.7925524910e+01    0.6009348    0.2722041  28.19  0.002537337    2.616    0.618
        93 -10.1673     62.9721     60.7971   1.1844211434e+02   5.7314881785e+01    0.9503169    0.2883919  33.59   0.00321966    3.771    0.735
        94 -10.2101     47.8595     84.4601   1.2998684334e+02   5.3808707817e+01    0.6568604    0.3837956 -78.76  0.001583576    1.867    0.464
        95  -9.1557     48.7689     77.2291   1.2812705546e+02   5.5404889271e+01    0.5373541    0.3173488 -22.55  0.002353732    2.750    0.636
        96  -8.6637    150.6014     89.1352   1.0055612699e+02   3.4268419440e+01    0.2364466    0.2075308  65.08 0.0004827857    1.237    0.192
        97  -7.7439    174.4770     88.5148   9.5235047784e+01   2.8902021063e+01     0.147483    0.1421386   4.27 0.0001431833    1.015    0.014
        98 -10.0651     85.1123     86.4599   1.1786139701e+02   4.8092468970e+01    0.4560297    0.3278708 -85.90 0.0009842854    1.842    0.457
        99  -9.4257     87.4006     78.6578   1.1503676158e+02   4.9429804956e+01     0.549268    0.3625805  18.53  0.001758524    2.119    0.528
       100  -9.8921     81.4778     72.3755   1.1520934161e+02   5.1829963995e+01    0.4556597     0.325758 -82.66  0.001160694    1.947    0.486
       101  -8.8689     83.4729     64.6769   1.1218495166e+02   5.3149294908e+01    0.5325482    0.4120131  -9.58  0.002673598    1.646    0.393
       102  -8.6512    163.2351     86.8384   9.7102986457e+01   3.1781900135e+01    0.2636526    0.2113155 -32.95 0.0009279058    1.248    0.199
       103 -10.2555    103.8951     82.7347   1.1105521358e+02   4.5502565328e+01    0.5385273    0.3123164 -57.31 0.0007964746    1.936    0.483
       104  -9.4197    105.0842     71.7049   1.0743188493e+02   4.7564574513e+01    0.6393092    0.3896497 -20.26  0.002431175    2.575    0.612
       105  -8.3255    157.4690     83.7618   9.7488315249e+01   3.3653603087e+01    0.2707202    0.2321343 -78.14 0.0005558266    1.421    0.296
       106  -9.1537    140.3433     82.0040   1.0096113096e+02   3.7910891403e+01    0.7535692    0.3200282 -37.38  0.001218909    2.407    0.585
       107  -8.8843    139.8711     75.7599   9.9219045609e+01   3.9174124823e+01    0.4542279    0.3003731 -54.89  0.001705385    1.782    0.439
       108  -7.6684    170.3898     83.2723   9.4607449085e+01   3.0720195357e+01    0.2094425    0.1359124 -43.19 0.0007259777    1.594    0.373
       109  -9.1605     74.2057     79.3089   1.1960194480e+02   5.1465055269e+01    0.6559127    0.2668428 -54.82  0.001805898    2.329    0.571
       110  -8.7508    149.9242     80.3034   9.8189760232e+01   3.6020189065e+01    0.4115846    0.2152735 -35.92  0.001310405    1.928    0.481
       111  -8.8485    118.9871     80.4697   1.0606762662e+02   4.2904799116e+01    0.3226526    0.2362361 -57.83 0.0006352133    1.521    0.343
       112  -7.9767    119.8850     76.1431   1.0452766020e+02   4.3574501780e+01     0.267805    0.2209126 -20.64 0.0006209171    1.332    0.249
       113  -8.1851     68.7389     78.8960   1.2137511857e+02   5.2385925259e+01    0.3699395    0.2158917 -66.22  0.001689772    1.848    0.459
       114  -7.7823    166.4592     78.9773   9.4190023712e+01   3.2361145580e+01    0.2228362     0.144981 -36.15 0.0005672778    1.523    0.343
       115  -8.1407    184.1932     78.0445   9.0458829590e+01   2.8309869081e+01    0.2291746    0.1924696   3.14 0.0005007603    1.262    0.208
       116  -8.7541    156.6890     73.3375   9.4601932865e+01   3.5639730179e+01    0.2857445     0.189719 -36.85  0.001291681    1.497    0.332
       117  -9.4811    127.2021     75.1621   1.0225394891e+02   4.2162275725e+01    0.4277537    0.3053994 -68.16 0.0007759059    1.896    0.473
       118  -8.6503    129.2685     69.0794   9.9813104293e+01   4.2845193083e+01    0.4867473    0.2646608  25.38  0.001628022    3.253    0.693
       119  -8.2773    130.5215     64.3164   9.7950652688e+01   4.3430049184e+01    0.4219486    0.1751191 -39.41  0.001090458    2.375    0.579
       120  -7.2274    225.6174     75.7028   8.3166808914e+01   1.9204267597e+01    0.1468432   0.09861971  21.98 0.0007019943    1.766    0.434
       121  -7.8751    215.9035     74.1226   8.4149654323e+01   2.1552755737e+01    0.2288676      0.15987  16.15  0.001110816    1.703    0.413
       122  -8.3352    162.4454     73.1125   9.3303711441e+01   3.4296117645e+01    0.2804945    0.2110189 -58.41  0.000778669    1.578    0.366
       123  -9.0923    115.1873     72.2134   1.0463298753e+02   4.5359451730e+01    0.5668222     0.275491 -35.12  0.001527596    2.261    0.558
       124  -8.2009    169.3233     71.5627   9.1435855880e+01   3.2889713611e+01    0.4144514    0.1307811 -34.70  0.001279825    3.028    0.670
       125 -10.6131    176.9650    248.4823   1.2402826463e+02   5.2115689873e+00    0.4147715    0.2093724  50.64  0.002440158    2.399    0.583
       126 -10.7798     21.9062     53.7970   1.3373383520e+02   6.3473148713e+01    0.8716158    0.4117679  85.89  0.002794328    3.927    0.745
       127 -10.4801    167.8652    247.8835   1.2547297356e+02   6.4934461514e+00    0.2883635    0.2219298  25.02  0.002324868    1.142    0.124
       128  -9.9676    108.5079    114.4737   1.1762366261e+02   3.7851241945e+01    0.6358167    0.4012755 -84.25  0.001435718    2.717    0.632
       129  -9.2641     72.6599    243.1907   1.4147641192e+02   1.9308923458e+01    0.1743017    0.1250281  46.69 0.0002874823    1.071    0.066
       130  -7.2819     97.2939    239.2702   1.3687611811e+02   1.6892168044e+01    0.0928279   0.07231803  23.04  0.000306236    1.515    0.340
       131 -10.3605    156.0366    249.5180   1.2763017163e+02   7.8938122517e+00    0.4095423    0.1280991  36.96   0.00209102    2.332    0.571
       132  -9.8395     14.7656     44.6851   1.3496918592e+02   6.6073864643e+01    0.5107925     0.273945 -34.41  0.001107738    2.019    0.505
       133  -9.8469      8.3878     47.1355   1.3852800290e+02   6.5883056122e+01    0.6454916    0.1785977  21.81  0.002703517    3.881    0.742
       134 -10.3616      4.7878     42.1361   1.3927931913e+02   6.7211258662e+01    0.7400334    0.3321241 -74.71  0.003190371    1.928    0.481
       135  -9.7197      6.7351     32.5788   1.3617004173e+02   6.9284107238e+01    0.2629646    0.2159343 -21.70 0.0007970774    1.327    0.246
       136 -10.1706      7.1124     28.2090   1.3483103970e+02   7.0239123824e+01    0.3450933    0.2670416  47.37  0.001044411    1.611    0.379
       137  -9.7053     94.6396     68.2361   1.0959751645e+02   5.0339213723e+01    0.4535047    0.2656002 -54.51 0.0009043242    1.826    0.452
       138  -9.5017     96.7096     58.9001   1.0585766671e+02   5.1839301953e+01    0.8032058    0.4666332 -13.38  0.002665811    3.763    0.734
       139  -9.5224    109.7463     63.8150   1.0350406446e+02   4.8171664553e+01    0.5277864    0.2871346 -50.29 0.0006570172    1.992    0.498
       140  -9.0989    110.5813     58.2522   1.0137071865e+02   4.9058781634e+01     0.421483    0.3063897   4.40  0.001166504    1.895    0.472
       141  -9.1491    138.0656     65.0164   9.6293886825e+01   4.1531478346e+01    0.6265087    0.2372328 -35.43  0.001428445    2.663    0.625
       142  -9.1177    121.1429     66.0718   1.0101006856e+02   4.5246492023e+01    0.4163969    0.2571773 -49.58 0.0006937814    1.737    0.424
       143  -8.0177    122.3010     61.3333   9.9123980126e+01   4.5868349708e+01    0.2364452    0.2056366  14.97    0.0006212    1.246    0.197
       144  -8.4213     47.4477     66.1364   1.2599189419e+02   5.8144089305e+01    0.2753141    0.1883872  70.27  0.001015683    1.936    0.483
       145  -8.4088    157.7760     63.2285   9.1253084005e+01   3.7056232878e+01    0.2655062    0.1941969 -45.61  0.001000408    1.425    0.298
       146  -8.2413    146.9669     64.0097   9.3871305285e+01   3.9569448876e+01     0.253046    0.1815819  20.71   0.00112159    1.732    0.423
       147  -7.9468     10.1988     60.6312   1.4011755380e+02   6.2646154882e+01    0.3490905    0.1579378  78.65  0.001476049    3.116    0.679
       148  -7.9886     80.2766     46.3279   1.0694124556e+02   5.7494294730e+01    0.2205675    0.1353611 -39.59 0.0001854228    1.557    0.358
       149  -9.8347     73.0757     59.2980   1.1416151632e+02   5.6075605728e+01    0.5039624    0.2635957 -59.18 0.0008790807    2.177    0.541
       150  -9.4900     75.3258     50.3965   1.1027662998e+02   5.7564882783e+01    0.7699395    0.4793136  -2.29   0.00294498    3.171    0.685
       151  -7.3067    152.5460     60.4914   9.1498287948e+01   3.8789912697e+01    0.1507625    0.1475012 -53.37 0.0001649306    1.064    0.060
       152  -8.7221    153.2350     41.0121   8.4820084891e+01   4.1595470437e+01    0.3708883     0.229973 -50.94   0.00100363    1.846    0.458
       153  -8.5494    148.3309     41.3450   8.5927544030e+01   4.2808490409e+01    0.4380964    0.3214668 -67.60  0.002008157    1.714    0.417
       154  -8.6403    149.7910     48.1151   8.7974784001e+01   4.1431037693e+01    0.4187958    0.2195118 -34.08  0.001121993    1.869    0.465
       155  -8.7107    146.4923     59.1729   9.2408781730e+01   4.0495949232e+01    0.3284492    0.2389626 -52.84 0.0008473491    1.540    0.351
       156  -8.3903    147.5346     53.7335   9.0367771103e+01   4.1122445576e+01    0.5084347    0.2045067 -31.28  0.001777658    2.521    0.603
       157  -8.4832    130.0416     58.0226   9.5969847749e+01   4.4663701935e+01     0.319395    0.2085146 -47.54  0.000450576    1.631    0.387
       158  -7.7542    130.6762     53.6687   9.4308322464e+01   4.5263996478e+01    0.3094206    0.1913369  21.90  0.001193489    2.392    0.582
       159  -8.5181     87.5429     58.4839   1.0875185813e+02   5.3701628653e+01    0.2773854    0.2406141 -84.51 0.0006637498    1.389    0.280
       160  -8.9652    139.0480     57.2111   9.3479991010e+01   4.2641958364e+01    0.3567942    0.2497954 -48.18 0.0008558387    1.530    0.346
       161  -9.9143     49.8435     53.5742   1.2150548133e+02   6.0710348348e+01    0.6953041    0.3480874 -58.75   0.00249353    1.884    0.469
       162  -9.4398     56.5100     43.0840   1.1513719204e+02   6.2079054405e+01    0.6995355    0.4004785 -10.09  0.002544558    3.823    0.738
       163  -9.1980    162.4116     54.8323   8.7631461237e+01   3.7220083772e+01    0.5490583    0.2901546 -14.19   0.00198323    2.659    0.624
       164  -9.3451    118.3304     55.0984   9.8061826461e+01   4.7908894655e+01    0.5631485    0.3456688 -39.44  0.001447207    1.610    0.379
       165  -8.9258    121.0408     46.8789   9.4358392033e+01   4.8709446028e+01    0.3801917    0.2076788 -33.07 0.0004719018    1.834    0.455
       166  -8.2002    122.4872     41.0379   9.1787939219e+01   4.9319422522e+01    0.3608124     0.231041   1.92  0.001438911    2.335    0.572
       167  -9.3371     43.7235     53.5347   1.2408973608e+02   6.1457684155e+01    0.4011614    0.2465509 -53.08  0.001331662    1.416    0.294
       168  -8.8904    197.9887     53.1803   8.1008540031e+01   2.8568884872e+01    0.2295113     0.196756 -26.37 0.0003674428    1.120    0.107
       169  -7.9244    152.5905     53.7636   8.9286997144e+01   3.9853919532e+01    0.2141098    0.1374965 -42.33 0.0006112551    1.590    0.371
       170  -8.9838    105.3414     52.0536   1.0073125363e+02   5.1357134998e+01    0.5642707    0.2739786 -34.12  0.001439219    2.147    0.534
       171 -10.4311     85.5309     48.5354   1.0589549033e+02   5.6074621035e+01    0.7357257    0.4670738 -71.48  0.001327308    2.887    0.654
       172  -9.4246    141.9675     48.5090   8.9817610410e+01   4.3338817266e+01    0.5565638    0.3622808  -5.04 0.0003691471    2.087    0.521
       173  -8.6145    157.4646     49.4571   8.6852259816e+01   3.9281658345e+01    0.2923969    0.2333314 -62.90 0.0007158116    1.446    0.309
       174  -8.2788    136.2087     27.1793   8.3229281274e+01   4.7890235194e+01    0.2948763    0.1945716 -23.10 0.0008275697    1.558    0.358
       175  -9.2067    130.0853     47.4614   9.2251398372e+01   4.6440669597e+01     0.505043    0.2327362 -31.60  0.001288971    2.207    0.547
       176  -8.2547    132.4821     41.0030   8.9306991513e+01   4.6871025971e+01    0.3649758    0.2453163   4.59  0.001425075    2.031    0.508
       177  -8.6912    132.9423     35.9981   8.7324974938e+01   4.7503609946e+01    0.3114586    0.2568505 -18.46 0.0004706549    1.242    0.195
       178  -9.4034    133.9641     31.0647   8.5212301073e+01   4.7944286341e+01    0.2899478    0.2613426  20.95  0.001548958    1.125    0.111
       179  -8.6834    112.0539     45.4608   9.6302900952e+01   5.1042317080e+01    0.6294348    0.2983392 -27.79  0.001495667    2.442    0.590
       180  -7.8353    162.4945     46.4886   8.4888902919e+01   3.8432491626e+01    0.1488391    0.1470945 -45.37 0.0003112766    1.033    0.032
       181  -9.5387    188.0452    233.7621   1.2042277267e+02   5.2699994429e+00    0.2002624    0.1634136 -32.06 0.0009721127    1.624    0.384
       182 -10.0802     76.1025     31.8151   1.0257477295e+02   6.0997155434e+01     0.556118    0.4069543  83.18  0.002253329    2.390    0.582
       183  -8.7445     70.1993     26.3795   1.0243306082e+02   6.3053376115e+01    0.3659885    0.2435612  42.24  0.001278277    1.574    0.365
       184 -10.0591     79.6508     24.0052   9.7701642576e+01   6.1632669920e+01    0.7986825    0.3701666  33.77  0.003068886    2.734    0.634
       185  -8.9336     84.6966     21.9805   9.4954452777e+01   6.0912257734e+01    0.2980321    0.2456269 -19.32 0.0008732663    1.168    0.144
       186 -10.0168     37.7565     42.1232   1.2323656514e+02   6.4667931851e+01    0.4410326    0.3268921  74.84  0.001417194    1.904    0.475
       187 -10.0289     35.5504     37.9684   1.2289862361e+02   6.5813010497e+01    0.6455121     0.339798 -27.40 0.0003270946    2.548    0.608
       188  -9.0065    104.8808     41.0068   9.6678019531e+01   5.3428745191e+01     0.395265    0.2373086 -49.20 0.0007304366    1.878    0.468
       189  -8.2044    106.0678     36.4443   9.4496690954e+01   5.3922573992e+01    0.2965458    0.2165331  21.62 0.0009064025    1.593    0.372
       190  -9.0701    139.5670     39.9598   8.7303576796e+01   4.5246573211e+01    0.4562375    0.2394719 -39.24  0.001350729    1.911    0.477
       191  -9.0293     52.9397     39.7524   1.1544937836e+02   6.3282667007e+01    0.3743564    0.1712888 -45.52  0.001646138    1.957    0.489
       192 -10.3386     90.1863     37.8186   1.0007337633e+02   5.7145455496e+01    0.9165803    0.3911019  34.85  0.003173636    3.168    0.684
       193  -8.5309      7.4521    233.8655   1.5219488848e+02   2.7343510670e+01    0.1455191    0.1131333  36.01 0.0007557316    1.484    0.326
       194  -7.4536    138.7786    228.4263   1.2840481439e+02   1.2845192663e+01     0.149387    0.0846499  30.95 0.0002481687    1.541    0.351
       195  -7.3911     65.0208    227.9981   1.4187187441e+02   2.2461543388e+01    0.1253894   0.09107882  52.29 0.0003221568    1.005    0.005
       196  -7.6292    160.3383     39.2536   8.2859273277e+01   4.0002623814e+01    0.2198058    0.1292657 -37.36 0.0006127094    1.678    0.404
       197  -7.6017    115.2353     37.6320   9.2384974987e+01   5.1597413337e+01    0.2268604    0.1247003 -20.18 0.0006771566    2.210    0.548
       198  -7.3665    190.0000     37.0053   7.7330802138e+01   3.2636510685e+01    0.2394826    0.0809575 -25.54 0.0007952485    2.893    0.654
       199  -8.8079    144.1071     36.4248   8.5041061348e+01   4.4595868489e+01    0.2778913    0.2048943 -38.83 0.0005783636    1.372    0.271
       200  -8.7190    118.9959     34.6457   9.0203299175e+01   5.1158944798e+01    0.3075556    0.2136401 -28.41 0.0006394237    1.443    0.307
       201  -8.3599    153.3417     34.9492   8.2673233969e+01   4.2405819191e+01    0.2143672    0.1963338 -27.07 0.0006183581    1.097    0.088
       202  -9.2621     60.2332     33.9075   1.0992339197e+02   6.3369732724e+01    0.3937209    0.2524237 -56.04  0.001343594    1.755    0.430
       203  -8.5730     62.6745     26.9422   1.0581485224e+02   6.4280569247e+01    0.3945675    0.2684011  27.37  0.001450365    1.614    0.381
       204  -8.6066     50.2223    222.5025   1.4424483538e+02   2.4986608241e+01    0.1604716    0.1407609  73.51 0.0004938049    1.273    0.214
       205  -9.8919     10.5628    207.3824   1.5087056792e+02   3.1393824995e+01    0.4948719    0.2120691  23.38  0.002789634    3.050    0.672
       206  -9.1090    110.1853     32.9436   9.1884901686e+01   5.3524855861e+01    0.4003201    0.2480448 -45.81  0.001004867    1.760    0.432
       207  -9.2850    146.9622     69.4459   9.5591362289e+01   3.8636309862e+01    0.3849661    0.2811778 -58.42 0.0009623598    1.636    0.389
       208  -7.8477     45.4769     15.4949   1.0828852766e+02   6.9049533357e+01    0.2117216    0.1496875 -30.98 0.0008878445    1.271    0.213
       209 -10.0564     46.0524     29.5082   1.1454866214e+02   6.6316848455e+01    0.4539256    0.2889433 -64.27 0.0009947798    2.023    0.506
       210  -9.1324    191.8242    194.6145   1.1422500194e+02   9.3049090114e+00    0.5309981    0.3070715 -60.29   0.00222389    4.895    0.796
       211 -10.1276    191.9677    188.0838   1.1315040362e+02   1.0121009254e+01    0.2267008    0.1762059  24.69  0.001492056    1.047    0.045
       212  -7.3510     68.7363    198.9755   1.3904533593e+02   2.6831798745e+01    0.1212288   0.09185153 -82.83 0.0003409322    1.406    0.289
       213  -7.5091    192.2293    173.1559   1.1056080122e+02   1.2075789338e+01    0.1563269    0.1363092  43.25 0.0003071651    1.292    0.226
       214  -9.0728    230.9535    168.9386   1.0305497053e+02   6.1801461949e+00    0.2638909    0.1437643 -41.78  0.001371617    2.460    0.594
       215  -7.1669     66.7251    158.2681   1.3556850456e+02   3.4874104021e+01    0.1229766   0.08020569  64.08            0    1.479    0.324
       216  -9.2926     91.3342     26.3088   9.4722822578e+01   5.8823302225e+01    0.4447973    0.2657022 -47.53  0.001094664    1.916    0.478
       217  -8.4221     92.2352     20.9223   9.1960251078e+01   5.9439279357e+01    0.3554394    0.2262075  13.91  0.001176475    2.108    0.526
       218  -7.4932    193.2156     26.7326   7.3739781572e+01   3.3025864734e+01    0.1857595     0.156432  25.09 0.0002905946    1.304    0.233
       219  -8.4685    144.3797     25.7541   8.1037757754e+01   4.5945436359e+01    0.2155096    0.1856717 -13.69  0.000455601    1.195    0.163
       220  -8.8125    146.0018     20.5132   7.8759147809e+01   4.6153747403e+01    0.4268205    0.2605627   4.42  0.000695642    2.169    0.539
       221  -8.7936    128.4756     25.0533   8.4071976293e+01   5.0154506228e+01    0.4550627    0.2693834 -18.96  0.001256589    1.831    0.454
       222  -7.9357    139.8490     22.7626   8.0781358640e+01   4.7503535041e+01    0.2051689    0.1702865 -60.58  0.000365352    1.341    0.254
       223  -8.3225    246.9782     27.7037   6.8459981409e+01   2.0169504134e+01    0.2795947    0.1547181  11.19  0.001193626    2.895    0.655
       224  -7.2711     19.7273    151.0053   1.4628642917e+02   4.1380544882e+01    0.1323383   0.08524188 -86.72 0.0001927914    1.354    0.262
       225  -8.3652    111.4695     21.9880   8.6901023717e+01   5.4805613911e+01    0.2621156    0.1782285 -34.50 0.0007669263    1.479    0.324
       226  -8.6160    133.5865    145.8454   1.1768921778e+02   2.6984483198e+01    0.5952149    0.1374441 -54.31  0.001379367    8.383    0.881
       227 -10.1317    237.3204    146.3366   9.7648892015e+01   7.8221344462e+00    0.4576714    0.2038452  23.65  0.001839045    3.232    0.691
       228  -9.8719     67.1736    144.3463   1.3378243819e+02   3.7749708512e+01    0.4692326    0.3436145  78.01  0.002205195    1.357    0.263
       229  -8.6152     40.8837     20.8964   1.1331905822e+02   6.8687514831e+01    0.2435311    0.1575055 -37.34 0.0004738127    1.371    0.271
       230  -9.3809    238.2763    140.1205   9.6226440227e+01   8.4144610950e+00    0.2114808    0.1405556  -4.60 0.0008049348    1.469    0.319
       231  -9.2418    135.9968    134.5055   1.1492646503e+02   2.8690604902e+01    0.5111597    0.1991939 -48.20  0.001730914    2.772    0.639
       232  -8.4182    112.1633    133.7420   1.2057526593e+02   3.3168036413e+01    0.2852101    0.2036599  82.18  0.001214417    1.880    0.468
       233  -9.4795     98.4859    128.7225   1.2315969548e+02   3.6531869245e+01    0.5521567    0.3186691  70.09  0.002249346    2.750    0.636
       234  -8.2545    139.6826     17.5716   7.8796806795e+01   4.8163199105e+01    0.2570066    0.1342916 -24.72 0.0005634179    1.936    0.483
       235 -10.3904     70.2745    126.4236   1.3041508775e+02   4.1276183263e+01    0.6385712    0.6084924  37.73   0.00216222    1.179    0.152
       236  -9.9651     58.2322    124.5632   1.3350800125e+02   4.3249089020e+01    0.6241695    0.3152503  67.69  0.002238023    2.688    0.628
       237  -6.8939    189.6561     15.7024   7.0744463837e+01   3.5126649232e+01    0.1499478    0.1016415  36.38   0.00070345    1.671    0.401
       238  -9.7530    117.3865    125.7757   1.1768935057e+02   3.3876287799e+01     0.535636    0.3351777  77.02  0.001865531    2.843    0.648
       239  -8.9835     41.2792    121.9435   1.3798283188e+02   4.5756936666e+01    0.4642714    0.2052994 -85.33  0.001488737    2.624    0.619
       240  -8.9567    125.1089     13.0483   7.9853581097e+01   5.2481444975e+01     0.244874    0.2183023 -87.25 0.0004801179    1.242    0.195
       241  -9.4172     27.4345    123.0770   1.4203864708e+02   4.6820341715e+01     0.501184    0.2110392  60.78  0.002269941    2.625    0.619
       242  -7.7606    141.5188     12.5010   7.6478562929e+01   4.8236556117e+01    0.1453475    0.1403442  48.90 -5.635299e-05    1.004    0.004
       243  -8.4608    200.3285    123.9427   9.9108752212e+01   1.7700414374e+01    0.2142599    0.1794768  31.42 0.0003743685    1.131    0.116
       244  -9.8124    140.7007    118.3522   1.1032230108e+02   3.0876433034e+01    0.5716136    0.3458138 -57.21  0.001924158    2.041    0.510
       245 -10.3621    131.6156    119.8297   1.1285587287e+02   3.2390941251e+01    0.7903672    0.5458295  66.93  0.002228417    1.875    0.467
       246 -10.8269    133.5797    110.0289   1.1009812589e+02   3.3941485670e+01    0.8259552    0.5730343 -55.40  0.002653699    1.602    0.376
       247  -9.3851    130.5779     96.7796   1.0751951714e+02   3.7192781537e+01    0.5511387    0.2856396  29.49  0.001986205    2.796    0.642
       248  -9.5754    127.5441    102.6269   1.0980463182e+02   3.6649696029e+01    0.4411859    0.3671676  60.63  0.001157796    1.276    0.216
       249 -10.4404    122.9087     92.2440   1.0831693968e+02   3.9704945222e+01    0.8119558    0.6101469 -31.83  0.002195829    1.439    0.305
       250  -8.5747    126.1038     83.7315   1.0509053604e+02   4.0734182640e+01    0.5164737    0.3101791  15.36  0.001761229    3.400    0.706
       251 -11.0426    121.3124    110.9276   1.1343092129e+02   3.6196356850e+01     1.178825    0.6215535 -54.66  0.002967404    2.106    0.525
       252 -10.6148     16.3676     65.9135   1.3844618561e+02   6.1028774457e+01     1.444167    0.1900886 -68.21  0.004410531    4.748    0.789
