#   1 NUMBER                 Running object number                                     
#   2 MAG_AUTO               Kron-like elliptical aperture magnitude                    [mag]
#   3 X_IMAGE                Object position along x                                    [pixel]
#   4 Y_IMAGE                Object position along y                                    [pixel]
#   5 X_WORLD                Barycenter position along world x axis                     [deg]
#   6 Y_WORLD                Barycenter position along world y axis                     [deg]
#   7 A_WORLD                Profile RMS along major axis (world units)                 [deg]
#   8 B_WORLD                Profile RMS along minor axis (world units)                 [deg]
#   9 THETA_WORLD            Position angle (CCW/world-x)                               [deg]
#  10 FWHM_WORLD             FWHM assuming a gaussian core                              [deg]
#  11 ELONGATION             A_IMAGE/B_IMAGE                                           
#  12 ELLIPTICITY            1 - B_IMAGE/A_IMAGE                                       
         1 -12.1128     56.4472    198.1307   1.2078571429e+02   2.7569773327e+01     1.279092    0.5772269 -59.44  0.006935746    2.474    0.596
         2 -14.4057    208.6556     19.4787   4.7393497404e+01   3.0296618030e+01     1.515316     1.082295  21.23  0.007473355    1.796    0.443
         3 -14.4936    196.7380     33.1710   5.2931082817e+01   3.1744968134e+01     2.308592     1.493148  22.07  0.008747506    2.109    0.526
         4 -11.4981     32.9042     16.0961   9.1781746851e+01   6.9924160739e+01    0.2683276     0.146708 -41.92  0.001478958    1.521    0.342
         5 -12.6577     30.8744      3.3908   8.6141288636e+01   7.2249554905e+01       0.4101    0.3869741 -26.49  0.003006016    1.433    0.302
         6 -11.9109     57.1903      2.9269   7.3331362679e+01   6.8480142566e+01    0.3766352    0.2825349  34.63   0.00231883    1.349    0.258
         7 -11.9227     48.5238      4.5934   7.8051713929e+01   6.9659334084e+01    0.3366531    0.2439913 -45.51  0.001990271    1.744    0.427
         8 -12.7619     52.3031    215.5806   1.2285935588e+02   2.4847091142e+01    0.5180445    0.4268288  16.68  0.001125829    1.949    0.487
         9  99.0000    123.2840    237.5468   1.1204031420e+02   1.1760234025e+01     10.04481     3.326279  52.07   0.04421643    3.073    0.675
        10 -11.7037     75.1032    175.2125   1.1473164600e+02   2.9732026106e+01    0.2559553    0.2115993 -48.62  0.000659395    1.548    0.354
        11 -17.1552      4.4427    235.3532   1.3183100461e+02   2.6432446182e+01     7.692847     0.784356 -77.18   0.01812397    7.012    0.857
        12  -9.6228     27.0290    215.4961   1.2732787910e+02   2.7634152664e+01    0.1341903   0.05454201  59.29 0.0007461796    1.919    0.479
        13  -9.6006     37.5703    176.4756   1.2284529034e+02   3.4015736707e+01    0.1738629    0.1140173  18.70  0.001021746    2.362    0.577
        14 -10.8590    195.6745    169.7792   8.8480117046e+01   1.0054122032e+01    0.3210832    0.2555913 -29.16  0.001015635    1.323    0.244
        15 -15.5081     30.0540    245.5917   1.2823918215e+02   2.2280150133e+01    0.5459409    0.4675965   9.57  0.003654015    2.246    0.555
        16  -9.9681     53.1451    173.2045   1.1926822460e+02   3.2945005952e+01    0.2032396    0.1869729  -0.44 0.0006291218    1.628    0.386
        17 -10.0695     47.6194    173.4715   1.2047656680e+02   3.3531418034e+01    0.2424399    0.2007214 -78.43  0.001701862    1.237    0.191
        18 -11.5281    183.6421    215.2970   9.8449091648e+01   5.5279917896e+00    0.2659729    0.2375569  61.45   0.00187321    1.399    0.285
        19 -10.1760    137.2003    170.7967   1.0056733842e+02   2.0739848679e+01    0.1843182    0.1558373  20.86 0.0008505424    1.345    0.256
        20  -9.8800    145.7725    168.4251   9.8326667597e+01   1.9633955745e+01    0.1853838    0.1222983  33.69 0.0003044208    1.539    0.350
        21 -10.6387    189.4495    154.6704   8.6658536314e+01   1.3687680545e+01     0.379675     0.306084  28.93  0.001830068    1.173    0.148
        22 -17.6028     50.0429    243.4161   1.2495216186e+02   2.0439425878e+01     1.712002    0.9589718  42.58  0.008946004    1.522    0.343
        23  -8.7248    164.6245    206.2841   1.0062149852e+02   9.9450128338e+00    0.1246086   0.08770476  61.90 0.0007014936    1.715    0.417
        24 -10.2352    174.9300    148.8690   8.8376344056e+01   1.7591583257e+01    0.2437117    0.2177522 -61.38 0.0006356092    1.301    0.231
        25 -10.9071    133.7176    144.3158   9.6506508531e+01   2.6627519268e+01     1.020575    0.2390093 -54.33  0.002485609    6.456    0.845
        26 -10.6393     86.7396    145.5603   1.0802999453e+02   3.4440689953e+01     0.349705    0.2140645  65.72  0.001693643    1.863    0.463
        27 -10.8033    103.4501    142.2206   1.0335576409e+02   3.2516514256e+01    0.5117294    0.3187139 -28.74  0.002157337    2.767    0.639
        28 -12.4066     91.0286    142.3707   1.0645070146e+02   3.4493956623e+01    0.2682305    0.2547647 -44.42 0.0004040482    1.241    0.194
        29 -10.0471    112.2378    131.5918   9.9138963505e+01   3.3333031960e+01    0.2770155    0.2207795  -3.93 0.0006349374    1.809    0.447
        30 -10.2180    105.8857    130.5765   1.0054355510e+02   3.4682184289e+01    0.2862194    0.2536269  83.93  0.001221019    1.116    0.104
        31 -11.1656     99.5721    128.3132   1.0171965234e+02   3.6272328395e+01    0.3217602    0.2418236 -42.12 0.0009569549    1.475    0.322
        32 -11.9312     36.7966    209.7915   1.2528455968e+02   2.7635878962e+01    0.4271387    0.2283461  41.35  0.001907529    1.690    0.408
        33 -11.1614    135.3737    122.4329   9.1393808473e+01   3.0876718318e+01    0.6276535    0.1431344 -49.40  0.001639689    4.802    0.792
        34  -9.9603    160.5082    127.4982   8.6722456294e+01   2.4594481590e+01    0.1467438    0.1442374  56.52 5.915187e-05    1.044    0.042
        35  -9.2640    125.5150    127.0276   9.4856987950e+01   3.1851450942e+01    0.2211976    0.1427505 -53.14  0.001018233    1.565    0.361
        36 -10.8167    118.5781    125.1245   9.6176243083e+01   3.3589311510e+01    0.6273499    0.3403875 -26.89  0.002061712    3.912    0.744
        37  -9.7264    108.4349    120.0568   9.7682721217e+01   3.6586592914e+01    0.1991977    0.1865114  64.75 0.0003084432    1.068    0.063
        38  -9.6623     28.7163    204.4875   1.2643792445e+02   2.9461217845e+01    0.1668112   0.07878223  45.88 0.0007563113    1.724    0.420
        39 -10.3204    167.9179    112.5818   8.1428587723e+01   2.5857792928e+01    0.3973438    0.2977362 -79.42  0.001768484    1.930    0.482
        40 -10.5159    134.5280    103.9774   8.7026234793e+01   3.4951474964e+01    0.5527653    0.1452023 -46.49  0.001553231    3.833    0.739
        41 -11.2278    119.6251    110.3945   9.2496685962e+01   3.6624169845e+01    0.4642719    0.3253358  74.99  0.002054231    1.958    0.489
        42 -11.8916    193.4831    193.9566   9.3273380070e+01   6.8388862768e+00    0.7369789    0.4745476 -58.94  0.003744222    2.613    0.617
        43  -9.4165     95.1095    105.1463   9.7933166258e+01   4.2321037757e+01    0.1882082    0.1600747  79.39            0    1.275    0.216
        44  -9.4789     87.0436     99.7810   9.8995109913e+01   4.4901192667e+01    0.2382695    0.1540094  66.90 0.0007507451    2.102    0.524
        45 -10.1914    205.4566    110.1421   7.3279954025e+01   1.7826848503e+01    0.3205338    0.2074525  39.85  0.001040276    1.596    0.374
        46 -16.3546      5.9616    201.8919   1.3037813484e+02   3.2108337453e+01     1.957715    0.7929949 -80.90   0.01195487    2.104    0.525
        47  -9.5400    167.4403    188.5947   9.7328502639e+01   1.2215995215e+01    0.2210048    0.1285646 -50.59  0.001122461    2.082    0.520
        48  -9.0761    156.7270     79.6594   7.4744608188e+01   3.4727394310e+01    0.1581098    0.1227453   5.24 0.0003289489    1.611    0.379
        49  -9.4805     60.6127     68.3155   9.9332196922e+01   5.6011330857e+01    0.1960156    0.1544441  88.34 0.0006114171    1.627    0.386
        50 -10.8162     13.4694     59.7352   1.1506649773e+02   6.2503226017e+01    0.2231721    0.1811163 -74.19 0.0004261174    1.139    0.122
        51 -11.5017    154.6067     57.2927   6.8094623997e+01   3.9190089100e+01    0.4789335    0.3325456 -80.78  0.001486506    2.128    0.530
        52 -12.8009     46.3199    209.8819   1.2356090373e+02   2.6564408131e+01    0.3818034    0.2999453 -51.66 0.0008337567    1.884    0.469
        53 -12.8416    188.0342     39.4912   5.6143331294e+01   3.3190950879e+01    0.7851587    0.5463126  52.72  0.001050568    1.449    0.310
        54  -9.5491     77.8842    243.2747   1.2034673606e+02   1.7101575782e+01    0.1460764    0.1001802  49.62   0.00108384    1.147    0.128
        55 -10.7110    210.7565    179.5338   8.7539677225e+01   5.8639705398e+00    0.3337784     0.213138  -9.26  0.001729348    1.891    0.471
        56 -11.7957     21.4508     33.9168   1.0475595643e+02   6.7580016863e+01    0.3480897    0.1908739  40.74   0.00188595    2.452    0.592
        57  -9.4994     84.1414    233.7534   1.1855795055e+02   1.7787484549e+01    0.1775719    0.1056829  47.34 0.0007343649    1.298    0.230
        58 -10.9799    156.9368     51.2617   6.5576051379e+01   3.9571877032e+01    0.3662047    0.2962079 -73.39   0.00103043    1.473    0.321
        59  -9.9330    189.6729     15.0139   4.8240842002e+01   3.5707230578e+01    0.2028987    0.1812429 -31.66 0.0006501194    1.134    0.118
        60 -14.9864     72.1612    152.8204   1.1262587314e+02   3.4918965734e+01     14.89898      7.16033  81.59  0.009168331    3.789    0.736
        61 -11.5069     70.6815    180.7533   1.1628694316e+02   2.9192571260e+01    0.3334319    0.2248976 -42.57  0.001376402    2.193    0.544
