#   1 NUMBER                 Running object number                                     
#   2 MAG_AUTO               Kron-like elliptical aperture magnitude                    [mag]
#   3 X_IMAGE                Object position along x                                    [pixel]
#   4 Y_IMAGE                Object position along y                                    [pixel]
#   5 X_WORLD                Barycenter position along world x axis                     [deg]
#   6 Y_WORLD                Barycenter position along world y axis                     [deg]
#   7 A_WORLD                Profile RMS along major axis (world units)                 [deg]
#   8 B_WORLD                Profile RMS along minor axis (world units)                 [deg]
#   9 THETA_WORLD            Position angle (CCW/world-x)                               [deg]
#  10 FWHM_WORLD             FWHM assuming a gaussian core                              [deg]
#  11 ELONGATION             A_IMAGE/B_IMAGE                                           
#  12 ELLIPTICITY            1 - B_IMAGE/A_IMAGE                                       
         1 -13.7870    219.6568     26.0081   9.5428625267e+00   2.6353888541e+01    0.9509946    0.8378523 -31.74  0.004112645    1.171    0.146
         2 -11.7231     47.2781      2.7440   3.6476818590e+01   7.0905825868e+01    0.3271465    0.1751821  51.86  0.001616776    2.110    0.526
         3 -10.6236     90.2201    247.2755   8.0390543021e+01   1.3918400943e+01    0.1467291    0.1417117 -88.34 0.0006595433    1.354    0.261
         4 -19.6174     16.2625    149.1724   8.9038192921e+01   4.2071690067e+01     17.32737      4.77948 -81.28   0.06406531    3.573    0.720
         5 -10.8549    149.7275    220.9986   6.5754768319e+01   9.5075569522e+00    0.1742539    0.1499681  27.68  0.001183686    1.078    0.073
         6 -10.1511    144.2764    209.3655   6.5254885247e+01   1.2198456127e+01    0.1247902   0.09286044   0.69 0.0007007825    1.673    0.402
         7 -10.1573     61.3354    202.0450   8.2484122946e+01   2.5700618859e+01    0.1650026    0.1267304  71.59 0.0006286349    1.186    0.157
         8 -10.3426     51.2839    201.1289   8.4631491276e+01   2.7108241753e+01    0.3151959    0.1365741 -67.63  0.001592621    2.389    0.581
         9 -10.5890     49.4476    195.1435   8.4559772930e+01   2.8540312702e+01     0.289718     0.141999  49.91 0.0008049965    1.710    0.415
        10  -9.7920    210.9902    198.7255   5.0478348826e+01   3.1729774382e+00     0.193749    0.1567397  -4.41 0.0004753225    1.132    0.117
        11  -9.6449     69.8538    196.2849   8.0029821832e+01   2.5761491390e+01    0.3893678    0.1550184 -76.45  0.001616008    3.292    0.696
        12 -15.4734     70.5725    143.5648   7.3275166373e+01   3.7339272548e+01     2.261887     1.769234  72.18    0.0124106    1.294    0.227
        13 -10.2293    143.3271    196.6736   6.3581414737e+01   1.4492544663e+01    0.1316211   0.09714106  62.97 0.0007050052    1.699    0.411
        14  -9.7550    193.3177    194.9918   5.3111836764e+01   6.4798709581e+00    0.1796672    0.1035411 -59.41 0.0007045256    4.243    0.764
        15 -10.9347     54.9699    191.3931   8.2979978364e+01   2.8656350859e+01    0.3848285     0.190204 -81.55  0.001887711    2.229    0.551
        16  -8.7937    175.7064    192.2654   5.6099416043e+01   9.7978288250e+00    0.1184064   0.09866122  56.08            0    1.507    0.336
        17 -10.4583     59.9085    245.4555   8.6016052880e+01   1.7990536060e+01    0.1358964    0.1237634  82.37 0.0001034945    1.337    0.252
        18 -11.5610     51.2599    245.8777   8.7661275156e+01   1.8927381328e+01    0.1427748    0.1243543  75.53 0.0006447592    1.282    0.220
        19 -11.2110    141.7629    183.5835   6.1838314011e+01   1.7092656127e+01    0.2427098    0.1684271 -33.69 0.0009008155    1.700    0.412
        20  -9.1591     78.4869    184.0299   7.6683662100e+01   2.7114666840e+01    0.1672542    0.1252782 -75.75 0.0003574131    1.412    0.292
        21 -12.1208     56.4117    180.9283   8.1657548259e+01   3.0699044299e+01    0.3754634    0.3134518 -26.64  0.001261268    1.691    0.409
        22 -10.5680    174.5267    180.4901   5.4263904932e+01   1.1897796456e+01    0.2924915    0.2436558 -28.48  0.001102346    1.280    0.219
        23 -11.1105    172.6072    176.8286   5.3989927782e+01   1.2846564524e+01    0.5054208    0.3221003 -28.42  0.002564671    1.760    0.432
        24 -12.1087     97.2028    177.8797   7.1369222939e+01   2.5628316770e+01    0.5570607    0.3048868 -68.55  0.002595934    2.182    0.542
        25  -9.6658     74.0496    180.7510   7.7369085869e+01   2.8428629826e+01    0.1779853    0.1538864  57.58 0.0004938605    1.017    0.017
        26  -9.8432     63.4614    181.4249   8.0007368780e+01   2.9700286179e+01    0.1504008    0.1440229 -16.94 0.0009923246    1.351    0.260
        27 -12.8271    112.0386    169.5997   6.6491644684e+01   2.4949097410e+01    0.8997558     0.557723  88.81  0.003739134    2.805    0.643
        28 -11.7672    140.5054    172.8300   6.0283615504e+01   1.9326369762e+01      0.37066    0.2896962 -89.15  0.001755649    1.814    0.449
        29 -11.4067    180.9765    170.5067   5.1073455264e+01   1.2403199996e+01    0.5500321    0.3658004  38.24  0.002887632    1.390    0.281
        30 -10.4910    179.3128    166.6650   5.0666265296e+01   1.3349169676e+01    0.3077335    0.2196697  31.24 0.0008784566    1.296    0.228
        31 -10.3306     86.2385    240.3859   8.0588896457e+01   1.5537881117e+01    0.1733408    0.1186543 -55.17  0.000683498    1.905    0.475
        32  -9.8988     52.1122    164.8332   8.1066871398e+01   3.4795144049e+01    0.1939797    0.1493797  66.00 0.0003230453    1.170    0.145
        33 -12.2285     94.8278    158.9714   6.9121921223e+01   3.0090734287e+01    0.4166569    0.3029795  73.89  0.001316568    1.584    0.369
        34  -9.8300     99.6600    160.1338   6.8058858307e+01   2.9045900836e+01    0.2077359    0.1780799  70.48 0.0008455574    1.178    0.151
        35 -10.5394    113.2716    151.7797   6.3084965834e+01   2.8539208234e+01    0.4466203    0.2687546  85.21  0.001579703    3.517    0.716
        36 -11.9049    133.6094    144.9769   5.6590280668e+01   2.6193879748e+01    0.9910896    0.2975402 -53.16  0.002890611    4.283    0.766
        37 -11.1242     89.0817    149.5150   6.9096946190e+01   3.3151317604e+01    0.2562594    0.2379303  54.48 0.0003834119    1.038    0.037
        38 -12.5409     94.7246    144.4058   6.6666043231e+01   3.3403792000e+01    0.7157915    0.4844489 -32.60  0.003029987    1.962    0.490
        39 -10.3002    115.5119    147.9779   6.1785627616e+01   2.8964279939e+01    0.2736201    0.2140259  72.09 0.0007123121    1.499    0.333
        40 -11.6925    108.9458    145.3052   6.2994096076e+01   3.0739374967e+01    0.3589201    0.3149223  38.72 0.0006581433    1.106    0.096
        41  -9.1813    113.2976    144.6695   6.1720647882e+01   3.0094390604e+01     0.204402    0.1519483 -78.42 0.0005775766    1.667    0.400
        42  -9.7650    129.1220    139.8828   5.6644597962e+01   2.8141809257e+01     0.217965    0.1967347  74.46  0.001166437    1.211    0.174
        43 -12.3790    106.1612    132.0731   6.1093862534e+01   3.4229755211e+01    0.6597163     0.423421 -58.33  0.002476802    1.643    0.391
        44  -9.5784    114.5361    135.0233   5.9426242688e+01   3.2006122140e+01    0.2125849    0.1475828 -52.25 0.0003827769    1.492    0.330
        45 -11.7609     94.8712    131.3960   6.4142199281e+01   3.6395701047e+01    0.2779413    0.2624406 -52.13 0.0002998065    1.105    0.095
        46 -11.5423    135.4113    130.6899   5.3021401744e+01   2.8833832041e+01    0.4637324    0.2692465 -53.87  0.001943763    1.927    0.481
        47 -10.1492    161.0629    127.2012   4.6068293364e+01   2.4161731503e+01    0.2909578    0.1989884 -23.20  0.001307894    1.714    0.417
        48 -10.5802    131.0453    125.9945   5.3047986112e+01   3.0725076468e+01    0.2361437    0.1866123  -0.76 0.0004919561    1.621    0.383
        49 -10.8144    114.3046    125.6781   5.7443225866e+01   3.4141852507e+01    0.2853006    0.2598722   4.86 0.0006955729    1.220    0.180
        50 -10.6144    101.9032    120.7760   5.9840578885e+01   3.7611032521e+01    0.2906152    0.2449119   3.43 0.0007561048    1.446    0.309
        51 -10.1538    156.0298    111.3740   4.3291341988e+01   2.8337772537e+01    0.3235743     0.235898 -60.65  0.001034989    1.676    0.403
        52 -10.0195    162.3133    119.7169   4.3970644744e+01   2.5332642444e+01    0.2777174    0.2367047 -75.53 0.0005888646    1.460    0.315
        53  -9.6076    159.5007    115.8709   4.3644689448e+01   2.6691759721e+01    0.2646297    0.2139373  69.65 0.0004104008    1.484    0.326
        54 -11.5883     66.8023    116.7715   6.9753405880e+01   4.4360377937e+01    0.4888715    0.2693621  49.09  0.001489045    1.940    0.485
        55 -10.2610    109.8364    115.9102   5.6415389183e+01   3.7216311143e+01    0.2245173    0.2046151  -9.23 0.0003154669    1.225    0.184
        56  -9.6399     92.2206    111.2763   6.0541678860e+01   4.1590917124e+01    0.2031458    0.1701227  74.14 0.0004434595    1.331    0.249
        57 -11.8001    115.3731    108.3362   5.2948524788e+01   3.7805798930e+01     0.512008    0.3232825  65.16   0.00195616    2.207    0.547
        58 -10.5572     78.1623    105.1526   6.3573965481e+01   4.5449667985e+01     0.254388    0.2078386  -5.39 0.0008114671    1.535    0.349
        59  -9.9060     81.7689    102.5842   6.1777065833e+01   4.5466186230e+01    0.2496555    0.1669667  63.72 0.0008744276    1.912    0.477
        60 -10.5785    134.4985    105.0502   4.6889908693e+01   3.4422953847e+01    0.4095679    0.1533618 -43.89  0.001354981    2.704    0.630
        61 -10.6743     74.3609     99.9726   6.3611573433e+01   4.7305190693e+01    0.3246635    0.2113554  41.15 0.0008741074    1.576    0.365
        62  -9.8189    111.3101     98.6510   5.1541804538e+01   4.0786618658e+01    0.1589377    0.1236205  89.58 0.0007044883    1.713    0.416
        63  -9.2924     73.5692     95.2270   6.2714586977e+01   4.8567442287e+01    0.1977676    0.1316962 -45.35 0.0002861653    1.488    0.328
        64  -9.2400    113.5069     94.5141   4.9744205769e+01   4.1229982720e+01    0.1531118    0.1511539   6.68 0.0008104203    1.018    0.018
        65 -10.0712    127.2800     89.1974   4.4337035411e+01   3.9318780684e+01     0.272486    0.2357196 -83.45  0.000432985    1.360    0.265
        66 -12.2641    248.9118    235.6166   5.0079676973e+01  -6.2258046126e+00    0.4362699    0.1591466 -30.41    0.0012227    2.790    0.642
        67 -10.0272     98.2284     88.1770   5.2569896424e+01   4.5764547957e+01    0.2962249    0.2007536  68.48  0.001088805    2.089    0.521
        68 -10.6407     59.8249     86.2704   6.5386152589e+01   5.2778028334e+01    0.2433772    0.2016638 -55.93 0.0005957971    1.129    0.114
        69 -12.2000     54.3633    239.2506   8.6678797615e+01   1.9680083890e+01    0.3336896    0.1534077  48.94   0.00149792    1.616    0.381
        70 -12.7214     52.9276    232.0700   8.6502248277e+01   2.1089358788e+01    0.2546874    0.1523607 -65.34  0.001035929    1.979    0.495
        71 -11.0423     47.1412    233.7229   8.7732319257e+01   2.1465106384e+01    0.3285122    0.1526504  52.25  0.001936942    1.657    0.396
        72 -11.8760     47.1729    229.0786   8.7445048442e+01   2.2283166905e+01     0.239296    0.1300915  53.83  0.001131149    1.434    0.303
        73 -10.2059    119.3812     82.2088   4.4407455239e+01   4.2534508613e+01    0.2732226     0.239873  78.31 0.0005274966    1.296    0.228
        74 -12.6725    176.7038     65.7689   2.6245650784e+01   3.1515220587e+01    0.5201098    0.4493577 -41.96 0.0009498493    1.135    0.119
        75 -13.6247    193.0818     52.9026   1.9902613328e+01   2.9351818664e+01      1.25446    0.9511417  35.88   0.00379496    1.534    0.348
        76 -12.2539    198.9073     47.3324   1.7537474424e+01   2.8682905784e+01    0.5954831     0.377622  43.16   0.00173414    1.826    0.452
        77  -9.3863    133.7772     57.8203   3.2619572128e+01   4.3650617892e+01    0.2072553    0.1792202 -73.57 0.0003353788    1.311    0.237
        78 -12.3058     58.7857    232.3831   8.5371168965e+01   2.0341709467e+01    0.1872215    0.1625029  75.90 0.0005361473    1.228    0.185
        79 -11.2952    158.6671    222.3921   6.4167371934e+01   7.9309840626e+00     0.212728    0.1565682 -35.48  0.001352653    1.627    0.385
        80 -11.1211     73.5000     50.4509   4.8583038484e+01   5.8465317762e+01    0.2515106    0.2353531 -20.88  0.000648391    1.033    0.032
        81 -10.9578     75.3113     47.0447   4.6531394661e+01   5.8777506168e+01    0.3085997    0.2406699  31.78 0.0007125257    1.291    0.225
        82  -9.4237     83.4602    223.1642   7.9641589308e+01   1.8835727917e+01     0.147784    0.1143998 -81.37 0.0004564913    1.472    0.321
        83 -10.7921     83.4632     45.0087   4.2668226842e+01   5.7537092360e+01    0.6391071    0.3158384  63.16  0.002028918    4.130    0.758
        84 -10.5942     70.1508     44.9727   4.7721434394e+01   6.0131294393e+01    0.2340899    0.1999173  35.41 0.0004604595    1.196    0.164
        85  -9.3550    113.8374     39.8097   3.1093856459e+01   5.1490674051e+01     0.199319    0.1763303 -84.34 0.0004653577    1.309    0.236
        86 -10.6032     71.4845    222.8215   8.2086990550e+01   2.0467852888e+01    0.1632454    0.1118008 -69.79 0.0004623859    1.679    0.404
        87 -10.8206     60.8060     21.0677   4.0669162072e+01   6.5930949353e+01    0.2304643    0.1892325  34.90 0.0007119206    1.203    0.169
        88 -11.7581     88.1620    220.2827   7.8390572533e+01   1.8710980421e+01    0.4238071    0.3013071  42.73  0.001373295    1.136    0.120
