#   1 NUMBER                 Running object number                                     
#   2 MAG_AUTO               Kron-like elliptical aperture magnitude                    [mag]
#   3 X_IMAGE                Object position along x                                    [pixel]
#   4 Y_IMAGE                Object position along y                                    [pixel]
#   5 X_WORLD                Barycenter position along world x axis                     [deg]
#   6 Y_WORLD                Barycenter position along world y axis                     [deg]
#   7 A_WORLD                Profile RMS along major axis (world units)                 [deg]
#   8 B_WORLD                Profile RMS along minor axis (world units)                 [deg]
#   9 THETA_WORLD            Position angle (CCW/world-x)                               [deg]
#  10 FWHM_WORLD             FWHM assuming a gaussian core                              [deg]
#  11 ELONGATION             A_IMAGE/B_IMAGE                                           
#  12 ELLIPTICITY            1 - B_IMAGE/A_IMAGE                                       
         1 -14.8298    161.1042     48.7758   7.7063397473e+01   3.8837171950e+01     1.289413     1.133799  -1.15  0.003681082    1.132    0.117
         2 -15.0539    174.1238     18.7527   6.4399053105e+01   3.9223641955e+01     1.568271         1.33 -48.14  0.005857468    1.278    0.217
         3 -14.2399    191.3631     16.0761   6.1017780850e+01   3.4913356993e+01     2.284846    0.9951186 -66.57  0.006185111    5.529    0.819
         4 -10.6111     37.4857    247.8373   1.3973730198e+02   2.2034298284e+01    0.1145497   0.07450544  78.72 0.0007157177    1.399    0.285
         5 -20.1945     78.3446    174.7590   1.2697667160e+02   2.9787871190e+01     13.50986     6.730136 -69.24   0.07125384    2.162    0.538
         6  -9.9065     29.8319    200.2525   1.3882546240e+02   3.0394054352e+01    0.1132935   0.09914034  65.85 0.0002434618    1.227    0.185
         7 -10.5069    133.7475    198.4457   1.1812353284e+02   1.7590967266e+01     0.307149    0.2178778   8.93  0.001755969    1.949    0.487
         8 -10.3569     21.2287    194.6062   1.4013745935e+02   3.2174178685e+01    0.1057231   0.08514647  49.84 0.0001698939    1.242    0.195
         9 -12.1204    121.1039    197.4767   1.2056758618e+02   1.9679932751e+01    0.2024451    0.1928374  77.54 6.080195e-06    1.197    0.165
        10 -12.1042    203.4729    174.4207   1.0028306684e+02   9.3924922566e+00    0.5041485    0.2196112 -49.43  0.001800152    4.740    0.789
        11 -12.5332    195.1526    172.6576   1.0156808276e+02   1.1124350803e+01    0.4470904    0.3265591 -53.06  0.002042394    2.055    0.513
        12 -12.1997    192.3547    165.1259   1.0069233339e+02   1.2733046104e+01    0.4515935     0.313558 -52.51  0.002329169    2.113    0.527
        13 -11.9940    224.8676    174.8798   9.6389053717e+01   5.6003929451e+00    0.2060578    0.1470178  13.40 0.0005062015    1.204    0.169
        14 -11.5657    207.6140    171.4633   9.8933931498e+01   9.0617021043e+00     0.294031     0.217549 -48.01 0.0008331618    1.953    0.488
        15  -9.7931     40.2682    244.8765   1.3917061410e+02   2.2188316510e+01    0.1357472   0.07686955  59.67  0.001054098    1.304    0.233
        16 -13.0175    162.5357    167.5277   1.0731354028e+02   1.7818733710e+01    0.3635019    0.2726249  60.83  0.001907359    1.669    0.401
        17 -10.2946      5.8772    162.1293   1.4159365152e+02   3.9486039693e+01    0.1605743    0.1065168  65.25 0.0006621142    1.220    0.181
        18 -12.8503    189.2085    154.7703   9.9274512159e+01   1.4898478723e+01    0.5548273    0.4186099  23.39  0.002144675    1.196    0.164
        19 -12.8998    166.2078    154.5444   1.0408513057e+02   1.9321152679e+01     0.404083     0.298023  63.71  0.001838043    1.826    0.452
        20  -9.6065     31.3067    247.4916   1.4068856647e+02   2.2686583366e+01   0.08986209   0.06194201  63.49 0.0002196936    1.085    0.078
        21 -12.4311    135.7931    237.2187   1.2224944047e+02   1.1622889811e+01    0.2769636    0.2549032  66.29  0.001483654    1.321    0.243
        22 -11.1327     17.9608    154.0021   1.3856372362e+02   4.0206852856e+01    0.1983299    0.1396803 -70.70 0.0004564219    1.370    0.270
        23 -11.3925     18.6573    149.0686   1.3808578756e+02   4.1162221464e+01    0.2694017    0.2375493  62.52  0.001900694    1.181    0.153
        24 -12.3818    174.0989    148.4510   1.0114948012e+02   1.8836712360e+01     0.404967    0.3280478 -57.18  0.001408364    1.632    0.387
        25 -11.5411    128.5043    244.5531   1.2426325203e+02   1.1669026078e+01    0.1162214    0.1067178 -87.09 0.0009752653    1.429    0.300
        26 -10.9584    168.2199    134.8981   9.9543226514e+01   2.2337489012e+01    0.2103517    0.1989971  64.33 0.0005370745    1.262    0.208
        27 -10.4113      3.2520    134.7593   1.4074240069e+02   4.5203009196e+01    0.1376804    0.1081606 -64.04  0.000847767    1.346    0.257
        28 -13.0259    160.5660    128.0770   9.9751136735e+01   2.5121729357e+01     0.463588    0.3559358 -52.54  0.001718667    1.549    0.354
        29 -11.4321     27.6196    231.4143   1.4064265556e+02   2.5449919989e+01    0.1406502    0.1060951  76.37 0.0008794211    1.201    0.167
        30 -10.4747     33.6019    228.4425   1.3952768927e+02   2.5342095977e+01   0.09898953   0.06740005  60.87 0.0003496734    1.061    0.057
        31 -11.8080    109.5580    244.4813   1.2755367191e+02   1.4207452756e+01    0.1394539    0.1168008 -59.35 0.0006104444    1.612    0.380
        32 -10.4049     32.7242    221.4965   1.3935830352e+02   2.6534533641e+01    0.1754691    0.1318715 -69.13  0.001448587    1.635    0.388
        33 -11.1384    231.2634    113.7119   8.2038658804e+01   1.2574086123e+01    0.2634445    0.2127863  12.67 0.0007977266    1.124    0.111
        34 -11.3715    167.5289    112.5586   9.4426326004e+01   2.6475909397e+01    0.3083974    0.2715123  89.73  0.001470828    1.518    0.341
        35 -11.1038    217.7238    218.0125   1.0506872512e+02   1.7236836879e+00    0.1611115    0.1251473  12.68  0.000556656    1.131    0.116
        36 -11.1211    204.9710    110.5179   8.6020569143e+01   1.8600332384e+01    0.3711043    0.2274519  32.56  0.001208524    1.641    0.391
        37 -10.9117     24.4992    215.1567   1.4048641208e+02   2.8345686931e+01    0.1235445   0.09139199  65.50 0.0003018399    1.038    0.036
        38 -12.2565     25.1235    106.6883   1.3270191688e+02   4.9876630869e+01    0.3350678    0.2474729   4.77  0.002147915    1.786    0.440
        39 -13.1682     11.6478    205.7480   1.4233335754e+02   3.1050474060e+01    0.3559706    0.2547142  20.35  0.002793357    1.953    0.488
        40 -13.0248     45.2744     93.2206   1.2462938020e+02   5.1269323274e+01    0.5593181    0.3136084   8.05    0.0024326    2.615    0.618
        41 -11.8698      6.2099     89.0550   1.3645226307e+02   5.5014577634e+01    0.4969768    0.2203116 -12.98  0.002310042    3.878    0.742
        42 -10.9812    139.9948    202.0595   1.1734458652e+02   1.6049384498e+01    0.2609873    0.1733283 -58.42  0.001186958    1.958    0.489
        43 -14.3974    149.6395     63.4649   8.4582826504e+01   3.9366146461e+01     1.575053     1.074734  25.27  0.004442174    1.656    0.396
        44 -10.6898     24.7480    202.7861   1.3988181599e+02   3.0419991856e+01     0.131033    0.1005722  76.24 0.0003464327    1.114    0.103
        45 -13.4244    165.5080     39.9803   7.3172860379e+01   3.8942878974e+01    0.5052143    0.4757823  49.90 0.0008360816    1.077    0.072
        46 -11.1166     13.5744     59.9075   1.3004571400e+02   6.1261711007e+01    0.1806577    0.1715341  51.08 0.0003952624    1.288    0.224
        47 -10.4344    115.5647    248.4455   1.2685395516e+02   1.2890547508e+01    0.1036826   0.09325785  35.98 0.0008656571    1.293    0.227
