#   1 NUMBER                 Running object number                                     
#   2 MAG_AUTO               Kron-like elliptical aperture magnitude                    [mag]
#   3 X_IMAGE                Object position along x                                    [pixel]
#   4 Y_IMAGE                Object position along y                                    [pixel]
#   5 X_WORLD                Barycenter position along world x axis                     [deg]
#   6 Y_WORLD                Barycenter position along world y axis                     [deg]
#   7 A_WORLD                Profile RMS along major axis (world units)                 [deg]
#   8 B_WORLD                Profile RMS along minor axis (world units)                 [deg]
#   9 THETA_WORLD            Position angle (CCW/world-x)                               [deg]
#  10 FWHM_WORLD             FWHM assuming a gaussian core                              [deg]
#  11 ELONGATION             A_IMAGE/B_IMAGE                                           
#  12 ELLIPTICITY            1 - B_IMAGE/A_IMAGE                                       
         1 -14.4455     69.4630     37.8282   6.6383965335e+01   6.0576805468e+01     3.254042     1.123949  40.92   0.01281695    2.699    0.629
         2 -14.8500     24.2673     57.0381   9.2927308499e+01   6.3358070651e+01      2.87666     1.265203 -28.12   0.01241684    2.589    0.614
         3 -14.5285      8.0805     21.2607   8.8308034693e+01   7.1249826146e+01     1.491558    0.8946205 -10.09  0.009259823    1.503    0.335
         4 -13.2875     25.0306     10.8527   7.3862791860e+01   7.1032633493e+01    0.7254065    0.4827964 -11.48   0.00472882    1.302    0.232
         5 -11.2851     64.0154     17.5856   5.9825287717e+01   6.4159740839e+01     0.471865    0.2371614  33.12   0.00235297    1.866    0.464
         6 -12.5555    108.0974      3.4606   4.2065337011e+01   5.6223148937e+01     1.641173    0.3676398  63.50   0.00569434    3.617    0.724
         7 -13.2068     75.6281     13.7687   5.4249688494e+01   6.2327942345e+01    0.5847126    0.3898192  59.36  0.001563357    1.613    0.380
         8 -13.9918     85.0029     10.2648   5.0049838404e+01   6.0732559258e+01     1.388636    0.9041664  59.70  0.007905903    1.479    0.324
         9 -12.8326     89.3845      2.1311   4.5646651405e+01   6.0470475545e+01    0.7939904    0.3072045  65.30   0.00340342    2.637    0.621
        10 -11.9484    123.7647     11.0256   4.1700577668e+01   5.1986313515e+01     0.285817    0.2593405  46.62 0.0009997449    1.107    0.096
        11 -10.5762    242.3067      9.9881   2.8460424192e+01   2.5514596209e+01    0.1923563   0.03377565 -50.13 0.0007030464    4.137    0.758
        12 -10.7032    150.7314      8.9786   3.6857443118e+01   4.5806222175e+01    0.2256793    0.1612431  72.83 0.0006787487    1.199    0.166
        13 -11.9692     34.3684      5.7169   6.6482059463e+01   7.0375115254e+01    0.4938623    0.2418043 -20.90  0.002689365    2.089    0.521
        14 -11.8623     39.3500      1.9085   6.2184054125e+01   7.0010191174e+01    0.4745609    0.1987004  35.32  0.002007681    2.043    0.511
        15 -10.1495    178.5720      8.5113   3.3416547275e+01   3.9331298391e+01    0.1230313    0.1043761  86.84 7.782661e-05    1.039    0.037
        16 -11.1418     11.7794      2.5466   7.7008705346e+01   7.3619335743e+01    0.2150432    0.1521275 -13.31 0.0007233676    1.134    0.118
        17 -11.9795      6.6298      2.0788   7.9938367233e+01   7.4200513930e+01    0.5283393    0.2561021 -14.61  0.002584826    2.201    0.546
        18 -11.4575    138.3047      5.0719   3.7461665046e+01   4.9080277140e+01     0.524865    0.1813012  63.90  0.001944295    2.280    0.561
        19 -11.7801     74.2423      1.7009   4.9462628039e+01   6.3672716330e+01    0.3049071    0.1588662  61.02  0.001106212    1.907    0.476
        20 -13.9504    142.4321     76.2028   5.8251251526e+01   3.8828490909e+01     0.732798    0.5591854  24.24  0.002571439    1.591    0.371
        21 -12.1231     40.4321     81.8617   9.3128216060e+01   5.6447183140e+01    0.3688007    0.2326791  15.30  0.001864205    1.745    0.427
        22 -14.4320     81.7335     75.7560   7.5621135501e+01   5.1782922725e+01     1.035628    0.5159659  33.07   0.00425388    2.114    0.527
        23 -14.8558     97.0066     72.3340   6.9430934042e+01   4.9545400928e+01     1.278856    0.8426953  49.83   0.00250242    1.610    0.379
        24 -13.9245    118.9962     64.3777   6.0438044700e+01   4.6267110684e+01    0.6088976    0.3707427  42.79   0.00276783    1.602    0.376
        25 -13.0322     59.0055     74.0183   8.3461816735e+01   5.5815061999e+01    0.5281572    0.3167456  24.55  0.002522326    1.761    0.432
        26 -13.8305     84.3817     61.2039   6.9827028748e+01   5.4049045242e+01    0.7791054    0.4377049  30.17  0.003442168    1.920    0.479
        27 -14.0000     69.6719     68.3809   7.7554865042e+01   5.5314904047e+01    0.8622127    0.5037717  12.16  0.003594157    2.428    0.588
        28 -14.3746     76.6100     57.6466   7.1289617294e+01   5.6113013542e+01    0.9450944     0.640236   7.44  0.004567801    1.799    0.444
        29 -12.9976     68.8035     54.3759   7.2982386271e+01   5.8051169437e+01    0.4078278    0.3755697 -51.70  0.001328733    1.362    0.266
        30 -13.5478     72.8421     52.3048   7.0715440053e+01   5.7704236156e+01    0.5974337    0.3866711 -33.68  0.003062513    1.538    0.350
        31 -13.1279    150.9396     74.6325   5.5889007470e+01   3.7110935566e+01    0.4607677    0.3841529 -10.41  0.001743231    1.433    0.302
        32 -12.8281     80.9450     67.6847   7.3238647501e+01   5.3499295981e+01    0.3680373    0.2925298 -12.88  0.001955373    1.295    0.228
        33 -13.1120      9.1435     63.7778   1.0175671012e+02   6.3061727957e+01    0.4513511    0.2870094 -43.39  0.002675515    1.243    0.195
        34 -14.0140    118.3453     70.4973   6.2564561193e+01   4.5351911128e+01    0.5395343    0.4617576 -61.50  0.002840507    1.341    0.254
        35 -11.2858    246.5231    183.3639   6.3095537692e+01  -1.8960915551e+00    0.2390537    0.1544809 -33.31 0.0006871854    1.290    0.225
        36 -12.2734    202.9118    171.8235   6.8734292993e+01   7.0143430985e+00    0.3354239    0.1947236 -44.87  0.001550549    1.675    0.403
        37 -13.4706     42.0338     42.9664   7.9759988648e+01   6.4054920344e+01    0.7375336    0.3829078  15.49  0.002227272    2.289    0.563
        38 -10.8061    170.1068     62.6941   4.8796414633e+01   3.4539997747e+01    0.2338961    0.1855776 -57.00 0.0003686975    1.264    0.209
        39 -10.9738    166.0193     62.9836   4.9608861744e+01   3.5462964980e+01    0.2114723    0.2018567  69.37 0.0003226122    1.062    0.059
        40  -9.4780    214.2947     61.3443   4.1856994118e+01   2.4699690786e+01    0.1226866    0.1055274  13.31 0.0003254394    1.665    0.399
        41 -12.4366     92.8884     56.8914   6.5512142875e+01   5.3121921593e+01    0.4016261    0.3160054 -59.74 0.0009739039    1.668    0.401
        42 -13.7851     55.9559     56.8515   7.8939706952e+01   5.9645881614e+01    0.5868762    0.3857608 -30.87  0.002939258    1.443    0.307
        43 -12.5190    122.9049     57.8976   5.7341003737e+01   4.6437586610e+01    0.4630609    0.2036566  43.57  0.001786633    2.283    0.562
        44 -10.6684    174.1837     56.6268   4.6471160496e+01   3.4499179011e+01     0.221163    0.1792528 -55.28 0.0005324687    1.213    0.175
        45 -10.2704    208.5726     55.3135   4.1186329779e+01   2.6826518419e+01     0.213548    0.1151899  64.93 0.0004577041    1.868    0.465
        46 -11.4614    132.3908     53.4590   5.3658614356e+01   4.4915202916e+01    0.3264529    0.1731109  63.14 0.0009862331    2.023    0.506
        47 -11.4850    154.9119     52.0441   4.8583343401e+01   3.9762043760e+01    0.2314833    0.1924897  69.26   0.00031038    1.146    0.127
        48 -13.4425      3.1263     46.4634   9.9964464025e+01   6.6992778335e+01    0.7109417    0.5571933  65.56  0.003711051    2.069    0.517
        49 -12.4157      2.3423     38.5242   9.7944426579e+01   6.8582054909e+01    0.4325008    0.3417034 -55.64  0.001926379    1.381    0.276
        50 -12.3756    241.3065    170.7218   6.1498727148e+01   9.7127271875e-01    0.3976123    0.1672067 -46.43  0.001687494    2.435    0.589
        51 -12.7008    233.3403    163.7523   6.1446059174e+01   3.4126869466e+00    0.3830151    0.2799501  50.60  0.002133822    1.760    0.432
        52 -11.9382    145.5019     50.7080   5.0012848180e+01   4.2206786477e+01    0.2655614    0.2490181  75.35 0.0006777425    1.025    0.024
        53 -10.1433    137.3291     48.2858   5.0959715055e+01   4.4499385793e+01     0.144039    0.1036178  31.08 0.0004312433    1.612    0.380
        54 -11.4187    122.2803     43.7519   5.2869296415e+01   4.8664903572e+01    0.2546801    0.2226334   6.88  0.000718107    1.257    0.204
        55 -10.8824    156.6021     43.7001   4.5882570357e+01   4.0517959869e+01    0.2622315    0.1705997  60.57 0.0008711665    1.422    0.297
        56 -10.5956    141.2151     43.8497   4.8795951077e+01   4.4185378943e+01    0.1934833    0.1581903  33.27 0.0006746926    1.335    0.251
        57 -10.1361    204.5066     43.4773   3.8923556004e+01   2.9372722666e+01    0.1299382    0.1135113 -76.06 8.275351e-06    1.024    0.024
        58  -9.7831    197.4477     40.5009   3.9068051713e+01   3.1351094077e+01    0.1306411    0.1141088 -77.71 0.0002802301    1.012    0.012
        59 -11.7084    217.9033     38.2350   3.6257424619e+01   2.7141249524e+01    0.2624779    0.1859844  66.65 0.0003773584    1.442    0.306
        60 -10.5350    130.2722     38.5193   4.9376024244e+01   4.7484851189e+01    0.2415147    0.1572198 -43.61  0.001210853    1.686    0.407
        61  -9.9271    159.8264     36.3762   4.3265462822e+01   4.0691525044e+01    0.1754327    0.1134754  55.36 9.531907e-05    1.457    0.314
        62 -10.2366    144.3180     34.9853   4.5512880924e+01   4.4581703998e+01    0.1829285    0.1720928  79.71 0.0004628254    1.047    0.045
        63 -10.2920    140.3206     35.2945   4.6348982173e+01   4.5500155413e+01    0.1393176   0.09754351  35.34 0.0002623841    1.612    0.380
        64 -10.6165    249.4383     31.9588   3.2145134185e+01   2.1556629461e+01    0.1694613    0.1313183 -76.36 0.0003625814    1.109    0.098
        65 -13.1726     42.2719     47.7696   8.1483172333e+01   6.3182447337e+01    0.4821221    0.3578115   8.04  0.001692647    1.273    0.215
        66 -12.4520     83.7115     22.9054   5.5548767700e+01   5.9729927568e+01    0.3527204    0.2571613  38.69 0.0008588547    1.184    0.155
        67 -11.4390    241.8546     22.4054   3.0874603908e+01   2.4187400467e+01    0.2172358    0.1698413 -73.72 0.0004178235    1.050    0.048
        68 -10.9835     32.8893     20.6760   7.4601403372e+01   6.8715653583e+01    0.2228479    0.1650464 -35.80            0    1.519    0.342
        69 -10.6984    153.8901     19.8466   3.9502056715e+01   4.4000336618e+01    0.1870486    0.1597807  57.08 0.0003100059    1.152    0.132
        70 -13.4778    244.1230    154.3434   5.7757821777e+01   3.3425452838e+00     0.843381    0.5356348  31.11  0.004543487    1.894    0.472
        71 -13.1872    248.6482    141.9812   5.4552451844e+01   4.7431109198e+00     1.060502    0.3612695 -43.50  0.004258693    2.504    0.601
        72 -11.9763    249.0280    131.4759   5.2354361876e+01   6.4707246832e+00    0.6002697    0.3262127 -45.30  0.003047656    1.585    0.369
        73 -12.5049     47.0202    142.4836   1.0348115964e+02   4.0727582465e+01    0.4618279    0.2361618  15.63   0.00189645    2.613    0.617
        74 -10.6305    175.3216     14.9132   3.5380959263e+01   3.9448004320e+01    0.1682426    0.1526802 -73.25 0.0005811327    1.120    0.107
        75 -10.1378    157.8549     14.1364   3.7345055007e+01   4.3633914596e+01    0.1656873    0.1338861  53.21 0.0002447272    1.255    0.203
        76 -13.6652    204.6950    125.2978   5.8195152885e+01   1.5687583980e+01    0.9005126    0.7293637 -43.22  0.004857779    1.124    0.111
        77 -12.6905    217.3255    121.6713   5.5173464493e+01   1.3885090631e+01    0.8064181    0.4410477 -43.26  0.003715423    1.619    0.382
        78 -11.1352    194.9898    113.1816   5.7138951901e+01   1.9997827049e+01     0.275225    0.2084852 -39.94   0.00139323    1.230    0.187
        79 -12.0310     51.5162    141.4552   1.0193428648e+02   4.0473436883e+01    0.4583718    0.2126146 -63.80   0.00188063    1.953    0.488
        80 -11.4481    191.8783    105.2277   5.5794238385e+01   2.2170065599e+01    0.3638952     0.200361  39.65  0.001510739    2.209    0.547
        81 -11.7295    138.5561    104.0101   6.7095177302e+01   3.4287831251e+01    0.2858414      0.21377  20.41  0.001275204    1.660    0.398
        82 -11.6014    140.9955     97.2162   6.4607536832e+01   3.5147938963e+01    0.2909852    0.2046744 -25.79  0.001195353    1.650    0.394
        83 -13.1322     69.1527     90.0815   8.4454681270e+01   5.0819614931e+01    0.5512894    0.3288161  32.65  0.002521413    1.743    0.426
        84 -11.7852    174.8486     87.4332   5.4509578658e+01   2.9261788191e+01    0.2396704    0.2091035 -15.44    0.0006999    1.322    0.244
        85 -14.2446    135.2472     76.5756   6.0073467006e+01   4.0427686540e+01     1.128907     0.523547 -37.41  0.004351125    2.224    0.550
