#   1 NUMBER                 Running object number                                     
#   2 MAG_AUTO               Kron-like elliptical aperture magnitude                    [mag]
#   3 X_IMAGE                Object position along x                                    [pixel]
#   4 Y_IMAGE                Object position along y                                    [pixel]
#   5 X_WORLD                Barycenter position along world x axis                     [deg]
#   6 Y_WORLD                Barycenter position along world y axis                     [deg]
#   7 A_WORLD                Profile RMS along major axis (world units)                 [deg]
#   8 B_WORLD                Profile RMS along minor axis (world units)                 [deg]
#   9 THETA_WORLD            Position angle (CCW/world-x)                               [deg]
#  10 FWHM_WORLD             FWHM assuming a gaussian core                              [deg]
#  11 ELONGATION             A_IMAGE/B_IMAGE                                           
#  12 ELLIPTICITY            1 - B_IMAGE/A_IMAGE                                       
         1 -13.4597     68.1553    145.2235   1.2587379246e+02   3.7079086984e+01     4.166796     1.851663  65.92   0.01543601    3.957    0.747
         2 -13.4634    192.5242     28.2074   6.4662989458e+01   3.3303656869e+01      2.64741     1.585832  10.25   0.01092896    2.231    0.552
         3 -13.0452    205.8223     10.4682   5.7543309911e+01   3.1689335938e+01      1.16791     1.015167  32.65  0.003510176    1.206    0.171
         4 -11.5455    200.7300     17.4147   6.0221430694e+01   3.2324023504e+01    0.4827943    0.3860888  21.47  0.001032157    1.361    0.265
         5  -8.6835    164.9773     11.9877   6.3522067905e+01   4.2369561236e+01    0.1812687      0.16501  50.75 0.0004057432    1.028    0.027
         6  -9.8637     15.4874      2.5023   1.1247522840e+02   7.3303622839e+01    0.2154795   0.09428776 -50.77  0.001121631    1.866    0.464
         7 -10.7292      5.8634      3.2002   1.1893010710e+02   7.3761243974e+01    0.2838019    0.1908529 -40.53  0.001921056    1.094    0.086
         8  -9.7181     89.3365    244.5916   1.3103951323e+02   1.6751647567e+01    0.1995984    0.1504323  58.84 0.0005492143    1.141    0.124
         9 -11.4627    165.2678    249.8513   1.1843541668e+02   5.9056304790e+00    0.6352718     0.164128  40.35  0.002894221    2.736    0.634
        10 -12.2006    175.5883    248.6370   1.1652925720e+02   4.5828510070e+00    0.8934224    0.1870003  38.84  0.003619743    3.427    0.708
        11 -11.0346    134.7920    249.3899   1.2363248733e+02   1.0194532622e+01    0.5585286    0.1682061  34.94  0.002561368    2.908    0.656
        12 -11.3546    145.2206    249.2038   1.2181670180e+02   8.7844376247e+00    0.5270898    0.2359059  35.75  0.003112846    1.694    0.410
        13 -11.3937    154.1006    246.1696   1.1996326164e+02   7.9093190631e+00    0.4780522    0.3126664  63.19  0.003098044    2.159    0.537
        14  -8.6724     92.5976    250.0471   1.3088058114e+02   1.5594866048e+01    0.2539738   0.07612747  49.06  0.001301672    2.597    0.615
        15  -8.6367     80.6808    249.8721   1.3285781754e+02   1.7053297743e+01    0.1586119   0.08185495 -58.94  0.001083535    2.565    0.610
        16 -10.6872     62.0997    249.2077   1.3587000214e+02   1.9265646711e+01     0.357875    0.2246438  67.75   0.00284242    1.403    0.287
        17 -11.9290     54.6323    230.1279   1.3604775688e+02   2.2920075616e+01    0.5481831    0.3151026 -76.28  0.003333065    1.907    0.476
        18 -13.6506     44.3358    228.3612   1.3771345866e+02   2.4282132021e+01     1.539003     0.859336 -78.47   0.01124402    1.891    0.471
        19 -11.6853      3.9179    223.2412   1.4419594597e+02   2.8814200812e+01     0.283806    0.2055767  62.03 0.0007208068    1.081    0.075
        20 -13.3313     51.5346    219.1226   1.3594477799e+02   2.5007564625e+01     1.447687    0.3868546  55.25  0.004545564    3.574    0.720
        21 -14.6104     58.7397    206.5923   1.3380388010e+02   2.6318855528e+01     6.595006          nan  44.50   0.02156191    5.888    0.830
        22  -8.9221    103.9120    238.5371   1.2804029031e+02   1.5767699879e+01    0.1657303    0.1340003  70.95  0.000420691    1.305    0.234
        23  -9.7863    172.1111    221.6358   1.1379090647e+02   8.2933783484e+00    0.1713164    0.1698006 -37.13  0.001342029    1.413    0.292
        24 -10.2694    165.7591    210.9903   1.1353216853e+02   1.0688616961e+01    0.2461576    0.2061139  62.01 0.0008725387    1.521    0.342
        25 -12.8125     27.1966    248.8496   1.4137377154e+02   2.2880971864e+01     0.895597     0.213801  40.49  0.005241057    2.569    0.611
        26  -9.8646    192.6651    195.3151   1.0601939459e+02   8.4272629628e+00    0.6716625    0.3956755 -63.29  0.002356711    6.524    0.847
        27  -8.7865     82.5250    244.4785   1.3218903534e+02   1.7592783512e+01     0.146863   0.08803387 -53.80  0.001031609    2.353    0.575
        28 -15.5853     10.2178    240.7507   1.4371139858e+02   2.5597976163e+01     5.645678     1.151664 -74.02   0.01646495    4.577    0.782
        29 -11.0851     73.9485    186.6084   1.2912769512e+02   2.8099968234e+01    0.3357067    0.2405002 -43.87  0.001392491    1.901    0.474
        30 -11.0294     78.2085    180.5573   1.2762307412e+02   2.8697538355e+01    0.2638638    0.2176086 -51.71 0.0006603646    1.474    0.321
        31  -8.4942     63.5265    187.5279   1.3136997474e+02   2.9177718981e+01    0.1136984   0.09182341  62.50 0.0001224767    1.013    0.013
        32  -8.9715    201.2422    183.3410   1.0233704858e+02   8.5704399463e+00    0.2195815    0.2050451  13.69 0.0008496736    1.291    0.225
        33  -8.8146      1.4698    181.0599   1.4325403289e+02   3.6216209742e+01    0.1414794    0.0788592 -88.76 0.0003132122    1.496    0.332
        34  -9.5902     38.1088    177.8307   1.3585345806e+02   3.3722177497e+01    0.1759006    0.1178701  64.17 0.0007371391    1.254    0.202
        35 -10.5730      6.9074    175.7445   1.4200200804e+02   3.6800631121e+01    0.3442735    0.1315186  30.28   0.00139652    2.606    0.616
        36 -10.5850      3.6093    169.9756   1.4240340576e+02   3.8133650721e+01     0.275191    0.1870776 -76.60  0.001184895    1.396    0.284
        37  -9.9234    121.4236    248.3868   1.2584209097e+02   1.2123790496e+01    0.2071492    0.1599509  55.48 0.0007338792    1.224    0.183
        38 -11.9372     91.7467    162.7881   1.2250072012e+02   3.0333336012e+01     1.202731    0.8653073  64.47  0.001238872    1.419    0.295
        39  -9.6383     42.2570    171.7531   1.3453713395e+02   3.4491205273e+01     0.463916    0.1989696  86.11  0.002235465    2.820    0.645
        40  -9.8878    227.8896    171.2528   9.5149658956e+01   5.5350908479e+00    0.2584577    0.1759362 -41.26  0.001103841    1.996    0.499
        41  -8.9334    137.5207    171.9446   1.1348466000e+02   2.1442375135e+01    0.1816941    0.1319011 -47.61  0.000679682    1.580    0.367
        42 -12.7421     74.4210    165.8741   1.2686785427e+02   3.2032412033e+01    0.6456593    0.4575089 -43.60  0.002449855    1.798    0.444
        43  -9.2705    113.0017    154.0937   1.1620768827e+02   2.8851991195e+01    0.1881682    0.1767698  43.17 0.0003087506    1.046    0.044
        44 -10.3566     47.1676    151.0860   1.3163417536e+02   3.8188076909e+01    0.3445802    0.2054264 -54.86  0.001392402    1.808    0.447
        45 -10.3299     46.9985    146.5291   1.3121963483e+02   3.9166245247e+01     0.235612    0.1819819  44.16  0.001568751    1.285    0.222
        46  -9.2049     98.5475    151.3279   1.1924951718e+02   3.1657440486e+01    0.2837698     0.131372  48.15  0.001206168    2.136    0.532
        47 -11.2690     53.6770    146.9939   1.2964785666e+02   3.8367230806e+01    0.5040832    0.2813597 -72.05  0.002807045    1.694    0.410
        48  -8.5409    178.6487    147.9965   1.0008146612e+02   1.8025287079e+01    0.1890312    0.1695015   1.28 0.0007897741    1.096    0.088
        49 -13.2318     10.5552    206.9305   1.4256637889e+02   3.0940635788e+01    0.6744588    0.4639262  23.72  0.002355382    1.911    0.477
        50 -10.1070    104.6683    145.0418   1.1674310353e+02   3.2008582421e+01     0.551841    0.3180262 -30.61  0.002352824    2.826    0.646
        51 -11.5387     92.5877    145.8203   1.1987015572e+02   3.3677898769e+01    0.2530723     0.244271  -3.00 0.0005005818    1.192    0.161
        52  -8.7757    133.4614    144.4068   1.0959789544e+02   2.7260304754e+01    0.2893675    0.1295257 -64.92 0.0008091791    5.778    0.827
        53 -10.2953    224.8372    141.9182   8.9653866163e+01   9.9413440535e+00    0.2395976     0.185318  29.55 0.0003840301    1.177    0.150
        54  -8.5026    110.9801    139.0569   1.1412485965e+02   3.2227152634e+01    0.1883168    0.1805928  40.17  0.001152093    1.039    0.037
        55  -9.2526    113.3095    133.7457   1.1254618021e+02   3.2939151091e+01    0.2800277    0.2263466   1.71 0.0009656791    1.548    0.354
        56  -9.4503    250.5838    231.5738   1.0165273053e+02  -4.3006685500e+00    0.1755178   0.09391839 -20.50 0.0005516538    1.979    0.495
        57 -10.0333    100.5387    130.6647   1.1528242763e+02   3.5682010050e+01    0.2483313    0.2170568  -9.20 0.0004129445    1.364    0.267
        58 -12.1560     42.8271    129.8330   1.3047366318e+02   4.3193492417e+01    0.5652654    0.3259725 -76.52  0.003173592    1.589    0.371
        59  -8.9460    118.9608    126.5304   1.0965435976e+02   3.3459421861e+01    0.2886179    0.1728477 -16.79    0.0010377    3.460    0.711
        60  -7.6949    171.7270    125.3159   9.6574645562e+01   2.3305271329e+01    0.1365933    0.1202004 -83.93 0.0002512439    1.561    0.359
        61  -9.7654    243.3828    123.4437   8.2298836644e+01   8.8733182753e+00    0.2347673    0.1926568   0.93 0.0001781879    1.024    0.023
        62  -8.8336    108.9969    121.9649   1.1134023046e+02   3.6156262978e+01    0.1983404    0.1910946  23.56 0.0003200902    1.054    0.051
        63 -10.4032     35.8594    120.1391   1.3122777165e+02   4.5985872544e+01    0.1846603    0.1455686  76.05  0.000471127    1.195    0.163
        64 -11.7306     44.3374    116.3456   1.2840819724e+02   4.6061888201e+01    0.4905607    0.2220904 -63.23  0.002419603    1.908    0.476
        65 -10.6985     86.1657    169.9099   1.2467966408e+02   2.9699919809e+01    0.2493009    0.2357741  59.58 0.0003729614    1.122    0.109
        66  -8.9782     58.4872    113.4787   1.2394984783e+02   4.5236072939e+01    0.1270539     0.115562 -71.60 0.0008098821    1.037    0.036
        67 -10.5962      5.8152    110.1343   1.3844062101e+02   5.0340747359e+01     0.280286    0.2122205  32.74 0.0009626758    1.542    0.351
        68  -9.1994    167.8349    113.2077   9.4519100585e+01   2.6292669596e+01    0.3268596    0.2684274 -83.80  0.001103221    1.795    0.443
        69  -9.4647      2.7168    103.4401   1.3876495586e+02   5.1977926625e+01    0.1871129    0.1020788  27.95  0.001146104    2.115    0.527
        70  -8.8431      1.5084     90.4926   1.3802480098e+02   5.4910641671e+01    0.1145028   0.08972259 -81.63 0.0008105026    1.021    0.020
        71  -7.9223    144.9850     80.0277   9.0945245834e+01   3.7516438565e+01    0.1819919    0.1708046  14.10            0    1.008    0.008
        72  -9.8643      2.3150     79.2264   1.3667629415e+02   5.7402391815e+01    0.2548071   0.06221842 -67.81  0.001092304    2.705    0.630
        73  -8.9166    182.4280     78.1303   8.1767902200e+01   2.8947038106e+01    0.2831019    0.1939774  35.56 0.0006955131    1.468    0.319
        74  -8.3118    154.5508     78.4864   8.8101363809e+01   3.5579444609e+01    0.1580364     0.145643  10.95  7.65793e-05    1.031    0.030
        75  -9.7920    238.1136     67.6981   6.9380020866e+01   1.7285541125e+01    0.2486244    0.2134925  18.06  0.000416113    1.163    0.140
        76  -8.5208    123.9767     63.7311   9.1466929207e+01   4.5264579498e+01    0.2037587    0.1873848  24.29 0.0002342698    1.060    0.057
        77  -7.7918    242.2758     63.6719   6.7773271991e+01   1.6869448320e+01    0.1395397   0.09937584 -50.37 0.0003346773    1.591    0.371
        78 -11.4946    184.3692     33.9302   6.7750077952e+01   3.4769609515e+01    0.6732746    0.4686461  51.86  0.001234729    1.374    0.272
        79  -8.7359    108.7036    246.4805   1.2786770653e+02   1.4047516225e+01    0.1434821   0.09517244 -65.27  0.001057482    1.994    0.498
        80  -9.6781     73.7659    247.1708   1.3383412380e+02   1.8239883588e+01    0.2073334   0.09231722  54.75  0.001327056    1.816    0.449
        81  -8.1339     69.6096     49.2161   1.0473686925e+02   5.8221766647e+01    0.1270615    0.1055235  60.10 0.0004339732    1.618    0.382
        82  -9.6903     69.8859    247.0869   1.3447209098e+02   1.8696444702e+01    0.2414889    0.1620756  74.53  0.001268815    1.454    0.312
        83  -9.4507     49.7417     41.5056   1.1024794677e+02   6.2416578783e+01    0.4525287    0.1817986  40.60  0.001760322    3.127    0.680
        84 -10.3552    135.2607     40.7823   8.0270462740e+01   4.6523954316e+01    0.2646563    0.2469132  19.01 0.0002234196    1.023    0.023
        85  -8.5819     41.4697     39.0593   1.1307817397e+02   6.3819288172e+01    0.1792225    0.1590864 -13.74 0.0004382646    1.149    0.129
        86  -9.0075    230.1850     18.9911   5.7358353577e+01   2.4776358099e+01    0.3230732    0.1817683 -23.11  0.001536653    1.726    0.421
        87 -11.0229    194.7534    243.3936   1.1261039072e+02   2.4114013493e+00    0.2239967    0.1799966  16.15  0.001623643    1.208    0.172
        88  -7.8187     63.3196     46.6497   1.0633993272e+02   5.9641245135e+01    0.1304894    0.1091603 -89.27 0.0007048127    1.741    0.425
        89  -8.5467     68.9053    228.3275   1.3344778833e+02   2.1603152376e+01    0.1665575    0.1140752  66.60 0.0007244644    1.278    0.218
