#   1 NUMBER                 Running object number                                     
#   2 MAG_AUTO               Kron-like elliptical aperture magnitude                    [mag]
#   3 X_IMAGE                Object position along x                                    [pixel]
#   4 Y_IMAGE                Object position along y                                    [pixel]
#   5 X_WORLD                Barycenter position along world x axis                     [deg]
#   6 Y_WORLD                Barycenter position along world y axis                     [deg]
#   7 A_WORLD                Profile RMS along major axis (world units)                 [deg]
#   8 B_WORLD                Profile RMS along minor axis (world units)                 [deg]
#   9 THETA_WORLD            Position angle (CCW/world-x)                               [deg]
#  10 FWHM_WORLD             FWHM assuming a gaussian core                              [deg]
#  11 ELONGATION             A_IMAGE/B_IMAGE                                           
#  12 ELLIPTICITY            1 - B_IMAGE/A_IMAGE                                       
         1 -14.8395    196.7930     81.1738   1.0765882566e+01   2.4793183833e+01     3.311434      1.99971  53.37   0.01120963    1.833    0.455
         2 -12.1176    244.1356     22.1458   3.5284906965e+02   2.3090509221e+01    0.9548606     0.407294  74.43  0.005243525    2.591    0.614
         3 -13.9289    217.0920     52.6842   1.5709465703e+00   2.4670911247e+01     2.230525     1.256761 -60.48   0.01156395    1.802    0.445
         4 -13.9733    243.4530      8.2000   3.5000419380e+02   2.4658528708e+01     1.216121    0.4723035 -76.01  0.006086039    2.815    0.645
         5 -12.4756    178.3305     37.7979   1.8509066283e+00   3.5060611149e+01    0.9210953     0.683238 -66.03  0.005172439    1.256    0.204
         6 -12.6905    220.0076     27.6908   3.5554427391e+02   2.7116345900e+01    0.4856637    0.4371254 -53.12   0.00121012    1.174    0.148
         7 -13.5782    227.0456     23.8952   3.5421922507e+02   2.6135507116e+01    0.7317885    0.3836499 -38.66  0.001392667    1.523    0.343
         8 -12.1268    228.0953     15.5628   3.5231537105e+02   2.6823106977e+01    0.3411159    0.3175502 -67.66 0.0007058598    1.264    0.209
         9 -13.1582    221.2043     10.1487   3.5148327624e+02   2.8753792184e+01    0.6259232    0.4283936 -42.39  0.004091162    1.223    0.182
        10  99.0000    200.3462     37.0895   3.5939144004e+02   3.0147154140e+01      2.91757      1.71924 -24.94   0.01510495    1.840    0.456
        11 -13.1117    188.4695     34.8262   3.5996094673e+02   3.3076957762e+01     1.030479    0.6023428 -28.25  0.004306318    1.755    0.430
        12 -11.3448     76.2169      6.6790   7.8519022344e+00   6.4595504528e+01    0.6911014    0.5597522  23.73  0.001741188    1.333    0.250
        13 -12.4782     64.9841      4.8611   1.0198481291e+01   6.7509667154e+01    0.7161648    0.4681971  38.84  0.001997332    1.480    0.324
        14  99.0000     36.1570     21.1342   3.3461016708e+01   7.1480392885e+01      1.91893    0.9447924  46.17  0.008649998    2.114    0.527
        15 -13.3360      4.2270     54.9069   6.8181531742e+01   6.7705730854e+01     1.245314    0.6231422 -69.59  0.005876526    1.822    0.451
        16 -12.9120     67.6445     14.1037   1.4498572335e+01   6.5896422173e+01     0.913583    0.4811538  57.96    0.0025279    1.723    0.420
        17 -13.9917      9.4538     37.4332   5.9882558821e+01   7.1549017718e+01     2.069899       1.2769 -80.49   0.01028466    2.057    0.514
        18 -12.7542     51.7405     24.9913   2.7132290851e+01   6.7923607034e+01     1.879988     1.030333 -26.06  0.008374222    2.174    0.540
        19 -13.7377     36.1545     56.2175   4.9616288849e+01   6.4390388350e+01     1.986485     1.265582 -30.07  0.007928818    1.783    0.439
        20 -13.2710     79.6130     22.1337   1.4681172547e+01   6.2042384268e+01     1.786504    0.5700162  46.69  0.003014589    3.046    0.672
        21 -13.3568     54.1924     56.8625   4.0625941640e+01   6.1436899866e+01     1.465386     1.105417  85.99  0.004940749    1.965    0.491
        22 -13.5602     63.1897     37.1012   2.8031670586e+01   6.3562745862e+01     1.076334    0.7898703 -55.18  0.002857008    1.626    0.385
        23 -14.1978     79.9115     44.9587   2.4981611888e+01   5.8519439938e+01      1.38801     1.271459 -45.24  0.006976778    1.150    0.130
        24 -11.0264    112.6876     22.9512   6.7947988424e+00   5.3517867445e+01    0.8506465    0.5458865   9.73   0.00374218    2.387    0.581
        25  -7.5579     99.5978      5.9906   2.2361287394e+00   5.8680195513e+01    0.3935215    0.2291379 -89.12  0.001218371    1.893    0.472
        26  99.0000    103.0730     10.0370   3.3434617143e+00   5.7402785068e+01     1.209393    0.2713496  46.59  0.003138924    5.781    0.827
        27 -11.7781    113.0283     14.5595   3.3965010655e+00   5.4347569497e+01    0.3715146    0.2931004  10.06 0.0005936628    1.595    0.373
        28 -12.4191    116.3466      7.7439   1.5706123835e-01   5.4131999417e+01    0.6625037    0.5149695 -24.44   0.00323258    1.450    0.310
        29 -10.4072    203.7736     17.6520   3.5430350243e+02   3.1628546274e+01    0.4462813    0.2871313  37.64  0.001511733    2.432    0.589
        30 -13.0846     26.2092     39.9552   4.9305800015e+01   6.9316565584e+01     1.383114    0.5779517 -41.54  0.005611246    2.434    0.589
        31 -11.4160     20.5855     22.2959   4.4788260707e+01   7.3626356000e+01    0.3942971    0.2271173 -54.89 0.0001257289    1.948    0.487
        32 -10.6326    104.6173     16.5929   5.8237728956e+00   5.6337146219e+01    0.3921798    0.2316141 -72.97  0.001352101    2.176    0.541
        33 -10.0376    107.5212      9.4663   2.2918472158e+00   5.6291959859e+01    0.3924119    0.2142382  58.24  0.001839333    1.629    0.386
        34 -10.2840    154.6696     15.0738   3.5783685341e+02   4.3485890663e+01    0.2680394    0.1964478  10.94  0.001085535    1.957    0.489
        35 -11.2462     14.2741     12.6425   4.4171168689e+01   7.6205495031e+01    0.3060881    0.2419234  74.12  0.001163435    2.210    0.547
        36 -10.9344    150.3695     13.3663   3.5776660641e+02   4.4749360038e+01    0.2476841    0.2112568 -75.14 0.0006983212    1.033    0.032
        37 -11.3905    125.4185     11.9867   4.3122602026e-01   5.1349451771e+01    0.5345397    0.2373742  69.69  0.001164458    1.986    0.496
        38  -9.1608    124.4710      8.4680   3.5926156613e+02   5.1931724231e+01    0.1406149    0.1201159 -82.80 0.0001357997    1.070    0.065
        39 -11.2687     38.0443     12.3303   2.6846408991e+01   7.2496855499e+01    0.2088818     0.175042  -2.13 0.0003470577    1.182    0.154
        40 -10.1303     88.5640     12.0952   7.3788800154e+00   6.0952802286e+01    0.1839658    0.1404719 -14.99 0.0006268439    1.507    0.336
        41  -9.7269    144.0721     10.0496   3.5738851914e+02   4.6685803743e+01    0.3015445    0.1630058 -70.26 0.0003667458    1.952    0.488
        42  -8.3284    142.3268      4.9438   3.5588678951e+02   4.7606320999e+01    0.3576394     0.156269 -35.14  0.001372262    2.171    0.539
        43 -10.1545     26.2277      9.4834   3.2546234574e+01   7.5009947846e+01    0.3588038    0.1911204  28.93  0.001440488    1.936    0.483
        44 -12.4732    173.2796      6.2801   3.5354810125e+02   3.9766944460e+01    0.4351729    0.2738741 -19.19  0.002085452    1.876    0.467
        45  -9.6013     44.5477      8.2931   2.0655511970e+01   7.1736154280e+01    0.2701769    0.1925689  12.11  0.001006288    1.573    0.364
        46 -10.4951     49.0903      6.2938   1.7181370030e+01   7.1003884038e+01    0.3481015    0.2639421  26.43  0.001384795    1.295    0.228
        47 -11.4819     46.1350      2.3869   1.5907864895e+01   7.2067445056e+01    0.2636734    0.2083655  -1.87 0.0007380318    1.342    0.255
        48 -11.2982    194.4654      7.7498   3.5246427210e+02   3.4700920804e+01    0.2724304    0.2016165  80.11   0.00116797    1.340    0.254
        49  -9.7756    164.4886      7.4977   3.5460419552e+02   4.1788080427e+01    0.1330583    0.1123968 -74.45 -0.0002073906    1.004    0.004
        50 -10.3366      3.2001      6.5044   5.0745323276e+01   7.8513199526e+01    0.2558495    0.1712563 -10.29  0.001209064    1.454    0.312
        51  -9.9398    210.4134      6.0579   3.5111887429e+02   3.1392888175e+01    0.2002877    0.1463687  70.99 0.0006898058    1.513    0.339
        52 -11.9206    216.6406      2.4669   3.4997551142e+02   3.0442024528e+01    0.4036969     0.203715  75.81   0.00184741    2.010    0.502
        53  -9.4303     91.4674      6.5618   4.1128401788e+00   6.0738643029e+01    0.1385238    0.1222126  85.36 0.0008045808    1.100    0.091
        54  -9.7358    188.6588      4.8811   3.5210079153e+02   3.6294198683e+01      0.17318     0.103314 -38.49 0.0004376032    1.498    0.333
        55  -9.9027    184.3905      3.2855   3.5195687886e+02   3.7427229151e+01    0.2974761    0.1451594  67.99  0.001306188    2.015    0.504
        56 -10.7956     55.6264      3.3615   1.2587054351e+01   6.9849070276e+01    0.3466351    0.2169558  32.04  0.000855365    1.648    0.393
        57 -10.2589    154.7680      2.3743   3.5389254130e+02   4.4672266285e+01    0.2045395    0.1544852 -49.48  0.001195845    1.246    0.198
        58 -10.1944    126.8679      1.7628   3.5648598830e+02   5.1888101562e+01    0.1946288    0.1600929  70.46 0.0004311506    1.133    0.117
        59 -11.3702     87.9750      1.2705   2.3240269391e+00   6.2086862770e+01    0.3232586    0.1036499  68.46 0.0004167187    2.653    0.623
        60 -13.0169    209.2070     59.0039   3.8629921222e+00   2.5432225642e+01    0.5556918    0.4947988 -72.38  0.003645014    1.119    0.106
        61 -12.7518    221.4560     39.5169   3.5814592750e+02   2.5443807199e+01    0.7616748    0.3711026 -56.93  0.001322179    1.930    0.482
        62  -9.9584     26.5188    207.4794   7.5710211665e+01   2.7229811659e+01    0.1252157    0.1052297  50.47 0.0003540475    1.050    0.048
        63 -12.2404    233.2805     36.4869   3.5657644986e+02   2.3504230542e+01    0.6792823    0.2597038 -66.56  0.002739345    3.736    0.732
        64  -9.5012    101.0352    176.0302   5.2730021447e+01   2.4717475760e+01    0.1613778    0.1488339  35.11            0    1.012    0.012
        65 -10.0861    236.9348    146.0264   1.9145123496e+01   8.0789871644e+00    0.1779479    0.1434948 -20.33 0.0004445419    1.015    0.015
        66 -10.5891    250.1255    131.9993   1.4727471775e+01   8.1597488583e+00    0.1689821    0.1318961 -26.94 0.0003507584    1.013    0.013
        67 -11.1907    250.2105     97.7061   7.9735076827e+00   1.2767223420e+01    0.3429773    0.1456898 -43.11 0.0006777439    1.949    0.487
        68 -10.8516    250.5146     93.5306   7.1007859169e+00   1.3274913821e+01    0.2965465    0.1619094 -41.46  0.001317738    1.457    0.314
        69 -12.4103    199.7305     96.3186   1.3969923479e+01   2.1841770509e+01    0.3455808    0.2935575  83.29  0.002065322    1.384    0.277
        70 -12.9109    102.6953     96.2631   3.5161299572e+01   4.2967328681e+01    0.7005668    0.5232218  35.93  0.001501025    1.392    0.282
        71 -11.6577     95.1707     89.9077   3.5702145442e+01   4.6001309736e+01    0.5229438    0.4288455  82.54  0.001067423    1.446    0.308
        72 -11.7433    106.3401     86.8807   3.1294110579e+01   4.4234276697e+01    0.4625621    0.3375952  46.67   0.00181687    1.351    0.260
        73 -12.3205    114.3308     86.5708   2.8882953741e+01   4.2493957859e+01    0.5724539    0.4254248  34.72 0.0006361639    1.479    0.324
        74 -12.9341    114.7424     80.8701   2.7022543819e+01   4.3568490534e+01    0.8343455    0.5182061 -41.98  0.002549303    1.638    0.389
        75 -10.5817     11.6644     98.0671   7.1410657916e+01   5.6059197357e+01    0.2040274    0.1634924 -75.25 0.0006228107    1.142    0.125
        76 -10.7449     74.6214     96.7632   4.4836911352e+01   4.8438702218e+01    0.2197005    0.1487165 -66.05 0.0007820101    1.639    0.390
        77 -10.1769     16.8841     96.9324   6.8955154015e+01   5.5986656320e+01    0.2081241    0.1731724 -48.28 0.0002593077    1.195    0.163
        78 -11.1737    159.7763     95.8677   2.0735590973e+01   3.0307894241e+01    0.4045199    0.2158302  58.79  0.001028965    2.105    0.525
        79  -9.6919     67.9743     94.2461   4.6677903543e+01   5.0241005978e+01    0.2098602    0.1899361  36.37 0.0001876286    1.108    0.097
        80 -11.8775     45.0427     92.8395   5.5743949946e+01   5.4124392188e+01      0.44844    0.2932206   8.54  0.001533279    1.918    0.479
        81 -12.7944     59.3947     90.7326   4.9158537126e+01   5.2554005806e+01    0.4641467    0.3595851 -53.66  0.001621815    1.274    0.215
        82 -10.2624    167.3268     89.8368   1.7702230173e+01   2.9710283553e+01    0.2839152    0.2148704  70.19 0.0007334735    1.483    0.326
        83 -11.7452    184.1769     77.0077   1.1549909003e+01   2.8119141502e+01    0.4650167    0.2213005 -44.70  0.001714622    1.931    0.482
        84 -12.4020    180.0075     78.8681   1.2671601500e+01   2.8738171513e+01    0.7035067     0.425132 -34.39  0.003188862    1.582    0.368
        85 -11.4433    172.7254     90.6787   1.6947959392e+01   2.8377219652e+01    0.3128923    0.2531788  55.98 0.0005059066    1.310    0.237
        86 -11.5315    173.9992     86.4982   1.5643145847e+01   2.8808052365e+01    0.7881224    0.2461237  46.74  0.002571136    3.732    0.732
        87  -9.7665    222.3040    124.6948   1.6954955929e+01   1.3397265028e+01    0.1701944    0.1320808 -11.39 0.0002245926    1.315    0.240
        88 -10.5716    220.9565    121.4665   1.6472771496e+01   1.4103582909e+01    0.2966524    0.2146412  66.24  0.001722661    1.942    0.485
        89 -11.2125     55.4145     81.8572   4.8382496204e+01   5.5403659925e+01    0.3441595    0.2146469  25.23 0.0008792499    1.753    0.429
        90 -12.6926     52.1210     86.8708   5.1194411888e+01   5.4658220289e+01     0.451749    0.4058202  41.11  0.001267367    1.127    0.112
        91 -11.0123     48.0142     85.0537   5.2513611621e+01   5.5718794398e+01    0.2595021    0.2446067 -87.36  0.001429324    1.091    0.084
        92 -11.7079    237.4382     86.6026   7.0361777250e+00   1.6345032329e+01    0.3126062     0.251802  77.20 0.0007925929    1.543    0.352
        93 -11.0076    233.5347     84.5047   7.0092535165e+00   1.7305540440e+01    0.3037804    0.2369037  78.91  0.001442624    1.589    0.371
        94 -10.6360     70.8020     87.8937   4.3810586577e+01   5.1298386298e+01    0.4262611    0.2549203  48.43  0.001282128    1.755    0.430
        95 -12.4968     66.2303     82.1264   4.3920559228e+01   5.3511484272e+01    0.7410691    0.5677837  60.00  0.001888725    1.474    0.322
        96 -12.4691    248.9895     83.0524   5.1232042694e+00   1.4899151413e+01    0.2413046    0.2032439 -46.76 0.0004259747    1.110    0.099
        97  -9.8361     97.6092     55.8803   2.3483411254e+01   5.2432846459e+01     2.268972     1.015007  33.85  0.006708373    4.041    0.753
        98 -10.1420    196.1302    123.2519   2.0689873608e+01   1.8145632722e+01    0.2584431    0.1591722 -56.30  0.001222041    2.071    0.517
        99 -10.8383    228.4700    118.9709   1.4916552542e+01   1.3243925627e+01    0.2866959    0.1755468  48.53 0.0008412556    1.947    0.486
       100 -14.4426     40.9369     77.7617   5.3819047245e+01   5.8534131902e+01     2.397255      1.39365   1.61  0.006746666    2.603    0.616
       101 -10.6311    247.7208    117.6385   1.2225937678e+01   1.0453433744e+01     0.257654    0.1926281  85.89  0.001613071    2.225    0.550
       102 -13.6420     98.6612     71.3325   2.8667016004e+01   4.9220507259e+01     1.848279     1.607685   7.96  0.005308505    1.367    0.269
       103 -11.4327    204.5423    116.6525   1.7872991905e+01   1.7693801022e+01    0.4730417    0.3053462  76.75  0.002200823    2.756    0.637
       104 -10.7291    181.5420    115.3940   2.1441943042e+01   2.2249668215e+01    0.4637092    0.2831529 -43.52  0.002245638    1.546    0.353
       105  -9.9942    171.9743    116.5272   2.3498263612e+01   2.3952222666e+01    0.2165218    0.1810214 -38.99 0.0003339238    1.131    0.116
       106  -9.4681     50.5062    117.4121   5.8637974966e+01   4.6909676203e+01    0.1487164    0.1407965  68.08 0.0001090553    1.026    0.026
       107 -14.1118     11.3174     66.5130   6.6443373616e+01   6.4365073838e+01     2.016219     1.113907  -7.02  0.008224436    2.169    0.539
       108 -11.7053    126.5757    115.9534   3.3632165346e+01   3.3520268015e+01    0.3732859    0.2207885  40.52 0.0006368643    1.709    0.415
       109  -9.8959    196.3432    113.1702   1.8393646802e+01   1.9772601831e+01    0.2827965    0.1648578 -46.16 0.0009916174    1.657    0.396
       110 -11.3884    197.3277    107.6871   1.6981440014e+01   2.0482945873e+01    0.4698426    0.4242497 -86.67  0.002886682    1.297    0.229
       111 -13.1356     51.7038     44.6826   3.6837509263e+01   6.4414859782e+01      0.82353     0.513595   9.91  0.001176587    2.553    0.608
       112 -13.3085     60.9869     43.3454   3.1866010255e+01   6.2894068094e+01     0.496639    0.4320278 -77.32 0.0005381844    1.421    0.296
       113 -10.6204    192.0000    104.0443   1.6984331397e+01   2.2115777546e+01    0.3341451    0.1600802 -41.69  0.001409221    1.884    0.469
       114 -13.9244     77.0586     58.8980   3.1657339603e+01   5.6534036103e+01    0.9179191     0.397685  45.56  0.003408705    2.242    0.554
       115  -9.6744    172.2594    112.6284   2.2511586016e+01   2.4600836895e+01    0.1911302    0.1319051  37.98 0.0006210477    1.592    0.372
       116 -10.7801     17.4613     83.1035   6.6437803728e+01   5.9617285569e+01    0.3722853    0.1678266 -14.51  0.001288916    3.604    0.723
       117 -11.1002    232.5528     79.1512   5.9594375058e+00   1.8211785817e+01    0.3007326     0.224616  77.42  0.001473843    1.642    0.391
       118 -10.7956     82.3700     79.4672   3.6883446462e+01   5.1027324599e+01    0.5354103     0.230692  42.99  0.001918611    2.281    0.562
       119 -10.7998     86.8282     76.1073   3.4200176582e+01   5.0838291871e+01    0.5199094    0.2780476 -49.98  0.002064318    1.940    0.485
       120 -10.9817     84.1636     71.6320   3.3638361151e+01   5.2372087030e+01    0.5226275    0.3328407  30.80 0.0009394503    1.829    0.453
       121 -12.0488     11.6830     79.1752   6.8615976790e+01   6.1068677706e+01    0.4414916    0.1704704 -43.74  0.001697579    2.617    0.618
       122 -10.9265     74.3142     70.5712   3.6957269549e+01   5.4641945230e+01    0.3961967    0.3651178  13.08  0.001522167    1.148    0.129
       123  -9.6665     70.6060     70.7223   3.8478262147e+01   5.5340402053e+01    0.3418344     0.185247 -48.87 0.0008391003    1.868    0.465
       124  -9.8579     67.4895     70.5167   3.9677898403e+01   5.5984464969e+01     0.296112    0.1485376  35.52 0.0009225052    2.064    0.516
       125 -11.2657     76.3075     75.6752   3.7906725389e+01   5.3106829463e+01    0.3851931    0.3540609 -49.98  0.001234902    1.103    0.093
       126 -11.5569     72.8526     75.1345   3.9066350634e+01   5.3909627363e+01    0.6870878    0.4114759  22.05  0.002665425    2.327    0.570
       127 -12.1010    249.2953     73.0044   3.0341198002e+00   1.6150506536e+01    0.4857432    0.3407343 -38.15  0.002219001    1.115    0.103
       128 -10.9853    242.7706     75.5728   4.1709797073e+00   1.6913633548e+01    0.2666428    0.1648067 -43.03 0.0008796456    1.287    0.223
       129 -11.4986    239.5016     72.9830   3.9370296812e+00   1.7816508021e+01    0.7150847    0.2129761 -32.00  0.002899865    2.917    0.657
       130 -11.1285    238.6315     80.7813   5.6783322789e+00   1.6929728049e+01    0.3162423     0.222809  56.70            0    1.735    0.424
       131 -13.6569    118.2408     62.7831   2.0209533590e+01   4.6173980530e+01     1.436955    0.8831977 -61.22  0.005187442    2.058    0.514
       132 -12.2963    231.7518     72.8977   4.6824606978e+00   1.9201903428e+01    0.5182249    0.3136444  59.03  0.003012139    1.961    0.490
       133 -12.7201    229.8848     64.7751   3.0838318409e+00   2.0624488481e+01    0.5157501    0.3795973 -18.60  0.003163912    1.546    0.353
       134 -12.1515    223.9287     61.6764   2.9710079401e+00   2.2154935273e+01    0.5332071    0.2862075 -47.97  0.001931872    1.590    0.371
       135 -12.0153    137.1841     71.6580   1.8600273309e+01   3.9954972106e+01     1.137531    0.3919681  54.06  0.003810514    2.834    0.647
       136  -9.5688    136.4920     62.0309   1.5744404317e+01   4.1783401750e+01    0.3013108    0.2427244  64.92 0.0007860193    1.220    0.181
       137 -11.0377    136.9839     57.9781   1.4347821752e+01   4.2326837354e+01    0.4523591    0.3036163 -73.54  0.001538942    1.859    0.462
       138 -11.5953    154.7210     64.9118   1.3073862137e+01   3.6840675103e+01    0.6493626    0.3379804 -36.52  0.001893086    1.873    0.466
       139 -11.1226    151.9931     59.1725   1.1855285199e+01   3.8416455918e+01    0.3855582    0.2883365  16.61 0.0003244371    1.947    0.486
       140 -10.5068    142.1992     55.0636   1.2388887008e+01   4.1485133672e+01    0.3981951    0.2912152 -24.97  0.001943712    1.555    0.357
       141 -10.6116    145.9966     52.0104   1.0724449217e+01   4.1002589721e+01    0.3085521    0.2085615  46.01 0.0009564017    1.638    0.390
       142 -12.1713    144.0779     67.9418   1.6012610228e+01   3.8923041718e+01    0.6059288    0.4161913 -17.39   0.00234721    1.930    0.482
       143 -11.2501    149.7182     67.0038   1.4621336205e+01   3.7709440376e+01     0.570421    0.2985334 -52.35  0.001838417    2.083    0.520
       144 -11.6166    144.4279     60.0359   1.3519966206e+01   4.0143503325e+01    0.5176999    0.3544209  46.23  0.002454903    1.585    0.369
       145 -10.8829    127.0639     58.7312   1.6731668739e+01   4.4683788972e+01    0.4315287    0.2643075  34.46  0.001766775    2.183    0.542
       146 -11.8305    173.6795     56.9587   7.7494681431e+00   3.3542591696e+01    0.2983283      0.25689  70.34 0.0003916034    1.197    0.164
       147 -11.2239    161.3097     51.1110   7.9136836818e+00   3.7348686153e+01    0.4702061    0.3216287 -17.83  0.002258995    1.834    0.455
       148 -11.0761    162.7157     56.8937   9.3816474621e+00   3.6157383910e+01    0.4111143    0.3670147 -46.49  0.001597792    1.099    0.090
       149 -10.6299    157.0509     54.3838   9.5567048751e+00   3.7908743399e+01    0.5262937    0.2179694  60.67  0.001110813    2.361    0.576
       150 -11.0678    245.0143     52.3719   3.5910617770e+02   1.9463998684e+01    0.4739606    0.1400581 -31.97  0.002029605    2.799    0.643
       151 -10.0859    250.1102     55.0878   3.5927944985e+02   1.8251120967e+01    0.1654094    0.1324117 -31.75 0.0006239829    1.221    0.181
       152 -11.5225    123.4736     53.7249   1.5855113216e+01   4.6411236327e+01    0.4188312    0.2590104  67.13 0.0007344086    1.670    0.401
       153 -10.5539    130.8401     52.4500   1.3807921009e+01   4.4753991392e+01     0.289411    0.2186303 -38.74  0.001439061    1.348    0.258
       154 -10.5504    168.0449     51.6643   7.0727618873e+00   3.5641609424e+01    0.3740831     0.202572  48.29  0.001339457    2.131    0.531
       155 -11.0104    249.8674     49.9774   3.5824576685e+02   1.8908646015e+01    0.2966855    0.1611459 -36.39  0.001397279    1.436    0.303
       156 -12.1354    133.5994     46.6129   1.1289781546e+01   4.4944164726e+01    0.3462527    0.2915676  72.78 0.0008010413    1.135    0.119
       157 -12.1853    125.3657     45.6795   1.2644711942e+01   4.7187257331e+01    0.7007079    0.3743348  76.05 0.0005915409    2.292    0.564
       158 -11.4019    132.8153     40.4511   9.3496558691e+00   4.6031939838e+01    0.4943979    0.3480897 -62.86   0.00187665    1.513    0.339
       159 -10.2052    143.0791     45.9581   9.3177081219e+00   4.2629097198e+01    0.4739874    0.2127762  46.14  0.001779923    2.638    0.621
       160 -12.1054    149.4803     40.7098   6.5812014923e+00   4.1743670991e+01    0.6286424    0.5149813 -88.22  0.003074507    1.172    0.147
       161 -10.9690    156.1817     41.8191   5.9043893499e+00   3.9912950278e+01    0.3140385    0.2370105  75.42 0.0006694978    1.287    0.223
       162 -11.2989    160.7241     40.5693   4.8741677183e+00   3.8954273513e+01    0.3346732    0.2540159  59.06 0.0009638874    1.363    0.267
       163 -12.3366    161.2168     36.1856   3.4965230573e+00   3.9404046013e+01     0.828503    0.3086367  72.34  0.003064442    2.842    0.648
       164 -10.8727     41.4091     45.2507   4.2472960824e+01   6.6047292142e+01    0.3768737    0.2613606 -49.42  0.001486475    1.461    0.316
       165 -11.3737     40.7316     39.9135   4.0502392912e+01   6.7252090500e+01    0.6803591    0.3442584  20.55  0.002615292    2.806    0.644
       166  -9.5757     99.4663     46.4824   1.9335449478e+01   5.3600760520e+01    0.1501679    0.1408905  80.58 0.0008087837    1.058    0.055
       167 -11.4895    247.8385     41.2072   3.5657722852e+02   2.0295515762e+01    0.3854994    0.2791525 -48.66  0.002145141    1.051    0.049
       168  -9.9172    105.2025     42.9671   1.6395180196e+01   5.2730859302e+01    0.2759522    0.1848228  74.85  0.001242795    1.665    0.399
       169 -10.4266     93.8822     42.1802   1.9246280841e+01   5.5667329465e+01    0.2849014    0.2562747  51.54 0.0006542431    1.061    0.057
       170 -10.7600     97.4934     42.5677   1.8347931926e+01   5.4717369417e+01    0.6517315    0.2007646  47.69  0.001698546    3.210    0.688
       171 -10.6970    164.2579     30.7004   1.4796283432e+00   3.9336152926e+01     0.566802    0.3285076 -77.10  0.002479402    1.916    0.478
       172  -9.7874    111.3980     39.1507   1.3383518349e+01   5.1729180593e+01    0.3487015    0.1276543  48.98  0.001129413    2.726    0.633
       173 -12.0181     91.7869     33.5659   1.6246229835e+01   5.7491898199e+01    0.6837023    0.4159465  38.07  0.003033527    1.837    0.456
       174 -10.6443    131.6387     33.5888   7.1931473051e+00   4.7261283057e+01    0.3174415    0.2009079 -56.79 0.0001785776    1.678    0.404
       175  -9.9123    112.6488     32.1943   1.0421899502e+01   5.2374029155e+01    0.4318967    0.2700151  40.83  0.001956013    1.806    0.446
       176  -9.6148    114.3480     28.3030   8.5533389276e+00   5.2435797806e+01    0.1483508    0.1354117  71.23 0.0007706052    1.030    0.029
       177 -11.2403    239.8170     31.9323   3.5515705091e+02   2.2804692085e+01    0.3197112    0.2066761 -43.58 0.0004677802    1.193    0.162
       178 -10.6043    121.9695     32.8777   8.7444145163e+00   4.9864919771e+01    0.2179674    0.2061658 -57.34 0.0004953228    1.101    0.091
       179  -9.1258    247.5707     32.5682   3.5480920555e+02   2.1328908523e+01    0.1135487   0.08750137 -48.69 0.0004283983    1.039    0.038
       180 -11.8297    103.9974     29.5864   1.1359669345e+01   5.4950564862e+01    0.4251882    0.3135047  74.72  0.001281231    1.342    0.255
       181 -13.0518    238.2242     51.4533   3.5944517202e+02   2.0790407469e+01     1.675739     0.398152 -48.63  0.006146034    3.847    0.740
       182 -10.5068    138.4162     29.1920   4.5537007070e+00   4.6060966281e+01    0.3733149    0.1824596 -15.36  0.001410177    3.050    0.672
       183  -9.4544     90.5005     27.4360   1.3928172436e+01   5.8661363197e+01    0.2294287    0.1723444  64.40 0.0005109943    1.257    0.205
       184  -9.6100     80.4538     30.4162   1.8340606397e+01   6.0712580840e+01    0.2219809    0.1547081  48.27 0.0001119882    1.336    0.251
       185 -11.0687     85.7359     28.9696   1.6006323334e+01   5.9635135847e+01    0.4756441    0.2348104  53.92  0.002008621    1.829    0.453
       186 -11.8630    149.9202     22.4743   7.2437964841e-01   4.3893682361e+01    0.3919283    0.2677536  38.60  0.001962703    1.862    0.463
       187 -11.8811    159.0453     26.6302   8.9026807006e-01   4.1114295776e+01    0.3242529    0.2686341   0.28  0.001598091    1.580    0.367
       188 -10.7670    154.0383     25.7710   1.2447600438e+00   4.2472172790e+01    0.3160951    0.2331162 -73.12  0.001051639    1.296    0.228
       189  -9.5918    120.2761     28.3838   7.4059987805e+00   5.0880345542e+01    0.1894595    0.1294132  81.16 0.0002824574    1.475    0.322
       190 -13.2396    230.4650     46.7120   3.5903754245e+02   2.2815315059e+01    0.8398266    0.4858689  55.46  0.004797416    2.133    0.531
       191 -10.7012    134.5843     26.5299   4.2448500590e+00   4.7375565080e+01    0.3097326    0.2628178  26.56  0.001022614    1.447    0.309
       192 -11.6284    134.3609     20.9777   2.3496795966e+00   4.8072412156e+01     0.400659     0.269914  80.55 0.0008507449    1.398    0.285
       193 -10.4648    176.0921     25.1434   3.5857961208e+02   3.7118197120e+01    0.4106541    0.1639726 -61.76  0.001540576    3.044    0.672
       194  -9.8583    107.1244     13.6119   4.0868496848e+00   5.5992140490e+01    0.2976269     0.163962  43.82  0.001328875    1.957    0.489
       195  -9.7671    210.4045    111.8299   1.5924091235e+01   1.7399862245e+01    0.2127768     0.100303  55.21 0.0009637877    2.577    0.612
       196 -10.9692    209.5983    105.2567   1.4581482500e+01   1.8567473663e+01    0.3988016    0.2350606 -56.52  0.001779291    2.072    0.517
       197 -12.2943    160.7815    104.5766   2.2783865012e+01   2.8482278751e+01    0.5396214    0.2637844 -45.33 0.0002588616    2.001    0.500
       198  -9.8274     86.4622    107.4616   4.3448442620e+01   4.3614140866e+01    0.1552671    0.1509314  67.77  0.000166017    1.011    0.010
       199 -10.7739     15.3967    106.6616   7.0907160151e+01   5.3486529596e+01    0.2487174     0.218553 -56.09 0.0002869018    1.132    0.117
       200 -11.0521    123.9090     24.0060   5.1137394991e+00   5.0458324478e+01    0.5176624    0.1955348  65.72  0.001145557    2.368    0.578
       201  -9.3765    125.2913     20.0061   3.4069314066e+00   5.0549883150e+01    0.2522192    0.1283233  36.92 0.0009793172    2.778    0.640
       202 -11.5721     97.3617     22.2070   9.8381355709e+00   5.7580344796e+01    0.2717598    0.2559421   2.45 0.0006136115    1.190    0.160
       203 -10.3429    102.0195     23.0497   9.1051852942e+00   5.6280253295e+01    0.2974141    0.2099745 -43.92  0.000764133    1.501    0.334
       204 -10.0042    101.4604     19.5210   7.7338412714e+00   5.6835699628e+01    0.1981299    0.1500665  38.91 5.009311e-05    1.415    0.293
       205  -9.6665    169.9975     22.9945   3.5859013229e+02   3.8830529161e+01     0.159157    0.1309534 -47.63  0.000338556    1.155    0.134
       206  -9.2532    170.4833     19.4421   3.5752166509e+02   3.9104839856e+01    0.1804567    0.1306745 -11.62 0.0009667138    1.776    0.437
       207 -11.4462    148.5071    103.5268   2.5120576240e+01   3.1349959497e+01     0.294291    0.2379395 -66.60 0.0008746863    1.391    0.281
       208 -10.0370    200.5393     15.6062   3.5402482872e+02   3.2551736893e+01     0.192298    0.1464711 -60.86 9.802781e-05    1.074    0.069
       209  -9.9467    181.5932     21.1973   3.5697163494e+02   3.6258427580e+01    0.4180993    0.1775954 -83.36  0.001638232    3.006    0.667
       210 -11.5230    161.8588     20.0113   3.5857118369e+02   4.1161536973e+01    0.4123468    0.2579447  86.24 0.0009159967    1.533    0.348
       211  -9.9928    194.4077     18.2707   3.5514012529e+02   3.3631282523e+01    0.1736382   0.09770333 -43.77 0.0005594053    1.501    0.334
       212 -11.2535    144.4834    103.0420   2.5899064123e+01   3.2330238695e+01    0.3734317    0.3362289  -3.23  0.001144091    1.249    0.200
       213 -13.7201    121.5061    100.8237   3.1008933981e+01   3.7872153912e+01    0.8294033    0.5746297 -53.37  0.003740706    1.504    0.335
       214 -12.4619    127.6488     78.7622   2.2998633371e+01   4.0940644516e+01    0.9846324    0.6887326   2.85  0.003961622    2.452    0.592
       215 -12.4530    121.1492     87.8029   2.7387990923e+01   4.0676519883e+01    0.5582784    0.4325024 -33.83  0.002500091    1.383    0.277
       216 -10.5493    212.9739     16.0118   3.5330394097e+02   2.9841757912e+01    0.1908253    0.1322751 -57.11 0.0003190674    1.163    0.140
       217 -13.0511    129.5914     88.7872   2.5504895994e+01   3.8529535505e+01     1.400346    0.6873945  31.25  0.004342099    3.701    0.730
       218 -12.0535    137.6109     81.8521   2.1565535020e+01   3.7992328838e+01    0.7392263    0.5453039  69.45  0.001894776    1.490    0.329
       219 -10.2331    160.1533     13.9630   3.5692891391e+02   4.2224634327e+01    0.2233702    0.1620691  79.65  0.001014731    1.272    0.214
       220 -11.4377    141.2736     96.5119   2.4882237613e+01   3.4331372811e+01    0.4151555    0.3428802  61.29  0.001016808    1.258    0.205
       221 -13.8943    131.5649     95.5908   2.6951790563e+01   3.6711796133e+01     1.074637    0.6900409  45.12  0.004751862    1.579    0.367
       222 -12.2004    148.3685     84.7076   2.0032745667e+01   3.4940213425e+01    0.5506141    0.4050437 -76.03  0.001166644    1.696    0.410
       223 -11.3631    147.0608     78.5572   1.8547245307e+01   3.6357641566e+01    0.4135838    0.2828614 -43.32  0.001044113    1.422    0.297
       224 -10.5688    215.8460    100.4099   1.2632592818e+01   1.8167018519e+01    0.4132691    0.1925505 -22.02  0.001631465    3.076    0.675
       225 -12.1061    169.5379     96.8730   1.9116656672e+01   2.7991495972e+01    0.7051654    0.4332049 -23.19  0.002319137    2.018    0.504
       226  -9.8801    165.4929     96.4378   1.9767316897e+01   2.8947655436e+01    0.2023327    0.1381569 -26.92 0.0005323986    1.608    0.378
       227 -11.7189    153.6112    100.2122   2.3145268568e+01   3.0862855174e+01     0.339229    0.2555466 -23.79  0.001034323    1.503    0.335
       228 -12.1624    151.0195     96.8969   2.2819340113e+01   3.2065889438e+01     0.584511       0.3696 -54.59  0.002584871    1.727    0.421
       229 -11.9779     87.2705     97.8529   4.0628019603e+01   4.5774838883e+01    0.5424528     0.402399  21.26  0.002443534    1.609    0.378
       230 -10.3872     36.6732    248.9794   7.5543603365e+01   1.7999454933e+01    0.1656485    0.0631136 -49.91 0.0007049726    4.422    0.774
       231 -11.2282      2.2398    247.7281   8.2732233625e+01   2.1456207118e+01    0.2173556    0.1614981  86.69  0.001435844    1.456    0.313
       232 -13.4407    184.5087     61.3435   7.4278994061e+00   3.0418014586e+01     1.362098    0.8901297 -51.88  0.004386796    1.432    0.302
       233 -12.6188    195.0249     56.6497   4.8853182733e+00   2.8756178839e+01    0.6598838    0.5809293  62.89  0.004104499    1.273    0.215
       234 -10.8785    180.4619    244.0354   4.5049816104e+01   1.7712765269e+00    0.2059373    0.1549801  15.29  0.000995595    1.081    0.075
       235  -9.7062    218.5247    239.9567   3.7822547571e+01  -1.9305521326e+00     0.144385   0.08875321 -26.51 0.0005279958    1.527    0.345
       236 -13.0450    181.5766     71.0937   1.0403772435e+01   2.9612563929e+01     2.427673    0.4622233  55.00  0.007141843    4.848    0.794
       237 -12.6633    165.4951     65.7304   1.1455288293e+01   3.4138157123e+01     1.326945     0.547976  56.25   0.00499713    2.429    0.588
       238 -12.3383    162.2998     83.4197   1.6917209251e+01   3.1956034087e+01    0.5331171    0.4677123  58.21  0.002941372    1.184    0.155
       239 -12.6719    168.7493     78.9629   1.4552591609e+01   3.1242809234e+01    0.7684093    0.4377271 -49.38  0.002107504    1.742    0.426
       240 -12.0968    172.3259     44.1109   4.3434055139e+00   3.5662839609e+01    0.6581402    0.3608101  62.83  0.001966085    1.825    0.452
       241 -10.4385     16.0405    238.6458   7.9552781941e+01   2.1913168205e+01    0.1649407    0.1208859  39.49 0.0008457171    1.115    0.103
       242 -13.8223    209.7510     67.9402   5.9312681628e+00   2.4087915227e+01    0.9346128    0.6302571  71.85  0.001572445    1.687    0.407
