#   1 NUMBER                 Running object number                                     
#   2 MAG_AUTO               Kron-like elliptical aperture magnitude                    [mag]
#   3 X_IMAGE                Object position along x                                    [pixel]
#   4 Y_IMAGE                Object position along y                                    [pixel]
#   5 X_WORLD                Barycenter position along world x axis                     [deg]
#   6 Y_WORLD                Barycenter position along world y axis                     [deg]
#   7 A_WORLD                Profile RMS along major axis (world units)                 [deg]
#   8 B_WORLD                Profile RMS along minor axis (world units)                 [deg]
#   9 THETA_WORLD            Position angle (CCW/world-x)                               [deg]
#  10 FWHM_WORLD             FWHM assuming a gaussian core                              [deg]
#  11 ELONGATION             A_IMAGE/B_IMAGE                                           
#  12 ELLIPTICITY            1 - B_IMAGE/A_IMAGE                                       
         1 -14.1005    207.4552     17.2827   5.6996199969e+01   3.0997011068e+01     2.635809     1.451095  23.77   0.01021922    3.369    0.703
         2 -11.7757      2.2356      4.5166   1.0804325436e+02   7.0799197321e+01     0.556143    0.1362616 -49.28  0.002546606    3.568    0.720
         3 -13.8355     95.7865    248.1605   1.2769902750e+02   1.3295191318e+01     1.358027    0.2787451  45.41  0.005385423    3.664    0.727
         4 -11.4582    175.8305    249.8073   1.1434590112e+02   6.8053309901e-02    0.3967621    0.1091725  43.45  0.001612236    2.842    0.648
         5 -14.0184    128.9501    247.0831   1.2206108897e+02   8.3096609265e+00     1.594859     0.431706  43.31   0.00651743    3.079    0.675
         6 -11.9770     95.1329    242.4552   1.2727487987e+02   1.4322583064e+01    0.3094985    0.2000041  79.98  0.001312582    1.507    0.337
         7 -15.1507      5.8574    246.4679   1.4115396073e+02   2.4683194305e+01     7.484579     1.805884 -77.97   0.02993116    3.580    0.721
         8 -14.3989     14.3659    240.5232   1.3967291182e+02   2.4810852750e+01     2.377948    0.5694308  52.74   0.01277657    2.922    0.658
         9 -14.8278     10.2875    206.7653   1.3838187490e+02   3.1168423273e+01     2.768729    0.8618383 -81.80   0.01212706    2.912    0.657
        10 -15.7700     27.9347    183.2398   1.3363634983e+02   3.3959825011e+01     7.004226     2.468367  86.93   0.00175936    5.524    0.819
        11 -15.7540     48.2969    212.3625   1.3249067864e+02   2.6036062194e+01     7.067477     3.256114  57.11   0.02962342    1.875    0.467
        12 -11.0249     53.0119    228.4279   1.3299563069e+02   2.2522582662e+01    0.2528299    0.1462237  84.63  0.000162482    1.533    0.348
        13 -10.2458    225.3965    199.9085   9.7497380661e+01  -1.8612639839e+00    0.2886285    0.2217179 -64.15  0.001141879    2.068    0.517
        14 -10.1983    192.0088    193.0308   1.0250246544e+02   5.5939806056e+00    0.3785363    0.1939946 -60.48  0.001390623    3.823    0.738
        15 -11.5763     64.4666    191.5641   1.2759467709e+02   2.8033529087e+01    0.3280504    0.2238703 -48.36  0.001476735    1.978    0.494
        16 -11.7167     69.8486    184.6577   1.2577354406e+02   2.8712762363e+01    0.2710772    0.2217379 -51.76 0.0008059063    1.546    0.353
        17 -10.9927     79.3248    173.1222   1.2239419916e+02   2.9782916173e+01     0.229337    0.1960488 -76.92 0.0004335445    1.132    0.117
        18 -13.2252     66.4693    170.4085   1.2472235343e+02   3.2124871857e+01    0.4441081    0.2549775 -47.14  0.001591811    2.203    0.546
        19 -12.0821     86.1116    164.9760   1.1979349816e+02   3.0513922374e+01    0.6982437    0.4567056  60.23  0.002836172    1.526    0.345
        20 -13.0716     67.8687    144.6409   1.2080213285e+02   3.7491972912e+01     1.116481    0.6029341 -89.47  0.003660232    2.700    0.630
        21 -12.0787     58.5948    133.4296   1.2123090709e+02   4.1116567271e+01     1.961012    0.6268541 -73.48  0.004024374   11.580    0.914
        22 -12.2236    151.3194    228.5825   1.1585556357e+02   7.4221112467e+00    0.5762599    0.1925644  42.83  0.002396735    2.549    0.608
        23  -9.9930     99.1850    149.1656   1.1428757145e+02   3.1880088916e+01     0.299615    0.2384654 -45.95 0.0008357184    1.380    0.275
        24  -9.2405    102.1586    145.0531   1.1285086400e+02   3.2284391853e+01    0.2252448    0.1509253 -32.15  0.001057487    2.117    0.528
        25 -11.9189     87.8096    148.1486   1.1674681854e+02   3.3898796328e+01     0.261379    0.2233524 -54.14 0.0004364067    1.228    0.186
        26 -10.8946     38.6563    146.7796   1.2770928001e+02   4.0432675933e+01    0.2302733    0.1445929  52.61  0.001188909    1.670    0.401
        27 -12.8154     38.4390    223.8205   1.3500547325e+02   2.5095732473e+01    0.3204542     0.246793 -73.10 0.0007794413    1.475    0.322
        28  -9.5770    110.2894    135.0384   1.0896976455e+02   3.3070016531e+01     0.244536    0.2017671   0.23  0.001001015    1.682    0.405
        29 -10.5690     97.6394    132.1829   1.1147630238e+02   3.5852922620e+01     0.262616    0.2199665 -29.42 0.0007589057    1.445    0.308
        30 -12.2718     51.8335    233.6566   1.3358289409e+02   2.1748408765e+01    0.3118836    0.2356033  37.18  0.001603248    1.833    0.454
        31  -9.2067    107.1619    122.5179   1.0709595301e+02   3.6350837570e+01    0.1893587    0.1397006  43.06 0.0003730409    1.412    0.292
        32  -9.7255     33.3140    122.3194   1.2566883927e+02   4.6216608654e+01      0.11833   0.07711186 -44.65 0.0007038408    1.652    0.395
        33 -10.9799    167.9368    112.9833   9.0243011914e+01   2.5753738624e+01    0.3653738    0.2930047 -78.84 0.0008421016    1.549    0.355
        34 -12.9720    106.1437    244.2450   1.2561244185e+02   1.2365723430e+01    0.6445209    0.4111876  73.57  0.003457531    1.525    0.344
        35 -10.9484      2.0647     89.5737   1.2890510245e+02   5.5387878447e+01    0.3074513    0.0971392 -63.11  0.001567167    2.146    0.534
        36 -11.5728      2.3642     80.1319   1.2735948037e+02   5.7281156721e+01    0.6490992          nan -62.32  0.001953975    6.190    0.838
        37  -9.8896    108.6639     42.2668   8.4030707534e+01   5.1468473042e+01    0.2110111    0.2023218  64.70 0.0006081388    1.266    0.210
        38 -12.8935     54.7382    238.7564   1.3350172381e+02   2.0503609287e+01    0.4590282    0.2348759  56.32  0.002206444    1.525    0.344
        39 -10.3662    189.9158     15.4931   5.8850029786e+01   3.5640244357e+01    0.2157921    0.1257582  67.68 0.0006224667    1.554    0.357
