#   1 NUMBER                 Running object number                                     
#   2 MAG_AUTO               Kron-like elliptical aperture magnitude                    [mag]
#   3 X_IMAGE                Object position along x                                    [pixel]
#   4 Y_IMAGE                Object position along y                                    [pixel]
#   5 X_WORLD                Barycenter position along world x axis                     [deg]
#   6 Y_WORLD                Barycenter position along world y axis                     [deg]
#   7 A_WORLD                Profile RMS along major axis (world units)                 [deg]
#   8 B_WORLD                Profile RMS along minor axis (world units)                 [deg]
#   9 THETA_WORLD            Position angle (CCW/world-x)                               [deg]
#  10 FWHM_WORLD             FWHM assuming a gaussian core                              [deg]
#  11 ELONGATION             A_IMAGE/B_IMAGE                                           
#  12 ELLIPTICITY            1 - B_IMAGE/A_IMAGE                                       
         1 -13.3242    220.8544     52.5761   2.4628330928e+01   2.3085214370e+01     1.451325     1.257951  59.46  0.007335826    1.189    0.159
         2 -13.2318    238.6191     39.6255   1.9093468906e+01   2.0550742533e+01     1.049167    0.8783471  54.52  0.006049149    1.326    0.246
         3 -11.7429      3.0661     11.7356   7.5191864016e+01   7.1973508836e+01    0.4554553    0.2084411 -57.09  0.002607238    2.134    0.531
         4  -8.5813    198.5946    222.8251   6.7267137824e+01  -4.9289729739e-01    0.1414681    0.1236432 -52.24 0.0002916732    1.531    0.347
         5 -10.9819    139.8130    249.5062   8.1826489151e+01   5.5643662522e+00     0.383842    0.1366767  50.29  0.001733143    2.433    0.589
         6 -10.7279     81.1130    249.8019   9.2159370984e+01   1.4403019446e+01    0.2713963    0.1653015  58.65  0.001122726    1.235    0.191
         7 -11.1951     83.0173    244.2657   9.1385429610e+01   1.5059653440e+01    0.2874626    0.1980847  20.61  0.001650117    2.726    0.633
         8 -12.0535     38.2875    173.1551   9.3711991695e+01   3.4715202652e+01    0.4025432    0.3299788  22.43 0.0005461919    1.727    0.421
         9 -15.6307      7.9383    239.8962   1.0339867983e+02   2.4820710658e+01      8.13793     5.044989 -88.21   0.04470887    1.366    0.268
        10 -14.3963     10.2434    191.7942   1.0066205710e+02   3.3584278322e+01     1.492684    0.6440843  84.70  0.003144861    2.016    0.504
        11 -12.8237      2.6949    197.1709   1.0231290915e+02   3.3186307659e+01    0.3326513     0.197488 -82.77 0.0008118057    1.355    0.262
        12 -10.3433     79.2996    208.1039   8.8745842509e+01   2.2203867785e+01    0.3055524    0.1797267  87.85 0.0007357594    1.821    0.451
        13  -8.7478    196.3219    199.6887   6.3787776598e+01   3.3701029753e+00    0.1282489    0.1050299  70.43 0.0007037859    1.651    0.394
        14  -8.9600    191.9796    193.0036   6.3438360273e+01   5.2688331532e+00    0.2236753    0.1510991 -68.45  0.001011186    2.610    0.617
        15 -11.8013     46.4817    167.3418   9.1354305426e+01   3.5080821564e+01    0.2795392    0.2419326 -68.31 0.0006747089    1.288    0.224
        16 -10.0731    230.5023    168.8495   5.1221124213e+01   1.7562734837e+00    0.2736031    0.1298561 -37.16  0.001187414    2.130    0.531
        17  -8.4218    110.5470    167.4563   7.6639950398e+01   2.5771767873e+01    0.1423981    0.1252176  73.31 0.0002426946    1.042    0.040
        18 -11.7809     74.1887    137.7938   8.0654290733e+01   3.8354609139e+01    0.3727326    0.3032983 -77.62 0.0004393053    1.117    0.105
        19 -13.1225     68.1664    143.6908   8.3153993894e+01   3.7799999028e+01     1.181335     0.649694  74.39  0.003175203    2.526    0.604
        20 -10.7987     60.0941    158.2672   8.7180053340e+01   3.5484953628e+01    0.2378341    0.2081192  72.92 0.0004043628    1.108    0.097
        21 -13.2205     44.7241    154.1216   9.0290277616e+01   3.8247014877e+01    0.5475037    0.4204964  -4.04  0.001542628    2.152    0.535
        22  -9.7339    239.3241    149.3329   4.5431773945e+01   3.1361166878e+00    0.1477938    0.1025052   7.05 0.0005374032    1.707    0.414
        23  -8.4469    134.3119    147.9989   6.7351691633e+01   2.5601728232e+01    0.2384122    0.1215849 -71.34 0.0005942849    4.146    0.759
        24  -8.9654     85.5498    152.6613   8.0220987073e+01   3.3219935374e+01    0.1738537    0.1237291 -79.22  0.000416754    1.396    0.284
        25 -10.7989     42.4174    145.7787   8.9848784242e+01   4.0402381912e+01    0.3416807    0.2001728  68.33  0.001169143    1.815    0.449
        26 -10.6203     87.0305    140.5075   7.7788385111e+01   3.5814451604e+01    0.3121734    0.2906964 -80.18  0.000923045    1.064    0.060
        27  -9.4103     90.9900    137.5048   7.6210963071e+01   3.5891001071e+01    0.2135236     0.191449 -38.77 0.0005312306    1.283    0.220
        28 -10.6485    242.5094    137.0207   4.2122336139e+01   4.4794816737e+00    0.2235223    0.1306029 -33.23 0.0008714299    1.609    0.378
        29 -10.5106    104.6030    130.1648   7.1162257235e+01   3.5302197059e+01    0.5365877    0.3324839  46.08  0.002436523    1.637    0.389
        30 -12.2788     69.2547    152.3360   8.4172259832e+01   3.5646046479e+01    0.6510226    0.4400699  55.23  0.001437024    1.462    0.316
        31 -11.0727     67.0138    127.1860   8.0742669144e+01   4.1832894326e+01    0.4844029    0.2437906 -70.87  0.002135029    2.046    0.511
        32 -11.3996     56.4183    128.1788   8.3782599043e+01   4.2927764793e+01    0.3387792    0.2549384  16.73  0.001925994    1.774    0.436
        33 -10.2692     88.7418    125.5234   7.4480328190e+01   3.9062501966e+01    0.2752428    0.2560517   5.51 0.0006133039    1.289    0.224
        34 -10.6010    244.5983    124.7998   3.8966710012e+01   6.0324397364e+00     0.213832    0.1216527 -42.58 0.0009610923    1.740    0.425
        35 -10.4037     37.8146    124.3955   8.8215507170e+01   4.5818755821e+01    0.2455728    0.1719281 -40.68  0.001434752    1.680    0.405
        36 -11.9211     52.1912    109.6508   8.1778289531e+01   4.7769160054e+01     0.874077    0.2607937 -67.84  0.002823505    3.948    0.747
        37 -10.0518    101.7960    238.3957   8.7523988852e+01   1.3307981051e+01    0.1645319   0.09689132  38.54 0.0009509338    1.647    0.393
        38  -9.3191    101.9801    118.2653   6.9268467170e+01   3.8531024387e+01    0.2326761    0.1964367 -55.30 0.0004056054    1.134    0.118
        39  -8.1794    125.5465    116.5226   6.2462535028e+01   3.4413230889e+01    0.1531848    0.1470446 -84.50 5.839604e-05    1.038    0.037
        40  -9.5521    111.9311    124.1776   6.7901696805e+01   3.5348231430e+01    0.3475563    0.2075049  17.24  0.001238878    3.181    0.686
        41  -9.2638    204.7273    110.7908   4.2687532038e+01   1.7335590387e+01    0.3851748    0.1868856  38.64  0.001389311    2.432    0.589
        42 -11.2510    245.1807    107.1061   3.4709672277e+01   8.7842172116e+00    0.2564552    0.2288387  85.59  0.001444607    1.323    0.244
        43 -15.3437     23.1073    182.6061   9.7608407623e+01   3.4258686054e+01     6.086169     1.879503  89.38   0.02138547    4.858    0.794
        44  -9.5506     55.6758    105.3327   7.9918061237e+01   4.8379977995e+01    0.2032126    0.1450354  78.90  0.001079056    1.706    0.414
        45 -10.9565    241.8595    101.9091   3.3982206948e+01   1.0349032291e+01    0.2260842    0.1972715   2.92  0.001242333    1.247    0.198
        46  -8.9174     34.8569     97.8496   8.4844044503e+01   5.2241244361e+01    0.1665195    0.1347199  85.73  0.000490742    1.309    0.236
        47 -11.3951    243.0140     91.1960   3.1206905530e+01   1.1826501620e+01    0.2967534     0.238207  83.06  0.001563971    1.479    0.324
        48  -8.0138     83.5196     92.5161   6.8422211890e+01   4.7531813552e+01    0.1421599    0.1312211 -51.51 7.282702e-05    1.017    0.017
        49  -9.6230     41.5205     92.0751   8.1658717917e+01   5.2946439284e+01    0.1777716    0.1615779 -53.61 0.0004915404    1.099    0.090
        50 -10.8940     52.7069     90.8432   7.7805733100e+01   5.2060751782e+01    0.4221349    0.1875986 -53.23  0.001754615    1.869    0.465
        51 -10.1314    167.0010     87.0227   4.4116645429e+01   3.1057842277e+01    0.2613008     0.197046  16.11 0.0008595032    1.716    0.417
        52 -10.8726    129.1274    230.2298   8.1558152829e+01   1.0352416485e+01    0.2556006     0.141604  55.15  0.001369044    1.619    0.382
        53 -10.0910    184.4397     77.5709   3.7697888917e+01   2.8374848363e+01       0.2757    0.2506458  17.46 0.0007355344    1.204    0.170
        54 -10.2413    120.8119    230.6047   8.3176796900e+01   1.1650420834e+01    0.1897283   0.09048319  50.50 0.0009572352    1.729    0.422
        55  -9.5289    249.5097    249.5142   6.2477926612e+01  -1.1737762002e+01    0.1139941    0.0829446  19.65 0.0001320461    1.020    0.019
        56 -10.5141    134.3420    248.8143   8.2731658416e+01   6.5455429031e+00    0.2656934    0.1609167 -75.26  0.001398943    2.414    0.586
        57 -10.7168     13.3512     59.9245   8.4648132113e+01   6.2174028499e+01    0.2459987    0.1737943 -63.94  0.000469569    1.205    0.170
        58 -13.8730      9.2787    207.2882   1.0168542917e+02   3.0630147449e+01     1.543702     1.104012  13.60  0.004850536    2.669    0.625
        59  -8.7474     94.5511     46.5135   5.0320611207e+01   5.4850987459e+01    0.1403774    0.1278588  -5.24 7.475499e-05    1.015    0.015
        60 -10.3197      2.6474     38.6679   8.3913185583e+01   6.7042468632e+01    0.2087352    0.1244729 -84.28  0.001185359    2.418    0.586
