#   1 NUMBER                 Running object number                                     
#   2 MAG_AUTO               Kron-like elliptical aperture magnitude                    [mag]
#   3 X_IMAGE                Object position along x                                    [pixel]
#   4 Y_IMAGE                Object position along y                                    [pixel]
#   5 X_WORLD                Barycenter position along world x axis                     [deg]
#   6 Y_WORLD                Barycenter position along world y axis                     [deg]
#   7 A_WORLD                Profile RMS along major axis (world units)                 [deg]
#   8 B_WORLD                Profile RMS along minor axis (world units)                 [deg]
#   9 THETA_WORLD            Position angle (CCW/world-x)                               [deg]
#  10 FWHM_WORLD             FWHM assuming a gaussian core                              [deg]
#  11 ELONGATION             A_IMAGE/B_IMAGE                                           
#  12 ELLIPTICITY            1 - B_IMAGE/A_IMAGE                                       
         1 -10.5891     73.1393     56.7239   4.7672844803e+01   5.6144170298e+01    0.7806222    0.1968516 -46.53  0.002520761    3.546    0.718
         2 -10.4853    122.8685     42.1030   2.6811154987e+01   4.9063122904e+01    0.5247748    0.2240134 -20.77  0.001673279    3.444    0.710
         3 -10.8702     40.9423     13.8947   4.3775953794e+01   6.8360971699e+01     0.194465    0.1507969 -20.43  0.000282782    1.033    0.031
         4  -9.7123     97.4973     12.5153   2.1762727632e+01   5.8854353861e+01    0.2496509    0.1276025 -10.13  0.001032501    2.390    0.582
         5  -8.9119     67.3824      1.2298   2.6150608561e+01   6.6111911952e+01    0.1325195   0.08114429  22.21 0.0006896036    1.621    0.383
         6  -9.3993     16.6769    238.3058   8.6011038488e+01   2.5243527125e+01    0.1043726   0.04568164  62.94 0.0003881383    1.642    0.391
         7 -10.0986     52.6221    249.6019   8.1018850350e+01   1.9589950471e+01    0.1960728   0.08885898  45.55  0.001162227    1.653    0.395
         8 -10.1513     20.5147    249.5362   8.5880696781e+01   2.3107591638e+01    0.1632369   0.06478237  82.94  0.001036637    2.363    0.577
         9  -9.6706     13.2527    250.3992   8.6970687837e+01   2.3698751278e+01    0.1383829    0.0531249  50.63 0.0007258247    1.724    0.420
        10 -10.0250    231.1444    233.9164   4.9151248826e+01  -4.7022069479e+00    0.1675162    0.1330732  31.96 0.0009339326    1.249    0.199
        11 -10.6750     91.0217    230.4801   7.3302425801e+01   1.7660864295e+01    0.2022585    0.1323541 -45.46  0.001275283    2.438    0.590
        12 -11.0493    162.3812    225.2856   5.9892829408e+01   7.4152421280e+00    0.3611547     0.226998  31.57  0.002151894    1.495    0.331
        13 -10.7313     87.7820    227.3784   7.3603060246e+01   1.8611122185e+01    0.1962644    0.1223714  40.55 0.0008776415    1.484    0.326
        14 -11.2856     98.6518    225.3101   7.1477961369e+01   1.7410896812e+01    0.3176509    0.1779437  42.75   0.00118525    1.487    0.328
        15 -11.1520    126.3273    220.8962   6.5962688351e+01   1.3924634893e+01    0.2837282    0.1936671  65.33 0.0008319742    1.492    0.330
        16 -10.3495    115.0151    220.9952   6.8061498643e+01   1.5670953987e+01    0.1661281    0.1397268  15.16 0.0008460394    1.681    0.405
        17 -10.8867     95.5192    217.5333   7.1298547663e+01   1.9148396737e+01       0.2647    0.1719708  75.31 0.0008793888    1.586    0.370
        18  -9.7153     99.8599    217.1305   7.0456666671e+01   1.8583457298e+01     0.210458    0.1241994  51.66 0.0005417474    1.348    0.258
        19  -9.7470     74.8534    219.2721   7.5216644427e+01   2.1715274976e+01    0.1910595    0.1041874  57.50 0.0008919957    1.487    0.328
        20 -10.2252    170.4407    215.2623   5.7036190141e+01   7.4623358268e+00    0.2387143    0.1827136  37.62 0.0007797157    1.055    0.052
        21  -9.4317    143.4904    216.5308   6.2235220067e+01   1.1822177251e+01    0.1235542   0.09851238  45.49 3.815079e-05    1.022    0.022
        22  -9.0656    131.3197    214.3193   6.4246529724e+01   1.4165557855e+01    0.1140836   0.09061947  17.13 0.0006885131    1.664    0.399
        23 -10.2023     77.0775    211.4065   7.4133848325e+01   2.2783859170e+01     0.200984    0.1581495  38.89  0.001412189    1.434    0.303
        24  -9.4574    116.3180    210.6370   6.6654330925e+01   1.7169794241e+01    0.1276637   0.07966892  68.13 0.0007041312    1.770    0.435
        25 -10.3091    124.0324    205.9765   6.4605485554e+01   1.6720563669e+01    0.1775889     0.143335  54.41            0    1.022    0.022
        26 -10.5806    164.9307    202.3215   5.6163955652e+01   1.0324585309e+01    0.2628248    0.1908424 -70.84  0.001479049    2.055    0.513
        27  -9.3631    212.3228    202.6548   4.7378705365e+01   1.9033620496e+00    0.1144219   0.09829168  68.39 0.0007050087    1.736    0.424
        28 -10.0277      4.8023    200.8160   8.6356189745e+01   3.2730769032e+01    0.1496921    0.0816891  67.72  0.001071642    1.355    0.262
        29 -12.4330    177.6313    197.0575   5.2892314794e+01   8.8481944660e+00     0.589624    0.3418339  43.65  0.003117653    1.452    0.311
        30  -9.7843    112.9792    194.2870   6.5313135279e+01   2.0554727829e+01    0.1813448    0.1763719  -0.34 0.0003790066    1.347    0.258
        31  -9.3904    105.3994    197.7364   6.7259570605e+01   2.1127745085e+01    0.1506704    0.1140087 -53.48 0.0007619899    1.601    0.375
        32 -10.4188    125.7295    197.0086   6.3107884954e+01   1.7981062461e+01    0.2648936    0.1569831  29.20  0.001330805    2.058    0.514
        33  -9.8790     66.6523    194.6617   7.4595051321e+01   2.7225712857e+01    0.2484132    0.1261891  68.47  0.001138134    2.061    0.515
        34 -11.8981    173.0780    195.8086   5.3567678035e+01   9.8616916763e+00    0.2968102    0.2407726  28.69   0.00143864    1.142    0.124
        35 -11.4727    164.4329    195.5228   5.5206217805e+01   1.1470106944e+01    0.5590995    0.3525926  79.31  0.002325119    3.570    0.720
        36  -9.5731    138.9799    189.2169   5.9323647996e+01   1.7071951463e+01    0.1792885    0.1390735  88.78 0.0008280553    1.596    0.373
        37 -11.1738     98.1395    188.1014   6.7562919091e+01   2.4032137798e+01    0.4134148     0.186669  51.79  0.001048806    2.016    0.504
        38 -11.5275     94.6033    182.8155   6.7644557854e+01   2.5585193821e+01    0.4434581    0.3089768  85.73  0.002028525    1.528    0.346
        39 -11.8180     10.9403    187.3608   8.4630555084e+01   3.4678050229e+01    0.3048385    0.1502669  37.16  0.001427731    2.058    0.514
        40  -9.1857    165.3190    186.6418   5.3586849679e+01   1.2734352383e+01    0.1326009    0.1007819  74.16  0.000704444    1.760    0.432
        41 -10.1191    109.9348    185.0253   6.4724184266e+01   2.2759035568e+01    0.3087714    0.2031643  45.05  0.001749811    1.341    0.254
        42 -10.9786    174.7740    183.5157   5.1167448320e+01   1.1472906106e+01       0.2918    0.1910736 -65.38  0.001392142    2.494    0.599
        43 -10.0305     44.2318    181.0385   7.7831084122e+01   3.2579648789e+01    0.3499572   0.09116196 -76.71  0.001283498    4.565    0.781
        44 -10.2009     20.2272    180.8602   8.2520663240e+01   3.5080693494e+01    0.2574108    0.1199284 -83.82  0.001218907    1.836    0.455
        45 -11.2659     10.0236    180.0132   8.4403669073e+01   3.6164252577e+01    0.1625613    0.1181433  78.08 0.0003332347    1.009    0.009
        46 -10.7776     13.9215    178.4085   8.3575002054e+01   3.6134449443e+01    0.2114356    0.1275147 -77.12  0.001186703    1.450    0.310
        47 -11.7055      3.3599    177.9219   8.5538499200e+01   3.7127109480e+01    0.2815781    0.2242485  41.81  0.002298929    1.511    0.338
        48 -10.9052    204.2563    188.1343   4.6310522237e+01   5.2809434531e+00     0.249826    0.1686001  62.76  0.001250085    2.210    0.548
        49 -10.2296     77.3101    175.4277   7.0412654674e+01   2.9563943343e+01    0.2103389    0.1306083  84.97 0.0007419542    1.743    0.426
        50 -10.2014    148.2150    174.8057   5.5099910154e+01   1.7955801149e+01    0.1870488    0.1564715  19.17 0.0007940808    1.353    0.261
        51 -10.0778    147.7867    179.9939   5.6058869456e+01   1.7109107931e+01    0.2140048    0.1533322  85.16  0.001078275    2.024    0.506
        52 -10.6435    177.1798    169.6217   4.8153585619e+01   1.3282265145e+01    0.3743995    0.2368563 -41.41  0.001878032    1.773    0.436
        53  -9.7295    134.8387    171.0557   5.7322760398e+01   2.1118547382e+01    0.2182576    0.1530945  88.14  0.001075367    1.991    0.498
        54 -11.0326    206.6632    168.9923   4.2232840437e+01   7.5985515704e+00    0.3035847    0.1608486 -40.88  0.001407828    2.146    0.534
        55 -10.8603    121.7766    168.8897   5.9816646443e+01   2.3871129119e+01    0.4200035    0.2719454 -73.17  0.001938745    1.923    0.480
        56  -9.1546    168.6330    169.3166   4.9849080285e+01   1.5011349059e+01    0.1410026    0.1068187  73.64 0.0007038182    1.777    0.437
        57  -9.4193    149.6783    169.3263   5.3836656158e+01   1.8673982721e+01    0.1395622    0.1044764  74.57 0.0007047786    1.686    0.407
        58 -10.4687    139.3501    164.8532   5.5277818203e+01   2.1461331984e+01    0.3641258    0.2464039 -84.49  0.001540463    2.261    0.558
        59  -9.9654     98.7635    165.5971   6.4425293799e+01   2.8378307292e+01    0.1944704    0.1065571  51.32 0.0009279283    1.709    0.415
        60 -10.1985     80.1190    163.9942   6.8386902074e+01   3.1517838533e+01    0.3087147    0.1539166  89.50  0.001236496    3.259    0.693
        61  -9.7628    177.8241    160.6846   4.6281598888e+01   1.4665407054e+01    0.2533649    0.1902811 -75.32   0.00122759    2.061    0.515
        62 -10.2895    146.8910    159.4230   5.2634754850e+01   2.1054873210e+01    0.2067717    0.1897599 -83.56 0.0003687894    1.199    0.166
        63 -10.1463     92.7775    159.9207   6.4952656084e+01   3.0491266008e+01     0.249714    0.1708997  88.20  0.001138909    1.636    0.389
        64 -10.4210    197.2849    157.4184   4.1692112219e+01   1.1255294709e+01    0.2322583    0.1758834 -57.66  0.001182539    1.799    0.444
        65 -10.7903    188.4872    156.5453   4.3263601222e+01   1.3193966836e+01    0.3523292    0.2278221 -52.55  0.001535931    1.995    0.499
        66 -10.2294    167.9070    157.2882   4.7676784583e+01   1.7268962597e+01    0.3036972     0.207971 -61.99  0.001437897    1.977    0.494
        67 -10.0936    142.0405    158.5155   5.3537012116e+01   2.2165520226e+01    0.2206931    0.1287796  43.81 0.0006405595    1.569    0.363
        68  -9.3122    128.3460    158.6719   5.6633343331e+01   2.4710632918e+01    0.1460596    0.1031058  74.12 0.0007050175    1.752    0.429
        69 -10.0348    105.2390    157.2889   6.1682337141e+01   2.9042919389e+01    0.2741411    0.1976781  83.55 0.0009481678    1.584    0.369
        70 -12.3664    205.9220    154.3270   3.9363224753e+01   9.9890686057e+00    0.5154007    0.3909254 -77.49  0.002448678    2.349    0.574
        71 -10.6876     68.0986    153.5234   6.9771371557e+01   3.5391102843e+01    0.3933043    0.2276086  84.45  0.001479245    2.032    0.508
        72 -10.1163     49.4916    154.5308   7.4175205293e+01   3.7458802747e+01    0.2873791    0.1408548  69.69  0.001219501    2.401    0.583
        73 -10.5925    133.5808    152.9434   5.4401603778e+01   2.4875722151e+01    0.4531137    0.2895106  80.53  0.001883171    2.624    0.619
        74 -10.2843     81.7548    153.9666   6.6642474265e+01   3.3405584136e+01    0.2466305    0.1665352 -89.81 0.0006878286    1.588    0.370
        75 -11.3236    249.3789    150.9885   3.0888629265e+01   1.9881972780e+00    0.3056695    0.1175859 -29.99  0.001265845    2.507    0.601
        76 -11.9591    189.0558    148.6938   4.1489000626e+01   1.4396075196e+01     0.663978    0.3799012 -54.83   0.00274485    2.534    0.605
        77  -9.1302    162.6600    150.3477   4.7394969241e+01   1.9604882135e+01    0.1479947    0.1143307  82.88  0.000704621    1.789    0.441
        78  -9.6338    119.2815    154.4639   5.7962929024e+01   2.7204359660e+01    0.2370346    0.1659525 -83.85 0.0009022954    1.813    0.448
        79 -10.6449     56.2008    145.5267   7.1554846422e+01   3.8627199292e+01    0.4479394    0.2105203  66.70  0.001935549    2.845    0.648
        80  -9.9760     38.8709    146.7794   7.5782588366e+01   4.0281249763e+01    0.2450404    0.1256699  78.40  0.001237311    2.155    0.536
        81  -9.4863    175.6050    145.8225   4.3659584978e+01   1.7730834958e+01    0.1999171    0.1381489 -52.42 0.0008037082    1.716    0.417
        82 -11.1253    149.1372    144.3267   4.9152843592e+01   2.3520449579e+01     0.590564    0.3699772 -66.23   0.00229821    2.279    0.561
        83 -10.4082    107.0079    144.7618   5.9144422504e+01   3.1387711988e+01    0.4900571    0.2805993  80.83  0.001820321    3.359    0.702
        84  -9.6965    166.0194    144.0360   4.5334521740e+01   2.0078107510e+01    0.2329847    0.1835214  86.75  0.001130351    1.756    0.431
        85 -10.6673    124.8888    142.3524   5.4400169626e+01   2.8680595244e+01    0.4837768    0.2869275 -81.31  0.001805301    3.190    0.687
        86 -10.7803     87.8294    143.1013   6.3528325411e+01   3.4856777240e+01    0.4199082    0.2285229 -85.18  0.001714698    2.819    0.645
        87  -9.9591    183.4513    151.1734   4.3164980916e+01   1.5144303572e+01    0.2979902    0.2279918  82.59  0.001424131    1.997    0.499
        88  -9.7872    182.6331    141.3681   4.1205878821e+01   1.7026311578e+01    0.2183857    0.1818662 -89.73  0.000984717    1.639    0.390
        89 -10.2483     68.9827    139.6867   6.7646268853e+01   3.8302617949e+01    0.2815534    0.1488191  86.16  0.001177412    2.805    0.644
        90 -10.5864    198.0246    136.6591   3.7008281422e+01   1.4515001603e+01    0.3366553    0.2280958 -40.12  0.001449994    1.568    0.362
        91  -9.8057    172.5238    137.7107   4.2532280995e+01   1.9861634557e+01    0.2900201    0.2071233 -74.38  0.001262585    2.215    0.548
        92 -10.8385     22.8288    135.8393   7.8449159234e+01   4.4172138636e+01    0.6504884    0.1903778 -82.23  0.002363727    4.136    0.758
        93 -10.4995    188.2511    135.1192   3.8627964665e+01   1.6905446618e+01    0.3367039      0.23726 -39.31  0.001042536    1.493    0.330
        94  -9.5224    162.5852    135.8138   4.4285763347e+01   2.2354915183e+01    0.2073843    0.1414709 -55.16 0.0009457234    1.721    0.419
        95 -10.3476     42.9808    135.8195   7.3562564406e+01   4.2257165456e+01    0.2089265    0.1131723  61.08 0.0007788365    1.967    0.492
        96  -9.5779    193.6629    135.2872   3.7565291258e+01   1.5694849672e+01    0.1421134    0.1193806  87.78 0.0003586745    1.632    0.387
        97  -9.9324    179.7683    133.3055   3.9978665492e+01   1.9086473960e+01    0.3462394    0.1969044 -53.88  0.001390826    2.324    0.570
        98  -9.8465    112.7648    133.1653   5.5538993958e+01   3.2868251331e+01    0.3278351    0.2006013 -89.86   0.00126071    2.937    0.660
        99 -10.9616    111.7021    128.5416   5.4867284837e+01   3.4062619181e+01    0.4846482    0.3452999  -4.66  0.002119411    2.462    0.594
       100 -10.6958    116.9811    122.9813   5.2338707696e+01   3.4292780342e+01    0.7367419    0.3759657 -61.19  0.002904437    2.381    0.580
       101 -10.8034     83.3781    131.2094   6.2640420461e+01   3.8162706106e+01    0.4317112    0.2666937 -87.55  0.001766365    2.100    0.524
       102  -9.7499    143.0363    131.4846   4.7807112857e+01   2.7332407770e+01    0.2860313    0.2099265 -66.70  0.001186257    1.658    0.397
       103 -10.6183    131.9212    130.2423   5.0200122826e+01   2.9846142562e+01    0.5627641    0.2914885 -59.91  0.002192686    2.453    0.592
       104 -10.5503     40.0088    131.0318   7.3717777972e+01   4.3629272622e+01    0.1904139     0.156826 -89.11 0.0006606606    1.021    0.020
       105 -10.4029    152.8767    128.4698   4.4820159862e+01   2.5863478027e+01    0.4705205    0.2177431 -51.85  0.001721743    2.554    0.608
       106 -11.6280     98.6584    125.3842   5.7582407190e+01   3.7036676441e+01    0.9122526    0.4046419 -61.17  0.003585488    2.475    0.596
       107  -9.9917    192.7695    129.6012   3.6418793623e+01   1.6868403051e+01     0.208495    0.1403754  56.34 0.0009467484    1.623    0.384
       108  -9.8809    186.9351    128.7342   3.7407329601e+01   1.8316933164e+01    0.2704999    0.1930507 -50.02  0.001271409    1.615    0.381
       109 -10.1275    168.6463    128.7027   4.1308770461e+01   2.2384491151e+01    0.3015432    0.2366317 -61.03  0.001119695    1.536    0.349
       110 -10.1684     72.8537    128.4463   6.4896962620e+01   4.0295760041e+01    0.3259366    0.1729838 -79.75  0.001411756    2.393    0.582
       111 -10.1505     12.6668    128.8418   8.0231902296e+01   4.6508119655e+01    0.2576533    0.1041377  78.64  0.001150925    3.000    0.667
       112 -10.7329     59.2379    123.6373   6.7703088346e+01   4.3153165678e+01    0.5603536    0.2768525  84.78  0.002071554    3.733    0.732
       113 -10.6140    180.0174    124.4943   3.7842641580e+01   2.0626699905e+01     0.422002    0.2031829 -42.73  0.001102616    2.186    0.542
       114 -10.1322    188.6055    123.5778   3.5825264595e+01   1.8852107491e+01    0.2977413    0.1872437 -39.76  0.001327723    1.646    0.392
       115 -11.1968     43.1618    121.0781   7.1597748474e+01   4.5543773825e+01    0.7601807    0.3150992 -87.70  0.002671278    4.200    0.762
       116 -11.2902     28.8287    122.3275   7.5517005808e+01   4.6633729050e+01    0.4811825    0.2183243  75.61  0.002096745    3.058    0.673
       117 -10.4566    103.0236    118.6557   5.5037264377e+01   3.7781411114e+01    0.2182777    0.1896488 -60.25  0.000459343    1.121    0.108
       118  -9.5964    172.5462    120.2881   3.8427750308e+01   2.3090763458e+01    0.2866427    0.1472712 -43.63  0.001129227    2.045    0.511
       119  -9.7299    158.2819    120.2298   4.1615892952e+01   2.6305810323e+01    0.3338748    0.1814725 -52.49  0.001309694    2.177    0.541
       120 -10.9374    141.5881    117.6103   4.4934195480e+01   3.0469006591e+01    0.7779537    0.3150338 -53.84   0.00253621    3.207    0.688
       121 -10.4056     70.8931    119.2212   6.3821845254e+01   4.2655513032e+01    0.3411009    0.1695154 -79.64  0.001324877    2.974    0.664
       122 -10.4002    130.4250    117.5948   4.7694925736e+01   3.2802754395e+01    0.4124994    0.2449384 -68.09  0.001588067    2.550    0.608
       123 -10.7640      2.7547    116.2783   8.1559602884e+01   4.9915807063e+01    0.4584519    0.1575979  82.09  0.001790984    4.043    0.753
       124 -11.3683    108.7180    112.3403   5.2106565084e+01   3.8154779150e+01    0.7373334    0.2999154 -57.17  0.002611445    2.813    0.645
       125 -10.1300    185.8897    114.8707   3.4230412726e+01   2.1018158798e+01    0.2895975    0.2078581 -40.18  0.001356873    1.437    0.304
       126 -10.9022     21.0942     92.7650   7.3777624404e+01   5.3909832815e+01    0.4066396    0.1204675 -49.56  0.001680763    3.156    0.683
       127 -12.8380     15.6485    106.5672   7.7169588878e+01   5.1205316574e+01    0.8043837    0.3049331 -55.65  0.004000143    2.265    0.558
       128 -10.2519    121.7503    111.3349   4.8417041545e+01   3.5880969030e+01    0.3914318    0.2021506 -54.52  0.001510226    2.091    0.522
       129  -9.9594    174.5846    110.3335   3.5472207871e+01   2.4473502616e+01    0.3097411    0.1446033 -42.94  0.001146742    2.227    0.551
       130  -9.7612    159.3182    110.6152   3.8967997682e+01   2.7948123908e+01    0.3138608    0.1923962 -38.16   0.00133908    1.682    0.405
       131 -10.8736     66.2338    109.4067   6.3306133135e+01   4.5517822321e+01    0.4492453    0.2233535 -75.34  0.001856514    2.571    0.611
       132 -11.3151     22.5961    101.4752   7.4569618185e+01   5.1834710771e+01    0.6259691    0.2709918  72.52  0.002423522    4.113    0.757
       133  -9.9902    133.3312    108.5300   4.4738305500e+01   3.4100905373e+01    0.3057334    0.1914008 -49.86  0.001203953    1.646    0.392
       134 -11.0602     92.4518    110.2881   5.6088576533e+01   4.1445830916e+01    0.8850458    0.3102582 -57.93  0.003067719    3.032    0.670
       135 -11.1331     45.3047    101.5982   6.7959017770e+01   4.9760948319e+01    0.6971534    0.3392263  75.54  0.002462563    4.478    0.777
       136 -10.4608    149.9429    100.6824   3.8560718634e+01   3.2038763981e+01    0.7413954    0.1996282 -45.55  0.002036313    4.040    0.752
       137 -10.5353    128.4282    100.0380   4.3798126306e+01   3.6908170446e+01    0.4857721    0.2290578 -40.77  0.001842709    2.181    0.542
       138 -11.0025     78.7805    111.4050   6.0147645238e+01   4.3320912283e+01    0.6627044    0.3092147 -73.07  0.002379079    3.308    0.698
       139  -9.1761    175.5101    100.5096   3.2676744671e+01   2.6061631938e+01    0.1557255    0.1496483  18.95 0.0008105144    1.009    0.009
       140  -9.5406    159.8116     99.4163   3.5885772898e+01   2.9996671630e+01    0.3098905    0.1172624 -41.56  0.001022667    2.670    0.625
       141 -10.9151    108.9240     98.3030   4.8618467847e+01   4.1185925828e+01    0.6038917    0.4094435  87.96  0.002389899    2.474    0.596
       142 -10.1379     81.7439     99.0104   5.6612034899e+01   4.5687771563e+01    0.4152208     0.193262 -67.37  0.001524152    2.957    0.662
       143 -10.4349     94.9540     94.8596   5.1725696852e+01   4.4467260596e+01    0.6239512    0.1960101 -50.07  0.002098873    2.993    0.666
       144 -10.9528     63.5520     95.5182   6.1293051032e+01   4.9038023593e+01    0.4452304    0.2653877 -85.40  0.001625217    2.437    0.590
       145 -10.1471     43.6553     92.6255   6.6834758269e+01   5.1978442934e+01    0.2001193    0.1334886 -38.94  0.001116134    1.643    0.391
       146  -9.5101    177.0000     92.0295   3.0029350099e+01   2.7233297914e+01    0.2626455   0.08906702 -35.61 0.0008074243    2.977    0.664
       147  -9.9837    138.4796     90.1004   3.8456626930e+01   3.6744992044e+01    0.4194465    0.1512399 -41.52  0.001371551    2.771    0.639
       148 -10.6826    124.4651     88.7878   4.1754153054e+01   4.0079243535e+01    0.6923258    0.2802531 -42.76  0.002458152    2.447    0.591
       149 -11.4469      4.5240     90.0950   7.8382980377e+01   5.5566217227e+01    0.3941356    0.1295995 -85.73  0.001516466    3.798    0.737
       150 -10.7255     34.5725     86.7287   6.8591035272e+01   5.4181801652e+01    0.7714152    0.1849388 -61.97  0.002896713    3.097    0.677
       151 -10.1299    139.4944    102.7906   4.1694946307e+01   3.3957684644e+01    0.4962222    0.2067493 -45.33  0.001759561    2.442    0.591
       152 -10.7450     86.4936     86.2276   5.2020122968e+01   4.7788086386e+01     0.384942    0.2592141 -86.37  0.001485745    2.400    0.583
       153 -10.5489     48.3345     83.6125   6.3525392416e+01   5.3535125542e+01    0.4093507    0.2337523 -85.05  0.001841275    2.548    0.608
       154 -10.0810     49.2019     77.1876   6.1791613640e+01   5.4883457884e+01    0.3491874    0.1554593 -30.62  0.001201857    4.375    0.771
       155 -10.9813    104.2966     81.4113   4.5316956864e+01   4.5678865008e+01    0.6268238    0.2587912 -50.90  0.002271815    2.532    0.605
       156  -9.6271    193.1524    114.1680   3.2569589553e+01   1.9459237910e+01    0.2092552     0.187757 -68.66  0.001082031    1.333    0.250
       157  -9.2443    116.6235     83.2617   4.2313514463e+01   4.2853785583e+01    0.2088444    0.1383142 -33.59 0.0003758617    1.588    0.370
       158  -9.4469    158.3879     81.4071   3.1080898486e+01   3.3719976139e+01    0.3105498    0.1487692 -21.64 0.0009517698    3.361    0.702
       159  -9.9860    140.5634     81.7408   3.5480404033e+01   3.7907984658e+01    0.3063521    0.1527294 -35.22  0.001150891    2.088    0.521
       160 -10.5189     24.4458     80.2939   7.0701778157e+01   5.6464276673e+01    0.2906118    0.1678018  84.05  0.001284465    2.241    0.554
       161  -9.9637    119.0181     79.0028   4.0375597164e+01   4.3223727791e+01    0.3658357    0.1854315 -54.06   0.00135871    2.414    0.586
       162  -9.9064     74.3114     79.5085   5.4065339651e+01   5.1152941115e+01    0.3698284    0.1239295 -58.30  0.001210239    3.491    0.714
       163  -9.8187    166.5676    102.7014   3.5234627301e+01   2.7781656311e+01    0.2999846    0.1540998 -33.83  0.001140448    2.072    0.517
       164 -10.3761    128.0654     72.6429   3.5930117875e+01   4.2508838839e+01    0.6741777    0.2573936 -35.19  0.002230101    2.824    0.646
       165 -10.4983     10.0092     74.2037   7.4454782322e+01   5.8775106626e+01    0.1948233    0.1335671 -67.00 0.0003367141    1.123    0.110
       166 -11.0470     82.0302     71.4122   4.9273805428e+01   5.1710911987e+01    0.5025597    0.2237824 -58.47    0.0018531    2.847    0.649
       167 -11.0419     27.9602     71.0310   6.7733856885e+01   5.8258261354e+01    0.5923474    0.2285064 -27.82  0.001652063    8.136    0.877
       168 -10.0755    105.5249     70.6054   4.1673836287e+01   4.7663774794e+01    0.2764406     0.134106 -52.96  0.001034384    2.425    0.588
       169 -10.4341     94.8307     69.1262   4.4480065878e+01   4.9988803029e+01    0.6584201    0.1931972 -48.41  0.002057586    3.482    0.713
       170 -10.5470     62.7213     69.7327   5.5267202552e+01   5.4899025092e+01    0.4495494   0.06799081 -48.60  0.001217468    5.085    0.803
       171 -10.7017     50.9524     67.3412   5.8733693354e+01   5.6860621991e+01    0.6520373    0.1840939 -60.79  0.002084811    4.132    0.758
       172  -9.4575      1.6618     68.6823   7.6413054100e+01   6.0418447887e+01     0.120694   0.06301022 -47.36 0.0007048922    1.705    0.413
       173 -10.0216    138.5544     64.7960   3.0673707630e+01   4.1534836309e+01    0.3965339     0.145279 -38.51  0.001315079    2.688    0.628
       174  -9.8381    121.4977     64.8169   3.5188876735e+01   4.5451504859e+01    0.4540285    0.1431974 -40.55  0.001430348    3.097    0.677
       175  -8.9774    147.3172     64.3438   2.8378809369e+01   3.9491273946e+01    0.1649722    0.1202618  14.96 0.0004142201    1.718    0.418
       176  -9.7125    115.5679     71.3204   3.8967920752e+01   4.5479146098e+01    0.3007917    0.1408874 -45.43    0.0011453    2.145    0.534
       177  -9.6737    109.8339     63.0111   3.7921862171e+01   4.8283368311e+01    0.2444693    0.1711376 -64.45  0.001079054    1.979    0.495
       178 -10.3408     17.8913     62.2398   6.9522195841e+01   6.0921946108e+01    0.2520481   0.09888648 -47.16   0.00114992    2.130    0.531
       179 -10.1018    100.0264     58.3499   3.9308943814e+01   5.1139656146e+01    0.5399324    0.1722467 -47.26  0.001693214    3.504    0.715
       180 -10.1686      4.0827    249.2667   8.8246952570e+01   2.4746568324e+01    0.1753438   0.07450338  55.99 0.0006949257    1.532    0.347
       181 -11.2230      7.2421     56.6835   7.2369902598e+01   6.2748686980e+01    0.2642436    0.1473512  83.40  0.001393781    2.479    0.597
       182  -9.6209    105.7020     51.2153   3.5050248115e+01   5.1316808919e+01    0.3571391    0.1291751 -35.91  0.001231926    2.761    0.638
       183 -10.3548     92.0741     48.5348   3.8352234462e+01   5.4488452549e+01    0.6023898    0.1705121 -44.30  0.001893343    3.618    0.724
       184 -11.6672     45.4467     49.0700   5.5510399050e+01   6.1340745504e+01    0.2447835    0.1883409 -36.73 0.0005247841    1.122    0.109
       185  -9.9244     81.8313     45.6727   4.0736986432e+01   5.6858698126e+01    0.2787331   0.09517387 -39.90  0.001003054    2.744    0.636
       186 -10.0360    113.4476     42.3768   2.9503829431e+01   5.1161925882e+01    0.4720303    0.2619591  -9.03  0.001591553    2.972    0.664
       187  -9.9749     29.4715    243.4248   8.4280956586e+01   2.3126141265e+01    0.1586762    0.0693341  83.48 0.0009913875    2.162    0.537
       188  -9.9133     16.6695     40.9811   6.4957390264e+01   6.5520624139e+01    0.2162647   0.02743384 -46.94 0.0007048515    4.461    0.776
       189  -9.9733    105.8612     38.9432   3.0392990538e+01   5.3364153311e+01    0.3919636     0.165317 -26.67  0.001405545    2.749    0.636
       190  -9.8110     23.1945     46.6104   6.3757862209e+01   6.3895879587e+01    0.1536129     0.106455  -9.10 0.0009501518    1.704    0.413
       191  -9.9687     53.4530     50.7649   5.2943832977e+01   6.0064716324e+01    0.5678019    0.1261181 -53.81  0.001676616    4.773    0.791
       192 -10.0244     95.4166     36.4488   3.2627196430e+01   5.5922197338e+01    0.3794115    0.1317786 -35.04   0.00135723    2.784    0.641
       193  -9.4723     26.3252     36.6725   5.9497315510e+01   6.5683752828e+01    0.1101161   0.09154656  87.24 0.0007049774    1.697    0.411
       194  -9.5853    111.5968     33.8291   2.6721330715e+01   5.2902902687e+01    0.2091784    0.1291975 -40.76 0.0009119703    1.720    0.419
       195 -10.5448      6.5339     33.6723   6.7417444320e+01   6.7607414610e+01    0.1662587    0.1040367  11.20  0.001077843    1.959    0.490
       196 -11.1462      4.8561     40.8225   6.9947927101e+01   6.6223448078e+01     0.350798    0.1434433 -78.15    0.0015098    3.370    0.703
       197  -9.4295    101.3699     27.7673   2.7233684597e+01   5.6023091549e+01    0.2029933    0.1285357 -17.56 0.0008287725    1.659    0.397
       198  -9.3231    110.4022     24.7540   2.3385670554e+01   5.4457953690e+01    0.2034455    0.1326183 -11.38 0.0009482581    1.672    0.402
       199  -9.4355     44.1438     25.3019   4.7398691501e+01   6.6046349597e+01    0.1658913    0.1402322  -8.98  0.000838655    1.119    0.106
       200  -8.7004    118.6724     24.6686   2.1150904988e+01   5.2557551021e+01    0.1574635    0.1032134  22.75 0.0007051445    1.713    0.416
       201 -10.4906     12.8490     21.0077   6.0488258918e+01   6.9730364927e+01    0.1834174    0.1496357 -15.28 0.0007413517    1.248    0.199
       202 -10.5430    167.4821    242.0240   6.1110367776e+01   4.3878274360e+00    0.1362136    0.1166115 -40.45 0.0006926378    1.566    0.361
       203  -8.9676    250.5064    241.4861   4.7161320320e+01  -8.2595478368e+00    0.1117235    0.0781011  21.94  0.000120757    1.014    0.014
