#   1 NUMBER                 Running object number                                     
#   2 MAG_AUTO               Kron-like elliptical aperture magnitude                    [mag]
#   3 X_IMAGE                Object position along x                                    [pixel]
#   4 Y_IMAGE                Object position along y                                    [pixel]
#   5 X_WORLD                Barycenter position along world x axis                     [deg]
#   6 Y_WORLD                Barycenter position along world y axis                     [deg]
#   7 A_WORLD                Profile RMS along major axis (world units)                 [deg]
#   8 B_WORLD                Profile RMS along minor axis (world units)                 [deg]
#   9 THETA_WORLD            Position angle (CCW/world-x)                               [deg]
#  10 FWHM_WORLD             FWHM assuming a gaussian core                              [deg]
#  11 ELONGATION             A_IMAGE/B_IMAGE                                           
#  12 ELLIPTICITY            1 - B_IMAGE/A_IMAGE                                       
         1 -13.8005    207.8920      4.6700   6.0097516984e+01   3.2821732590e+01     1.136649    0.7697936  72.44  0.002788423    1.275    0.216
         2 -14.0903    186.3494     28.8883   6.8561704069e+01   3.5305579045e+01     1.609004     1.147299  13.93  0.005680923    2.171    0.539
         3 -14.1923    194.8026     22.2427   6.5744816408e+01   3.4031365870e+01     1.802896     1.244722 -23.70  0.007798414    1.795    0.443
         4 -11.8760     32.6604      2.6365   9.7529648051e+01   6.9159545264e+01     0.347662    0.1788951  20.97  0.002103969    1.860    0.462
         5 -12.5182    200.8021     14.0470   6.3030972684e+01   3.3508885300e+01    0.4724351    0.4140238  36.31  0.001080607    1.458    0.314
         6 -14.7382     10.9585    206.5368   1.4723163207e+02   3.0305724483e+01     1.091383    0.8300839  38.72  0.004757458    1.666    0.400
         7 -12.2745    160.9706    249.6660   1.2317303984e+02  -2.1793672487e-01    0.8388072    0.2189423  38.76  0.002894063    3.619    0.724
         8 -13.7774    199.4844    248.6222   1.1571633320e+02  -6.5472231208e+00     1.983209    0.4347452  44.97  0.006352382    4.544    0.780
         9 -13.1330    172.8783    248.4515   1.2072620755e+02  -2.0582304274e+00     1.007767    0.3598798  42.29  0.004296182    2.336    0.572
        10 -13.7301     97.5791    239.8827   1.3407610094e+02   1.2134034583e+01     2.147586     1.401815 -30.57  0.006369786    3.492    0.714
        11 -15.9546     76.0796    151.3466   1.2640412788e+02   3.5129742457e+01     25.19839      12.6191 -89.91   0.07395712    5.081    0.803
        12 -13.4842     74.0830    168.2311   1.2968589051e+02   3.1385150643e+01    0.5175269    0.3021717 -45.73  0.001898538    1.998    0.499
        13 -14.2494     51.8255    229.4768   1.4159696108e+02   2.0849405988e+01     1.619133     0.813682  34.10  0.008404103    2.466    0.595
        14 -11.0710    192.8449    194.3851   1.0753030285e+02   3.6388984182e+00     0.939792    0.4613664 -63.62  0.002619395    5.918    0.831
        15 -11.9027     73.8533    188.9065   1.3271480530e+02   2.6587587351e+01    0.4125287    0.2595573 -44.86  0.001750927    2.059    0.514
        16 -11.8864     78.1066    182.6143   1.3088915111e+02   2.7407076978e+01    0.3415027    0.2470714 -50.19 0.0008638103    1.554    0.356
        17 -12.8094    140.9077    249.4994   1.2697833884e+02   3.2307276824e+00    0.7200756     0.409416  32.87  0.003687373    1.873    0.466
        18 -10.5512    137.5745    171.9622   1.1521334367e+02   1.9374126226e+01    0.3768455    0.2508109  61.78  0.001678542    1.686    0.407
        19 -11.3823    183.5664    215.8965   1.1339358755e+02   1.4781950342e+00    0.3144856     0.254963 -32.14  0.001798251    1.355    0.262
        20 -10.6879    230.6835    168.3493   9.4807301890e+01   1.1039762150e+00    0.3032757    0.1636895 -54.70  0.001228529    2.517    0.603
        21 -10.2430    142.2875    168.9785   1.1352368920e+02   1.9098377628e+01     0.214512    0.1991426 -70.61 0.0005099883    1.076    0.071
        22  -9.4631    163.0484    155.5476   1.0589077776e+02   1.7726489402e+01    0.3325188    0.2019783 -81.56  0.001054266    3.651    0.726
        23 -10.3935    133.8975    144.9419   1.1042438304e+02   2.6306179454e+01    0.9429935    0.2112563 -54.50  0.001916978    7.316    0.863
        24 -10.5538    103.7989    147.2174   1.1850570804e+02   3.1588465704e+01    0.3326808    0.3079316 -36.40 0.0009020969    1.204    0.169
        25  -9.8487    106.3580    143.3392   1.1704007862e+02   3.2049581010e+01    0.3329586    0.2267874 -27.36  0.001051591    2.085    0.520
        26 -12.3252     92.6310    146.8610   1.2131192601e+02   3.3602915323e+01    0.2890754    0.2639386 -36.55 0.0005319567    1.236    0.191
        27 -14.0482     42.1452    128.6699   1.3142141333e+02   4.4855493227e+01     1.036716    0.6055601 -63.15  0.005486438    1.428    0.300
        28  -9.3466    105.8483    131.1234   1.1449519496e+02   3.5029381352e+01     0.235881     0.202548 -85.58 0.0007856233    1.242    0.195
        29  -9.8894    160.8623    128.1194   9.9972173205e+01   2.4211740075e+01    0.2563488    0.2212604 -79.05  0.001249226    1.271    0.213
        30 -10.6642    119.3073    125.9765   1.0972373797e+02   3.3647783809e+01    0.7005048    0.3364224 -28.45   0.00183706    5.253    0.810
        31  -9.8717    109.0986    121.9806   1.1147708577e+02   3.6548856939e+01    0.2159178    0.2080803 -59.36 0.0003550745    1.016    0.015
        32  -9.9855    135.0000    120.4859   1.0431847119e+02   3.1636358643e+01    0.3467091   0.08780275 -46.14  0.000928456    3.884    0.743
        33 -11.0159    168.2989    113.0199   9.4473567815e+01   2.5692643327e+01    0.3800074    0.3063357 -78.89 0.0009123637    1.453    0.312
        34 -14.8635     36.1764    247.3026   1.4572154634e+02   1.9331552351e+01     2.302557    0.8461593  41.08  0.009657817    2.535    0.606
        35 -11.2292     16.7722    109.9800   1.3539787628e+02   5.1419347265e+01    0.3958011   0.09028362 -56.57  0.001583451    2.839    0.648
        36  -9.6806    204.9617    110.3490   8.6333983379e+01   1.7584625194e+01    0.3709945    0.2278528  35.55  0.001530266    2.093    0.522
        37 -10.1937    113.1788    134.2326   1.1326617673e+02   3.2927188948e+01    0.3297305    0.2544654 -18.87  0.001029732    1.737    0.424
        38 -11.0361    100.8039    131.0242   1.1582327860e+02   3.5964645189e+01    0.3237661    0.2621752 -23.83 0.0007980812    1.505    0.336
        39  -8.7349    184.3733     77.3076   8.1733563367e+01   2.8629194728e+01    0.1555305    0.1171787  25.64 0.0007031887    1.770    0.435
        40  -9.8538    154.7081     76.9901   8.7693905570e+01   3.5929747522e+01    0.2098684     0.200659 -51.50 0.0004536813    1.064    0.060
        41  -9.6966    236.4762     67.5088   7.1144493754e+01   1.7826025969e+01     0.139768    0.1216605 -68.39 0.0003978779    1.003    0.003
        42 -13.3530     51.2012    220.4035   1.4089482212e+02   2.2797898044e+01    0.5239679     0.478205 -89.85  0.001328692    1.336    0.251
        43  -9.7720    169.2195    214.4694   1.1607018435e+02   4.4061870347e+00    0.2802333    0.1992937  64.73  0.001411363    1.699    0.412
        44 -16.0450      9.4586    240.3588   1.4963431240e+02   2.3677806719e+01      3.73463     1.147332 -68.57   0.01935303    2.838    0.648
        45 -11.7787    106.8745    243.4978   1.3272077801e+02   9.9659436998e+00     0.351483    0.2442184 -55.87  0.001574738    1.706    0.414
        46 -11.4488     20.4651     36.2017   1.1633254377e+02   6.5831854067e+01    0.1969481    0.1481624   4.96   0.00141771    1.326    0.246
        47 -16.4225     51.8270    203.1602   1.3907597540e+02   2.6414194425e+01     10.63007     4.264961  70.61   0.03679714    4.377    0.772
