#   1 NUMBER                 Running object number                                     
#   2 MAG_AUTO               Kron-like elliptical aperture magnitude                    [mag]
#   3 X_IMAGE                Object position along x                                    [pixel]
#   4 Y_IMAGE                Object position along y                                    [pixel]
#   5 X_WORLD                Barycenter position along world x axis                     [deg]
#   6 Y_WORLD                Barycenter position along world y axis                     [deg]
#   7 A_WORLD                Profile RMS along major axis (world units)                 [deg]
#   8 B_WORLD                Profile RMS along minor axis (world units)                 [deg]
#   9 THETA_WORLD            Position angle (CCW/world-x)                               [deg]
#  10 FWHM_WORLD             FWHM assuming a gaussian core                              [deg]
#  11 ELONGATION             A_IMAGE/B_IMAGE                                           
#  12 ELLIPTICITY            1 - B_IMAGE/A_IMAGE                                       
         1 -15.7125    216.9600    168.4836   4.3689414683e+01   8.9941924642e+00     3.554667     2.395382 -59.05   0.01975461    2.639    0.621
         2 -15.4754    194.3277    101.6540   3.3396810168e+01   2.2972224288e+01     3.417791     1.530138 -57.96   0.01219306    3.800    0.737
         3 -15.7796    224.1444     74.4963   2.3635329708e+01   2.1687989258e+01     1.646892    0.8242195 -28.54  0.008460972    1.894    0.472
         4 -17.1503    240.6736     66.3059   2.0412520403e+01   1.9991644752e+01     4.991661      1.88952 -46.77   0.02525952    2.061    0.515
         5 -17.8086    245.3400    119.7380   3.0782836329e+01   1.2160577613e+01     3.438812    0.9314992 -36.07   0.01497238    2.712    0.631
         6 -16.7634    202.7515     83.9433   2.8130019592e+01   2.4187390596e+01     4.039203     2.175735 -31.35    0.0202331    1.709    0.415
         7  -8.9931    196.0175     15.0473   1.1677286304e+01   3.4575674302e+01    0.2986474    0.1553548 -40.99 0.0008253632    1.495    0.331
         8 -10.5751    192.1572     10.1001   1.0620629530e+01   3.5912435622e+01    0.3810588    0.2555556 -82.15 0.0005665796    1.385    0.278
         9  -8.4820    183.9536     14.9540   1.2376137314e+01   3.7208910472e+01    0.3994334    0.2236781  65.12  0.002097882    1.983    0.496
        10  -8.3230    200.5605      6.7532   9.3657750343e+00   3.4465307447e+01    0.2037675    0.1063557 -26.31   0.00072278    1.885    0.470
        11  -8.4556    185.9911      3.8430   9.2940769822e+00   3.7869793210e+01    0.2036146    0.1518522 -43.72 0.0003816956    1.173    0.148
        12  -8.8870    142.5364      3.4994   1.1801734540e+01   4.8181412853e+01    0.2326026     0.190355 -73.43 0.0005971991    1.025    0.025
        13  -8.1294    197.6338      2.1863   8.3553262579e+00   3.5519351382e+01    0.2087346    0.1514089  84.78 0.0008023048    1.436    0.303
        14  -7.6414    182.5203      2.5227   9.1067791407e+00   3.8763026136e+01    0.1291988   0.09644095 -59.05 -4.667983e-05    1.037    0.036
        15  -7.7679    177.5031    240.5217   6.1703384961e+01   3.3673687437e+00    0.1105908   0.08418244   4.19 0.0008101354    1.027    0.026
        16  -9.3860    237.3437    207.1727   4.7126907809e+01   1.5841196290e+00    0.2724546    0.2570719 -46.36 0.0003366762    2.025    0.506
        17 -10.8904    244.6069    230.8843   4.9606099312e+01  -1.7991803501e+00    0.5360225    0.2860233 -15.21 0.0005905992    1.497    0.332
        18 -11.3593    248.0508    215.3510   4.6868561552e+01  -3.6812683168e-01    0.7717761    0.3123576 -24.98  0.001664693    2.096    0.523
        19 -11.5220    244.4975    206.9958   4.6093882711e+01   9.2428128358e-01    0.6606562    0.2689859 -24.27  0.002504893    2.216    0.549
        20 -11.6766    235.1382    226.7167   5.0364241682e+01  -5.1228539828e-01    0.4578865    0.2706297   5.66  0.002436868    1.467    0.318
        21 -11.0427    235.2144    244.8833   5.2891749735e+01  -2.5251236256e+00    0.4631535    0.2587867  -5.49  0.002077139    1.448    0.310
        22 -12.3183    227.8577    241.5459   5.3527407628e+01  -1.5415406707e+00     1.398281    0.5060652  18.01   0.00313949    3.020    0.669
        23  -8.6614    176.7663    250.0117   6.3055770954e+01   2.2090517478e+00     0.190448    0.1245099  16.80  0.001340693    1.214    0.176
        24 -15.5068    234.1681    141.7129   3.6324728406e+01   1.0608980976e+01    0.8973184     0.754774  78.85  0.006293429    1.986    0.496
        25 -16.1479    221.4603    122.9124   3.4286499386e+01   1.5126271907e+01     2.002296    0.7843233 -45.76  0.009086541    2.435    0.589
        26  -9.8018    187.7303    237.1242   5.9433430686e+01   2.7641389544e+00    0.2565104    0.1514073 -23.99  0.001133097    1.560    0.359
        27 -14.6487    247.5422     62.9261   1.9184115631e+01   1.9313739536e+01    0.6073198     0.303333 -49.25   0.00361919    1.596    0.374
        28 -16.6687    242.2788     94.1496   2.6030467663e+01   1.6073234319e+01     2.284951     1.125637  49.94   0.01303737    2.693    0.629
        29 -15.1636    227.5824     99.1499   2.8605759278e+01   1.7652283434e+01    0.7740173    0.5000157  88.05  0.004272136    2.617    0.618
        30 -16.1089    240.6468     83.4689   2.3995754558e+01   1.7755175909e+01    0.8963637    0.7165298  76.17  0.006480241    1.633    0.388
        31  -9.7827    177.5551    231.0685   6.0420376815e+01   4.6411202165e+00    0.2016444    0.1620878  -0.90 0.0003536093    1.083    0.077
        32 -15.1923    229.3790    115.0810   3.1697955015e+01   1.5086001312e+01    0.6436366    0.4335292 -45.24  0.004082901    1.320    0.243
        33  -8.2667    123.9774    206.0292   6.7857928316e+01   1.5172078233e+01     0.189878     0.161425  11.16            0    1.059    0.055
        34 -10.8411    194.9587    201.5980   5.2922300094e+01   6.8601412422e+00    0.2064945    0.1702681 -14.21 0.0003694485    1.119    0.107
        35  -8.2723    167.9098    202.0701   5.7966848466e+01   1.0102258769e+01    0.1781129    0.1504944  -1.59 0.0003075418    1.029    0.029
        36  -9.2201    156.8757    201.5067   6.0076290755e+01   1.1618304872e+01    0.2104336    0.1827533 -13.20 0.0002637059    1.095    0.087
        37  -7.7040    181.0720    200.1968   5.5176564230e+01   8.7445754655e+00    0.1751656    0.1284416  47.08 0.0009600408    1.934    0.483
        38  -8.6665    207.9775    197.2634   5.0036242246e+01   5.9671267048e+00    0.1717448    0.1268453 -18.73 0.0002845475    1.091    0.084
        39  -9.3785    244.4174    195.5502   4.4315100244e+01   2.3077507082e+00    0.1674452    0.1226932 -19.10 0.0003603241    1.101    0.091
        40  -7.6588    212.1228    196.5961   4.9259311440e+01   5.5887605455e+00    0.1489201   0.08896666  10.62 0.0005603528    1.744    0.427
        41  -9.1426    183.0840    194.8610   5.3940257127e+01   9.3172792003e+00    0.1823457    0.1513194  -6.44 0.0002802868    1.024    0.024
        42  -7.9477    175.0540    195.2234   5.5494615576e+01   1.0285362574e+01    0.1868965    0.1367339  -8.55  0.000483528    1.283    0.221
        43  -9.4820    200.5656    192.7482   5.0521510586e+01   7.4800277510e+00    0.2554093    0.2261045  70.20  0.001610695    2.088    0.521
        44  -8.8025    250.7627    190.7321   4.2694157823e+01   2.2695345086e+00    0.1327132   0.06649169 -33.64 0.0004834297    1.576    0.365
        45 -10.4953    158.8444    190.0712   5.7836432678e+01   1.3308919220e+01    0.2274878    0.1925919   2.88  0.000242884    1.046    0.044
        46  -9.5763    204.4506    188.0020   4.9078698847e+01   7.7025078601e+00     0.273266    0.1962813   2.53   0.00100867    1.302    0.232
        47  -7.7328    199.9144    186.2162   4.9531708426e+01   8.5220341159e+00    0.1519004    0.1084069 -10.48            0    1.262    0.208
        48  -8.2119    129.5171    189.9709   6.4206180270e+01   1.7464637247e+01     0.198152    0.1299782 -48.25 0.0009945143    1.613    0.380
        49  -7.5379    194.0349    188.9639   5.1004149453e+01   8.8433437176e+00    0.1501543     0.135727 -46.82  0.001047336    1.524    0.344
        50 -13.9082    247.5645    170.8344   3.9820512929e+01   5.0806741684e+00    0.4016775    0.2971576  38.78  0.003024355    1.862    0.463
        51 -11.6327    247.3267    185.9634   4.2376716023e+01   3.1967921853e+00    0.1948554    0.1585544  -1.22  0.000356667    1.263    0.208
        52  -7.2810    186.7772    186.2733   5.1828558547e+01   1.0184923957e+01    0.1001828   0.09060924 -42.55            0    1.416    0.294
        53  -8.2219    153.6721    185.8909   5.8208856546e+01   1.4771508037e+01    0.2301031    0.1748521  33.73 0.0002038419    1.324    0.245
        54  -8.8168    138.6870    185.5031   6.1397873841e+01   1.7000738327e+01    0.2854172    0.1895427  -7.20 0.0009084569    1.903    0.474
        55  -7.7720    181.1303    182.6786   5.2237069821e+01   1.1507024985e+01    0.1615665    0.1314017   3.67 0.0002122026    1.121    0.108
        56  -8.2455    155.0091    180.6862   5.7036766210e+01   1.5519406506e+01    0.1827258    0.1615322   9.74 0.0006464745    1.061    0.058
        57  -8.5318    197.7277    177.9717   4.8470107332e+01   1.0047532087e+01    0.2109152    0.1563769 -29.43  0.000519483    1.175    0.149
        58 -11.9471    199.7172    171.8846   4.7047450899e+01   1.0723168409e+01    0.3815445    0.3555722 -16.21 0.0007413444    1.268    0.211
        59 -10.6300    148.7020    172.4774   5.6928176270e+01   1.7989409662e+01    0.4978442     0.363144 -40.91  0.001764884    1.350    0.259
        60 -10.0196    157.2740    169.6263   5.4579475171e+01   1.7211235889e+01    0.4058623    0.3822807  24.50  0.001773837    1.167    0.143
        61  -8.2811    181.9129    173.9690   5.0546227432e+01   1.2827590549e+01    0.1785944    0.1536616 -15.47            0    1.036    0.034
        62  -8.5762    140.4691    169.5065   5.8218100301e+01   1.9846288779e+01    0.1352172    0.1274747   0.17  1.04303e-05    1.036    0.035
        63  -8.7675    112.5145    168.2251   6.4771727638e+01   2.4548561818e+01    0.3244571    0.1493211  43.42   0.00129501    2.194    0.544
        64  -8.1714    189.8349    166.8739   4.7820475024e+01   1.2875497642e+01    0.1849482    0.1514102 -34.43  0.001188194    1.183    0.155
        65  -8.1780    134.4018    167.1818   5.9192537435e+01   2.1277078380e+01    0.1811856    0.1336997 -59.65  0.000694223    1.565    0.361
        66 -10.6115    199.8197    163.6817   4.5524023432e+01   1.1987707502e+01    0.4353205      0.30057 -36.28  0.002672518    1.283    0.220
        67  -9.1996    123.7218    162.3234   6.0872760011e+01   2.4028630565e+01    0.3460084    0.1954017  10.80   0.00126883    3.085    0.676
        68  -8.6322    188.3385    159.6781   4.6724315618e+01   1.4274652742e+01    0.2441829    0.1843468 -54.25 0.0006822102    1.633    0.388
        69  -9.6100    149.1797    160.1168   5.4508446940e+01   2.0302135130e+01    0.3189426    0.1841185 -54.25 0.0009945618    1.967    0.492
        70  -9.7403    166.4253    148.3969   4.8568722248e+01   1.9691881094e+01    0.2285767    0.2117386 -35.02 0.0003295802    1.100    0.091
        71  -9.7813    170.9868    147.5833   4.7512152903e+01   1.9085797373e+01    0.3687328    0.2956051 -50.68 0.0006478165    1.327    0.246
        72 -10.9735    163.9284    154.2351   5.0250582469e+01   1.9019400371e+01    0.4560648    0.2756482 -34.00  0.000404037    1.606    0.378
        73 -10.0704    168.3350    153.5560   4.9238767339e+01   1.8430130705e+01    0.2533008    0.2228231 -14.43  0.001548186    1.054    0.052
        74  -9.1589    195.6873    156.5964   4.4869546748e+01   1.3704085568e+01     0.278007    0.2432904  32.97  0.001317816    1.334    0.251
        75  -9.9158    133.4938    154.6943   5.7028666672e+01   2.4019656491e+01    0.3180737    0.2487192 -72.55  0.001276427    1.631    0.387
        76  -7.5446     54.4577    156.4391   7.9886707584e+01   3.6052403934e+01    0.1472723    0.1387518  58.05 0.0002160056    1.036    0.035
        77  -8.4490    181.2626    155.3042   4.7140942232e+01   1.6080321641e+01    0.2360104    0.1469618  32.92 0.0008479408    1.738    0.425
        78  -9.7158    157.1595    152.1629   5.1222917194e+01   2.0526577298e+01    0.3890046    0.2597258  34.17  0.001129052    1.563    0.360
        79  -7.6154    160.6677    149.7104   4.9997044389e+01   2.0407232527e+01    0.1983145    0.1296607 -28.08 0.0005943546    1.601    0.375
        80  -7.9783    125.2982    153.0638   5.8705969111e+01   2.5771362249e+01    0.2439637   0.09871996 -34.17 0.0007033977    4.285    0.767
        81  -9.7013    141.2386    150.3904   5.4350830187e+01   2.3586353600e+01     0.316409    0.2176777 -26.23  0.000579452    1.646    0.392
        82  -9.3215    151.6203    147.0554   5.1351345848e+01   2.2462506500e+01     0.304395     0.165611 -51.03  0.001347722    1.919    0.479
        83  -9.8103    133.0133    147.3774   5.5663216816e+01   2.5653974309e+01    0.4012031    0.2238813 -44.56  0.001201375    1.761    0.432
        84 -10.7646    132.2604    140.4151   5.4373389767e+01   2.7281809832e+01    0.5391726    0.3184412 -49.68  0.002341417    1.677    0.404
        85  -8.6250     68.3134    145.2270   7.3700549457e+01   3.7087493030e+01    0.4257281    0.2147149  63.15  0.001451322    2.913    0.657
        86  -8.8770    172.3479    139.7235   4.5610439739e+01   2.0288144912e+01    0.5628161    0.3519914 -71.85   0.00220415    3.537    0.717
        87  -8.4047    166.8704    138.0385   4.6301495212e+01   2.1542668892e+01    0.3533572    0.1826701 -35.09   0.00157094    1.903    0.474
        88  -7.3740    104.3103    141.3069   6.1914560734e+01   3.2140314285e+01    0.1524952    0.1194595 -14.99 0.0002302861    1.616    0.381
        89  -9.6264    155.2073    136.7498   4.8383160268e+01   2.3858859143e+01    0.3110025    0.2414881 -49.03 0.0005904329    1.270    0.212
        90 -10.1451    159.9329    133.5701   4.6705760780e+01   2.3622469958e+01    0.5187092    0.2228751 -42.01  0.001665974    2.159    0.537
        91 -15.0524    208.0080    132.5576   3.8132366123e+01   1.5699777383e+01     2.230297     0.667426 -32.40  0.007857863    3.665    0.727
        92  -8.8780    177.3908    134.9799   4.3662128947e+01   2.0281839989e+01    0.4675239    0.2986352 -56.36  0.001357104    1.878    0.468
        93  -9.1901    168.4394    121.7889   4.2374676357e+01   2.4283415429e+01    0.2629209    0.2110488 -14.07 0.0003450091    1.398    0.285
        94  -9.1264    172.7487    131.7387   4.3809859561e+01   2.1673376750e+01    0.3332292    0.1878778 -46.51  0.001270595    1.683    0.406
        95 -11.0125    171.5185    126.2478   4.2816734723e+01   2.2896418603e+01    0.5312944    0.3185893 -31.06  0.002542394    1.684    0.406
        96 -10.0051    136.1162    125.7561   5.0138300229e+01   2.9695246684e+01    0.4584211    0.1913618 -38.80  0.001624233    2.608    0.617
        97  -9.6675    137.5057    133.9824   5.1703216192e+01   2.7684525047e+01    0.3357695     0.182919 -56.92  0.001365975    2.124    0.529
        98  -9.3279    126.1299    130.8806   5.3773102693e+01   3.0511713049e+01    0.2290833     0.205583 -83.75  0.001210673    1.235    0.190
        99  -9.3457    116.8472    129.5188   5.5878763146e+01   3.2595285400e+01    0.3293362    0.2498575 -52.51 0.0009739384    1.305    0.234
       100  -7.4431     71.6510    130.6707   6.9949814138e+01   4.0431060739e+01    0.1628428    0.1212647 -23.77 0.0007048899    1.763    0.433
       101  -8.6315    179.1438    127.1446   4.1637774272e+01   2.1371642191e+01     0.343794    0.2515413  36.19  0.001901898    1.548    0.354
       102  -8.8506    165.3301    128.0666   4.4401719112e+01   2.3686555050e+01    0.2012221    0.1689618 -37.18  0.000732037    1.083    0.077
       103  -9.2110    163.5122    123.0505   4.3608551616e+01   2.4969981338e+01    0.2411309     0.209489  57.83 0.0004896017    1.307    0.235
       104  -9.2930     57.6851    121.0826   7.3075465233e+01   4.5203719151e+01     0.225835    0.2032396 -66.04   0.00115321    1.105    0.095
       105  -8.3236    116.2456    119.9761   5.3778843541e+01   3.4905477851e+01    0.2078189    0.1283855 -50.10 0.0008824872    1.587    0.370
       106  -8.5857     40.0112    119.9626   7.9741911310e+01   4.7923176805e+01    0.2569231    0.1784052 -35.82  0.001142383    1.724    0.420
       107 -12.4523    133.5668    107.8998   4.6308482442e+01   3.3996066385e+01     1.480335    0.6493658 -47.97  0.005514613    2.210    0.548
       108 -12.2764    146.2870    113.2263   4.4787148381e+01   3.0262908618e+01     1.314117    0.7215837 -55.03  0.005447217    2.013    0.503
       109 -11.1630    140.8265    115.3655   4.6529952256e+01   3.0936499925e+01    0.7550536    0.4030116 -39.49  0.002289483    1.854    0.461
       110 -10.1488    169.5022    114.2977   4.0424534232e+01   2.5461588099e+01    0.9114228    0.5234647 -55.38  0.004090255    1.977    0.494
       111 -10.3135    149.5964    103.4278   4.1592332446e+01   3.1520872176e+01    0.6575592    0.3344765 -55.20  0.001915551    2.266    0.559
       112 -12.0426    157.7690    103.5219   3.9982495996e+01   2.9800605852e+01     1.178586    0.5233598 -40.24  0.002104031    2.072    0.517
       113  -9.0637    164.8791    104.8611   3.8978687574e+01   2.8101542087e+01    0.3610236    0.2846365 -59.46 0.0003064255    1.301    0.231
       114 -11.9755    165.9464     98.0499   3.7071366626e+01   2.9123340483e+01    0.3987139    0.2875174 -48.85  0.000318805    1.270    0.212
       115  -7.2956     32.3135    118.2771   8.2598671477e+01   4.9294132476e+01    0.1514592    0.1126818 -35.48 0.0002020197    1.564    0.361
       116 -10.6853     63.3006    114.8054   6.9663112528e+01   4.6048129033e+01     0.588124    0.3402846  10.51  0.002073619    2.814    0.645
       117  -8.7572     47.1941    116.3327   7.6234794330e+01   4.8019995825e+01    0.2208095    0.1919724 -63.74 0.0008809145    1.138    0.122
       118 -10.7982     54.0378    109.8716   7.2197120530e+01   4.8841072406e+01    0.8617544    0.3415181 -55.29    0.0024996    2.380    0.580
       119  -9.9974    128.8481    112.5232   4.8645685597e+01   3.3997592901e+01     0.377802    0.2930732 -13.43  0.001766294    1.705    0.413
       120  -7.4465    172.0000    109.9178   3.8930151011e+01   2.5775668086e+01    0.2286164   0.07216313 -39.93            0    2.818    0.645
       121 -10.0282    128.2439    118.5115   5.0301043648e+01   3.2820174233e+01    0.3804117    0.2504647  41.48  0.001726964    1.591    0.371
       122  -9.7288    141.5961     99.1041   4.2145474250e+01   3.4079572095e+01    0.3767481    0.2623355  83.89   0.00102529    2.019    0.505
       123  -9.6131    134.8312     95.6139   4.2698425410e+01   3.6260108845e+01    0.2789123    0.2383746 -54.15 0.0005286503    1.106    0.096
       124  -9.2132    146.5674     94.5598   3.9861218041e+01   3.3888468197e+01    0.3012256    0.2300589  13.97   0.00105826    1.912    0.477
       125 -10.0601    142.2484     88.9060   3.9192999764e+01   3.5930719440e+01    0.4400862    0.3213654 -14.98  0.000550414    1.907    0.476
       126 -12.2553    151.9911     84.0495   3.5892259808e+01   3.4654905160e+01    0.5318688    0.4361817 -37.20 0.0004226682    1.197    0.165
       127  -9.9428    157.9996     72.9783   3.1703830883e+01   3.5237694804e+01    0.8045382    0.2735729 -45.75  0.002641559    2.706    0.630
       128 -10.4700    133.6878     82.8600   3.9286879173e+01   3.9044468872e+01    0.4934839    0.3726339 -42.93  0.001493071    1.270    0.212
       129  -7.9775      3.3553     84.0992   9.1474294724e+01   6.1433134000e+01    0.2056148    0.1705627 -83.93 0.0005430928    1.111    0.100
       130  -8.9890    137.7189     79.0607   3.7286873727e+01   3.8831292049e+01    0.2114623    0.1838701 -46.28 0.0002928717    1.106    0.096
       131  -9.1337    170.1041     69.9661   2.8966919088e+01   3.3022974097e+01    0.3895701    0.1975029 -34.63  0.001068882    1.839    0.456
       132 -15.3326    245.6474    159.2671   3.8059933890e+01   6.7997699719e+00     1.152769    0.9459584 -33.92  0.008984335    1.315    0.239
       133  -9.2716    139.8077     68.0464   3.3517366232e+01   4.0327452338e+01    0.2449938    0.1865014 -62.74  0.001221591    1.294    0.227
       134  -8.2673    180.1132     62.2799   2.5530964754e+01   3.2021612540e+01    0.2450187     0.215202 -56.20  0.001048165    1.050    0.047
       135  -9.0809    157.1015     61.8502   2.8636971115e+01   3.7265653035e+01    0.2497988    0.2118976 -63.50 0.0006608633    1.064    0.060
       136 -14.4306    215.6238    139.0389   3.8329245199e+01   1.3560864327e+01    0.8415903    0.3955096 -39.32  0.004349414    1.752    0.429
       137  -7.9426    168.7608     55.7370   2.5200303382e+01   3.5512068838e+01    0.2324085    0.1660893  68.32 0.0009634918    1.491    0.329
       138  -8.3008    118.1774     53.1782   3.3042266891e+01   4.8198816789e+01    0.3278829    0.1221634 -29.44  0.001015494    3.508    0.715
       139  -7.3524    166.9692    222.9673   6.1265173159e+01   6.9823154138e+00    0.1378019    0.1113412  -6.32 0.0003574957    1.076    0.070
       140  -8.2288    139.5171     52.4976   2.8633791638e+01   4.2966590758e+01    0.1488237    0.1314521 -68.07 -2.735766e-05    1.015    0.015
       141  -8.2215    177.0392     44.0163   2.0930107962e+01   3.5287157932e+01    0.2078361    0.1688914 -54.39 0.0003953766    1.027    0.027
       142  -7.7126    132.4891     44.0068   2.7005847650e+01   4.6010811755e+01    0.1878346    0.1313977   4.44 0.0006161634    2.372    0.578
       143  -8.9968    162.8982     40.5838   2.1545115602e+01   3.9012234578e+01    0.3392407    0.2562726 -32.35  0.001310282    1.345    0.257
       144  -8.2772    165.7313     36.7728   2.0095024754e+01   3.8844602946e+01    0.1901524    0.1580549 -76.01 0.0005170929    1.102    0.092
       145  -7.4102    167.3179     33.2829   1.8902682205e+01   3.8915159096e+01    0.1232999    0.1037973  38.21 0.0002253218    1.584    0.368
       146  -9.4434    163.1219     28.6340   1.7953707217e+01   4.0479251529e+01    0.2551414    0.1907002 -50.12 0.0002899424    1.151    0.131
       147  -8.9453    187.7144     20.6034   1.3638183640e+01   3.5768227320e+01    0.3150018    0.2281974   4.30   0.00173914    2.173    0.540
       148  -8.6715    144.0806     20.6092   1.7406444436e+01   4.6086185241e+01    0.2266079    0.1626374 -48.91 0.0004927866    1.249    0.199
       149 -13.1874    244.6906    243.7900   5.1384907492e+01  -3.1788892957e+00      3.53196     0.967315  28.44   0.01944863    3.514    0.715
       150  -7.1328    160.2671    219.9809   6.2141116739e+01   8.2181604722e+00    0.1387364   0.09733871 -37.23 0.0008772653    1.485    0.326
       151 -10.1164    225.9820    216.7337   5.0253864579e+01   1.5212744325e+00    0.1874867    0.1380316  -9.63 0.0004427855    1.046    0.044
       152  -9.4738    228.4563    213.5536   4.9402316862e+01   1.6697349303e+00     0.264371     0.190278 -28.66  0.001139785    1.357    0.263
       153 -10.2067    162.5681    212.2092   6.0561949768e+01   9.1534602404e+00    0.2385232    0.2190313 -38.28 0.0004201989    1.390    0.281
       154  -8.3998    159.8551    240.3936   6.4961729883e+01   5.2506771418e+00    0.1665256     0.145028 -15.58 0.0006018212    1.279    0.218
       155  -9.2736    182.7294    239.4469   6.0626333739e+01   2.9717588686e+00    0.2243464    0.1437989  -8.51 0.0006295281    1.396    0.284
