#   1 NUMBER                 Running object number                                     
#   2 MAG_AUTO               Kron-like elliptical aperture magnitude                    [mag]
#   3 X_IMAGE                Object position along x                                    [pixel]
#   4 Y_IMAGE                Object position along y                                    [pixel]
#   5 X_WORLD                Barycenter position along world x axis                     [deg]
#   6 Y_WORLD                Barycenter position along world y axis                     [deg]
#   7 A_WORLD                Profile RMS along major axis (world units)                 [deg]
#   8 B_WORLD                Profile RMS along minor axis (world units)                 [deg]
#   9 THETA_WORLD            Position angle (CCW/world-x)                               [deg]
#  10 FWHM_WORLD             FWHM assuming a gaussian core                              [deg]
#  11 ELONGATION             A_IMAGE/B_IMAGE                                           
#  12 ELLIPTICITY            1 - B_IMAGE/A_IMAGE                                       
         1 -11.0896      9.3636     24.3517   1.2253335628e+02   7.0418742097e+01    0.4465662    0.2380649 -47.64  0.002756994    1.438    0.304
         2 -11.4845     25.6757     20.2094   1.1258117832e+02   6.9804495997e+01    0.4842036    0.2670423 -17.33  0.002072012    2.029    0.507
         3 -10.8873     34.8910     21.2195   1.0856124664e+02   6.8661258149e+01    0.4993567    0.2341133 -49.07  0.002486034    2.359    0.576
         4 -10.8169      4.5060     19.6686   1.2332696685e+02   7.1565396769e+01    0.3640834    0.1062931 -46.97  0.001793418    2.318    0.569
         5 -10.7499    107.7836     18.2894   8.0935166560e+01   5.6265536513e+01    0.3737707    0.2410638 -11.87  0.001467377    1.706    0.414
         6 -11.0046    216.2727     16.8705   6.2910437166e+01   2.8994683834e+01    0.7514787    0.1874057  53.51  0.002364573    4.345    0.770
         7 -11.7725    130.8874     13.8701   7.4005713349e+01   5.1238240565e+01    0.4919391    0.3242036  27.23  0.001702286    1.696    0.410
         8 -10.9849     75.4621     17.3377   9.0111182174e+01   6.3076142060e+01    0.3359201    0.2081476   9.39   0.00079474    1.920    0.479
         9 -12.1705     26.3403     13.5204   1.0916917817e+02   7.0805421327e+01    0.2907475    0.2136976   7.25 0.0004989758    1.313    0.238
        10  -9.9512    175.5048     12.0328   6.6198653439e+01   3.9961403845e+01    0.1903006     0.139624 -26.00 0.0003654701    1.497    0.332
        11 -10.5290    119.6075     11.7276   7.5515822806e+01   5.4198069753e+01    0.2315074    0.1886939  48.01 0.0002383064    1.101    0.092
        12 -10.7175     75.1368      5.1345   8.4424336536e+01   6.4512994245e+01     0.352646    0.1834743 -12.60  0.001258934    2.087    0.521
        13 -11.3240     77.9810      9.5291   8.5615073963e+01   6.3506042634e+01     0.393427    0.2706065  26.89  0.001832398    1.353    0.261
        14  -9.9772      2.8682      9.9648   1.2030683461e+02   7.3341934669e+01    0.2452627    0.1659192 -85.59  0.001260535    4.050    0.753
        15  -9.8647    107.8849      9.6246   7.7325606910e+01   5.7149070235e+01    0.1865815    0.1513752  48.83  0.000475652    1.122    0.109
        16 -11.5848     81.4069      6.0038   8.2867784393e+01   6.3196967447e+01    0.2351851    0.1973698   6.73 0.0001886514    1.090    0.082
        17 -10.0640     23.2670      9.3018   1.0868937733e+02   7.1762737124e+01    0.1877475    0.1307532 -17.16 0.0003072013    1.184    0.156
        18  -9.1166    161.0198      8.2101   6.6971259172e+01   4.4107715745e+01    0.1826116    0.1018103  68.51 0.0003278529    1.607    0.378
        19 -10.4499      9.4253      6.9991   1.1517358968e+02   7.3362856641e+01    0.2978678    0.1373658 -34.64   0.00133905    1.729    0.422
        20 -10.3661    127.9226      6.5564   7.1832177355e+01   5.2665724724e+01    0.2961634      0.17905 -72.64  0.001298794    2.488    0.598
        21 -10.1158    115.7511      4.3094   7.3386105629e+01   5.5802489025e+01    0.2812576    0.1739132 -15.41  0.001441116    1.766    0.434
        22  -9.4983     59.4634      5.1680   8.9976494161e+01   6.7344055522e+01    0.2398257   0.07780449  45.33   0.00101558    2.880    0.653
        23 -10.2779     91.8512      3.9647   7.8926672665e+01   6.1230163499e+01    0.1920545     0.165837  25.60 0.0004780156    1.016    0.016
        24 -11.9243     27.4629      2.9844   1.0318068633e+02   7.2199433585e+01    0.4979882    0.2376423  32.19  0.002643547    2.167    0.539
        25 -10.0146     18.8779      3.9676   1.0830663230e+02   7.2985764260e+01    0.1625694    0.1217797 -17.57 0.0003087677    1.008    0.008
        26  -9.4966    100.5956      3.5677   7.6508749827e+01   5.9356159169e+01    0.1323059    0.1107741  31.71  0.000160886    1.055    0.052
        27  -9.2264    124.4218      1.3963   7.0522290944e+01   5.3962790384e+01    0.1314515    0.1180984  58.22 2.024456e-05    1.052    0.050
        28  -9.4311    235.8417    230.4353   1.0836251419e+02  -6.7990572805e+00    0.1602633   0.08921005  27.67  0.000494738    1.539    0.350
        29 -11.0066    247.8936    249.7250   1.0940080857e+02  -1.0609053143e+01    0.4211378    0.1826327  28.07  0.002332603    1.997    0.499
        30 -10.6582    250.5049    243.9183   1.0807932682e+02  -1.0378894808e+01    0.3126689    0.1838256 -16.14  0.001353894    1.745    0.427
        31  -9.2757    168.6303    250.7065   1.2316042938e+02   1.2044053726e+00    0.1191467   0.07907904  21.19 0.0007026955    1.723    0.420
        32 -10.1120    127.8969    249.6643   1.3035421262e+02   7.7937260282e+00    0.1659539    0.1608361 -64.51 0.0009920169    1.370    0.270
        33  -9.9510     72.7706    250.0108   1.4011838077e+02   1.5788024561e+01    0.1499571    0.1361286  66.70   0.00119233    1.386    0.278
        34  -9.1762     46.2978    250.3575   1.4459756127e+02   1.9107309923e+01   0.08678264     0.081193 -70.58 0.0005686277    1.704    0.413
        35 -10.2363     32.0491    249.3013   1.4686025944e+02   2.0951489506e+01    0.2568583    0.1341479 -56.64   0.00157114    2.962    0.662
        36 -11.6285     34.3159    241.7130   1.4608752356e+02   2.2004648855e+01    0.4312361    0.2030923  44.21  0.002476657    1.756    0.430
        37 -12.5304     19.3824    247.9318   1.4881336757e+02   2.2572422003e+01    0.7592886     0.151825  52.50  0.003697568    3.039    0.671
        38 -11.6024     27.8782    246.2092   1.4737692535e+02   2.1946979137e+01    0.4760642    0.1658787 -77.76  0.002667468    2.734    0.634
        39 -10.4964     31.8379    237.3111   1.4625928123e+02   2.3064061522e+01     0.247935    0.1353704  70.13  0.001016023    1.424    0.298
        40 -10.4179     29.0346    232.9963   1.4649529934e+02   2.4152596297e+01    0.5193915   0.09409226  42.91   0.00234562    3.368    0.703
        41 -10.6656     10.8724    250.2484   1.5023419250e+02   2.3063748596e+01    0.2688969    0.1096414  41.30  0.001720867    2.107    0.525
        42  -9.8585    169.8236    229.1520   1.2004208786e+02   4.0656311653e+00    0.1703543    0.1331455  21.76 0.0009069291    1.323    0.244
        43 -10.7362    115.9947    226.9140   1.3004610285e+02   1.3388596876e+01    0.3498277    0.1215388 -60.26  0.001491972    3.503    0.715
        44 -10.2606    190.4317    226.5170   1.1580593619e+02   9.6966415301e-01    0.2097085    0.1502587 -32.96 0.0007705774    1.644    0.392
        45 -10.3466    129.7472    226.7248   1.2737211107e+02   1.1188365722e+01     0.384299    0.1507307  52.13  0.001657442    2.468    0.595
        46 -10.2495     88.1085    227.1554   1.3540241365e+02   1.7622761337e+01    0.1722589    0.1529169  51.00   0.00122343    1.289    0.224
        47 -10.4569     66.2194    226.4625   1.3944122374e+02   2.0816575936e+01    0.2076068    0.1663821  49.83 0.0008840077    1.284    0.221
        48  -9.6425      6.6681    227.3076   1.4996255873e+02   2.7506511083e+01    0.1134935   0.05066593  64.33 0.0005739192    1.666    0.400
        49 -10.3758     81.4483    224.6924   1.3642952954e+02   1.9038272318e+01    0.2397241    0.1565677  76.08 0.0009499191    1.453    0.312
        50 -10.8258     13.1354    222.1344   1.4863991357e+02   2.7826084840e+01    0.1744991    0.1390099  81.28  0.000371972    1.243    0.195
        51 -11.1997    141.4264    221.3817   1.2441229155e+02   1.0137147051e+01    0.3055633    0.2227513  17.06  0.001309426    1.864    0.464
        52  -9.1660    134.8618    223.0000   1.2590810353e+02   1.0971510769e+01    0.2092614   0.06103897  41.67 0.0007884828    2.847    0.649
        53 -10.9571    123.3802    221.5237   1.2796650092e+02   1.3136151943e+01    0.2538413    0.2055241  52.51 0.0009149765    1.023    0.022
        54 -10.3132    174.0189    219.9885   1.1789523948e+02   4.7369817990e+00       0.2008    0.1648332  39.24  0.000612801    1.026    0.026
        55  -9.5843     21.8109    220.3557   1.4704638225e+02   2.7272221092e+01    0.1266542   0.09185018  42.18 0.0004582311    1.545    0.353
        56  -9.6130    250.2841    219.0622   1.0403235391e+02  -7.6312488997e+00    0.1629778    0.1266677   0.46  0.000686513    1.106    0.096
        57 -10.5221    191.5367    216.9709   1.1409872907e+02   2.1541338576e+00     0.213965    0.1868864  -5.42  0.001161491    1.229    0.186
        58  -9.7987     49.8441    218.3750   1.4184468079e+02   2.4452156472e+01    0.1480293    0.1016203  34.69 0.0009465134    1.743    0.426
        59 -10.8123     10.0653    217.0404   1.4892051841e+02   2.9085698659e+01    0.2646645    0.1391726  61.51 0.0008329902    1.427    0.299
        60 -10.0422     24.6177    216.9371   1.4635603952e+02   2.7626008787e+01    0.2375607   0.09387309  54.36  0.001331366    1.969    0.492
        61 -10.0874    234.7857    216.6131   1.0623075440e+02  -4.9724133776e+00    0.1681045    0.1023648  45.26 0.0009481055    1.743    0.426
        62 -10.5308    201.5757    215.9564   1.1206100247e+02   5.7601406590e-01     0.241469    0.1613147  30.30  0.001390125    1.311    0.237
        63  -9.3305    179.3766    216.2847   1.1629666218e+02   4.3730927853e+00    0.1327443   0.09065914  17.88 0.0007014974    1.719    0.418
        64  -9.5073    137.1946    215.6369   1.2446694381e+02   1.1848561529e+01    0.1886377    0.1072508  35.18 0.0009433794    1.729    0.422
        65  -9.9913     30.9841    215.4917   1.4511982971e+02   2.7213874954e+01    0.1625265   0.09150998  44.91 0.0009981152    1.598    0.374
        66 -10.7135    208.9811    212.1396   1.1005610914e+02  -1.4757979929e-01    0.1979173    0.1724597   0.31 0.0004509834    1.143    0.125
        67  -9.4937    142.8060    213.3923   1.2303399884e+02   1.1271465015e+01     0.180395    0.1096511  35.33 0.0004478645    1.584    0.369
        68 -10.9284     20.6431    211.6023   1.4676134487e+02   2.9071943739e+01    0.2873699    0.1367733  70.37 0.0009129075    1.759    0.432
        69 -10.1574    170.2071    213.1609   1.1757979640e+02   6.4807000165e+00    0.1760487    0.1443601  60.18 0.0008663352    1.322    0.243
        70 -11.9763      4.3948    207.4417   1.4945141446e+02   3.1460179340e+01    0.4202332    0.2331089  76.28  0.002863496    1.351    0.260
        71  -9.4785     27.5363    205.5297   1.4511626080e+02   2.9544636638e+01     0.116328   0.08250566  73.25 0.0002266149    1.047    0.045
        72  -9.4108    238.5347    201.4534   1.0289462703e+02  -3.6263479548e+00    0.1274341    0.1015048  10.92 0.0001556297    1.062    0.059
        73  -9.7503    218.2729    201.3563   1.0646593320e+02  -2.1440017006e-01    0.1313187   0.08981676   5.31 0.0007001391    1.645    0.392
        74  -9.1626     34.6671    200.7320   1.4341940557e+02   2.9732914649e+01   0.09654272   0.08728069 -58.00 0.0002368343    1.586    0.369
        75 -11.0296    214.7971    199.0033   1.0667497652e+02   7.2931618419e-01    0.2494555     0.146334  29.09 0.0008744711    1.648    0.393
        76 -10.6339    227.1798    196.7759   1.0402416634e+02  -1.0966815575e+00     0.258199    0.1809276   2.56 0.0008408722    1.516    0.340
        77 -11.7931    192.0836    194.7715   1.1020685477e+02   5.4797934358e+00     0.323747    0.2896011  73.30  0.001960302    1.412    0.292
        78  -9.3607    218.6278    206.6704   1.0735036876e+02  -1.0229164182e+00    0.1373746   0.08697664  12.18 0.0007028828    1.831    0.454
        79 -10.3906    215.6312    194.7254   1.0573639582e+02   1.2105468346e+00    0.2284946    0.1781145   8.62 0.0005335563    1.259    0.206
        80 -11.1247    232.4818    191.4609   1.0208924286e+02  -1.2564976829e+00    0.3160189    0.1718246  27.66  0.001554544    1.892    0.472
        81 -10.1910    163.0000    191.4801   1.1546766238e+02   1.1501538894e+01    0.2819031   0.07991676 -46.84 0.0009375935    3.958    0.747
        82  -9.7242    203.0179    195.9691   1.0832242495e+02   3.2864171242e+00    0.2027863     0.178177  20.17 0.0007142268    1.019    0.019
        83  -9.7400    250.4651    190.0009   9.8731732798e+01  -4.0475355437e+00    0.1807762    0.1118533 -28.55 0.0004890875    1.554    0.357
        84  -9.3931    205.5940    190.2267   1.0677376807e+02   3.7083045514e+00    0.1739334    0.1231436 -20.78 0.0005803088    1.556    0.357
        85 -10.7612    225.6469    188.9635   1.0282984903e+02   2.8658981917e-01    0.3076313    0.1565193  14.16  0.001085471    3.980    0.749
        86 -11.8527     16.2699    183.2661   1.4582752055e+02   3.5248097017e+01    0.3998981    0.1982371  84.70  0.001799492    1.738    0.425
        87 -11.5265    248.1982    182.7303   9.7707675648e+01  -2.6979693176e+00    0.4445472    0.2186362  23.13   0.00194427    2.647    0.622
        88 -10.0152    166.9655    183.4845   1.1322455182e+02   1.2197802024e+01    0.2183531    0.1274493  43.64 0.0006446374    1.554    0.357
        89  -9.8813    236.4589    182.4686   9.9660378638e+01  -6.6535726947e-01    0.1300845    0.1122544   6.38  0.000394079    1.017    0.017
        90 -11.5146    224.3323    178.4361   1.0101688351e+02   2.0902388156e+00    0.2967564    0.2607656   5.88 0.0005521286    1.019    0.019
        91 -10.3570      2.1315    180.1294   1.4845137432e+02   3.7154914535e+01    0.1851332    0.1265297  67.19 0.0005215819    1.189    0.159
        92 -11.4896    244.5920    177.7531   9.7334289978e+01  -1.3968369580e+00    0.3006863     0.153537 -25.06  0.001435726    2.014    0.504
        93  -9.0824     36.4120    178.5105   1.4126721505e+02   3.4217153146e+01    0.1219406    0.0938633  81.96 0.0002458348    1.019    0.019
        94 -10.6737    200.4415    176.5293   1.0512526237e+02   6.8992562624e+00    0.2521772     0.179419  11.23 0.0009599045    1.683    0.406
        95  -9.5372     70.2003    177.5991   1.3372938480e+02   3.0215347142e+01    0.1542555    0.1220835  33.54 0.0004230634    1.506    0.336
        96  -9.6574    211.2744    175.3518   1.0281422150e+02   5.0106018571e+00    0.1403442    0.1007134   3.16 0.0007002954    1.638    0.390
        97  -9.7287    183.3394    173.3143   1.0790166365e+02   1.0823620651e+01    0.1468979    0.1081856  10.43 0.0004359923    1.699    0.412
        98  -9.5994     61.6167    184.8143   1.3644862406e+02   2.9806035031e+01    0.1805453    0.1045925 -85.12 0.0009536489    1.696    0.410
        99  -9.8047     74.5814    171.5815   1.3196990437e+02   3.0930476153e+01    0.1676679     0.150238 -44.85  0.001034725    1.439    0.305
       100  -9.3450     59.6181    171.8050   1.3543815877e+02   3.2925530645e+01    0.1844956    0.1066619 -84.24 0.0009460307    1.701    0.412
       101  -9.8775      4.5665    167.7936   1.4720479151e+02   3.9563563704e+01    0.2186472   0.08314563 -74.92    0.0011404    2.065    0.516
       102  -9.6903    209.9960    166.3206   1.0121319826e+02   6.7399293882e+00    0.1988001    0.1702989  27.73 0.0004961436    1.098    0.089
       103 -10.5970     52.5907    163.4774   1.3608943845e+02   3.5688712082e+01    0.4580518    0.2698845 -30.85  0.001936626    3.765    0.734
       104 -10.0893     41.1596    165.3930   1.3895381202e+02   3.6592420164e+01    0.1673464   0.09608174  52.08 0.0003406053    1.642    0.391
       105 -10.4348      9.9852    165.1110   1.4586922330e+02   3.9696375996e+01    0.1744265    0.1292111  84.42 0.0004160664    1.014    0.014
       106  -9.1476    229.5014    164.5379   9.7258032615e+01   3.2745910694e+00    0.1376724     0.120358   4.56  0.000141789    1.040    0.039
       107  -9.4161    200.0289    162.9662   1.0243758741e+02   9.2999849967e+00    0.1739639    0.1564713  29.84 0.0004609645    1.053    0.050
       108 -10.4516     36.2842    161.4767   1.3967291787e+02   3.8006156472e+01    0.3978336    0.1357556 -68.23  0.001765065    2.443    0.591
       109 -11.2907    247.8395    158.8460   9.2928551233e+01   7.7152622463e-01    0.4318731    0.2377365 -30.30  0.002136078    1.701    0.412
       110  -9.9485     48.3488    158.6997   1.3653142134e+02   3.7287507193e+01     0.136151   0.08135694  68.85 0.0003350367    1.688    0.408
       111 -10.9803     22.1126    156.4735   1.4246446462e+02   4.0538467403e+01    0.3157522     0.281677  76.70  0.002310024    1.211    0.174
       112 -10.3629      8.0150    158.2767   1.4579898550e+02   4.1351894410e+01    0.1518776    0.1229984  79.57 0.0004371037    1.116    0.104
       113  -9.1045    235.6485    154.7066   9.4102354358e+01   3.6488047029e+00    0.1424614   0.09905337  10.61 0.0007030842    1.679    0.404
       114  -9.9972    205.4118    152.3136   9.9099488951e+01   1.0060892740e+01    0.2773329    0.1379804 -32.83    0.0011297    2.136    0.532
       115 -10.0656    197.2307    153.6124   1.0098688618e+02   1.1532529445e+01    0.2104041    0.1306137  36.55 0.0008585664    1.635    0.388
       116  -9.2668    151.6550    153.3186   1.1067535760e+02   2.1193120801e+01    0.1550995    0.1166963  81.03  0.000704913    1.724    0.420
       117 -10.2734     10.3432    152.7126   1.4484453143e+02   4.2394018540e+01     0.173192    0.1285275  62.00 0.0005655662    1.279    0.218
       118 -10.4313    178.3086    151.4258   1.0439545640e+02   1.5942530079e+01    0.3261622    0.2595347  64.39   0.00163183    1.421    0.296
       119  -9.2955     46.1834    151.3438   1.3617129219e+02   3.9232445149e+01    0.1708754    0.1019449  49.61 0.0004418858    1.659    0.397
       120  -9.5956     92.9784    148.2332   1.2391958907e+02   3.3434980565e+01    0.1838711    0.1147322  42.16 0.0005997329    1.612    0.380
       121  -9.4825    233.5188    146.9964   9.2794753681e+01   5.2777515047e+00    0.2132617    0.1289662 -32.09  0.001025894    1.575    0.365
       122 -10.5962    206.9052    145.9624   9.7401550614e+01   1.0865183263e+01    0.2490626      0.20629  41.07 0.0007320325    1.197    0.165
       123 -10.6944      7.4480    145.1293   1.4489624873e+02   4.4311572948e+01     0.207624    0.1230088  53.52 0.0008431824    1.662    0.398
       124 -10.9261      4.3740    142.1774   1.4538039879e+02   4.5198030536e+01    0.3082617     0.173549 -57.19   0.00175661    1.770    0.435
       125 -11.5122      3.5032    136.2383   1.4509557148e+02   4.6589906299e+01    0.4785151    0.2022883 -54.85  0.001773024    2.339    0.572
       126 -11.7961      9.1137    136.7939   1.4376725868e+02   4.6063502333e+01    0.2132613    0.1691621 -77.52 0.0002521603    1.114    0.102
       127 -10.1791    212.6470    141.8442   9.5384592563e+01   1.0377446041e+01     0.365389    0.2324547  -2.03  0.001488937    2.465    0.594
       128  -9.8006     37.5369    142.3025   1.3722400437e+02   4.2276214918e+01    0.1996596    0.1131539  32.68  0.001068968    2.013    0.503
       129 -10.9579     12.3045    141.5188   1.4341941444e+02   4.4750094507e+01    0.2415778     0.119874 -46.83  0.001246776    2.528    0.604
       130 -10.5923    236.1679    138.7356   9.0510473147e+01   6.0804392504e+00    0.2335312    0.2131075 -26.89 0.0005832037    1.083    0.076
       131 -11.3814     57.6775    138.6520   1.3149893745e+02   4.0827527843e+01    0.3169825    0.2114242  69.22 0.0005580265    1.597    0.374
       132  -9.3540     16.6707    139.6808   1.4217363958e+02   4.4817054012e+01    0.1181116   0.07781646 -51.04 0.0003282062    1.687    0.407
       133 -10.2870     21.9712    136.1692   1.4047680070e+02   4.5176559156e+01    0.1914024    0.1368813  74.10  0.001090697    1.303    0.232
       134  -9.8915    138.3062    135.2750   1.0989093107e+02   2.7835588088e+01    0.2849942    0.1840037  34.25  0.000804892    1.736    0.424
       135  -9.1058     67.6690    134.2795   1.2812527609e+02   4.0551024928e+01    0.1397845   0.09624681  72.22 0.0007000435    1.604    0.377
       136 -10.0333     79.9840    133.3105   1.2462147091e+02   3.8998708889e+01    0.1902077    0.1743367  74.42 0.0004408607    1.078    0.073
       137 -12.1579     36.5243    130.9106   1.3602535344e+02   4.5045331524e+01    0.3904678    0.2820567 -73.45   0.00154605    1.155    0.134
       138 -10.3902    249.4606    129.9824   8.6398415519e+01   4.8571112594e+00    0.2392956    0.2028298  77.75  0.001164054    1.569    0.363
       139 -10.2409    125.1955    130.1277   1.1198792333e+02   3.1679741252e+01    0.3954113    0.2097337  26.84  0.001354225    3.108    0.678
       140 -10.1597     73.9066    129.3912   1.2555540342e+02   4.0831920144e+01     0.257669    0.1857258 -57.19 0.0006495665    1.301    0.231
       141  -9.4030    243.1652    128.3947   8.7030154447e+01   6.3408412357e+00    0.1704784    0.1357395  64.67 0.0004454995    1.552    0.356
       142  -9.5935     60.0729    128.5279   1.2922683476e+02   4.2926009449e+01    0.1784313    0.1313121  40.76 0.0004171352    1.474    0.322
       143 -10.4553    219.6398    124.5367   9.0083074662e+01   1.1877693132e+01    0.2685257    0.2473091 -25.13 0.0005764439    1.033    0.032
       144  -9.5473     29.0198    130.7072   1.3800386376e+02   4.5815398990e+01    0.1619259    0.1410594 -82.41            0    1.097    0.089
       145 -11.6264     10.7234    122.3253   1.4191172656e+02   4.9245004076e+01    0.4414129    0.2909191 -21.34  0.002622274    2.308    0.567
       146 -10.8259     10.4230    102.4849   1.3962013109e+02   5.3814351405e+01    0.3662874    0.1917512  70.66  0.001870599    2.380    0.580
       147 -10.7618     17.7365    116.0217   1.3924685073e+02   5.0182290079e+01    0.2878374    0.2095326 -86.83  0.001273011    1.186    0.157
       148 -10.2223     20.1539    112.8253   1.3814122147e+02   5.0736908466e+01    0.1985324    0.1572913 -41.58 0.0008766921    1.437    0.304
       149 -12.0674     16.7208    108.6663   1.3857904788e+02   5.1959515210e+01    0.3407515     0.285017 -70.10 0.0005651458    1.082    0.076
       150  -9.3065     56.3205    121.6523   1.2909748694e+02   4.5032927846e+01    0.1414562   0.09478422  76.88 0.0007049078    1.736    0.424
       151  -9.3097     20.5241    121.5387   1.3916079977e+02   4.8684451177e+01    0.1232984   0.09833813 -77.42 0.0001234309    1.020    0.019
       152  -9.6765    221.5374    120.0007   8.8667725829e+01   1.2242194234e+01    0.2268037    0.1378617 -34.34 0.0008188833    1.572    0.364
       153  -9.3940    209.6711    118.3257   9.0378926964e+01   1.5170311912e+01    0.1527026    0.1173867 -72.24 0.0007050358    1.702    0.412
       154  -9.7679     54.7443    117.4547   1.2880624565e+02   4.6222996803e+01    0.1640514    0.1340782   8.11 0.0009426789    1.615    0.381
       155 -10.4151    100.4961    116.4737   1.1542720941e+02   3.9548332006e+01    0.1478703    0.1390947 -76.98  2.11049e-05    1.014    0.014
       156 -11.3246     36.0344    110.9467   1.3320366503e+02   4.9793976297e+01    0.5269874     0.264111 -66.28  0.001875756    1.657    0.397
       157  -9.4337     66.6441    112.8621   1.2442036083e+02   4.5781552677e+01    0.1859057    0.1196676 -71.32  0.000128215    1.552    0.356
       158 -10.1231    179.1796    116.3543   9.5897191514e+01   2.2589891426e+01    0.2473547    0.2158069 -22.54 0.0005704837    1.214    0.176
       159  -9.8193    106.9235    110.7051   1.1223858005e+02   3.9681891578e+01    0.2030776    0.1915613  66.60 0.0003228869    1.078    0.072
       160  -9.6852     42.4905    110.4877   1.3119562020e+02   4.9253667668e+01    0.1311037    0.1107941 -71.89 4.976102e-05    1.007    0.007
       161  -9.6883    167.4665    109.0435   9.6535823705e+01   2.6795375364e+01    0.2354812    0.1541772 -40.19 0.0005315639    1.530    0.347
       162 -10.1453    241.9939    108.1708   8.2525597578e+01   9.8061675652e+00    0.2222816    0.1626688 -80.33 0.0006549442    1.959    0.489
       163  -9.7836    133.1814    107.7882   1.0442121622e+02   3.4939079868e+01    0.2180058    0.1894048  -6.19 0.0009442879    1.376    0.273
       164 -11.2246     23.2732    107.1056   1.3641708763e+02   5.1818740051e+01    0.2369029    0.1836003 -74.68 0.0004537366    1.056    0.053
       165  -8.8562    102.7010    107.2693   1.1256984427e+02   4.1258988060e+01    0.1452214    0.1150247  82.65 0.0001887471    1.523    0.343
       166 -10.3856      6.3760    106.2058   1.4128616992e+02   5.3219494661e+01     0.246835    0.1526683 -71.26  0.000831396    1.242    0.195
       167 -10.7316      2.8305    105.1545   1.4219146916e+02   5.3669059072e+01    0.2437509    0.1423432 -81.86 0.0004527988    1.404    0.288
       168 -11.3423     62.0625    106.7329   1.2453052125e+02   4.7841450359e+01    0.3855007      0.16518 -54.33 0.0005782435    2.025    0.506
       169  -9.9629    223.3293    104.0163   8.4468655807e+01   1.4558336614e+01    0.2113409    0.1769795 -37.60 0.0005283761    1.125    0.111
       170 -10.6316     93.4552    104.4158   1.1453025701e+02   4.3580707073e+01    0.2392885    0.1814495 -42.24 0.0001966931    1.323    0.244
       171 -11.0835     70.4763    102.4537   1.2100039955e+02   4.7692533809e+01    0.3979667    0.2684865  12.87  0.001199443    2.127    0.530
       172 -11.0742     20.6042     97.7813   1.3580475696e+02   5.4183828345e+01    0.3138653    0.1053155 -71.55  0.001293002    2.656    0.623
       173 -10.7384    247.9884    102.2789   8.0256626382e+01   9.4833743293e+00     0.191258     0.183978 -36.00 0.0008857915    1.072    0.067
       174 -10.0646    119.9970    101.5158   1.0622804258e+02   3.9124264721e+01    0.3038764    0.1920556 -11.38  0.001029472    3.346    0.701
       175 -10.0018     36.4065    101.6070   1.3148814493e+02   5.1947251038e+01    0.2408116    0.1656163  17.46  0.001375344    1.863    0.463
       176 -10.5006     27.7775    100.9310   1.3406986213e+02   5.2882360700e+01    0.1825896     0.169982  78.98            0    1.189    0.159
       177 -10.6528      3.8837    100.7046   1.4135001826e+02   5.4617569653e+01     0.259349     0.189099  47.67  0.001197973    1.599    0.375
       178 -10.1431     65.8141     98.3469   1.2150798061e+02   4.9299877797e+01    0.2278498    0.1716039   3.00 0.0006901622    1.802    0.445
       179 -10.3174     62.1868     98.5783   1.2270996941e+02   4.9733097160e+01     0.246965    0.1776851   8.39  0.001213176    1.902    0.474
       180 -10.1288     50.4627     99.2218   1.2657882114e+02   5.1026814060e+01     0.192043    0.1826482  58.34 0.0003997936    1.184    0.155
       181 -10.3650     92.7349     95.6434   1.1247414546e+02   4.5697257059e+01    0.2730955    0.1646907 -41.40  0.000605042    1.669    0.401
       182  -9.7680     58.4895     96.5096   1.2342086104e+02   5.0690093779e+01    0.1359573    0.1201646 -70.47  0.000809351    1.077    0.071
       183  -9.7096     38.7857     96.3583   1.2974734820e+02   5.2938068408e+01    0.1539757    0.1238883   3.92 0.0004338121    1.579    0.367
       184  -9.8913      2.8903     86.1355   1.3971887255e+02   5.7954198558e+01    0.2629426    0.1453685  33.52  0.001574914    2.195    0.544
       185 -11.0968      8.4198     94.9320   1.3920247113e+02   5.5660895527e+01    0.2288029    0.1732424 -60.88 0.0003458732    1.125    0.111
       186 -10.7285     10.6771     91.3632   1.3796666954e+02   5.6332265142e+01    0.2587805    0.1778792  -0.89  0.001628638    1.974    0.493
       187 -10.5491      7.0963     88.8432   1.3874560336e+02   5.7116012348e+01    0.1787121    0.1485722 -86.63 0.0003264022    1.172    0.147
       188 -10.3866      1.4500     93.9677   1.4124196588e+02   5.6272487690e+01    0.2658847   0.08314642 -69.49  0.001219159    2.295    0.564
       189 -10.7006    109.4217     92.8737   1.0678730567e+02   4.3166084750e+01    0.3749718    0.1417564 -44.46  0.001287855    2.581    0.613
       190  -9.5994    227.0146     93.4753   8.1258709776e+01   1.5472307868e+01    0.2060892    0.1455871  59.06 0.0004461816    1.518    0.341
       191  -9.3958    171.3229     91.3117   9.0851605887e+01   2.9299884093e+01    0.1601168    0.1244952  15.88 0.0007038851    1.654    0.395
       192 -10.6774     96.2402     90.3227   1.0995335893e+02   4.6247681343e+01    0.3515529    0.2139213  -9.96   0.00115063    3.982    0.749
       193  -9.1080     38.2187     90.3349   1.2872468730e+02   5.4384383204e+01    0.1297649   0.07919689 -46.13 0.0001495293    1.518    0.341
       194  -9.2898     73.1678     88.6458   1.1674053016e+02   5.0464327047e+01    0.1698533    0.1337979  20.60 0.0002018683    1.484    0.326
       195  -9.9310     49.4684     87.9637   1.2442958266e+02   5.3739520970e+01    0.3393187    0.1227615 -63.73  0.001274028    2.835    0.647
       196 -10.7045     46.2421     83.4863   1.2447901037e+02   5.5115869794e+01    0.4637288    0.2047138 -60.40  0.002076038    2.006    0.501
       197 -10.8983    113.3220     86.7185   1.0388652962e+02   4.3685478502e+01    0.3304638    0.2107011  50.83 0.0008786248    1.657    0.397
       198 -11.2846    118.3349     82.9898   1.0135389729e+02   4.3400793395e+01    0.3812283    0.3047485 -16.08  0.001217187    1.468    0.319
       199  -9.0694     56.3050     83.7382   1.2108467008e+02   5.3881349515e+01    0.1247885    0.1012523  78.89 0.0002664483    1.522    0.343
       200 -11.1405     23.6940     79.0075   1.3138597915e+02   5.8221335096e+01    0.3691584      0.29249 -77.61  0.002411079    1.235    0.190
       201 -11.1402     19.9325     82.0223   1.3329446853e+02   5.7824900841e+01    0.2685955    0.1769644 -78.77 0.0003139581    1.468    0.319
       202 -11.1544     15.8099     81.4336   1.3461065481e+02   5.8243424310e+01     0.361283    0.1753661 -44.93  0.001492694    1.902    0.474
       203 -11.0348     85.2277     80.9946   1.1070056259e+02   5.0220763767e+01    0.3398989    0.2151798 -45.33  0.001117432    1.473    0.321
       204 -12.5766     72.2056     78.7773   1.1433834622e+02   5.2790089746e+01    0.4412534    0.3730905 -17.82 0.0005550112    1.278    0.218
       205 -11.0564     77.6980     71.9053   1.1042861893e+02   5.3395172878e+01    0.2923579    0.2658008  63.82 0.0006016598    1.291    0.226
       206 -12.3108      4.7196     76.1140   1.3754421621e+02   6.0086395762e+01    0.6167648    0.3584491 -45.64  0.002837756    1.547    0.353
       207  -9.3725    126.2548     80.6085   9.8459590930e+01   4.2142179150e+01    0.1575004    0.1183354 -69.61 0.0006960828    1.686    0.407
       208 -11.3613    150.9933     78.5702   9.1645755986e+01   3.6704848601e+01    0.2920618    0.2698672 -86.05 0.0003973087    1.145    0.127
       209 -10.4959     54.5612     72.4370   1.1867731025e+02   5.6590603786e+01    0.2927135    0.2350859  80.29 0.0004851929    1.669    0.401
       210 -11.0405     59.3277     76.6951   1.1817366016e+02   5.5057039609e+01    0.3331173      0.24111  78.03 0.0009958063    2.078    0.519
       211 -12.1384     62.5538     72.9238   1.1596846053e+02   5.5441752536e+01    0.5661687    0.4254354 -38.69  0.002859573    1.230    0.187
       212 -11.2603    108.1919     75.8999   1.0205669209e+02   4.6966386975e+01    0.3284987    0.2638357 -17.32 0.0003978741    1.403    0.287
       213 -10.0663      2.4101     71.8043   1.3763586121e+02   6.1149685429e+01    0.2266098     0.132009 -48.22  0.001406417    1.456    0.313
       214  -9.8737    121.5956     76.2056   9.8348178898e+01   4.4047979113e+01    0.2158482    0.1440194 -29.70 0.0008698952    1.633    0.388
       215  -9.8930     49.3088     76.2981   1.2160882629e+02   5.6376096268e+01    0.1335295    0.0903803 -30.85 0.0007008411    1.595    0.373
       216 -11.2287     40.1407     72.8544   1.2403482177e+02   5.8125506250e+01    0.2685986     0.225105 -73.79 0.0003532145    1.264    0.209
       217 -11.1751     25.9485     69.8511   1.2856614609e+02   6.0071381895e+01    0.5240843    0.2425527 -62.37   0.00262416    1.817    0.450
       218 -10.8129     20.9008     65.9728   1.2957647746e+02   6.1302080322e+01    0.2593605    0.1714518  28.47  0.001595807    1.821    0.451
       219 -10.7115    152.0914     72.1491   8.9423933445e+01   3.7607199339e+01    0.2468823     0.215079  27.18  0.001234579    1.247    0.198
       220 -10.2695    145.4612     71.4584   9.0747618453e+01   3.9365132122e+01    0.3678189    0.1539737 -35.61  0.001282003    2.451    0.592
       221 -10.2781    115.9494     71.3943   9.8376317125e+01   4.6217829499e+01    0.2845028    0.2150241 -33.93 0.0006373319    1.326    0.246
       222  -9.6069    175.1545     70.8033   8.4145047287e+01   3.2012143736e+01    0.2066434    0.1822239  16.93 0.0003280877    1.299    0.230
       223 -11.3986     49.0241     70.9438   1.2027045615e+02   5.7577650373e+01    0.3201734    0.2221809  42.16  0.001795857    1.701    0.412
       224 -10.3036     50.7188     67.6687   1.1871948395e+02   5.8080801575e+01    0.2378171    0.1571372 -42.14 0.0005874376    1.340    0.254
       225 -11.2286     68.8546     67.4045   1.1207034439e+02   5.5703429948e+01    0.3631703    0.2326931 -41.78 0.0008863393    1.422    0.297
       226 -11.5916    130.3319     65.5374   9.2574261183e+01   4.4059895286e+01    0.6642414    0.2797969 -39.90  0.002417221    2.355    0.575
       227 -10.9964     95.8805     67.1340   1.0295114136e+02   5.1146602620e+01    0.5229926    0.3486361  -4.36   0.00222296    2.335    0.572
       228 -10.7338     36.9437     67.1917   1.2375493192e+02   5.9673706955e+01    0.3785874    0.2243897 -52.56  0.001886771    1.389    0.280
       229 -10.7924     43.0188     65.7018   1.2104368103e+02   5.9371445650e+01    0.3150382    0.2549005 -75.12  0.001592137    1.425    0.298
       230 -11.3420     31.0649     66.1719   1.2572894657e+02   6.0439039391e+01    0.2617852    0.1980278 -56.29 0.0003970629    1.121    0.108
       231 -10.0694      6.7090     67.8632   1.3534943181e+02   6.1788868364e+01    0.1771958    0.1381526 -35.58  0.001019978    1.304    0.233
       232 -10.0673    156.2974     66.3255   8.6674791348e+01   3.7574651461e+01    0.1570577    0.1210481  17.91 0.0005676835    1.629    0.386
       233 -10.0264    118.8942     65.8511   9.5727375905e+01   4.6616489525e+01    0.2742561     0.199898  30.21 0.0005578262    1.524    0.344
       234 -11.1556    122.5256     61.7168   9.3346749857e+01   4.6546879467e+01    0.3490019    0.2430187  27.21  0.001582185    1.701    0.412
       235 -11.1365      2.2565     63.5757   1.3621006291e+02   6.2940578298e+01    0.4164239    0.1998624 -69.91  0.002316435    1.711    0.416
       236 -10.2491    138.2412     65.4260   9.0554783119e+01   4.2197416290e+01    0.2126774    0.1483552  66.23 0.0009418501    1.620    0.383
       237 -10.5043    105.8509     64.8290   9.9125518187e+01   4.9605030409e+01    0.2010552    0.1787591 -72.22 0.0006942246    1.323    0.244
       238 -11.1923     83.7952     62.8459   1.0543004634e+02   5.4199342351e+01      0.43219    0.3326188 -65.75  0.001352657    1.646    0.392
       239 -10.5929     86.1358     58.1422   1.0302323921e+02   5.4684349712e+01    0.2945999     0.228633 -40.69 0.0007263416    1.236    0.191
       240 -10.3425     76.8683     65.3444   1.0861549509e+02   5.4873906623e+01    0.2961123    0.1684202  49.92  0.001336627    2.158    0.537
       241 -10.6809    174.0389     63.6467   8.2230225889e+01   3.3488769311e+01    0.3306234    0.2409986 -52.63  0.001301985    1.439    0.305
       242 -11.4461     10.8844     62.5290   1.3267325138e+02   6.2705743351e+01    0.2232393    0.1719377 -54.61 0.0004129215    1.015    0.015
       243 -10.2038     93.1141     61.2914   1.0184610260e+02   5.2797964876e+01    0.2458602    0.1846431 -29.43 0.0005923875    1.319    0.242
       244  -9.5925     71.5883     61.5513   1.0920260942e+02   5.6473644618e+01    0.2040265    0.1674401  63.33 -6.109095e-06    1.602    0.376
       245 -10.7401     70.2495     58.5684   1.0867113052e+02   5.7269568572e+01    0.3146339    0.1860271 -32.93  0.001161574    1.707    0.414
       246  -9.7970     56.3021     62.2974   1.1501816523e+02   5.8508579936e+01    0.1580349    0.1256381  39.42 0.0002267428    1.449    0.310
       247 -11.1272     57.7690     59.0170   1.1341480510e+02   5.8982147770e+01    0.3144407    0.2565862 -29.74   0.00151668    1.119    0.107
       248 -11.2646     26.8554     61.3965   1.2613159817e+02   6.1820317966e+01    0.3320861    0.2083237   9.64  0.001918374    1.978    0.494
       249 -10.2649     32.9900     60.2169   1.2338902276e+02   6.1532979693e+01    0.3036139    0.1775687 -19.21  0.001231451    2.209    0.547
       250 -10.1492     18.2962     59.8077   1.2912554969e+02   6.2809605822e+01    0.2423308    0.1612564 -81.57  0.001076842    1.796    0.443
       251 -10.1413    141.9375     63.6643   8.9091070041e+01   4.1606387739e+01    0.2121018    0.1867346  58.37 0.0002532507    1.134    0.119
       252 -10.8791     64.1956     59.9447   1.1133306343e+02   5.7902802602e+01    0.2686234     0.195091  47.12 0.0008241314    1.651    0.394
       253 -11.5289    113.7797     57.8693   9.4427924274e+01   4.9182836092e+01    0.4879732    0.2463284  49.55    0.0017125    1.991    0.498
       254 -10.5144     51.8074     62.5611   1.1678893673e+02   5.9022014589e+01     0.260452    0.1720919 -31.60 0.0008960664    1.514    0.339
       255 -11.0064    137.8345     54.7841   8.7121269865e+01   4.4100443558e+01    0.3785522    0.2763029 -16.94  0.001774948    1.574    0.365
       256 -11.5096    135.2891     50.1486   8.6143575104e+01   4.5462174986e+01    0.4854662     0.312476 -65.54  0.001543092    2.294    0.564
       257  -9.5928     80.9595     57.0578   1.0438735455e+02   5.5803755321e+01    0.1643139    0.1501684 -21.44 0.0004378106    1.008    0.007
       258 -10.6162     99.1845     55.8486   9.8021177330e+01   5.2612482360e+01    0.4482901    0.1916761  37.46  0.001587607    2.684    0.627
       259 -12.4604    127.8936     51.9319   8.8575222868e+01   4.6957737973e+01    0.4064513    0.3232625 -25.35 0.0007461426    1.300    0.231
       260 -11.7267     38.4245     51.6903   1.1864192029e+02   6.2751521038e+01     0.561759    0.3167845 -37.85  0.002840477    1.589    0.371
       261 -10.1101     44.7475     51.4552   1.1599064754e+02   6.2107332220e+01    0.2375579    0.1699456 -24.78 0.0006418728    1.376    0.273
       262 -11.1930     46.0986     47.1213   1.1395440719e+02   6.2792445195e+01    0.2449867     0.179963 -46.73 0.0002759115    1.246    0.198
       263 -11.5720      4.0914     53.0268   1.3329666908e+02   6.5085904583e+01    0.4991249    0.1937859 -35.52  0.002460959    2.619    0.618
       264 -11.0795     12.9920     49.9660   1.2881448496e+02   6.5217842236e+01    0.3767603    0.1500571 -51.35  0.001847611    1.831    0.454
       265 -12.2049      9.3841     45.4259   1.2916614797e+02   6.6362918971e+01    0.4963405    0.3187641 -26.10  0.001679834    1.559    0.358
       266 -10.4742      6.8844     40.8567   1.2903038094e+02   6.7422349946e+01    0.2360282    0.1240781 -48.21 0.0005209638    1.416    0.294
       267 -10.7135     87.1109     52.6419   1.0072398800e+02   5.5516658913e+01    0.2080999    0.1753112  55.11  0.001155677    1.388    0.280
       268 -10.2646    157.8662     51.9636   8.1785452976e+01   3.9507617344e+01    0.2304485    0.1974328  27.75 0.0004561492    1.278    0.218
       269 -11.2979     51.7363     47.6757   1.1186963139e+02   6.1989698705e+01    0.5894688    0.1760593 -47.42  0.002245126    2.945    0.660
       270 -10.6610    114.8219     49.2507   9.1065962728e+01   5.0407668612e+01    0.3257215    0.2396337  -7.96  0.001575663    1.603    0.376
       271 -11.6911    143.3558     46.5223   8.3053593283e+01   4.4019672141e+01    0.4337037    0.3547377  62.08  0.001729347    1.208    0.172
       272 -11.0580    100.8776     48.6029   9.4856276444e+01   5.3520039093e+01    0.2795482    0.2330961 -45.84  0.001377933    1.289    0.224
       273 -11.0212     73.4726     52.4576   1.0536069608e+02   5.7922633777e+01    0.3563114     0.294208  85.30  0.001314834    1.837    0.456
       274  -9.9575     22.8470     46.1777   1.2349355283e+02   6.5282766030e+01    0.1662792     0.137626 -51.63 0.0004910263    1.144    0.125
       275  -9.5868     18.6562     46.3043   1.2535535352e+02   6.5577161692e+01    0.1073189   0.08928286  78.03  0.000704085    1.686    0.407
       276  -9.6196    233.2872     45.0854   6.8246707076e+01   2.1322702889e+01    0.1934168    0.1577633 -43.19  0.000499907    1.148    0.129
       277 -10.7850    122.5281     44.1839   8.7177686174e+01   4.9435773559e+01    0.3742539    0.3038128 -25.97  0.001064529    1.258    0.205
       278  -9.9080     98.8257     44.4348   9.3908527745e+01   5.4626731482e+01    0.2938901    0.2013872   8.20 0.0006705184    1.888    0.470
       279 -10.1097     86.1257     45.1245   9.8228034761e+01   5.7007102665e+01    0.2489911    0.1504625  36.50 0.0009931915    1.702    0.413
       280 -10.7522     64.0800     41.4829   1.0469509547e+02   6.1380827131e+01    0.2701846    0.1946768 -30.77  0.001000598    1.258    0.205
       281 -10.9632     70.1581     36.4059   1.0036501763e+02   6.1266109948e+01    0.5577955    0.2833236 -18.36  0.002213723    2.998    0.666
       282 -10.5535    162.9967     42.1949   7.7649453490e+01   3.9611694888e+01    0.2415396    0.1652959 -79.84 0.0007010389    1.869    0.465
       283 -10.0237     23.8254     41.7112   1.2165010463e+02   6.6083637185e+01    0.2026359    0.1460064 -49.52  0.001313821    1.182    0.154
       284 -10.4373    226.3325     40.3924   6.7858987728e+01   2.3621825670e+01    0.2657207    0.2154368 -67.23 0.0005922409    1.152    0.132
       285 -10.5914     95.2455     40.1916   9.3368172213e+01   5.6029769252e+01    0.3442292    0.2473648  71.70  0.001226339    2.050    0.512
       286 -10.1179     44.0438     39.7022   1.1210011672e+02   6.4424676221e+01    0.2908271    0.1566379 -45.31 0.0009686745    1.632    0.387
       287  -9.6165     29.2770     40.4368   1.1879342591e+02   6.5850497570e+01    0.2742412    0.1058661 -41.74 0.0009641604    2.169    0.539
       288 -11.1363    137.8223     43.6093   8.3287544732e+01   4.5830007363e+01    0.4066559    0.2810986 -78.79 0.0009059335    2.103    0.525
       289 -10.7118     88.6101     38.4244   9.4776754999e+01   5.7620535215e+01    0.3195087    0.2655767 -79.17 0.0007469061    1.782    0.439
       290 -11.6315     82.4052     36.6758   9.6132154636e+01   5.9070018903e+01    0.3438489    0.2962366   1.59  0.001379873    1.083    0.076
       291 -10.1955    119.3463     39.2163   8.6164799798e+01   5.0914374252e+01    0.2227288    0.1759506   2.51 0.0006147877    1.411    0.291
       292 -11.3697     19.1132     37.8122   1.2250141419e+02   6.7213017555e+01    0.2015654      0.15705 -39.85 0.0002362749    1.015    0.014
       293 -11.3734     24.9803     35.7026   1.1907147938e+02   6.7132349593e+01    0.2879364    0.2323533  33.95  0.001360741    1.569    0.363
       294 -10.8428      2.4205     37.5561   1.3016120391e+02   6.8310593252e+01    0.4089346    0.1486831 -37.34  0.001175919    2.442    0.591
       295 -11.1838     14.0576     32.5890   1.2312285414e+02   6.8577285993e+01    0.3351364    0.1579426 -50.22  0.001888134    1.634    0.388
       296 -10.2234      1.3984     31.6926   1.2895851480e+02   6.9502773847e+01    0.1727747     0.122858 -38.08 0.0005120452    1.130    0.115
       297 -10.7104      9.2263     33.5623   1.2575992368e+02   6.8710101649e+01    0.2824218    0.1596473 -48.74  0.001177323    1.335    0.251
       298 -11.2416      6.2571     30.0038   1.2605278126e+02   6.9564085281e+01    0.3727792    0.1941185 -36.07  0.001444539    1.596    0.373
       299 -10.2494    135.6639     37.6936   8.1692303801e+01   4.7205566477e+01    0.1551051    0.1069325  28.22 0.0006873474    1.673    0.402
       300 -10.0123    103.9964     37.0000   8.9495874290e+01   5.4681057808e+01    0.2848766    0.1535348  50.97  0.001272639    1.831    0.454
       301 -10.6730    106.0208     34.2730   8.7849517233e+01   5.4632907184e+01    0.3266537    0.2546574  28.20 0.0009834293    1.274    0.215
       302 -10.7322    111.1695     34.1202   8.6375549205e+01   5.3509576642e+01    0.4179815     0.243639 -22.86 0.0006322566    1.851    0.460
       303 -10.6317     76.4949     33.7135   9.6956500394e+01   6.0602795616e+01      0.24012    0.1739153  36.89  0.001003658    1.383    0.277
       304 -10.0940     61.0469     33.9247   1.0281129999e+02   6.3120098712e+01    0.1879563    0.1621615 -11.69   0.00119414    1.011    0.011
       305  -9.9887     32.1364     33.7397   1.1506241707e+02   6.6818763027e+01     0.258464    0.1335273  18.46  0.001309127    2.290    0.563
       306 -11.1803    145.2625     31.6937   7.7555632468e+01   4.5588515034e+01    0.2509657    0.2387262  70.87 0.0002451259    1.045    0.043
       307 -10.0910     97.8693     31.8417   8.9231815835e+01   5.6724074111e+01    0.2133161    0.1721368  15.69 0.0004795268    1.237    0.191
       308 -10.4839     56.0488     31.4845   1.0378230058e+02   6.4260922581e+01    0.2520691    0.1554167 -23.24 0.0007944409    1.613    0.380
       309 -12.1275    231.8544    247.1172   1.1165062648e+02  -8.0809556972e+00    0.5280824    0.2593705  25.16  0.002951305    1.895    0.472
       310  -9.2310     52.2689     42.3219   1.0967934171e+02   6.2914804603e+01    0.1301501   0.08709452 -19.69 0.0001829666    1.566    0.361
       311 -10.4637     78.6390     29.9889   9.4633542604e+01   6.0775391575e+01    0.1863661     0.157518 -14.69 0.0007412205    1.095    0.087
       312 -10.2779     50.1995     27.7310   1.0459696951e+02   6.5692484395e+01    0.3273979     0.142639 -28.34   0.00122322    2.584    0.613
       313  -9.6070     49.0270     23.5059   1.0321908384e+02   6.6517145564e+01    0.1829293    0.1427879 -78.89 0.0009681509    2.779    0.640
       314  -9.8081    124.8070     27.8941   8.0579542070e+01   5.1144909108e+01    0.2094722    0.1744169  27.89 0.0002719396    1.199    0.166
       315  -9.5568    172.5092     27.4679   7.1375767001e+01   3.9035579940e+01    0.1454051    0.1334489  88.70 0.0001454624    1.040    0.038
       316 -10.9621     70.4998     26.1973   9.5883889823e+01   6.2774481252e+01    0.4629012    0.2213664  32.18  0.002084512    2.315    0.568
       317  -9.2878     90.5068     26.5611   8.9277767767e+01   5.8965357337e+01    0.1346533    0.1211892  13.37 0.0001362757    1.015    0.015
       318 -11.4561     60.8426     23.8757   9.8516560998e+01   6.4709682350e+01    0.4517778    0.2108359 -47.76  0.001944449    2.950    0.661
       319  -9.7083     24.5353     26.4984   1.1578964596e+02   6.8841171471e+01    0.1180249   0.09331397 -29.37 0.0001599586    1.021    0.020
       320 -12.0711    225.9201    246.1004   1.1249757989e+02  -7.1023417434e+00    0.5148202    0.2936305   8.50  0.002896722    2.158    0.537
       321  -9.0587    120.3169     27.7377   8.1580417794e+01   5.2236830861e+01    0.1343314    0.1102085 -77.25 0.0001555112    1.545    0.353
       322  -9.7497    112.9407     25.1014   8.2373585673e+01   5.4286440009e+01    0.1984033    0.1861521 -83.20 0.0005929316    1.253    0.202
       323 -10.1727    137.0527    247.5117   1.2846454629e+02   6.6839208126e+00    0.1644764    0.1474582  59.70 0.0006396011    1.178    0.151
       324 -10.4881     54.3259     23.4342   1.0095015686e+02   6.5771292794e+01    0.2196548    0.2029117 -10.40  0.000485883    1.223    0.182
       325  -9.8794     17.6462     23.8696   1.1814162075e+02   6.9897589606e+01    0.1803245    0.1304639 -13.80 0.0004797313    1.296    0.229
       326 -10.6611    124.5342     21.6289   7.8267841594e+01   5.1959157479e+01    0.3313077    0.2690575   3.10  0.001112022    1.326    0.246
       327 -10.4444    100.1062     22.3272   8.4659532970e+01   5.7494833291e+01    0.2622927    0.2101404 -44.92 0.0008272923    1.462    0.316
       328 -10.7895     84.8229     22.0346   8.9118576700e+01   6.0692985949e+01    0.4048006    0.2435922  13.77  0.001900445    2.120    0.528
       329 -11.0500     66.3772     21.1832   9.5154212786e+01   6.4185221502e+01    0.2549548    0.2004331  23.27  0.001568907    1.194    0.163
       330  -9.8340    243.0522    247.4991   1.0985104736e+02  -9.7138400568e+00    0.1638191   0.08689182  34.62 0.0005728378    1.513    0.339
       331  -9.5819    166.6200     20.8010   7.0183524144e+01   4.1351522844e+01    0.1902833    0.1269366 -40.59 0.0003719549    1.555    0.357
       332  -9.1488    112.6494     21.7325   8.1106155094e+01   5.4757667537e+01    0.1467876   0.09445313  31.39 0.0003098551    1.622    0.383
       333 -10.5773      6.1853    244.9861   1.5075359832e+02   2.4427379216e+01    0.2328545    0.1329459  71.84  0.001051556    1.215    0.177
       334  -9.7873    104.4786     18.4984   8.1876103402e+01   5.6984995955e+01     0.216311    0.1286381  -7.81 0.0008264284    1.998    0.500
       335  -9.3613     45.5034     20.5368   1.0339253525e+02   6.7449067097e+01     0.123648   0.09997845 -11.19 0.0003276716    1.019    0.019
       336 -11.5520      8.5387    241.7616   1.5026067550e+02   2.4750031751e+01    0.3946505    0.1518398  68.70  0.002373441    2.049    0.512
       337  -9.6328    115.4408    244.7267   1.3208859865e+02   1.0492037927e+01    0.1305534    0.1134862 -55.65 0.0005654413    1.519    0.341
       338 -11.2749    178.5926    243.8893   1.2047894991e+02   5.2638020070e-01     0.427972    0.1372491  41.60  0.001875232    2.452    0.592
       339  -9.2091     19.0089     19.0000   1.1543058938e+02   7.0621800801e+01    0.2045365    0.1344246  17.04  0.001347969    1.637    0.389
       340 -10.0646     19.9118     15.6155   1.1346601468e+02   7.1101474062e+01    0.2108336    0.1300616 -15.82  0.000544359    1.571    0.363
       341  -9.4675     81.9870     16.4690   8.7543231361e+01   6.1938240356e+01     0.182516    0.1190586  45.01  0.000313225    1.461    0.316
       342 -10.1890     55.7780     15.7736   9.6752648811e+01   6.6641138130e+01    0.2116837    0.1555336 -52.13 0.0009842855    2.022    0.505
       343  -9.7439    123.5275     14.8042   7.5871825301e+01   5.2944665106e+01    0.2256776     0.151568  63.52 0.0008454387    1.433    0.302
       344 -10.6703    146.7470    244.4054   1.2633691015e+02   5.6017735291e+00    0.2384446   0.09068332  44.56 0.0008882482    2.050    0.512
       345 -10.0140     99.5122     14.0760   8.1326813515e+01   5.8570839305e+01    0.1989884    0.1713855  33.99 0.0009105662    1.043    0.041
       346 -10.2246     10.2314     15.8467   1.1871992014e+02   7.1853058621e+01    0.2384504    0.1337747  -7.46   0.00143784    1.983    0.496
       347  -9.1025    115.3286     13.6672   7.7237466212e+01   5.5018289517e+01    0.1363921    0.1041821 -65.63 0.0007051806    1.718    0.418
       348 -10.2087    109.7379    243.1752   1.3296834020e+02   1.1615331258e+01    0.2678236    0.1522325  65.53  0.001375751    1.850    0.460
       349 -10.3659     71.9931    243.7985   1.3978259635e+02   1.6943886419e+01    0.1836343     0.142159  79.98 0.0008048259    1.193    0.162
       350 -11.8989    156.0787    241.4790   1.2426372606e+02   4.5224717453e+00    0.3156101     0.195273  33.84   0.00113949    1.465    0.317
       351 -11.6456     19.3664    238.9511   1.4840551636e+02   2.4132130185e+01    0.4572034    0.2535379  53.16  0.003180651    1.366    0.268
       352  -9.0164     62.4550     11.5347   9.2044921252e+01   6.6098648277e+01    0.1223264    0.1068038   0.80 0.0006289915    1.102    0.092
       353  -9.2002     59.0521     10.0000   9.2594796448e+01   6.6853498967e+01    0.2456217     0.109076  57.53 0.0007379939    4.415    0.773
       354  -9.0994     51.3237     11.3051   9.6392889473e+01   6.7913407528e+01    0.1265781   0.08139859   5.26 0.0004488356    1.641    0.391
       355  -9.3014    113.6804    240.2916   1.3195081642e+02   1.1484134937e+01    0.1230028   0.07436272  62.89 0.0003175899    1.604    0.377
       356 -11.5365     73.9694    238.3526   1.3900194750e+02   1.7620904906e+01    0.5745393    0.2240648  47.09  0.003028099    1.951    0.488
       357 -11.1861     73.6783    233.0786   1.3861998442e+02   1.8597456303e+01    0.2946956    0.1705919  57.11  0.001376584    1.365    0.267
       358 -10.3854    174.0402    238.5005   1.2057010028e+02   2.0080919499e+00    0.2821978    0.1825858  30.75  0.001250593    1.402    0.286
       359 -10.8796    177.6009    234.8104   1.1939995864e+02   1.9408539179e+00    0.2711177    0.1863619  11.34  0.001203409    1.870    0.465
       360 -10.8233    159.9091    235.7971   1.2281562180e+02   4.7337573026e+00    0.2549414    0.1425995  33.84 0.0009156605    1.650    0.394
       361  -9.2826     50.2841    240.3351   1.4330600984e+02   2.0351570829e+01    0.0896079   0.08334238 -72.02 0.0004010932    1.622    0.383
       362 -10.4349    167.0142    233.9598   1.2124282209e+02   3.8243409606e+00     0.191728     0.156554  36.73 0.0007629707    1.045    0.043
       363 -10.8877    153.4208    233.7713   1.2376166773e+02   6.1186203663e+00    0.2209924    0.1731779   7.61 0.0008179273    1.700    0.412
       364  -9.9981     86.2930    233.4385   1.3633447159e+02   1.6758057263e+01    0.2065507    0.1215349  79.07  0.001186446    1.846    0.458
       365  -9.4724     53.6479    234.7089   1.4234063294e+02   2.0935863703e+01   0.09066848   0.08895287  24.20  0.000702828    1.675    0.403
       366  -9.9592     79.5891    231.3655   1.3738663174e+02   1.8083738864e+01    0.2089382    0.1212931  43.21  0.000579227    1.507    0.336
       367 -10.3203     12.1919    238.2137   1.4953245056e+02   2.5003646568e+01    0.1723597   0.09427796  69.26 0.0006666714    1.307    0.235
