#   1 NUMBER                 Running object number                                     
#   2 MAG_AUTO               Kron-like elliptical aperture magnitude                    [mag]
#   3 X_IMAGE                Object position along x                                    [pixel]
#   4 Y_IMAGE                Object position along y                                    [pixel]
#   5 X_WORLD                Barycenter position along world x axis                     [deg]
#   6 Y_WORLD                Barycenter position along world y axis                     [deg]
#   7 A_WORLD                Profile RMS along major axis (world units)                 [deg]
#   8 B_WORLD                Profile RMS along minor axis (world units)                 [deg]
#   9 THETA_WORLD            Position angle (CCW/world-x)                               [deg]
#  10 FWHM_WORLD             FWHM assuming a gaussian core                              [deg]
#  11 ELONGATION             A_IMAGE/B_IMAGE                                           
#  12 ELLIPTICITY            1 - B_IMAGE/A_IMAGE                                       
         1 -13.8267    215.5118     13.1958   4.4893257861e+01   2.9243156455e+01     1.852029     1.259594 -55.41  0.009565376    1.429    0.300
         2 -13.4290    220.3178      2.6312   4.1547116085e+01   2.9113312330e+01     2.276658    0.3285708  67.93  0.006651821    4.905    0.796
         3 -13.6391    179.4994     46.0765   5.9609294659e+01   3.4506113764e+01     1.201876    0.9071214 -22.42 0.0007892328    1.357    0.263
         4 -14.0138    190.6727     36.5525   5.4830865191e+01   3.2890698244e+01     1.335777     1.058452 -29.97  0.003184823    1.242    0.195
         5 -14.3662    198.3211     26.9246   5.0825543280e+01   3.2099541941e+01     1.621466     1.080165 -15.27  0.001321778    1.657    0.397
         6 -10.8982    189.8654     14.7028   4.8120369967e+01   3.5689678067e+01    0.2775721    0.2027433 -36.14 0.0007551102    1.342    0.255
         7  -8.7135    115.5203     31.4374   6.7897303015e+01   5.2797076371e+01    0.1461632    0.1368659  10.22 0.0001282503    1.010    0.010
         8 -16.3158     72.1253    148.9776   1.1210904722e+02   3.5776949138e+01     7.936534     3.823203  78.31   0.02864626    3.859    0.741
         9 -12.7602    128.6673    210.5418   1.0803866498e+02   1.5130178890e+01    0.4764828     0.286582  71.53  0.001391316    2.356    0.576
        10  -9.0332     98.4565    213.5300   1.1412980509e+02   1.9178708320e+01    0.1188397   0.09273771  59.26 0.0002382992    1.036    0.035
        11 -16.4271     73.0677    246.7802   1.2138989073e+02   1.7169343310e+01     7.813272     2.497827  31.76    0.0227166    6.155    0.838
        12 -12.2818    106.2229    209.8835   1.1226511720e+02   1.8675102371e+01    0.4917928    0.3029767  58.43   0.00189724    1.478    0.323
        13 -12.8380    107.6054    203.1217   1.1123520514e+02   1.9652405724e+01    0.4855624    0.2333235  47.44 0.0007792629    1.743    0.426
        14 -11.0302     69.8465    209.2112   1.1913727170e+02   2.3838516453e+01    0.2025359    0.1397406  71.56 0.0002806074    1.248    0.199
        15 -10.0234     29.6453    210.2994   1.2659409116e+02   2.8298844687e+01    0.2395566   0.06578094  47.68  0.001223617    2.542    0.607
        16 -10.5284     75.5016    206.7834   1.1785168877e+02   2.3543475627e+01    0.2107598    0.1848084  71.22  0.001038459    1.173    0.147
        17 -19.3961      8.6465    136.4512   1.2618016987e+02   4.5241984310e+01     17.36058     1.781075 -77.86   0.03959772   10.347    0.903
        18 -11.4494    133.2175    203.6167   1.0627559453e+02   1.5552682603e+01     0.398506    0.2342827  89.33  0.001730371    3.554    0.719
        19 -10.7092     32.9997    205.7141   1.2572971111e+02   2.8789068578e+01    0.1726551    0.1453124 -77.45  0.001368328    1.431    0.301
        20 -11.8792    193.1900    194.5663   9.3430620394e+01   6.8025203280e+00    0.8367206    0.4629317 -60.79  0.003307725    4.447    0.775
        21 -10.4298    156.6512    200.1138   1.0123072828e+02   1.2239558493e+01     0.332096    0.2197753  74.88  0.001656821    2.502    0.600
        22 -11.0938     96.3728    200.1083   1.1311363105e+02   2.1864259512e+01    0.3628235    0.2454459  30.41  0.001319602    1.722    0.419
        23 -10.8832    136.0801    199.3920   1.0514464098e+02   1.5797271433e+01    0.2334442    0.1891334 -76.90  0.001481949    1.467    0.318
        24 -10.2263     43.7821    220.0758   1.2466252148e+02   2.5030799194e+01    0.1622335    0.1443616  -5.71  0.001245344    2.035    0.509
        25 -10.9137    208.9814    198.1270   9.1178940895e+01   3.6344343374e+00    0.2203994    0.1809888 -59.72 0.0009162868    1.900    0.474
        26 -10.9907    141.3208    198.2633   1.0395377447e+02   1.5119547731e+01    0.2338584    0.1962112  67.03 0.0006808377    1.244    0.196
        27  -9.4961     45.5046    199.0348   1.2296169124e+02   2.8676826791e+01    0.1890823    0.1361414  76.99 0.0004292344    1.117    0.105
        28  -9.7786     44.8477    195.6083   1.2283929149e+02   2.9406843816e+01    0.3452323    0.1301631  54.70  0.001762805    2.267    0.559
        29 -12.3862     31.8446    198.1286   1.2548521438e+02   3.0332809191e+01    0.2030317    0.1436335  54.51 0.0006069468    1.219    0.179
        30 -10.2235     36.3527    197.7794   1.2461419677e+02   2.9923678371e+01    0.1646607    0.1101168  59.23 0.0003679294    1.186    0.157
        31 -10.3787     48.6286    217.2812   1.2363131127e+02   2.4972056988e+01    0.2573548    0.1723074  26.22  0.001417262    2.111    0.526
        32 -12.9878     65.8704    191.0574   1.1830358619e+02   2.7766380661e+01     0.722851     0.566256  82.53  0.004133061    1.119    0.106
        33 -11.3642    153.0818    193.5701   1.0094222609e+02   1.3909246452e+01    0.3980304    0.2455239  66.66  0.001665856    2.377    0.579
        34  99.0000     59.5178    214.9907   1.2150903369e+02   2.4090813575e+01     0.583582    0.4266154 -65.42  0.002893673    1.628    0.386
        35 -10.3094     81.1324    194.6733   1.1558078030e+02   2.5042936444e+01    0.3747816    0.1690166  44.09  0.001731259    1.881    0.468
        36 -10.1984     38.1327    192.4779   1.2391584830e+02   3.0753767939e+01    0.2029015    0.1287632  82.90 0.0007056262    1.327    0.246
        37 -11.4975     38.9572    211.4865   1.2499804218e+02   2.7093521522e+01    0.3772083    0.1764743  78.10  0.002189446    2.069    0.517
        38  99.0000     43.8923    211.7032   1.2412174666e+02   2.6507934501e+01    0.4311881    0.2103913 -82.11  0.002592135    1.976    0.494
        39 -11.1742     99.4928    180.8058   1.1016321107e+02   2.5069644938e+01    0.2304952    0.2104825  73.65 0.0005534212    1.096    0.088
        40 -10.9415    149.4957    180.3548   9.9571598115e+01   1.6796172580e+01    0.2797165    0.2018705  83.09  0.001342473    2.019    0.505
        41 -12.2907    142.7549    176.3395   1.0031007053e+02   1.8717994787e+01    0.5217513    0.3746383  70.87  0.002762681    1.727    0.421
        42  -9.4977     73.5455    189.5465   1.1659762482e+02   2.7061243186e+01    0.1966793   0.08726332  49.22 2.919781e-05    1.932    0.482
        43  -9.9858     48.9260    172.9900   1.2015348136e+02   3.3482187098e+01    0.3527672    0.1204647  41.98 0.0008722917    2.517    0.603
        44 -10.2303     43.2141    171.8499   1.2127340204e+02   3.4363702415e+01    0.2420771    0.1775634  28.85  0.001568993    1.723    0.420
        45 -10.3490    201.7319    169.0034   8.7186408608e+01   9.0449271680e+00    0.3823573    0.2512428 -50.40  0.001795039    1.994    0.499
        46 -10.6559    204.3266    165.2277   8.5956834654e+01   9.1355993520e+00    0.4947757     0.255535 -43.29  0.001753631    2.210    0.547
        47 -10.4953    164.6977    171.0447   9.4840640640e+01   1.5654604420e+01    0.2315768    0.2093728  85.97 0.0005348572    1.319    0.242
        48 -11.1052    193.7530    166.4856   8.8206056268e+01   1.0932260141e+01    0.2970494    0.2677171  16.59 0.0007172151    1.022    0.021
        49 -10.0674    191.7017    162.0112   8.7715171150e+01   1.2040623287e+01    0.2704846    0.2471567 -81.95 0.0007493484    1.439    0.305
        50 -10.7373    229.9929    166.0055   8.1518847094e+01   4.3309913610e+00    0.1857739    0.1661016 -64.40   0.00102001    1.691    0.409
        51  -9.2376    159.2835    163.3069   9.4532667221e+01   1.8051171670e+01    0.1342794     0.106285   5.48 0.0002556217    1.563    0.360
        52 -12.8011     95.1654    154.4513   1.0739603480e+02   3.1192371221e+01    0.6888697    0.5493395 -29.21  0.003843725    1.744    0.427
        53 -11.5811    133.7848    144.9790   9.6622619824e+01   2.6478341560e+01     1.122216    0.2877975 -54.74  0.002930296    5.664    0.823
        54 -11.0763    189.1732    155.1640   8.6815231466e+01   1.3659709496e+01    0.4478245      0.34011  48.92  0.002271575    1.340    0.254
        55  -9.7310    113.2134    151.0367   1.0257071103e+02   2.8948181028e+01     0.228972    0.1534555  89.99   0.00107129    1.996    0.499
        56 -10.8896    174.4311    148.6590   8.8435461354e+01   1.7729875930e+01    0.3181003     0.277109 -84.00  0.001312307    1.458    0.314
        57 -10.8177    144.1896    146.4523   9.4536139687e+01   2.4176682939e+01    0.3536742    0.2546139 -82.41  0.001654545    1.980    0.495
        58 -11.7540    106.5030    140.2182   1.0223990886e+02   3.2439265036e+01    0.5063319    0.3293527 -36.02  0.002376083    2.019    0.505
        59 -12.5678     94.5984    140.1700   1.0518604797e+02   3.4421780761e+01    0.2972133    0.2818788 -33.98 0.0004813799    1.262    0.207
        60 -10.8161     51.7642    208.7588   1.2248179446e+02   2.6140942290e+01    0.2247107    0.1385428  55.41 0.0007901177    1.276    0.216
        61 -11.1053    106.0270    130.8681   1.0056561191e+02   3.4592492211e+01    0.4543264    0.2981342 -54.86  0.002231091    1.497    0.332
        62 -11.0593    101.7486    126.6749   1.0082669229e+02   3.6272744421e+01    0.2627072    0.2403919 -21.17  0.000732473    1.312    0.238
        63 -11.3056    135.9029    128.6922   9.2693445669e+01   2.9452547914e+01    0.6792253    0.1937836 -49.30  0.002065706    3.669    0.727
        64 -11.0999    114.3173    130.3540   9.8362571057e+01   3.3229452243e+01    0.3176209    0.2727446 -25.05 0.0007671075    1.407    0.289
        65 -10.3747    160.3639    127.6228   8.6783756689e+01   2.4600883954e+01    0.4024022    0.2534444 -52.28  0.001784422    1.760    0.432
        66 -11.1989    119.6550    124.1273   9.5684707671e+01   3.3604280569e+01    0.4244009     0.313433 -11.47  0.001840961    2.083    0.520
        67  -9.8965     42.4020    230.5614   1.2550462088e+02   2.3390610460e+01    0.1365035   0.08529209 -82.90   0.00074683    1.563    0.360
        68 -10.1999    109.7998    119.2112   9.7137522061e+01   3.6528343824e+01       0.2285    0.2151603 -83.28 0.0003684105    1.022    0.021
        69  -9.1267    152.6679    119.7354   8.6645039998e+01   2.7810845311e+01    0.1497552    0.1180223  12.47 0.0002508251    1.578    0.366
        70 -13.7218     56.8091    204.0614   1.2118657767e+02   2.6408430630e+01     0.689091    0.4910612  37.60  0.003675251    1.526    0.345
        71 -10.1271    168.1094    112.7594   8.1432171576e+01   2.5780858610e+01    0.3778559    0.2785389 -81.49   0.00147845    2.039    0.510
        72 -11.6655    118.5257    110.0247   9.2694938701e+01   3.6920738008e+01    0.6029201    0.4764609  77.86   0.00297758    1.517    0.341
        73 -10.1932    205.4440    110.1566   7.3285920500e+01   1.7827221469e+01    0.3173552    0.2053004  39.40 0.0007997741    1.602    0.376
        74  -9.9551    134.5922    105.7366   8.7471149100e+01   3.4567456046e+01    0.2952907    0.1451066 -41.24  0.001132009    2.059    0.514
        75  -9.7807     72.1927    230.2426   1.2037375535e+02   1.9901768997e+01    0.1400607   0.08987268  59.65 0.0004011704    1.204    0.170
        76  -9.0128    166.7052     94.3050   7.6796665034e+01   2.9607039260e+01    0.1541479    0.1228791 -73.40  0.000192039    1.581    0.367
        77 -11.6043     41.6346     90.8091   1.1118506043e+02   5.3008348542e+01    0.4680356    0.2274542 -74.28  0.001392264    2.090    0.521
        78 -10.2338    188.1389     87.9297   7.0615965928e+01   2.5626815196e+01     0.404373    0.2858829  85.33  0.001722433    2.061    0.515
        79  -9.1726    155.2979     80.3123   7.5266357564e+01   3.4950146652e+01    0.1580742    0.1229034  10.31 0.0002839703    1.602    0.376
        80  -9.2165     67.7874     71.3700   9.7688256864e+01   5.4337200243e+01    0.1652853    0.1335847  16.59  0.000281939    1.464    0.317
        81 -11.6092    161.8546     62.9751   6.8409269241e+01   3.6415178076e+01    0.3852655    0.3058102 -79.32 0.0005029079    1.566    0.361
        82 -12.3496    165.5502     57.0473   6.5736314310e+01   3.6450170088e+01    0.9466939    0.5787598  89.86  0.001191707    2.807    0.644
        83  99.0000     37.4938    221.7497   1.2585180044e+02   2.5432236389e+01    0.3788455    0.2041878  64.27  0.002572996    1.441    0.306
        84  -9.9314    198.8481    222.7775   9.6868400149e+01   2.1466577009e+00    0.1698799    0.1271427  25.92 0.0003750823    1.091    0.083
        85 -12.6390     48.9810    233.4233   1.2456214281e+02   2.2173572118e+01    0.2277051    0.1404082  76.30 0.0005821376    1.383    0.277
        86 -10.2714     53.4990    231.1423   1.2366129514e+02   2.2029172634e+01      0.20884    0.1382462 -84.57  0.001032871    1.496    0.331
        87  -9.9481     52.1750    227.1719   1.2364071585e+02   2.2849978860e+01    0.1448779   0.08486166  64.73            0    1.350    0.259
        88 -10.3958     60.5204    230.3105   1.2240458345e+02   2.1333714945e+01    0.1593219    0.1007852  75.00 0.0005063583    1.388    0.279
