#   1 NUMBER                 Running object number                                     
#   2 MAG_AUTO               Kron-like elliptical aperture magnitude                    [mag]
#   3 X_IMAGE                Object position along x                                    [pixel]
#   4 Y_IMAGE                Object position along y                                    [pixel]
#   5 X_WORLD                Barycenter position along world x axis                     [deg]
#   6 Y_WORLD                Barycenter position along world y axis                     [deg]
#   7 A_WORLD                Profile RMS along major axis (world units)                 [deg]
#   8 B_WORLD                Profile RMS along minor axis (world units)                 [deg]
#   9 THETA_WORLD            Position angle (CCW/world-x)                               [deg]
#  10 FWHM_WORLD             FWHM assuming a gaussian core                              [deg]
#  11 ELONGATION             A_IMAGE/B_IMAGE                                           
#  12 ELLIPTICITY            1 - B_IMAGE/A_IMAGE                                       
         1 -13.8993    226.9217     65.7970   6.3360334888e+01   2.0955797721e+01     3.047953     1.629921 -85.72   0.01375757    2.974    0.664
         2 -14.6108    211.9299     71.6943   6.6417793208e+01   2.3128999589e+01     8.938668     4.644307 -88.91   0.03470364    3.638    0.725
         3 -13.8682    241.9521    113.2202   7.1804407470e+01   1.1621100463e+01     5.192836    0.9661732 -35.48   0.01503992    4.381    0.772
         4 -15.4269    243.6198     35.0122   5.5187364785e+01   2.1636336623e+01     2.835513     2.416996 -78.81   0.02073546    1.215    0.177
         5 -13.2252    236.8910     17.6144   5.1901784935e+01   2.4873856983e+01    0.6328121    0.4579822 -34.10     0.001186    1.342    0.255
         6 -13.7295    247.1497      9.1602   4.9607345840e+01   2.3796489068e+01     1.053205    0.5396801 -20.12   0.00384697    2.502    0.600
         7  -9.8485    207.2353     14.9102   5.3150658571e+01   3.1348535455e+01    0.5448229    0.3052328 -29.04   0.00258357    1.798    0.444
         8 -11.2004    143.0987      9.5645   5.7526907847e+01   4.7598547580e+01     1.283394    0.3694562 -21.85  0.004267426    4.181    0.761
         9  -9.9116    125.5453     14.8048   6.1876162619e+01   5.1718411446e+01    0.2899665    0.2767842  77.60  0.001018885    1.109    0.098
        10 -11.8902    118.9646     10.0672   6.1151373467e+01   5.3941168621e+01    0.9153814    0.4871078  65.49  0.003064792    1.619    0.383
        11 -10.1111    216.1609      8.0912   5.0967644759e+01   3.0114671381e+01     0.307419    0.1871181 -23.62 0.0009906123    1.850    0.459
        12  -9.9783    180.2346      2.8684   5.1978145073e+01   3.8826318388e+01    0.4027819    0.2330345 -33.01 0.0009853983    1.699    0.411
        13  -8.1307    165.9131     13.4039   5.6209117572e+01   4.1331174673e+01    0.2601301    0.1740408  52.77  0.001365249    1.663    0.399
        14  -7.6633    166.0417      1.1912   5.2594753230e+01   4.2476035988e+01    0.1663548   0.09023985  79.33            0    1.638    0.389
        15  -8.2540     92.4881     12.0164   6.7394380758e+01   6.0686681770e+01    0.2136094    0.1755453  62.25 0.0005892054    1.075    0.070
        16 -10.1546    201.7763    167.9675   8.8921188453e+01   9.7549137201e+00    0.2344984    0.2065549  -6.75 0.0003991235    1.054    0.051
        17  -7.4722    213.2717    167.6194   8.6836984793e+01   8.0562623899e+00    0.1152522   0.09621838 -56.77 0.0006996268    1.698    0.411
        18 -11.4476     56.9193    153.1378   1.2286988168e+02   3.7020460278e+01    0.9080428    0.6181417 -82.42  0.001978935    1.552    0.356
        19 -11.0237     43.3164    161.3800   1.2806650058e+02   3.6596274426e+01    0.4883256    0.3570208   9.88  0.001465682    1.633    0.387
        20 -11.6811     50.6113    157.0168   1.2533274575e+02   3.6834355858e+01    0.8731799    0.7475658  83.39  0.003113301    1.135    0.119
        21  -7.7998    157.4699    161.9416   9.6711013544e+01   1.8242696384e+01    0.1854766    0.1279484 -72.52 0.0008082666    2.466    0.595
        22 -13.1018    186.1753     79.1103   7.1826106947e+01   2.7527262518e+01     6.066879     1.770828  65.02  0.009695546    5.912    0.831
        23  -8.5780    221.3630    150.8963   8.2298150156e+01   9.3499260117e+00    0.1735909    0.1604246  17.54 0.0003378422    1.215    0.177
        24 -11.2607     68.8583    144.6304   1.1782064119e+02   3.7533426749e+01    0.9582222    0.7088532  78.10  0.003196116    1.499    0.333
        25  -8.7907    134.2850    148.7394   9.9598522073e+01   2.5185399677e+01    0.4567818    0.1378383 -55.44  0.001209325    5.071    0.803
        26  -7.3933    149.6745    147.7433   9.5634145386e+01   2.2471649487e+01    0.1449531    0.1111988   6.75 0.0002904214    1.552    0.356
        27  -9.3040    188.7919    138.5188   8.5397254414e+01   1.6851544197e+01      0.37069    0.2366956  37.77  0.001872454    1.630    0.387
        28  -8.0414    212.4662    138.4814   8.1241414486e+01   1.2698351168e+01    0.1289418    0.1133573 -22.67 9.477144e-05    1.030    0.029
        29  -8.1837    222.1055    137.0417   7.9421838051e+01   1.1329654104e+01    0.1903253    0.1507645 -64.03  0.001124476    1.751    0.429
        30 -11.1983    198.0715    132.4171   8.2401194414e+01   1.6202043450e+01    0.9556905    0.4958845 -55.23  0.003893035    2.847    0.649
        31  -9.0093    215.9945    124.5530   7.7769116973e+01   1.4284600750e+01    0.2736169    0.2146158 -81.34   0.00112642    1.912    0.477
        32  -8.3970    210.2068    125.6046   7.8901049151e+01   1.5136797059e+01    0.1776424    0.1204698  34.13 0.0006752126    1.663    0.399
        33 -10.4331    186.3195    120.4750   8.1865287315e+01   2.0478743649e+01     0.465369    0.3371595 -88.36  0.002182668    2.243    0.554
        34  -7.5250      1.3379    249.2870   1.4319482588e+02   2.1663268555e+01   0.09081256   0.08181275  -5.92 0.0004534677    1.634    0.388
        35  -9.3101    135.4873    124.5042   9.3936138767e+01   3.0156473602e+01    0.2992715    0.1509147 -50.59  0.001151703    2.105    0.525
        36 -10.5440    226.5235    116.0971   7.4436276080e+01   1.3760510027e+01    0.5426286    0.2247235 -26.99  0.002208416    2.808    0.644
        37  -9.2178    243.5659    245.9647   9.4633706513e+01  -5.5751028176e+00    0.1821758    0.1151405  14.38 0.0005262671    1.240    0.194
        38  -8.4807    215.7901    116.6068   7.6096943972e+01   1.5562266245e+01     0.160792     0.127138  66.42  0.000763251    1.597    0.374
        39  -8.3206    176.1461    116.0010   8.2751800392e+01   2.3329596725e+01    0.2440622    0.1625647 -63.60  0.001090744    2.020    0.505
        40  -9.4501    167.5359    114.3598   8.4084878625e+01   2.5429503498e+01    0.3896995    0.2909983  36.83  0.001392542    1.425    0.298
        41  -8.5264    214.9958    112.0000   7.5212017824e+01   1.6424759800e+01    0.1926562   0.07550067  51.91 0.0004799289    2.894    0.654
        42  -9.9480    206.2464    110.5283   7.6216130844e+01   1.8287569281e+01    0.3542753    0.2651354  51.80  0.001441711    1.489    0.328
        43 -10.7607    188.7013    104.6674   7.7740833110e+01   2.2737646114e+01    0.5569052    0.3741725 -47.12  0.002807402    1.445    0.308
        44  -9.8737    187.5206     99.0063   7.6578556907e+01   2.3946557907e+01    0.3395304    0.2763731  -3.43  0.001821836    1.496    0.331
        45  -8.3850    134.4178    104.7781   8.9258873410e+01   3.4582512544e+01    0.2188016    0.1487741 -32.70 0.0007766085    1.658    0.397
        46  -8.3447    219.3519    104.3053   7.2896180860e+01   1.6814223930e+01    0.1283949   0.09742574   5.80 0.0007041547    1.708    0.415
        47  -9.2363    123.3340    103.6427   9.1901013498e+01   3.7291352898e+01    0.2458864    0.1897068  87.26 0.0008859974    1.676    0.403
        48  -9.7876    160.1505    117.1808   8.6332855014e+01   2.6452698787e+01    0.3316193    0.2664997 -78.00 0.0007136313    1.579    0.367
        49  -9.9474    200.5282    100.7213   7.4861560277e+01   2.0989122201e+01     0.394189    0.3275827 -34.92   0.00138172    1.108    0.097
        50  -8.6871    147.5643    102.4772   8.5447264152e+01   3.2096898963e+01    0.2660013    0.2499114  46.90 0.0005812117    1.071    0.066
        51  -8.7241    164.4991    102.1701   8.1677482761e+01   2.8367450147e+01    0.2358349    0.2014637  51.20  0.000370641    1.198    0.165
        52  -8.4249    126.8849    100.7991   9.0163843523e+01   3.7111475741e+01    0.2349923    0.2121907   0.89  0.001183472    1.275    0.216
        53  -9.1004    133.9839     98.2706   8.7614518410e+01   3.6032707622e+01    0.2798097    0.2154113 -73.52 0.0006612161    1.581    0.367
        54  -9.8691    156.8914     97.2751   8.1995833608e+01   3.0991349753e+01    0.4465138    0.2214336  41.60   0.00172314    2.260    0.557
        55 -10.0304    185.4464     91.8935   7.5177690789e+01   2.5588860796e+01    0.4965512    0.2806967 -53.72  0.002188621    1.953    0.488
        56  -9.3556    141.0416     92.5849   8.4300031114e+01   3.5550119349e+01    0.3507912    0.3134913 -62.06 0.0006000677    1.140    0.123
        57 -10.4687    172.1176     88.8279   7.6742703344e+01   2.9064660474e+01    0.6125259    0.4108881  29.92  0.002435129    2.017    0.504
        58  -7.8582    127.0221     91.2422   8.7450283856e+01   3.9084353162e+01     0.225945    0.2015398  52.55  0.001143748    1.097    0.089
        59 -10.4770    155.1556     87.6256   7.9759131712e+01   3.3191988881e+01    0.3430526    0.2730031 -38.31 0.0006602911    1.264    0.209
        60  -9.2545    208.5679     85.4499   7.0098752699e+01   2.1772625864e+01    0.4056349    0.2623649 -67.51  0.001448255    1.956    0.489
        61 -12.6496    241.4165     46.9917   5.7899854525e+01   2.0617724735e+01    0.6195101    0.3612022 -70.26  0.001479917    1.853    0.460
        62  -8.6074    107.9541     81.8937   9.0088359942e+01   4.5438282313e+01    0.2703647    0.2304011  86.11            0    1.320    0.243
        63  -7.9847    127.6804     77.3181   8.3127768159e+01   4.1710168938e+01    0.1606045    0.1211348 -82.09  0.000547241    1.661    0.398
        64 -11.4969    170.8144     75.0392   7.3293517070e+01   3.1708671466e+01    0.8710509    0.4358384 -29.74  0.001428086    2.250    0.555
        65 -10.1073    137.2395    232.0692   1.1233928367e+02   8.8766826774e+00    0.2256206    0.1919554  21.45 0.0002724206    1.085    0.078
        66  -8.4641     87.4644    155.9271   1.1391176022e+02   3.1852370001e+01    0.2108919    0.1889624  42.53 0.0003848955    1.037    0.036
        67 -10.4633    122.0953     60.3875   7.9080398696e+01   4.6212650971e+01    0.2710595    0.2498297 -57.15 0.0002779744    1.109    0.098
        68  -9.6031    172.8640     44.6635   6.4482271898e+01   3.5824980996e+01    0.3506629    0.2153107 -52.85  0.001179443    1.572    0.364
        69  -7.6144      9.7431    220.3847   1.4065186823e+02   2.6449957175e+01    0.1487844    0.1023025  20.26 0.0003843454    1.575    0.365
        70  -8.5003    246.7030    203.1901   8.7677143517e+01  -1.1038947991e+00    0.1595066    0.1261616  12.50 0.0004780966    1.274    0.215
        71  -7.9950    112.6879     29.6744   7.0121405002e+01   5.3372486660e+01    0.1509726     0.107149  33.68 0.0007041013    1.662    0.398
        72  -9.8312    244.4724    185.0797   8.4992060481e+01   1.4070640040e+00    0.2468997    0.2239689 -31.46  0.001070878    1.544    0.352
        73 -12.2637     14.7199    178.7470   1.3770022920e+02   3.5179188370e+01    0.8383426    0.7874276  85.22  0.004175528    1.190    0.160
        74  -9.0288    201.9769     18.5154   5.4422304318e+01   3.2135761692e+01    0.2850542    0.2119784 -89.91  0.001278197    1.258    0.205
        75 -11.1999     10.7712    175.0183   1.3860084793e+02   3.6393391674e+01    0.6358473    0.3735756 -37.23   0.00268043    2.461    0.594
        76  -9.8399    232.9624    180.4176   8.5942303954e+01   3.4723462649e+00    0.2688472    0.1955713  34.50  0.001158352    1.548    0.354
        77  -8.8323    248.9194    175.8370   8.2739002333e+01   2.0495455050e+00    0.1868521    0.1250624  -8.55 0.0006000018    1.345    0.257
        78  -9.4795    233.5280    175.4108   8.4966014999e+01   4.0796044523e+00     0.218773    0.1764424 -13.63 0.0008178309    1.050    0.047
        79  -9.1088    233.7073    170.8378   8.4115707126e+01   4.6845436444e+00     0.188655     0.139925   9.51 0.0004555304    1.292    0.226
        80  -8.6099    154.7776    170.5145   9.8949547965e+01   1.7078312300e+01    0.2305157    0.1875969 -38.78 0.0005812692    1.289    0.224
        81  -9.0948     88.0127    171.0450   1.1610790666e+02   2.8176438938e+01    0.2095074    0.1894957  42.80            0    1.015    0.015
