#   1 NUMBER                 Running object number                                     
#   2 MAG_AUTO               Kron-like elliptical aperture magnitude                    [mag]
#   3 X_IMAGE                Object position along x                                    [pixel]
#   4 Y_IMAGE                Object position along y                                    [pixel]
#   5 X_WORLD                Barycenter position along world x axis                     [deg]
#   6 Y_WORLD                Barycenter position along world y axis                     [deg]
#   7 A_WORLD                Profile RMS along major axis (world units)                 [deg]
#   8 B_WORLD                Profile RMS along minor axis (world units)                 [deg]
#   9 THETA_WORLD            Position angle (CCW/world-x)                               [deg]
#  10 FWHM_WORLD             FWHM assuming a gaussian core                              [deg]
#  11 ELONGATION             A_IMAGE/B_IMAGE                                           
#  12 ELLIPTICITY            1 - B_IMAGE/A_IMAGE                                       
         1 -10.9943     31.7679     64.3304   1.0355030977e+02   6.1555988909e+01     1.901463    0.7368412 -36.98  0.006352669    4.030    0.752
         2 -10.3749     10.6869     18.6537   9.9698276705e+01   7.4087193136e+01     1.224357    0.4634623 -25.46  0.003676708    6.278    0.841
         3 -10.9217     37.1273     39.3765   9.2795950813e+01   6.6825743466e+01    0.8789699    0.4861673 -51.49  0.001306699    1.565    0.361
         4 -10.3793     45.5901     29.3391   8.3927380661e+01   6.7733549970e+01    0.5257038    0.4452597 -80.73  0.002850346    1.591    0.371
         5 -10.3949     49.1840     15.8715   7.4752797277e+01   6.9562833279e+01     1.092893    0.6701911   5.12  0.004804145    2.562    0.610
         6 -10.9381     37.1491      9.0735   7.6775748875e+01   7.2682984745e+01     1.058688    0.3897965 -39.93  0.002725682    2.478    0.597
         7 -11.3631     23.6426     32.5615   9.7409348984e+01   6.9873383453e+01     1.778561    0.4908454 -45.12  0.006063423    3.219    0.689
         8  -9.6365      2.3334     14.4013   1.0397227051e+02   7.5601032502e+01     0.487368    0.2514709 -78.93  0.001773559    2.659    0.624
         9 -10.6462      5.2442      4.7312   9.6535434081e+01   7.7393196308e+01    0.5868833    0.4412847  -3.60  0.001713278    1.406    0.289
        10 -10.4805     26.3709     11.1484   8.4720128191e+01   7.3904588468e+01    0.9501477    0.3711652  34.03  0.004168098    2.867    0.651
        11 -10.1972     18.5071      4.9744   8.6088299231e+01   7.6000058971e+01    0.5964595     0.433424 -64.44  0.002911553    1.971    0.493
        12 -10.6871      6.9887     30.2548   1.0675445264e+02   7.1771241139e+01    0.7484928    0.4060692 -54.30  0.001984657    1.444    0.307
        13  -9.0464    105.6878     51.9271   7.1088554210e+01   5.1658363554e+01    0.8915604    0.4907702 -20.23  0.001824843    2.684    0.627
        14  -8.6930     72.0575      8.3934   6.0879626665e+01   6.6041529989e+01    0.2571471    0.1893039 -10.45 0.0006034673    1.358    0.264
        15  -9.3631     73.5292     19.6583   6.6720756423e+01   6.4212908255e+01    0.4729188    0.2154199 -35.70 0.0009541519    2.067    0.516
        16  -8.7448     73.8481     13.0406   6.2953633412e+01   6.5064130178e+01    0.5097509    0.2495016  -8.35  0.001814682    3.319    0.699
        17  -9.1103    102.8881     21.0184   5.8565034866e+01   5.7248576676e+01     0.440624    0.2825091 -40.32  0.001010082    1.566    0.361
        18 -10.3969     62.6361      3.4294   6.1149239971e+01   6.8664049632e+01    0.6765989    0.4534455 -21.29  0.003594236    1.423    0.297
        19  -9.7304     63.2594     21.3632   7.1603437919e+01   6.6054522981e+01    0.7187107    0.3064447 -40.56  0.002287561    2.248    0.555
        20  -9.9092     64.6219     13.4117   6.6536773751e+01   6.6976518596e+01    0.3959938    0.3190065  -8.71 0.0002163599    1.210    0.174
        21  -9.6915     91.7342     25.3350   6.3674172006e+01   5.9318480795e+01    0.8954043    0.2822042 -31.44  0.002834703    3.020    0.669
        22  -9.7233    118.7511     21.3678   5.5082775154e+01   5.3223880341e+01    0.3249805    0.2849028 -56.68 0.0004626172    1.190    0.159
        23  -8.8900    112.2096     15.5768   5.3887703902e+01   5.5584443760e+01    0.3945296    0.2015866 -30.03  0.001504796    1.874    0.467
        24  -9.0654    114.2120      9.9519   5.0912533092e+01   5.5685210863e+01    0.3712025    0.2256793  38.93  0.000368867    1.763    0.433
        25  -9.2784     96.4063     14.3844   5.6997969149e+01   5.9660920764e+01    0.6941059    0.3079144 -12.32   0.00244562    3.090    0.676
        26  -9.8023     85.2382     12.3833   5.9003109143e+01   6.2565145812e+01    0.8451477    0.2829232 -34.97    0.0022939    2.774    0.640
        27  -7.9992     80.6479     12.4826   6.0431915493e+01   6.3612910353e+01    0.3000447    0.1381014 -39.26   0.00123569    2.212    0.548
        28  -8.9093    125.8108     13.6998   5.0425907407e+01   5.2285815199e+01    0.4427969     0.239411 -74.31  0.001672803    2.756    0.637
        29  -8.3300    141.3077     11.8784   4.7204582332e+01   4.8406174138e+01    0.3507768    0.1492917 -30.21 0.0008897363    2.165    0.538
        30  -9.5372    133.3993     11.0852   4.8074109492e+01   5.0570105592e+01    0.4685725    0.1852589 -39.87  0.001763927    2.440    0.590
        31  -8.8989    137.3616      9.5185   4.6840938618e+01   4.9682729184e+01    0.2551507    0.1352954 -20.51  0.001089845    1.916    0.478
        32  -7.7931    156.0000      8.9899   4.4189955759e+01   4.4821830314e+01    0.2335695   0.07936858 -21.04 0.0008013645    2.935    0.659
        33  -8.4528    126.6085      9.2024   4.8374237518e+01   5.2541278487e+01    0.2412424    0.1873581  43.71 0.0006148132    1.315    0.240
        34  -9.4790    125.3269      4.6527   4.6627468090e+01   5.3308231815e+01    0.4175009    0.3372411  21.92  0.002241204    1.339    0.253
        35  -8.8325    101.8491      7.8265   5.2445897766e+01   5.9042247459e+01    0.3852153    0.2120019 -37.64 0.0009933308    1.829    0.453
        36  -8.5288    104.2032      2.2814   4.9218154944e+01   5.8979597925e+01    0.3630513    0.2316265  28.37  0.001554086    1.730    0.422
        37  -8.1897     97.6010      6.1925   5.2574903241e+01   6.0266051754e+01    0.2612795     0.168227  22.23 0.0006246464    1.787    0.440
        38  -8.8117     95.7496      3.0007   5.1348405411e+01   6.1033802306e+01    0.3028844    0.2556477   8.96 0.0007776055    1.197    0.165
        39  -8.9950    110.7670      4.8663   4.9207167695e+01   5.7069075626e+01    0.5244714    0.2392688  -1.05  0.001869221    3.169    0.684
        40  -9.2589    115.1201      4.3157   4.8162609042e+01   5.5998220263e+01    0.3340617    0.2267233 -55.28  0.001026748    1.639    0.390
        41  -8.5010     77.2895      6.6270   5.8172282434e+01   6.5071286960e+01    0.3369742    0.1937522 -59.10  0.001274353    2.731    0.634
        42  -8.9704     78.7325      3.2642   5.5797949947e+01   6.5098840469e+01    0.3681012    0.3000275  40.56  0.001196713    1.178    0.151
        43  -9.3415    132.8084      4.9300   4.5629835404e+01   5.1316264945e+01    0.3995743     0.223656  52.33  0.001802878    1.754    0.430
        44  -7.6423    153.6278      5.3124   4.3119995818e+01   4.5789823596e+01    0.1585092   0.09429675 -58.75 0.0007033559    1.780    0.438
        45  -7.9892    143.4230      5.1591   4.4291217880e+01   4.8493958988e+01    0.2120932    0.1146249 -37.13 0.0009248815    1.765    0.433
        46  -8.8411    238.2995      3.4923   3.6015544788e+01   2.5460492573e+01    0.2203186    0.1890201  10.37  0.000348554    1.464    0.317
        47  -8.7981     89.3022      3.0005   5.2851756729e+01   6.2614504830e+01    0.1940173     0.170851 -15.49 0.0003590357    1.126    0.112
        48  -7.6853    136.5091      1.4962   4.3723122874e+01   5.0640476500e+01     0.140091    0.1331863 -70.48 9.415749e-05    1.032    0.031
        49 -10.1461    108.8437    114.7675   8.9447708294e+01   3.7572609849e+01    0.6941407     0.458043 -82.45  0.001824146    2.264    0.558
        50 -10.5767    199.8188    249.4933   9.3369717415e+01   8.7485611127e-01    0.4673522    0.1633584  36.03  0.002610624    2.230    0.552
        51 -11.0014    189.8330    245.6880   9.4507896041e+01   2.4936228905e+00    0.5441989     0.186005  33.57  0.002895105    2.308    0.567
        52 -10.1683    109.9531    249.8814   1.0867282561e+02   1.2038082931e+01    0.1831247    0.1370164  39.63 0.0003408385    1.021    0.021
        53 -10.1345    130.2314    118.5707   8.4814448141e+01   3.2599802846e+01    0.7345976    0.4587265 -82.83  0.001199446    3.385    0.705
        54 -10.5422    123.2309     91.2544   7.9424787223e+01   3.9841769450e+01    0.7808441    0.6349427 -40.09  0.002071573    1.202    0.168
        55  -9.2115    125.9944     83.4912   7.6401975613e+01   4.0851424937e+01    0.7055498    0.4201752  22.07  0.002476815    3.067    0.674
        56  -9.8782    117.0262    125.3163   8.9683660246e+01   3.3694638414e+01    0.7371449    0.3904903 -61.11   0.00188297    2.244    0.554
        57 -11.1438    133.3461    109.3269   8.1768179551e+01   3.3907567974e+01     2.031451    0.5448841 -49.48   0.00559085    4.241    0.764
        58 -10.8308    108.8215    100.8731   8.5999323327e+01   4.0710868811e+01     1.044753    0.7858499 -82.80  0.004537744    1.683    0.406
        59 -11.2359    120.8934    110.0901   8.5106896864e+01   3.6277090043e+01     1.362979    0.6918294 -50.45  0.002890231    1.958    0.489
        60 -10.1879    127.7675    102.4877   8.1373586353e+01   3.6504814680e+01    0.6295586      0.51046 -75.40   0.00168616    1.445    0.308
        61  -9.8246     42.0408    122.8533   1.1069362089e+02   4.5708290437e+01    0.6922794    0.3076167  84.97  0.002514988    3.300    0.697
        62 -10.1460     27.3773    122.8947   1.1518045820e+02   4.7190627662e+01    0.6142323    0.2656074  66.21  0.002125674    2.753    0.637
        63  -9.5639    202.5770    120.8527   7.0390581345e+01   1.7608506139e+01    0.2293832    0.2094349  10.15 0.0003017192    1.090    0.083
        64  -7.6154    247.0064    121.0000   6.3684681045e+01   9.5873680779e+00    0.1766515   0.07171663  49.96 0.0005476376    2.884    0.653
        65  -8.6809     99.7864    119.2646   9.2955043440e+01   3.8196503131e+01    0.5383405    0.3274695   6.98  0.001764349    4.225    0.763
        66  -8.0474      8.1929    120.8103   1.2082525544e+02   4.9272118337e+01    0.2587843   0.06427779  30.17  0.001031268    3.522    0.716
        67  -7.9683    207.6792    117.4101   6.8727559350e+01   1.7161065358e+01    0.2253516    0.1499144 -12.44 0.0007378727    1.649    0.393
        68 -10.2786     91.7088    113.1994   9.3908510589e+01   4.1024322039e+01    0.5952286    0.4472002 -89.62  0.001622932    1.564    0.361
        69  -8.1610      1.4145    116.3715   1.2257009370e+02   5.0808132697e+01    0.3034934    0.1013917 -84.25  0.001267765    2.523    0.604
        70 -10.3831     78.3217    112.6529   9.7772091405e+01   4.3366910736e+01     0.731061    0.3862981 -72.66  0.001677831    2.309    0.567
        71  -9.8716     81.5513     99.3474   9.3754199042e+01   4.6062058146e+01    0.8251601    0.3122272 -54.51  0.002370266    2.456    0.593
        72  -8.1279    157.9453    121.9455   7.9235009168e+01   2.6332899308e+01    0.2276062    0.1808718 -79.47  0.001045232    1.710    0.415
        73  -7.4544    164.3243    115.6619   7.6358658919e+01   2.6201464711e+01    0.1476724    0.1163763 -76.07 0.0007051185    1.721    0.419
        74  -8.6804    152.8352    115.1447   7.8696306159e+01   2.8686976964e+01    0.2252611    0.1998003 -64.21 0.0006363012    1.238    0.192
        75 -10.8841     63.3160     93.2557   9.8328163854e+01   5.0417345972e+01     1.562357    0.5786142 -59.20  0.002694063    2.450    0.592
        76 -10.1998     59.6323    109.3502   1.0296461158e+02   4.6922169155e+01     0.810128    0.6574582 -61.19  0.002804668    1.164    0.141
        77 -10.0917     65.8826    110.9640   1.0128289663e+02   4.5651916118e+01    0.7431842    0.4035501  63.85  0.001035399    2.505    0.601
        78  -9.4915     65.0479    105.0343   1.0035170062e+02   4.7241597654e+01    0.3827047    0.2852167  45.74   0.00143174    1.398    0.285
        79  -9.2682     36.3886    111.7500   1.1092576346e+02   4.9093992226e+01    0.3434803      0.19223  71.28  0.001208941    2.026    0.506
        80 -10.2633     14.1862    109.8330   1.1796091815e+02   5.1557557844e+01    0.7809778    0.2845719 -81.45  0.003232633    2.449    0.592
        81  -8.1479    158.9375    111.5407   7.6465104607e+01   2.8100229270e+01    0.2240431    0.1897906 -36.86 0.0003499603    1.140    0.123
        82 -10.4551     48.2204     83.2852   1.0145272258e+02   5.4954293879e+01     1.137887    0.4410322 -59.44  0.002276571    2.201    0.546
        83 -10.7178    161.8425    248.4317   9.9495344279e+01   5.6970614923e+00    0.3247634    0.2676762  11.41   0.00266006    1.200    0.167
        84 -10.8786     21.7944    102.5859   1.1457191556e+02   5.2782463013e+01     1.254796    0.5232236  73.35  0.003403969    3.379    0.704
        85 -10.2144     18.1760     88.8088   1.1399595072e+02   5.6576204178e+01     1.321683    0.2795753 -60.33  0.004639628    3.244    0.692
        86 -10.4952     25.6992     78.0864   1.0923036077e+02   5.8682558391e+01    0.8499719    0.4556099  73.37  0.002481297    2.502    0.600
        87  -9.7455     62.7604     60.9412   8.9299815181e+01   5.8273957807e+01    0.6878571    0.3199326  36.12  0.002355829    2.411    0.585
        88 -10.1933     50.0147     54.5788   9.2418813388e+01   6.1668299904e+01    0.6466777    0.5144303  89.71  0.001315389    1.573    0.364
        89  -9.7882     56.1940     43.5548   8.5431714991e+01   6.3163053881e+01    0.9962565    0.5725484  -4.32  0.003038812    5.218    0.808
        90 -10.6088     55.3655     71.0429   9.5458883277e+01   5.7018009003e+01    0.7170607    0.4308032  60.96  0.001476157    2.323    0.570
        91  -9.5289     54.7692     62.9635   9.3219038829e+01   5.9032188191e+01    0.5533902    0.4602687  26.40  0.002976232    1.369    0.270
        92  -8.5110    149.7390    110.2033   7.8142593097e+01   3.0299301942e+01    0.2686286    0.1746075 -43.83 0.0006005588    1.500    0.333
        93  -8.4575     39.9969    106.7949   1.0898088101e+02   4.9962926214e+01    0.3671033     0.163991 -74.02 0.0009010553    2.116    0.527
        94 -10.8681     44.5272    102.3665   1.0669792228e+02   5.0576621353e+01    0.9233221    0.4338115  64.49  0.002980094    3.223    0.690
        95  -9.6762      6.4054    103.9268   1.1997287748e+02   5.3576724883e+01    0.4283906     0.222766  70.95  0.001236386    1.874    0.466
        96  -8.9967     92.7326    103.4552   9.1321034635e+01   4.3142576717e+01    0.7007734    0.3886253  25.04  0.002685618    2.689    0.628
        97  -9.8309     93.9362     97.4044   8.9424226310e+01   4.4342760269e+01    0.4111475    0.3797154 -85.53  0.001011539    1.084    0.077
        98  -8.9124     96.0209     91.2902   8.7141341748e+01   4.5370098118e+01    0.4430065    0.3173855  -5.68  0.001804153    2.295    0.564
        99  -8.3059    166.0183    103.8534   7.2998533190e+01   2.8018237783e+01    0.2535798     0.200013 -38.81 0.0004518241    1.210    0.173
       100  -8.4507     73.8847    102.1295   9.6858594805e+01   4.6630672982e+01    0.3741851    0.1771991 -51.71  0.001167763    1.984    0.496
       101  -8.9584    158.9241    100.9074   7.3693871712e+01   3.0108587312e+01    0.4104094     0.192116 -46.09  0.001013269    2.165    0.538
       102  -9.4581    149.5515     96.8039   7.4618540386e+01   3.2954359915e+01    0.3018829    0.2386468  36.90 0.0007295636    1.356    0.262
       103  -9.0861    150.5923     89.3521   7.2280837739e+01   3.4149643274e+01    0.2752962    0.2247198 -48.93 0.0007924367    1.211    0.174
       104  -8.5073    164.4004     94.5457   7.0821520709e+01   3.0072384714e+01    0.2773556    0.2079816 -40.55 0.0006399934    1.268    0.211
       105  -9.4363    138.5212     92.8872   7.6067988616e+01   3.6167859598e+01    0.3868416    0.3366629 -37.91  0.001210538    1.114    0.102
       106  -9.2964    140.3164     82.4824   7.2580244666e+01   3.7812698983e+01    0.6924987    0.2576247 -42.33  0.001604399    2.550    0.608
       107  -8.6889    139.9740     75.7261   7.0568600152e+01   3.9182544081e+01    0.4609509    0.2155631 -46.41  0.001225244    2.157    0.536
       108  -9.9477     34.5798     90.6694   1.0813539262e+02   5.4634098546e+01    0.6545772    0.2873893 -86.12  0.002327656    3.170    0.685
       109 -10.1253     36.6959     81.1190   1.0543067903e+02   5.6838539097e+01    0.7347667    0.3971488 -20.04   0.00279779    3.584    0.721
       110 -10.2562      4.3215     89.3070   1.1926810243e+02   5.7377782579e+01    0.8340084    0.2901922  84.69  0.003049151    3.383    0.704
       111  -9.4554      4.3360     80.2508   1.1823251817e+02   5.9662036016e+01     1.098936    0.3027472 -39.96  0.003289517    6.100    0.836
       112  -8.4424    157.6706     91.4075   7.1340330665e+01   3.2160940655e+01    0.3542207    0.1761948 -36.56  0.001393807    1.933    0.483
       113 -10.0075     81.6402     72.4787   8.6162871448e+01   5.2376041440e+01    0.5102235     0.346759 -74.55 0.0008968997    1.956    0.489
       114  -9.1874     83.5674     64.6037   8.2849526374e+01   5.3767911061e+01    0.6096178    0.4029247 -10.89  0.002403699    2.643    0.622
       115 -10.4101     85.3156     86.5901   8.9190499318e+01   4.8444577616e+01     0.603058    0.4280487  78.11  0.000892758    1.926    0.481
       116  -9.5236     87.1756     78.9444   8.6333729510e+01   4.9874722910e+01     0.615467    0.4424984  11.47  0.001484235    2.070    0.517
       117  -7.6795    174.4802     88.0600   6.7045327036e+01   2.8951689537e+01    0.2317015    0.1393856 -34.97 0.0005536932    1.552    0.355
       118  -8.5777    163.9097     87.4550   6.8929263797e+01   3.1463225071e+01    0.2964646      0.19807 -50.91 0.0008275782    1.576    0.366
       119  -9.5757    149.3734    103.3294   7.6430985833e+01   3.1723787106e+01    0.4740759    0.2728083 -48.82   0.00102003    1.783    0.439
       120 -10.3422    103.9280     82.5960   8.2227107795e+01   4.5766589347e+01    0.5408021    0.3325428 -57.53 0.0008235819    1.743    0.426
       121  -8.0608    242.9867     84.2380   5.5768449255e+01   1.5135053116e+01    0.1472502    0.1132504  57.13 0.0004563193    1.579    0.367
       122  -8.1095    170.4848     83.5266   6.6515900836e+01   3.0645292993e+01    0.2747469    0.1242058 -44.57 0.0006449593    2.197    0.545
       123  -8.5003    157.6267     83.4684   6.9057955647e+01   3.3628254640e+01    0.2903807    0.1724751 -41.23  0.000737061    1.592    0.372
       124  -8.7695    149.6453     80.0624   6.9738979622e+01   3.6109241387e+01    0.4164992    0.2455913 -34.76  0.001261477    1.648    0.393
       125  -8.8579    118.9704     80.4358   7.7308026338e+01   4.3032569498e+01    0.3380143    0.2501962 -60.17 0.0007825885    1.469    0.319
       126  -8.3477    119.7535     76.0356   7.5702350818e+01   4.3762970644e+01    0.2817335     0.227038 -27.50 0.0004945216    1.313    0.239
       127  -9.1043     74.2120     80.2512   9.1122186248e+01   5.1875466633e+01    0.4152381    0.2411487 -67.14 0.0009193214    2.000    0.500
       128  -7.8571     74.5169     74.9815   8.9444109207e+01   5.3065681339e+01    0.2779216    0.1914264 -14.29  0.001033805    2.299    0.565
       129  -7.7803    166.5023     78.8898   6.5928177444e+01   3.2370833660e+01     0.226724    0.1414102 -36.41 0.0005181746    1.496    0.332
       130  -8.8676    157.0645     76.4888   6.7083426717e+01   3.5012691809e+01    0.5072239     0.230632 -41.51   0.00140735    2.071    0.517
       131  -8.0375    249.6711     79.3190   5.3833429234e+01   1.4525763495e+01    0.1325333   0.08528656 -50.96 0.0007047374    1.685    0.407
       132  -8.1946    184.4760     78.1341   6.2458804250e+01   2.8324842192e+01     0.240727    0.2135681  54.91 0.0005671195    1.223    0.183
       133  -9.4483    127.3947     75.2077   7.3447894608e+01   4.2199631834e+01    0.4301987    0.3112663 -65.54  0.001297391    1.672    0.402
       134  -8.6291    129.0472     68.9928   7.0996325857e+01   4.3020394628e+01     0.439948    0.2950563  19.69  0.001773381    2.260    0.558
       135  -8.4928    130.4734     64.5662   6.9151912124e+01   4.3512713869e+01    0.4034096    0.2528013 -40.81  0.001024933    1.517    0.341
       136  -9.1129    204.1567     72.9830   5.7946699147e+01   2.4669896016e+01    0.3618691    0.2263015 -25.32  0.001378671    1.510    0.338
       137  -8.5815    162.8148     72.5270   6.4727953653e+01   3.4335554991e+01      0.45476    0.1781156 -36.00  0.001524005    2.349    0.574
       138  -9.2407    115.2535     71.9044   7.5570557164e+01   4.5606207127e+01    0.6044529    0.3093735 -33.83  0.001767633    2.121    0.529
       139  -9.6779    105.9349     70.5882   7.7780392364e+01   4.7919278730e+01    0.7210358    0.5885696 -21.94  0.003564679    1.370    0.270
       140 -10.3484     16.2722     67.1532   1.1113336652e+02   6.2207995661e+01      1.54661    0.0771151 -66.17  0.004022012    5.667    0.824
       141  -9.5214    170.9991    247.7258   9.7869970616e+01   4.6234206621e+00    0.1863868    0.1518497 -51.12  0.001485317    1.800    0.444
       142  -9.5883    150.5547    246.3073   1.0119727232e+02   7.3895350327e+00    0.1915259    0.1089614  21.76   0.00119836    1.779    0.438
       143  -7.3499    226.6751    243.6921   8.8445528453e+01  -1.7355993236e+00    0.1052693   0.05903034  10.01  0.000703666    1.650    0.394
       144  -7.6105    250.6600    237.6911   8.4078138646e+01  -3.9028642503e+00    0.1054317   0.05607716   8.85 0.0002683474    1.688    0.408
       145  -8.0436    112.6817    235.9108   1.0691932262e+02   1.3680305073e+01    0.1391049     0.122411  53.40 0.0004004975    1.167    0.143
       146  -9.6596    187.8978    233.1390   9.3230550360e+01   4.1387575620e+00    0.2409232    0.1961736 -59.68  0.001761864    2.104    0.525
       147 -10.8753     21.8859     53.5025   1.0533706911e+02   6.5144255960e+01    0.9481537    0.4727716  84.38  0.002835779    3.926    0.745
       148 -10.1011     13.5766     45.2904   1.0740603949e+02   6.7787829635e+01    0.6932355    0.3977664 -24.42  0.002648905    2.148    0.534
       149  -8.5752    222.8354    227.4000   8.6772136573e+01   3.2504183706e-01    0.1606736    0.1361501  15.10 0.0003277704    1.327    0.246
       150  -7.7844    110.2544    224.5888   1.0626546730e+02   1.5712638002e+01    0.1636509   0.09352825  28.46 0.0009524686    1.703    0.413
       151  -7.1445     56.0000    215.9248   1.1618510033e+02   2.3931072433e+01    0.1645822   0.06028996 -72.81 0.0008109871    3.002    0.667
       152  -8.8484    221.4148    209.9768   8.4384602274e+01   2.3786474436e+00    0.2105767    0.1944053 -65.58  0.001227191    2.047    0.512
       153 -10.3434      4.9549     41.7615   1.1126131547e+02   6.9181432444e+01    0.7524598    0.3157742 -73.07  0.002759187    2.090    0.522
       154 -10.0780      9.5425    207.6159   1.2499557764e+02   3.0175080671e+01     0.402764    0.2933913  27.96  0.002854197    1.599    0.375
       155  -7.8160    169.3739     71.1871   6.3083846502e+01   3.2995497312e+01     0.224088    0.1269531 -42.79 0.0005010832    1.676    0.404
       156  -9.1905    147.0743     69.3347   6.6942493887e+01   3.8668828272e+01    0.4288458    0.2565219 -55.08 0.0009469386    1.950    0.487
       157  -8.1114    156.5045     70.0147   6.5194638042e+01   3.6279906828e+01     0.233467    0.1443446 -35.63 0.0007127411    1.524    0.344
       158  -9.7385     94.8343     68.3579   8.0417214188e+01   5.0721384541e+01    0.4679483     0.269662 -53.35 0.0008150621    1.782    0.439
       159  -9.6009     96.7648     58.9415   7.6445383885e+01   5.2275739452e+01    0.8387485    0.4845353 -27.49   0.00285355    2.136    0.532
       160  -8.9174    138.0279     66.3721   6.7982838099e+01   4.1375672307e+01    0.3578796    0.2361178 -52.37 0.0004698076    1.609    0.378
       161  -8.2187    138.7563     61.8419   6.6291676261e+01   4.2009238612e+01    0.3253036    0.1909465  38.77  0.001313496    2.025    0.506
       162  -9.1243    121.1843     66.1403   7.2028132058e+01   4.5398412606e+01    0.4214664    0.2569914 -45.80 0.0009891476    1.596    0.373
       163  -7.7881    122.0326     61.4672   7.0178253462e+01   4.6086749840e+01    0.2776903    0.2166189  31.66 0.0007349071    1.467    0.318
       164  -9.3906    109.7702     63.9566   7.4378273252e+01   4.8425816017e+01    0.4393489    0.2722557 -55.38 0.0008224815    1.806    0.446
       165  -8.9517    110.5238     58.3534   7.2142585584e+01   4.9345451171e+01    0.4080288    0.3049158  20.42  0.001189188    1.726    0.421
       166  -7.6780    171.1339     65.1643   6.0929978293e+01   3.3553461013e+01    0.2095164     0.167019 -56.45 0.0003734745    1.304    0.233
       167  -8.6516    157.5351     63.1220   6.2798504074e+01   3.7196950093e+01    0.2818438    0.2190494 -60.56 0.0006606425    1.400    0.286
       168  -9.9040     73.2022     59.3143   8.4686335419e+01   5.6854741568e+01    0.4681083    0.2763926 -60.44 0.0007732194    1.933    0.483
       169  -9.5895     74.5257     51.5593   8.1244812082e+01   5.8269261212e+01    0.9078994    0.5500563   8.20  0.003100666    3.815    0.738
       170  -9.4000    146.9516     57.0442   6.2897373681e+01   4.0814841778e+01    0.7599366    0.2525192 -29.66  0.002311913    3.264    0.694
       171  -8.1856      9.2159     59.6278   1.1292959299e+02   6.4563347164e+01    0.1845357    0.1462891 -78.52  0.001136871    1.105    0.095
       172  -8.9303    129.9805     57.4323   6.6781845251e+01   4.4919094705e+01    0.4409933    0.2002336 -40.53  0.001049194    2.079    0.519
       173  -9.1256     88.0751     55.9937   7.8157073631e+01   5.4691719892e+01     0.927536    0.3568861 -36.17  0.003079086    2.911    0.656
       174 -10.2031     85.2231     48.1161   7.6005848413e+01   5.6848227904e+01    0.4375696    0.3259654 -60.39 0.0009842796    1.538    0.350
       175 -10.4677     89.8703     38.4178   7.0311972664e+01   5.7642638861e+01     1.101142    0.4144069  37.16  0.003258653    4.245    0.764
       176  -9.0327    138.8626     56.7300   6.4506398385e+01   4.2867979951e+01    0.3979188    0.2107437 -42.77 0.0006516027    1.820    0.450
       177  -9.5132    141.2443     49.4452   6.1425080251e+01   4.3475877652e+01    0.5851401    0.3732152   9.39  0.001672452    2.567    0.611
       178  -7.4562    168.8254     56.3701   5.8577546412e+01   3.5495275871e+01    0.2044262    0.1357162  49.05 0.0004737176    1.612    0.380
       179  -9.5153    118.0953     54.6946   6.8741115577e+01   4.8261092276e+01    0.5522211    0.4334949 -33.82  0.001551474    1.236    0.191
       180  -9.0954    121.0751     47.0078   6.5075616410e+01   4.8882213566e+01    0.3683797    0.2121246 -38.54 0.0004710472    1.651    0.394
       181  -9.0168    163.0663     53.1021   5.8517682766e+01   3.7425284601e+01    0.5391816    0.2131839 -29.87  0.001902794    2.441    0.590
       182  -7.2624    157.6796     55.6887   6.0343508850e+01   3.8366513155e+01    0.1545695    0.1175394  19.70 0.0003430377    1.648    0.393
       183  -9.7871    124.0018    206.0001   1.0148095428e+02   1.6802560343e+01    0.1693248    0.1426942  39.81  0.001160461    1.001    0.001
       184  -8.5632    111.9076     46.9649   6.7413313048e+01   5.1098056234e+01    0.3228326    0.2459965 -30.94 0.0009309684    1.286    0.222
       185  -8.6080    113.3398     42.3401   6.5185971798e+01   5.1536803024e+01    0.4643064    0.2719015   0.77  0.001546137    3.468    0.712
       186  -8.0836    172.3292     50.2377   5.6041977508e+01   3.5543275593e+01    0.2671117    0.1723058 -39.53 0.0005641117    1.429    0.300
       187  -8.5608    157.3543     49.1156   5.8202867455e+01   3.9464824968e+01    0.2234731    0.1836225 -38.34   0.00113127    1.147    0.128
       188  -9.4927    149.7713     47.0961   5.8904871611e+01   4.1689143160e+01    0.5956578    0.1834985 -32.71   0.00134469    2.938    0.660
       189  -9.6837    130.6764     46.3377   6.2565216962e+01   4.6621082754e+01    0.9998923    0.4392245 -20.16  0.001545226    3.423    0.708
       190  -8.7181    132.8345     36.0525   5.8176775103e+01   4.7645189512e+01    0.3375461    0.2324445 -37.88 0.0004844842    1.392    0.282
       191 -10.8572    134.0350     30.9897   5.5963094635e+01   4.8044356379e+01    0.3994592    0.2941509  -5.06  0.001892463    1.580    0.367
       192  -7.6897    162.2340     46.2044   5.6373591991e+01   3.8663290121e+01    0.2105882    0.1644903 -59.36   0.00049957    1.336    0.252
       193  -8.9627    209.4214    204.3406   8.5450573858e+01   4.6552028704e+00    0.2269526    0.1541099  33.65 0.0001914368    1.355    0.262
       194  -8.1870     70.8518     31.8397   7.3976840648e+01   6.2788702772e+01     0.256968    0.1988373 -35.59 0.0008197805    1.207    0.172
       195 -10.0370     69.5064     41.1021   7.8802622465e+01   6.1324592789e+01    0.9139165    0.3940339 -47.96  0.002290338    2.316    0.568
       196  -9.9103     76.2044     32.2603   7.2165601191e+01   6.1630683666e+01     0.431837    0.3607844  72.24  0.001069806    1.479    0.324
       197  -9.4758     71.9043     26.0322   7.0672788517e+01   6.3563273969e+01     0.532841     0.422017  32.69  0.002545776    1.321    0.243
       198 -10.4342    240.8672    202.7703   8.0216264583e+01   6.4057055025e-01    0.2105571    0.1632401   2.32 0.0004258888    1.083    0.076
       199  -8.9261    210.4333    199.7926   8.4553630698e+01   5.0674367590e+00    0.2020233    0.1564488  16.36 0.0002797148    1.059    0.056
       200  -9.5183     79.4424     23.8891   6.6869921483e+01   6.2303788889e+01    0.4863155    0.2810529  29.54  0.001317538    2.222    0.550
       201  -9.0890     84.9150     21.6686   6.3945046498e+01   6.1413447720e+01    0.2878354    0.2724563  35.30 0.0008076958    1.078    0.073
       202  -9.4380    153.8882     41.6206   5.6236591423e+01   4.1449072746e+01    0.4604759    0.2498058 -49.06  0.001603385    1.938    0.484
       203  -9.2514    110.3572     33.2082   6.2146380426e+01   5.3702832867e+01    0.7625271     0.245428 -33.52  0.002526589    2.864    0.651
       204  -8.9077    104.8897     41.0927   6.6948947969e+01   5.3759090330e+01    0.3791257    0.2521097 -60.05 0.0007565412    1.889    0.471
       205  -8.8563    106.5155     36.1455   6.4409105735e+01   5.4180268493e+01    0.4007652    0.2467041  38.03  0.001517716    1.842    0.457
       206  -8.9354    139.4869     39.7700   5.8249231130e+01   4.5404221172e+01    0.5302898    0.2363745 -33.64  0.001769092    2.085    0.520
       207  -8.2782    122.8975     40.7733   6.2205575791e+01   4.9443635929e+01    0.3940267    0.2225287  21.32  0.001308889    3.289    0.696
       208  -8.7574     53.7919     38.9657   8.4525612473e+01   6.4506759310e+01    0.3306573    0.1788251 -51.53  0.001155111    1.798    0.444
       209  -8.7389    144.0992     36.4585   5.6138795534e+01   4.4695098706e+01    0.2829391    0.1988547 -41.84 0.0006615563    1.370    0.270
       210  -9.0490    118.8804     34.9340   6.0792578906e+01   5.1337216289e+01    0.3977298    0.2235318 -30.23 0.0007786669    1.734    0.423
       211  -9.2117    101.0563     31.9065   6.4046751942e+01   5.6143802884e+01    0.4869387    0.2064303 -39.70  0.001031041    2.272    0.560
       212  -8.4104    102.3945     25.5715   6.0808337880e+01   5.6753181722e+01    0.3688863    0.1844447  45.11   0.00149649    2.087    0.521
       213  -7.2279    138.9540    199.2138   9.7599151254e+01   1.5718607810e+01    0.1517113   0.08554532  38.31 0.0008194397    1.522    0.343
       214  -8.2882    104.8043     15.1707   5.5339690112e+01   5.7497686967e+01    0.3683461    0.1939329  16.14  0.001306319    3.169    0.684
       215  -8.7279    152.9174     34.5966   5.3914667466e+01   4.2673196578e+01    0.2822759    0.2233023 -67.77  0.001011458    1.357    0.263
       216  -8.8526    191.4937    193.4625   8.6776596297e+01   8.6344307698e+00    0.5284584    0.2874087 -60.06  0.001865258    6.431    0.845
       217  -9.6331     60.1715     33.4928   7.9156464556e+01   6.4503011139e+01    0.7989969    0.2625443 -41.31  0.002825992    2.814    0.645
       218  -8.4926    211.0470    194.9833   8.3662324723e+01   5.5751829470e+00    0.1695405    0.1383655   8.51 0.0003074719    1.036    0.035
       219 -10.3291    178.7331    190.5692   8.8615812657e+01   1.0977840322e+01    0.2200235    0.2029089  23.59 0.0004768767    1.173    0.148
       220  -7.4479     13.2896     34.3572   1.0423115805e+02   7.0385956749e+01    0.1393953    0.0765544 -40.83 0.0003922572    1.684    0.406
       221  -8.3577    237.8050    190.6783   7.8659994065e+01   2.3694925747e+00    0.1889323    0.1255316 -11.90 0.0007360631    1.309    0.236
       222  -7.9011    214.7385     28.9817   4.4436653276e+01   2.8044595133e+01    0.1784751    0.1064931 -27.41 0.0005220407    1.497    0.332
       223  -8.3489    156.6489     27.3195   5.0721607058e+01   4.2640121334e+01    0.2302314    0.1295547 -42.76 0.0007591491    1.700    0.412
       224  -8.8105    153.6542     26.6828   5.0945746377e+01   4.3498165050e+01    0.2882677      0.18231  43.92  0.001276627    1.748    0.428
       225  -9.0563    144.0590     25.8809   5.2182383278e+01   4.6101890254e+01    0.2880195    0.2045346 -26.83 0.0009758151    1.382    0.276
       226  -8.1340    128.3850     25.9736   5.5063151751e+01   5.0165414446e+01    0.2631709    0.2017485 -79.29 0.0006670959    1.509    0.337
       227  -8.4018    129.3250     22.2781   5.3370035674e+01   5.0385953559e+01    0.3355881    0.2047106  28.82  0.001411523    2.095    0.523
       228  -8.6094    139.8458     22.0358   5.1408169016e+01   4.7670409376e+01    0.2676129    0.1401806 -50.08  0.001076067    2.080    0.519
       229  -8.3463    131.0289    190.0360   9.7921841143e+01   1.8460600842e+01    0.1760913    0.1562723  41.57  0.001166215    1.032    0.031
       230  -8.9316     41.0529     20.5047   8.1617896666e+01   7.0106408646e+01    0.3335695    0.2068374 -41.49 0.0009579489    1.450    0.310
       231  -8.2359    165.0689     20.9720   4.7322127323e+01   4.1198474428e+01    0.2109909    0.1954362 -41.34   0.00119408    1.038    0.037
       232  -9.0721    132.0409     17.4072   5.0885537615e+01   5.0249874504e+01    0.3225265    0.2583232  55.34  0.001683343    1.247    0.198
       233  -9.2919     63.6790    184.6022   1.1201561906e+02   2.9017947003e+01    0.2032865    0.1901706  82.23 0.0006305831    1.188    0.159
       234  -8.8148    199.7550    174.9365   8.2113708250e+01   9.9379464362e+00    0.2006408     0.160593  30.25  0.000290498    1.199    0.166
       235  -7.9383    185.8895    173.1091   8.4283659292e+01   1.2432843440e+01    0.2329177    0.1619839 -64.03  0.001176684    2.563    0.610
       236  -8.3684    229.3746    166.7668   7.5656729074e+01   6.4485661445e+00    0.4354654    0.2132538 -50.67  0.001660722    4.867    0.795
       237  -8.7450     64.2908    169.0696   1.1028548365e+02   3.2207773903e+01    0.1922846      0.16069  47.50 0.0004673982    1.151    0.131
       238  -7.2935    189.2828     15.3642   4.2809653699e+01   3.5637852296e+01    0.1396173     0.103709  25.44  0.000701724    1.685    0.406
       239  -7.2175    127.7026    167.0133   9.5094907487e+01   2.3196305987e+01    0.1456115    0.1203857 -53.88 0.0003280195    1.305    0.234
       240  -7.2815     23.2887    157.6325   1.1940367285e+02   3.9300792756e+01     0.135081   0.07125936  65.36 0.0007023416    1.706    0.414
       241  -8.7640    133.8713    146.0245   8.9895518327e+01   2.6247626569e+01     0.590973    0.1805384 -53.45  0.001852763    4.053    0.753
       242  -8.4087    235.2226    146.6561   7.0795710923e+01   8.1468458323e+00    0.3034281   0.08743876  37.46  0.001103981    4.124    0.758
       243  -9.2822     66.9831    144.2987   1.0651460559e+02   3.7438658267e+01    0.5559518     0.285451  56.40  0.002495185    2.091    0.522
       244  -8.1959    240.5006    139.5234   6.8545245557e+01   8.2365100458e+00    0.1258905    0.1020435 -10.12 0.0003113103    1.002    0.002
       245  -7.1823     95.6783    136.2834   9.7495577270e+01   3.4991500000e+01    0.1444711    0.1041283  70.98  0.000288882    1.592    0.372
       246  -8.6639    112.3957    134.0562   9.2712482530e+01   3.2624000996e+01    0.3535002    0.2304106  65.44  0.001167513    1.958    0.489
       247  -8.9130     83.3082    131.7115   1.0002115618e+02   3.8026999029e+01    0.6338498    0.3312662  69.75  0.002255872    3.362    0.703
       248  -7.7678    142.7712    132.1375   8.4950403286e+01   2.7358204384e+01    0.2458251     0.163827  88.69 0.0009556265    2.949    0.661
       249  -8.2084    135.6801    132.6531   8.6707603124e+01   2.8615290723e+01    0.4974179    0.1200307 -43.81  0.001414139    4.364    0.771
       250  -7.4787    159.5004     34.4764   5.2808751474e+01   4.0989646866e+01    0.1488198    0.1396158 -51.08 2.687045e-05    1.015    0.015
       251  -9.1655    132.0421    131.3784   8.7292787576e+01   2.9570048949e+01    0.3686301    0.3394365  23.71  0.002087013    1.132    0.116
       252 -10.9112     70.2334    126.3909   1.0280391593e+02   4.1250126852e+01    0.7808149    0.6406221 -17.32  0.001544748    1.666    0.400
       253 -10.1533     58.1825    124.5235   1.0605425201e+02   4.3352934492e+01    0.6967685    0.3682995  72.49  0.002225217    2.631    0.620
       254  -9.9159     98.4500    128.5197   9.5259115327e+01   3.6299830405e+01     0.624437    0.3731183  76.18  0.002268091    2.830    0.647
       255  -8.5518    126.0937    129.3468   8.8291168396e+01   3.1123310183e+01    0.2040421    0.1853519  53.56 0.0006634732    1.102    0.093
       256  -9.7850    111.9698     89.2097   8.1882825551e+01   4.2659961029e+01    0.9797727    0.5940425  21.20  0.003595104    2.875    0.652
       257 -10.4497    139.4100    103.7223   7.8841638656e+01   3.3787061157e+01      1.15486    0.3516376 -47.97  0.003443413    3.533    0.717
       258  -9.1849    146.2151    123.0470   8.2092524786e+01   2.8487740021e+01    0.3460073    0.2990309  52.42 0.0002328321    1.202    0.168
       259  -9.9841    140.4617    118.2132   8.2269325984e+01   3.0619403493e+01      0.67485    0.3368968 -45.61   0.00119485    1.979    0.495
